Data from Uncirc_1981_H10_HRD10591_00084.txt Node
Date: Wed Jan 03 12:33:24 EST 2024
User: Yrep
Spectrometer: HR+D1059
Trigger mode: 1
Integration Time (sec): 1.000000E-1
Scans to average: 1
Electric dark correction enabled: true
Nonlinearity correction enabled: false
Boxcar width: 0
XAxis mode: Wavelengths
Number of Pixels in Spectrum: 2048
>>>>>Begin Spectral Data<<<<<
223.165	-16.12
223.4	-16.12
223.635	-16.12
223.869	-23.12
224.104	-12.12
224.338	-22.12
224.573	-26.12
224.808	-12.12
225.042	-13.12
225.277	-3.12
225.511	6.88
225.746	6.88
225.98	8.88
226.215	17.88
226.449	6.88
226.683	22.88
226.918	33.88
227.152	23.88
227.387	31.88
227.621	40.88
227.856	51.88
228.09	58.88
228.324	51.88
228.559	65.88
228.793	75.88
229.027	70.88
229.262	59.88
229.496	62.88
229.73	68.88
229.964	88.88
230.199	83.88
230.433	84.88
230.667	65.88
230.901	75.88
231.136	81.88
231.37	86.88
231.604	85.88
231.838	74.88
232.072	84.88
232.306	90.88
232.541	97.88
232.775	80.88
233.009	80.88
233.243	81.88
233.477	70.88
233.711	67.88
233.945	88.88
234.179	77.88
234.413	80.88
234.647	72.88
234.881	92.88
235.115	86.88
235.349	85.88
235.583	76.88
235.817	92.88
236.051	79.88
236.285	77.88
236.519	75.88
236.753	80.88
236.987	86.88
237.221	77.88
237.455	77.88
237.689	80.88
237.922	74.88
238.156	82.88
238.39	67.88
238.624	73.88
238.858	70.88
239.091	69.88
239.325	72.88
239.559	84.88
239.793	91.88
240.027	85.88
240.26	81.88
240.494	86.88
240.728	77.88
240.961	66.88
241.195	68.88
241.429	85.88
241.662	85.88
241.896	65.88
242.13	52.88
242.363	76.88
242.597	89.88
242.83	75.88
243.064	82.88
243.298	79.88
243.531	66.88
243.765	82.88
243.998	86.88
244.232	84.88
244.465	76.88
244.699	78.88
244.932	75.88
245.166	84.88
245.399	71.88
245.633	80.88
245.866	93.88
246.099	77.88
246.333	77.88
246.566	76.88
246.8	82.88
247.033	81.88
247.266	71.88
247.5	89.88
247.733	61.88
247.966	80.88
248.2	77.88
248.433	84.88
248.666	80.88
248.899	89.88
249.133	70.88
249.366	96.88
249.599	85.88
249.832	78.88
250.066	88.88
250.299	82.88
250.532	92.88
250.765	77.88
250.998	85.88
251.231	81.88
251.465	96.88
251.698	85.88
251.931	80.88
252.164	87.88
252.397	92.88
252.63	86.88
252.863	74.88
253.096	91.88
253.329	89.88
253.562	82.88
253.795	89.88
254.028	70.88
254.261	70.88
254.494	80.88
254.727	84.88
254.96	72.88
255.193	85.88
255.426	83.88
255.659	82.88
255.892	83.88
256.124	81.88
256.357	77.88
256.59	82.88
256.823	80.88
257.056	89.88
257.289	93.88
257.521	79.88
257.754	79.88
257.987	92.88
258.22	74.88
258.452	75.88
258.685	82.88
258.918	62.88
259.151	77.88
259.383	92.88
259.616	81.88
259.849	90.88
260.081	91.88
260.314	90.88
260.547	89.88
260.779	77.88
261.012	83.88
261.244	85.88
261.477	92.88
261.71	82.88
261.942	111.88
262.175	101.88
262.407	97.88
262.64	86.88
262.872	82.88
263.105	73.88
263.337	77.88
263.57	77.88
263.802	83.88
264.035	81.88
264.267	84.88
264.499	74.88
264.732	89.88
264.964	91.88
265.197	82.88
265.429	84.88
265.661	86.88
265.894	77.88
266.126	66.88
266.358	72.88
266.591	91.88
266.823	87.88
267.055	84.88
267.287	77.88
267.52	87.88
267.752	80.88
267.984	82.88
268.216	89.88
268.448	100.88
268.681	99.88
268.913	80.88
269.145	88.88
269.377	92.88
269.609	82.88
269.841	87.88
270.073	85.88
270.306	85.88
270.538	81.88
270.77	88.88
271.002	93.88
271.234	92.88
271.466	78.88
271.698	98.88
271.93	77.88
272.162	81.88
272.394	77.88
272.626	65.88
272.858	74.88
273.09	82.88
273.322	89.88
273.553	81.88
273.785	105.88
274.017	93.88
274.249	92.88
274.481	67.88
274.713	82.88
274.945	90.88
275.176	90.88
275.408	87.88
275.64	73.88
275.872	77.88
276.104	81.88
276.335	92.88
276.567	105.88
276.799	109.88
277.031	103.88
277.262	76.88
277.494	81.88
277.726	96.88
277.957	85.88
278.189	77.88
278.421	79.88
278.652	84.88
278.884	94.88
279.115	72.88
279.347	80.88
279.579	81.88
279.81	88.88
280.042	89.88
280.273	83.88
280.505	83.88
280.736	83.88
280.968	81.88
281.199	93.88
281.431	93.88
281.662	80.88
281.894	70.88
282.125	96.88
282.356	90.88
282.588	117.88
282.819	100.88
283.051	80.88
283.282	89.88
283.513	85.88
283.745	99.88
283.976	93.88
284.207	70.88
284.439	82.88
284.67	90.88
284.901	93.88
285.132	84.88
285.364	97.88
285.595	99.88
285.826	78.88
286.057	92.88
286.288	92.88
286.52	83.88
286.751	82.88
286.982	85.88
287.213	90.88
287.444	74.88
287.675	95.88
287.906	90.88
288.138	83.88
288.369	94.88
288.6	90.88
288.831	86.88
289.062	76.88
289.293	92.88
289.524	84.88
289.755	80.88
289.986	77.88
290.217	101.88
290.448	85.88
290.679	95.88
290.91	96.88
291.141	77.88
291.371	98.88
291.602	84.88
291.833	100.88
292.064	99.88
292.295	92.88
292.526	71.88
292.757	75.88
292.987	95.88
293.218	76.88
293.449	88.88
293.68	80.88
293.91	92.88
294.141	86.88
294.372	88.88
294.603	90.88
294.833	93.88
295.064	97.88
295.295	98.88
295.525	98.88
295.756	101.88
295.987	108.88
296.217	107.88
296.448	106.88
296.679	94.88
296.909	88.88
297.14	97.88
297.37	77.88
297.601	86.88
297.831	90.88
298.062	105.88
298.292	83.88
298.523	84.88
298.753	92.88
298.984	90.88
299.214	84.88
299.445	82.88
299.675	86.88
299.905	90.88
300.136	95.88
300.366	103.88
300.597	86.88
300.827	97.88
301.057	74.88
301.288	105.88
301.518	92.88
301.748	87.88
301.979	87.88
302.209	92.88
302.439	86.88
302.669	84.88
302.9	84.88
303.13	80.88
303.36	95.88
303.59	100.88
303.82	96.88
304.051	98.88
304.281	77.88
304.511	107.88
304.741	97.88
304.971	93.88
305.201	85.88
305.431	90.88
305.661	92.88
305.891	88.88
306.121	86.88
306.352	100.88
306.582	102.88
306.812	101.88
307.042	93.88
307.272	88.88
307.502	84.88
307.731	94.88
307.961	92.88
308.191	84.88
308.421	81.88
308.651	88.88
308.881	77.88
309.111	86.88
309.341	91.88
309.571	90.88
309.8	92.88
310.03	92.88
310.26	97.88
310.49	98.88
310.72	85.88
310.949	87.88
311.179	96.88
311.409	98.88
311.639	98.88
311.868	102.88
312.098	99.88
312.328	81.88
312.557	97.88
312.787	107.88
313.017	98.88
313.246	103.88
313.476	97.88
313.706	83.88
313.935	105.88
314.165	99.88
314.394	99.88
314.624	86.88
314.853	94.88
315.083	76.88
315.312	88.88
315.542	92.88
315.771	85.88
316.001	91.88
316.23	97.88
316.46	77.88
316.689	98.88
316.919	92.88
317.148	89.88
317.377	89.88
317.607	103.88
317.836	89.88
318.065	97.88
318.295	93.88
318.524	82.88
318.753	97.88
318.983	101.88
319.212	96.88
319.441	110.88
319.67	107.88
319.9	87.88
320.129	97.88
320.358	93.88
320.587	83.88
320.816	108.88
321.046	88.88
321.275	93.88
321.504	103.88
321.733	95.88
321.962	95.88
322.191	94.88
322.42	93.88
322.649	104.88
322.878	116.88
323.108	109.88
323.337	116.88
323.566	121.88
323.795	138.88
324.024	188.88
324.253	337.88
324.482	720.88
324.71	1514.88
324.939	1967.88
325.168	702.88
325.397	214.88
325.626	147.88
325.855	133.88
326.084	124.88
326.313	131.88
326.542	136.88
326.77	219.88
326.999	427.88
327.228	859.88
327.457	1560.88
327.686	1229.88
327.914	343.88
328.143	163.88
328.372	146.88
328.6	129.88
328.829	119.88
329.058	120.88
329.287	107.88
329.515	104.88
329.744	96.88
329.972	106.88
330.201	115.88
330.43	114.88
330.658	113.88
330.887	109.88
331.115	113.88
331.344	98.88
331.572	104.88
331.801	86.88
332.03	104.88
332.258	101.88
332.486	90.88
332.715	102.88
332.943	83.88
333.172	87.88
333.4	96.88
333.629	104.88
333.857	95.88
334.085	114.88
334.314	107.88
334.542	125.88
334.771	127.88
334.999	100.88
335.227	103.88
335.455	89.88
335.684	88.88
335.912	101.88
336.14	93.88
336.369	103.88
336.597	101.88
336.825	94.88
337.053	103.88
337.281	88.88
337.51	94.88
337.738	85.88
337.966	88.88
338.194	92.88
338.422	101.88
338.65	81.88
338.878	81.88
339.106	92.88
339.334	97.88
339.562	104.88
339.79	100.88
340.018	85.88
340.246	90.88
340.474	89.88
340.702	99.88
340.93	89.88
341.158	80.88
341.386	96.88
341.614	94.88
341.842	88.88
342.07	89.88
342.298	88.88
342.526	103.88
342.754	106.88
342.981	98.88
343.209	98.88
343.437	96.88
343.665	104.88
343.893	93.88
344.12	102.88
344.348	85.88
344.576	92.88
344.804	85.88
345.031	88.88
345.259	87.88
345.487	93.88
345.714	85.88
345.942	109.88
346.17	94.88
346.397	90.88
346.625	92.88
346.853	90.88
347.08	101.88
347.308	92.88
347.535	82.88
347.763	106.88
347.99	101.88
348.218	103.88
348.445	108.88
348.673	85.88
348.9	83.88
349.128	83.88
349.355	103.88
349.583	84.88
349.81	89.88
350.037	93.88
350.265	96.88
350.492	101.88
350.72	83.88
350.947	98.88
351.174	104.88
351.402	108.88
351.629	109.88
351.856	106.88
352.083	102.88
352.311	124.88
352.538	101.88
352.765	106.88
352.992	113.88
353.22	104.88
353.447	109.88
353.674	98.88
353.901	99.88
354.128	97.88
354.355	96.88
354.583	102.88
354.81	94.88
355.037	100.88
355.264	105.88
355.491	93.88
355.718	82.88
355.945	89.88
356.172	99.88
356.399	99.88
356.626	100.88
356.853	104.88
357.08	105.88
357.307	90.88
357.534	101.88
357.761	96.88
357.988	104.88
358.215	102.88
358.441	94.88
358.668	93.88
358.895	96.88
359.122	101.88
359.349	83.88
359.576	83.88
359.802	87.88
360.029	96.88
360.256	107.88
360.483	100.88
360.709	96.88
360.936	96.88
361.163	82.88
361.39	87.88
361.616	100.88
361.843	99.88
362.07	93.88
362.296	101.88
362.523	84.88
362.749	94.88
362.976	88.88
363.203	92.88
363.429	71.88
363.656	76.88
363.882	80.88
364.109	87.88
364.335	96.88
364.562	108.88
364.788	85.88
365.015	101.88
365.241	106.88
365.468	107.88
365.694	94.88
365.92	99.88
366.147	89.88
366.373	94.88
366.599	82.88
366.826	90.88
367.052	85.88
367.278	94.88
367.505	72.88
367.731	89.88
367.957	86.88
368.184	85.88
368.41	96.88
368.636	92.88
368.862	101.88
369.089	103.88
369.315	97.88
369.541	91.88
369.767	99.88
369.993	105.88
370.219	76.88
370.445	85.88
370.672	90.88
370.898	88.88
371.124	99.88
371.35	85.88
371.576	84.88
371.802	80.88
372.028	100.88
372.254	98.88
372.48	81.88
372.706	87.88
372.932	86.88
373.158	85.88
373.384	96.88
373.61	98.88
373.835	97.88
374.061	82.88
374.287	104.88
374.513	93.88
374.739	96.88
374.965	85.88
375.191	88.88
375.416	90.88
375.642	91.88
375.868	90.88
376.094	89.88
376.319	92.88
376.545	98.88
376.771	106.88
376.997	86.88
377.222	98.88
377.448	73.88
377.674	85.88
377.899	89.88
378.125	102.88
378.35	84.88
378.576	92.88
378.802	101.88
379.027	106.88
379.253	90.88
379.478	100.88
379.704	91.88
379.929	99.88
380.155	97.88
380.38	100.88
380.606	101.88
380.831	97.88
381.057	92.88
381.282	86.88
381.507	97.88
381.733	81.88
381.958	86.88
382.184	89.88
382.409	107.88
382.634	93.88
382.86	104.88
383.085	102.88
383.31	120.88
383.535	92.88
383.761	99.88
383.986	99.88
384.211	87.88
384.436	101.88
384.662	88.88
384.887	107.88
385.112	112.88
385.337	97.88
385.562	104.88
385.787	84.88
386.013	105.88
386.238	100.88
386.463	106.88
386.688	110.88
386.913	105.88
387.138	113.88
387.363	90.88
387.588	96.88
387.813	89.88
388.038	97.88
388.263	103.88
388.488	108.88
388.713	102.88
388.938	101.88
389.163	84.88
389.387	103.88
389.612	94.88
389.837	91.88
390.062	106.88
390.287	105.88
390.512	98.88
390.736	96.88
390.961	93.88
391.186	104.88
391.411	97.88
391.636	100.88
391.86	80.88
392.085	83.88
392.31	89.88
392.534	85.88
392.759	72.88
392.984	90.88
393.208	95.88
393.433	83.88
393.658	85.88
393.882	82.88
394.107	76.88
394.331	90.88
394.556	92.88
394.78	83.88
395.005	107.88
395.229	91.88
395.454	85.88
395.678	83.88
395.903	74.88
396.127	97.88
396.352	89.88
396.576	84.88
396.801	82.88
397.025	89.88
397.249	98.88
397.474	83.88
397.698	91.88
397.922	92.88
398.147	97.88
398.371	97.88
398.595	100.88
398.82	83.88
399.044	83.88
399.268	91.88
399.492	85.88
399.717	92.88
399.941	86.88
400.165	104.88
400.389	86.88
400.613	90.88
400.837	77.88
401.062	83.88
401.286	84.88
401.51	84.88
401.734	92.88
401.958	81.88
402.182	110.88
402.406	133.88
402.63	100.88
402.854	78.88
403.078	93.88
403.302	80.88
403.526	104.88
403.75	101.88
403.974	88.88
404.198	100.88
404.422	83.88
404.645	90.88
404.869	106.88
405.093	97.88
405.317	92.88
405.541	93.88
405.765	100.88
405.988	122.88
406.212	134.88
406.436	185.88
406.66	121.88
406.883	102.88
407.107	95.88
407.331	93.88
407.555	95.88
407.778	92.88
408.002	80.88
408.226	86.88
408.449	83.88
408.673	86.88
408.896	102.88
409.12	100.88
409.344	96.88
409.567	88.88
409.791	76.88
410.014	100.88
410.238	92.88
410.461	87.88
410.685	107.88
410.908	77.88
411.132	80.88
411.355	84.88
411.578	89.88
411.802	88.88
412.025	90.88
412.249	91.88
412.472	98.88
412.695	89.88
412.919	89.88
413.142	99.88
413.365	77.88
413.589	87.88
413.812	98.88
414.035	98.88
414.258	100.88
414.482	103.88
414.705	98.88
414.928	87.88
415.151	98.88
415.374	77.88
415.597	96.88
415.821	99.88
416.044	82.88
416.267	74.88
416.49	83.88
416.713	77.88
416.936	90.88
417.159	81.88
417.382	84.88
417.605	92.88
417.828	85.88
418.051	94.88
418.274	96.88
418.497	78.88
418.72	77.88
418.943	78.88
419.166	82.88
419.389	91.88
419.611	84.88
419.834	84.88
420.057	94.88
420.28	70.88
420.503	80.88
420.726	93.88
420.948	80.88
421.171	93.88
421.394	93.88
421.617	103.88
421.839	95.88
422.062	82.88
422.285	102.88
422.507	101.88
422.73	107.88
422.953	96.88
423.175	91.88
423.398	88.88
423.621	93.88
423.843	88.88
424.066	84.88
424.288	92.88
424.511	85.88
424.733	92.88
424.956	103.88
425.178	91.88
425.401	104.88
425.623	77.88
425.846	92.88
426.068	82.88
426.291	82.88
426.513	94.88
426.735	103.88
426.958	101.88
427.18	93.88
427.402	117.88
427.625	118.88
427.847	120.88
428.069	94.88
428.292	91.88
428.514	107.88
428.736	97.88
428.958	91.88
429.181	76.88
429.403	74.88
429.625	91.88
429.847	74.88
430.069	98.88
430.292	84.88
430.514	86.88
430.736	77.88
430.958	84.88
431.18	92.88
431.402	76.88
431.624	88.88
431.846	76.88
432.068	79.88
432.29	84.88
432.512	99.88
432.734	99.88
432.956	91.88
433.178	97.88
433.4	91.88
433.622	92.88
433.844	81.88
434.066	92.88
434.287	93.88
434.509	98.88
434.731	88.88
434.953	93.88
435.175	82.88
435.397	90.88
435.618	93.88
435.84	107.88
436.062	112.88
436.284	103.88
436.505	96.88
436.727	102.88
436.949	95.88
437.17	86.88
437.392	92.88
437.614	86.88
437.835	105.88
438.057	99.88
438.278	92.88
438.5	92.88
438.721	127.88
438.943	103.88
439.165	92.88
439.386	88.88
439.608	96.88
439.829	96.88
440.05	122.88
440.272	118.88
440.493	95.88
440.715	94.88
440.936	90.88
441.158	84.88
441.379	92.88
441.6	100.88
441.822	91.88
442.043	90.88
442.264	89.88
442.486	91.88
442.707	86.88
442.928	95.88
443.149	122.88
443.371	105.88
443.592	110.88
443.813	101.88
444.034	96.88
444.255	86.88
444.476	80.88
444.698	93.88
444.919	80.88
445.14	138.88
445.361	125.88
445.582	110.88
445.803	137.88
446.024	113.88
446.245	114.88
446.466	106.88
446.687	82.88
446.908	98.88
447.129	73.88
447.35	74.88
447.571	96.88
447.792	90.88
448.013	89.88
448.234	99.88
448.455	98.88
448.675	87.88
448.896	99.88
449.117	100.88
449.338	88.88
449.559	130.88
449.779	107.88
450	79.88
450.221	95.88
450.442	68.88
450.662	81.88
450.883	98.88
451.104	110.88
451.324	90.88
451.545	81.88
451.766	81.88
451.986	85.88
452.207	91.88
452.428	91.88
452.648	83.88
452.869	101.88
453.089	90.88
453.31	107.88
453.53	96.88
453.751	93.88
453.971	88.88
454.192	107.88
454.412	96.88
454.633	72.88
454.853	82.88
455.073	75.88
455.294	71.88
455.514	96.88
455.734	86.88
455.955	95.88
456.175	70.88
456.395	82.88
456.616	90.88
456.836	94.88
457.056	81.88
457.276	95.88
457.497	85.88
457.717	92.88
457.937	80.88
458.157	90.88
458.377	78.88
458.598	91.88
458.818	116.88
459.038	132.88
459.258	101.88
459.478	96.88
459.698	97.88
459.918	97.88
460.138	81.88
460.358	84.88
460.578	81.88
460.798	86.88
461.018	84.88
461.238	82.88
461.458	93.88
461.678	83.88
461.898	83.88
462.118	73.88
462.338	88.88
462.558	88.88
462.777	92.88
462.997	82.88
463.217	91.88
463.437	90.88
463.657	96.88
463.876	106.88
464.096	98.88
464.316	83.88
464.536	94.88
464.755	77.88
464.975	106.88
465.195	127.88
465.414	116.88
465.634	103.88
465.854	89.88
466.073	85.88
466.293	78.88
466.512	80.88
466.732	80.88
466.951	89.88
467.171	96.88
467.391	99.88
467.61	111.88
467.829	85.88
468.049	89.88
468.268	88.88
468.488	77.88
468.707	87.88
468.927	93.88
469.146	92.88
469.365	82.88
469.585	96.88
469.804	105.88
470.023	93.88
470.243	83.88
470.462	97.88
470.681	97.88
470.901	88.88
471.12	83.88
471.339	85.88
471.558	97.88
471.777	93.88
471.997	99.88
472.216	88.88
472.435	132.88
472.654	85.88
472.873	85.88
473.092	93.88
473.311	81.88
473.53	93.88
473.749	94.88
473.968	89.88
474.187	90.88
474.406	99.88
474.625	75.88
474.844	90.88
475.063	93.88
475.282	71.88
475.501	64.88
475.72	88.88
475.939	85.88
476.158	84.88
476.377	85.88
476.596	95.88
476.814	96.88
477.033	96.88
477.252	98.88
477.471	91.88
477.69	77.88
477.908	98.88
478.127	93.88
478.346	89.88
478.564	85.88
478.783	86.88
479.002	85.88
479.22	80.88
479.439	91.88
479.658	88.88
479.876	83.88
480.095	91.88
480.313	97.88
480.532	102.88
480.751	99.88
480.969	103.88
481.188	157.88
481.406	126.88
481.624	89.88
481.843	86.88
482.061	96.88
482.28	83.88
482.498	81.88
482.717	94.88
482.935	97.88
483.153	74.88
483.372	98.88
483.59	90.88
483.808	86.88
484.027	92.88
484.245	92.88
484.463	85.88
484.681	94.88
484.9	93.88
485.118	100.88
485.336	86.88
485.554	100.88
485.772	107.88
485.99	99.88
486.209	97.88
486.427	98.88
486.645	103.88
486.863	102.88
487.081	86.88
487.299	99.88
487.517	83.88
487.735	88.88
487.953	92.88
488.171	110.88
488.389	91.88
488.607	110.88
488.825	86.88
489.043	83.88
489.261	83.88
489.479	89.88
489.696	105.88
489.914	96.88
490.132	90.88
490.35	86.88
490.568	91.88
490.786	84.88
491.003	86.88
491.221	78.88
491.439	94.88
491.657	95.88
491.874	104.88
492.092	92.88
492.31	94.88
492.527	93.88
492.745	107.88
492.963	105.88
493.18	99.88
493.398	102.88
493.615	101.88
493.833	92.88
494.05	96.88
494.268	89.88
494.485	96.88
494.703	78.88
494.92	84.88
495.138	90.88
495.355	84.88
495.573	70.88
495.79	78.88
496.008	98.88
496.225	94.88
496.442	89.88
496.66	95.88
496.877	94.88
497.094	76.88
497.312	94.88
497.529	92.88
497.746	87.88
497.963	97.88
498.181	89.88
498.398	104.88
498.615	99.88
498.832	88.88
499.049	80.88
499.267	92.88
499.484	88.88
499.701	94.88
499.918	105.88
500.135	92.88
500.352	90.88
500.569	86.88
500.786	101.88
501.003	91.88
501.22	99.88
501.437	95.88
501.654	83.88
501.871	87.88
502.088	101.88
502.305	100.88
502.522	84.88
502.739	82.88
502.956	93.88
503.172	90.88
503.389	81.88
503.606	110.88
503.823	109.88
504.04	94.88
504.256	86.88
504.473	85.88
504.69	90.88
504.907	77.88
505.123	92.88
505.34	78.88
505.557	105.88
505.773	85.88
505.99	88.88
506.207	82.88
506.423	97.88
506.64	105.88
506.856	81.88
507.073	78.88
507.289	88.88
507.506	83.88
507.722	98.88
507.939	117.88
508.155	88.88
508.372	79.88
508.588	98.88
508.805	94.88
509.021	103.88
509.238	103.88
509.454	100.88
509.67	95.88
509.887	97.88
510.103	106.88
510.319	196.88
510.536	587.88
510.752	1715.88
510.968	480.88
511.184	131.88
511.401	96.88
511.617	93.88
511.833	83.88
512.049	93.88
512.265	85.88
512.481	87.88
512.698	93.88
512.914	97.88
513.13	98.88
513.346	93.88
513.562	103.88
513.778	85.88
513.994	99.88
514.21	97.88
514.426	102.88
514.642	111.88
514.858	115.88
515.074	141.88
515.29	325.88
515.506	982.88
515.721	363.88
515.937	116.88
516.153	95.88
