Data from Uncirc_1981_H10_HRD10591_00093.txt Node
Date: Wed Jan 03 12:33:26 EST 2024
User: Yrep
Spectrometer: HR+D1059
Trigger mode: 1
Integration Time (sec): 1.000000E-1
Scans to average: 1
Electric dark correction enabled: true
Nonlinearity correction enabled: false
Boxcar width: 0
XAxis mode: Wavelengths
Number of Pixels in Spectrum: 2048
>>>>>Begin Spectral Data<<<<<
223.165	-22.25
223.4	-22.25
223.635	-22.25
223.869	-25.25
224.104	-26.25
224.338	-21.25
224.573	-11.25
224.808	-2.25
225.042	-14.25
225.277	3.75
225.511	6.75
225.746	-10.25
225.98	5.75
226.215	17.75
226.449	32.75
226.683	14.75
226.918	25.75
227.152	25.75
227.387	43.75
227.621	33.75
227.856	48.75
228.09	30.75
228.324	35.75
228.559	66.75
228.793	56.75
229.027	60.75
229.262	73.75
229.496	79.75
229.73	74.75
229.964	72.75
230.199	71.75
230.433	77.75
230.667	82.75
230.901	86.75
231.136	71.75
231.37	57.75
231.604	59.75
231.838	76.75
232.072	80.75
232.306	76.75
232.541	72.75
232.775	88.75
233.009	79.75
233.243	70.75
233.477	75.75
233.711	92.75
233.945	82.75
234.179	63.75
234.413	73.75
234.647	69.75
234.881	89.75
235.115	68.75
235.349	81.75
235.583	76.75
235.817	67.75
236.051	84.75
236.285	72.75
236.519	74.75
236.753	88.75
236.987	78.75
237.221	75.75
237.455	85.75
237.689	78.75
237.922	58.75
238.156	78.75
238.39	59.75
238.624	76.75
238.858	71.75
239.091	63.75
239.325	79.75
239.559	67.75
239.793	74.75
240.027	79.75
240.26	70.75
240.494	67.75
240.728	80.75
240.961	75.75
241.195	60.75
241.429	82.75
241.662	64.75
241.896	87.75
242.13	81.75
242.363	82.75
242.597	69.75
242.83	73.75
243.064	80.75
243.298	75.75
243.531	81.75
243.765	80.75
243.998	68.75
244.232	84.75
244.465	76.75
244.699	75.75
244.932	69.75
245.166	85.75
245.399	75.75
245.633	71.75
245.866	79.75
246.099	80.75
246.333	80.75
246.566	79.75
246.8	62.75
247.033	82.75
247.266	66.75
247.5	84.75
247.733	73.75
247.966	77.75
248.2	80.75
248.433	78.75
248.666	88.75
248.899	81.75
249.133	88.75
249.366	96.75
249.599	91.75
249.832	79.75
250.066	80.75
250.299	89.75
250.532	84.75
250.765	73.75
250.998	64.75
251.231	78.75
251.465	81.75
251.698	86.75
251.931	71.75
252.164	67.75
252.397	81.75
252.63	78.75
252.863	99.75
253.096	89.75
253.329	75.75
253.562	73.75
253.795	81.75
254.028	91.75
254.261	83.75
254.494	77.75
254.727	77.75
254.96	85.75
255.193	79.75
255.426	105.75
255.659	88.75
255.892	74.75
256.124	82.75
256.357	92.75
256.59	84.75
256.823	69.75
257.056	83.75
257.289	71.75
257.521	71.75
257.754	87.75
257.987	74.75
258.22	78.75
258.452	81.75
258.685	90.75
258.918	82.75
259.151	79.75
259.383	81.75
259.616	85.75
259.849	88.75
260.081	80.75
260.314	85.75
260.547	86.75
260.779	92.75
261.012	78.75
261.244	81.75
261.477	82.75
261.71	90.75
261.942	113.75
262.175	103.75
262.407	80.75
262.64	74.75
262.872	84.75
263.105	78.75
263.337	83.75
263.57	80.75
263.802	68.75
264.035	82.75
264.267	96.75
264.499	82.75
264.732	83.75
264.964	93.75
265.197	79.75
265.429	82.75
265.661	71.75
265.894	78.75
266.126	90.75
266.358	87.75
266.591	76.75
266.823	87.75
267.055	76.75
267.287	84.75
267.52	86.75
267.752	71.75
267.984	84.75
268.216	75.75
268.448	86.75
268.681	78.75
268.913	73.75
269.145	81.75
269.377	76.75
269.609	80.75
269.841	90.75
270.073	78.75
270.306	88.75
270.538	81.75
270.77	74.75
271.002	82.75
271.234	87.75
271.466	93.75
271.698	96.75
271.93	72.75
272.162	80.75
272.394	73.75
272.626	85.75
272.858	71.75
273.09	82.75
273.322	80.75
273.553	87.75
273.785	83.75
274.017	81.75
274.249	79.75
274.481	80.75
274.713	91.75
274.945	88.75
275.176	88.75
275.408	92.75
275.64	74.75
275.872	70.75
276.104	85.75
276.335	92.75
276.567	92.75
276.799	101.75
277.031	102.75
277.262	89.75
277.494	78.75
277.726	89.75
277.957	82.75
278.189	95.75
278.421	87.75
278.652	70.75
278.884	87.75
279.115	82.75
279.347	76.75
279.579	74.75
279.81	81.75
280.042	74.75
280.273	69.75
280.505	87.75
280.736	90.75
280.968	97.75
281.199	87.75
281.431	87.75
281.662	83.75
281.894	85.75
282.125	82.75
282.356	105.75
282.588	118.75
282.819	107.75
283.051	97.75
283.282	82.75
283.513	78.75
283.745	74.75
283.976	84.75
284.207	90.75
284.439	89.75
284.67	85.75
284.901	84.75
285.132	69.75
285.364	86.75
285.595	99.75
285.826	84.75
286.057	90.75
286.288	88.75
286.52	94.75
286.751	70.75
286.982	74.75
287.213	96.75
287.444	80.75
287.675	74.75
287.906	88.75
288.138	97.75
288.369	91.75
288.6	95.75
288.831	87.75
289.062	87.75
289.293	79.75
289.524	72.75
289.755	78.75
289.986	87.75
290.217	86.75
290.448	80.75
290.679	94.75
290.91	85.75
291.141	83.75
291.371	82.75
291.602	92.75
291.833	82.75
292.064	86.75
292.295	83.75
292.526	110.75
292.757	96.75
292.987	94.75
293.218	74.75
293.449	86.75
293.68	84.75
293.91	82.75
294.141	81.75
294.372	84.75
294.603	94.75
294.833	76.75
295.064	96.75
295.295	90.75
295.525	93.75
295.756	90.75
295.987	102.75
296.217	112.75
296.448	103.75
296.679	86.75
296.909	89.75
297.14	100.75
297.37	96.75
297.601	94.75
297.831	89.75
298.062	97.75
298.292	79.75
298.523	80.75
298.753	90.75
298.984	71.75
299.214	84.75
299.445	94.75
299.675	82.75
299.905	96.75
300.136	84.75
300.366	84.75
300.597	85.75
300.827	96.75
301.057	99.75
301.288	79.75
301.518	74.75
301.748	87.75
301.979	106.75
302.209	77.75
302.439	92.75
302.669	92.75
302.9	87.75
303.13	98.75
303.36	83.75
303.59	98.75
303.82	105.75
304.051	94.75
304.281	89.75
304.511	109.75
304.741	85.75
304.971	83.75
305.201	106.75
305.431	80.75
305.661	90.75
305.891	88.75
306.121	86.75
306.352	99.75
306.582	84.75
306.812	85.75
307.042	84.75
307.272	96.75
307.502	103.75
307.731	94.75
307.961	94.75
308.191	85.75
308.421	95.75
308.651	82.75
308.881	88.75
309.111	93.75
309.341	90.75
309.571	87.75
309.8	93.75
310.03	78.75
310.26	92.75
310.49	87.75
310.72	93.75
310.949	93.75
311.179	103.75
311.409	95.75
311.639	94.75
311.868	83.75
312.098	93.75
312.328	90.75
312.557	98.75
312.787	107.75
313.017	81.75
313.246	85.75
313.476	83.75
313.706	82.75
313.935	92.75
314.165	94.75
314.394	92.75
314.624	96.75
314.853	94.75
315.083	81.75
315.312	99.75
315.542	78.75
315.771	93.75
316.001	102.75
316.23	92.75
316.46	80.75
316.689	90.75
316.919	92.75
317.148	85.75
317.377	92.75
317.607	80.75
317.836	82.75
318.065	102.75
318.295	88.75
318.524	84.75
318.753	87.75
318.983	86.75
319.212	85.75
319.441	104.75
319.67	78.75
319.9	81.75
320.129	103.75
320.358	83.75
320.587	94.75
320.816	91.75
321.046	100.75
321.275	85.75
321.504	81.75
321.733	92.75
321.962	98.75
322.191	103.75
322.42	100.75
322.649	102.75
322.878	99.75
323.108	102.75
323.337	113.75
323.566	134.75
323.795	142.75
324.024	167.75
324.253	350.75
324.482	745.75
324.71	1564.75
324.939	2102.75
325.168	762.75
325.397	239.75
325.626	160.75
325.855	115.75
326.084	123.75
326.313	130.75
326.542	152.75
326.77	203.75
326.999	459.75
327.228	906.75
327.457	1650.75
327.686	1329.75
327.914	345.75
328.143	189.75
328.372	139.75
328.6	113.75
328.829	92.75
329.058	113.75
329.287	103.75
329.515	96.75
329.744	96.75
329.972	100.75
330.201	102.75
330.43	112.75
330.658	99.75
330.887	108.75
331.115	102.75
331.344	96.75
331.572	97.75
331.801	92.75
332.03	92.75
332.258	87.75
332.486	86.75
332.715	83.75
332.943	85.75
333.172	98.75
333.4	101.75
333.629	99.75
333.857	103.75
334.085	97.75
334.314	107.75
334.542	119.75
334.771	120.75
334.999	98.75
335.227	86.75
335.455	89.75
335.684	91.75
335.912	86.75
336.14	88.75
336.369	98.75
336.597	118.75
336.825	90.75
337.053	92.75
337.281	94.75
337.51	81.75
337.738	99.75
337.966	86.75
338.194	87.75
338.422	98.75
338.65	94.75
338.878	82.75
339.106	90.75
339.334	97.75
339.562	88.75
339.79	101.75
340.018	88.75
340.246	108.75
340.474	98.75
340.702	84.75
340.93	92.75
341.158	102.75
341.386	100.75
341.614	84.75
341.842	90.75
342.07	79.75
342.298	86.75
342.526	84.75
342.754	90.75
342.981	88.75
343.209	78.75
343.437	99.75
343.665	92.75
343.893	104.75
344.12	91.75
344.348	96.75
344.576	77.75
344.804	80.75
345.031	94.75
345.259	93.75
345.487	84.75
345.714	95.75
345.942	97.75
346.17	93.75
346.397	84.75
346.625	91.75
346.853	94.75
347.08	84.75
347.308	101.75
347.535	86.75
347.763	100.75
347.99	96.75
348.218	90.75
348.445	100.75
348.673	102.75
348.9	93.75
349.128	102.75
349.355	87.75
349.583	99.75
349.81	107.75
350.037	96.75
350.265	88.75
350.492	86.75
350.72	94.75
350.947	91.75
351.174	96.75
351.402	123.75
351.629	103.75
351.856	95.75
352.083	97.75
352.311	99.75
352.538	93.75
352.765	106.75
352.992	110.75
353.22	117.75
353.447	82.75
353.674	106.75
353.901	104.75
354.128	102.75
354.355	97.75
354.583	94.75
354.81	87.75
355.037	98.75
355.264	89.75
355.491	95.75
355.718	86.75
355.945	94.75
356.172	107.75
356.399	80.75
356.626	106.75
356.853	85.75
357.08	95.75
357.307	97.75
357.534	96.75
357.761	95.75
357.988	97.75
358.215	85.75
358.441	96.75
358.668	90.75
358.895	72.75
359.122	102.75
359.349	94.75
359.576	80.75
359.802	81.75
360.029	104.75
360.256	108.75
360.483	113.75
360.709	92.75
360.936	98.75
361.163	76.75
361.39	75.75
361.616	102.75
361.843	102.75
362.07	105.75
362.296	100.75
362.523	84.75
362.749	83.75
362.976	70.75
363.203	93.75
363.429	102.75
363.656	94.75
363.882	91.75
364.109	88.75
364.335	91.75
364.562	85.75
364.788	83.75
365.015	90.75
365.241	94.75
365.468	98.75
365.694	99.75
365.92	90.75
366.147	98.75
366.373	91.75
366.599	89.75
366.826	81.75
367.052	93.75
367.278	90.75
367.505	90.75
367.731	96.75
367.957	80.75
368.184	87.75
368.41	85.75
368.636	104.75
368.862	115.75
369.089	115.75
369.315	92.75
369.541	89.75
369.767	79.75
369.993	86.75
370.219	86.75
370.445	97.75
370.672	75.75
370.898	87.75
371.124	94.75
371.35	94.75
371.576	90.75
371.802	88.75
372.028	89.75
372.254	94.75
372.48	90.75
372.706	91.75
372.932	80.75
373.158	97.75
373.384	100.75
373.61	75.75
373.835	97.75
374.061	89.75
374.287	73.75
374.513	91.75
374.739	82.75
374.965	79.75
375.191	117.75
375.416	87.75
375.642	93.75
375.868	91.75
376.094	94.75
376.319	80.75
376.545	83.75
376.771	85.75
376.997	77.75
377.222	95.75
377.448	98.75
377.674	76.75
377.899	94.75
378.125	85.75
378.35	94.75
378.576	84.75
378.802	87.75
379.027	99.75
379.253	89.75
379.478	94.75
379.704	101.75
379.929	94.75
380.155	86.75
380.38	78.75
380.606	82.75
380.831	82.75
381.057	100.75
381.282	107.75
381.507	99.75
381.733	102.75
381.958	99.75
382.184	100.75
382.409	101.75
382.634	105.75
382.86	100.75
383.085	97.75
383.31	91.75
383.535	96.75
383.761	95.75
383.986	102.75
384.211	106.75
384.436	96.75
384.662	105.75
384.887	95.75
385.112	95.75
385.337	111.75
385.562	91.75
385.787	92.75
386.013	115.75
386.238	103.75
386.463	95.75
386.688	93.75
386.913	97.75
387.138	91.75
387.363	92.75
387.588	100.75
387.813	95.75
388.038	102.75
388.263	100.75
388.488	103.75
388.713	91.75
388.938	90.75
389.163	96.75
389.387	100.75
389.612	92.75
389.837	84.75
390.062	91.75
390.287	96.75
390.512	90.75
390.736	82.75
390.961	89.75
391.186	87.75
391.411	113.75
391.636	90.75
391.86	89.75
392.085	80.75
392.31	82.75
392.534	99.75
392.759	91.75
392.984	97.75
393.208	86.75
393.433	75.75
393.658	86.75
393.882	85.75
394.107	95.75
394.331	76.75
394.556	86.75
394.78	80.75
395.005	84.75
395.229	86.75
395.454	86.75
395.678	80.75
395.903	85.75
396.127	92.75
396.352	85.75
396.576	79.75
396.801	91.75
397.025	79.75
397.249	95.75
397.474	84.75
397.698	91.75
397.922	88.75
398.147	80.75
398.371	80.75
398.595	72.75
398.82	90.75
399.044	92.75
399.268	78.75
399.492	80.75
399.717	97.75
399.941	74.75
400.165	91.75
400.389	88.75
400.613	78.75
400.837	91.75
401.062	82.75
401.286	95.75
401.51	74.75
401.734	102.75
401.958	85.75
402.182	127.75
402.406	142.75
402.63	86.75
402.854	78.75
403.078	79.75
403.302	84.75
403.526	92.75
403.75	92.75
403.974	76.75
404.198	80.75
404.422	91.75
404.645	86.75
404.869	84.75
405.093	79.75
405.317	98.75
405.541	92.75
405.765	99.75
405.988	105.75
406.212	134.75
406.436	195.75
406.66	112.75
406.883	88.75
407.107	84.75
407.331	88.75
407.555	107.75
407.778	90.75
408.002	79.75
408.226	81.75
408.449	99.75
408.673	91.75
408.896	94.75
409.12	100.75
409.344	96.75
409.567	86.75
409.791	89.75
410.014	80.75
410.238	79.75
410.461	85.75
410.685	90.75
410.908	109.75
411.132	94.75
411.355	87.75
411.578	97.75
411.802	106.75
412.025	97.75
412.249	83.75
412.472	87.75
412.695	109.75
412.919	85.75
413.142	86.75
413.365	79.75
413.589	96.75
413.812	84.75
414.035	72.75
414.258	78.75
414.482	92.75
414.705	97.75
414.928	89.75
415.151	91.75
415.374	88.75
415.597	74.75
415.821	88.75
416.044	81.75
416.267	82.75
416.49	82.75
416.713	93.75
416.936	91.75
417.159	74.75
417.382	98.75
417.605	78.75
417.828	96.75
418.051	96.75
418.274	74.75
418.497	74.75
418.72	75.75
418.943	85.75
419.166	86.75
419.389	90.75
419.611	82.75
419.834	91.75
420.057	84.75
420.28	79.75
420.503	68.75
420.726	87.75
420.948	78.75
421.171	90.75
421.394	88.75
421.617	100.75
421.839	92.75
422.062	94.75
422.285	95.75
422.507	83.75
422.73	102.75
422.953	80.75
423.175	80.75
423.398	100.75
423.621	89.75
423.843	84.75
424.066	86.75
424.288	90.75
424.511	71.75
424.733	79.75
424.956	100.75
425.178	84.75
425.401	98.75
425.623	86.75
425.846	88.75
426.068	82.75
426.291	80.75
426.513	90.75
426.735	89.75
426.958	101.75
427.18	102.75
427.402	119.75
427.625	161.75
427.847	116.75
428.069	112.75
428.292	68.75
428.514	100.75
428.736	81.75
428.958	96.75
429.181	81.75
429.403	74.75
429.625	84.75
429.847	102.75
430.069	104.75
430.292	99.75
430.514	79.75
430.736	92.75
430.958	80.75
431.18	85.75
431.402	84.75
431.624	82.75
431.846	71.75
432.068	75.75
432.29	92.75
432.512	88.75
432.734	67.75
432.956	94.75
433.178	93.75
433.4	109.75
433.622	90.75
433.844	85.75
434.066	87.75
434.287	88.75
434.509	81.75
434.731	91.75
434.953	88.75
435.175	97.75
435.397	84.75
435.618	97.75
435.84	105.75
436.062	133.75
436.284	106.75
436.505	97.75
436.727	101.75
436.949	97.75
437.17	85.75
437.392	81.75
437.614	92.75
437.835	91.75
438.057	109.75
438.278	110.75
438.5	101.75
438.721	105.75
438.943	97.75
439.165	91.75
439.386	86.75
439.608	98.75
439.829	98.75
440.05	104.75
440.272	130.75
440.493	102.75
440.715	76.75
440.936	82.75
441.158	75.75
441.379	89.75
441.6	103.75
441.822	102.75
442.043	83.75
442.264	98.75
442.486	102.75
442.707	72.75
442.928	99.75
443.149	132.75
443.371	114.75
443.592	101.75
443.813	104.75
444.034	99.75
444.255	84.75
444.476	93.75
444.698	80.75
444.919	94.75
445.14	134.75
445.361	118.75
445.582	98.75
445.803	130.75
446.024	117.75
446.245	120.75
446.466	102.75
446.687	86.75
446.908	107.75
447.129	97.75
447.35	75.75
447.571	76.75
447.792	96.75
448.013	86.75
448.234	96.75
448.455	88.75
448.675	103.75
448.896	107.75
449.117	100.75
449.338	109.75
449.559	118.75
449.779	137.75
450	91.75
450.221	84.75
450.442	94.75
450.662	90.75
450.883	91.75
451.104	100.75
451.324	78.75
451.545	79.75
451.766	76.75
451.986	90.75
452.207	83.75
452.428	80.75
452.648	96.75
452.869	104.75
453.089	108.75
453.31	100.75
453.53	94.75
453.751	98.75
453.971	97.75
454.192	99.75
454.412	79.75
454.633	76.75
454.853	80.75
455.073	78.75
455.294	92.75
455.514	80.75
455.734	73.75
455.955	78.75
456.175	73.75
456.395	83.75
456.616	84.75
456.836	89.75
457.056	92.75
457.276	82.75
457.497	89.75
457.717	75.75
457.937	87.75
458.157	82.75
458.377	96.75
458.598	104.75
458.818	127.75
459.038	116.75
459.258	110.75
459.478	93.75
459.698	81.75
459.918	89.75
460.138	87.75
460.358	66.75
460.578	79.75
460.798	75.75
461.018	88.75
461.238	86.75
461.458	74.75
461.678	85.75
461.898	73.75
462.118	90.75
462.338	86.75
462.558	80.75
462.777	86.75
462.997	95.75
463.217	87.75
463.437	80.75
463.657	89.75
463.876	83.75
464.096	84.75
464.316	96.75
464.536	94.75
464.755	94.75
464.975	102.75
465.195	133.75
465.414	134.75
465.634	103.75
465.854	90.75
466.073	95.75
466.293	88.75
466.512	105.75
466.732	78.75
466.951	71.75
467.171	83.75
467.391	78.75
467.61	102.75
467.829	102.75
468.049	101.75
468.268	93.75
468.488	85.75
468.707	97.75
468.927	78.75
469.146	86.75
469.365	73.75
469.585	97.75
469.804	83.75
470.023	93.75
470.243	88.75
470.462	86.75
470.681	97.75
470.901	79.75
471.12	83.75
471.339	104.75
471.558	71.75
471.777	76.75
471.997	76.75
472.216	116.75
472.435	144.75
472.654	96.75
472.873	84.75
473.092	94.75
473.311	82.75
473.53	78.75
473.749	89.75
473.968	95.75
474.187	105.75
474.406	107.75
474.625	70.75
474.844	94.75
475.063	82.75
475.282	85.75
475.501	82.75
475.72	78.75
475.939	94.75
476.158	90.75
476.377	78.75
476.596	74.75
476.814	78.75
477.033	86.75
477.252	83.75
477.471	80.75
477.69	71.75
477.908	82.75
478.127	88.75
478.346	69.75
478.564	83.75
478.783	96.75
479.002	88.75
479.22	90.75
479.439	92.75
479.658	83.75
479.876	95.75
480.095	75.75
480.313	89.75
480.532	101.75
480.751	95.75
480.969	109.75
481.188	166.75
481.406	130.75
481.624	89.75
481.843	95.75
482.061	88.75
482.28	80.75
482.498	92.75
482.717	91.75
482.935	80.75
483.153	70.75
483.372	84.75
483.59	84.75
483.808	82.75
484.027	76.75
484.245	87.75
484.463	92.75
484.681	93.75
484.9	92.75
485.118	91.75
485.336	91.75
485.554	74.75
485.772	96.75
485.99	91.75
486.209	100.75
486.427	98.75
486.645	95.75
486.863	103.75
487.081	94.75
487.299	104.75
487.517	99.75
487.735	76.75
487.953	94.75
488.171	80.75
488.389	106.75
488.607	100.75
488.825	87.75
489.043	94.75
489.261	85.75
489.479	101.75
489.696	84.75
489.914	71.75
490.132	100.75
490.35	96.75
490.568	84.75
490.786	75.75
491.003	86.75
491.221	100.75
491.439	86.75
491.657	78.75
491.874	101.75
492.092	73.75
492.31	91.75
492.527	92.75
492.745	87.75
492.963	81.75
493.18	82.75
493.398	84.75
493.615	89.75
493.833	88.75
494.05	90.75
494.268	93.75
494.485	90.75
494.703	96.75
494.92	102.75
495.138	105.75
495.355	83.75
495.573	84.75
495.79	78.75
496.008	96.75
496.225	83.75
496.442	94.75
496.66	90.75
496.877	90.75
497.094	110.75
497.312	106.75
497.529	82.75
497.746	85.75
497.963	100.75
498.181	92.75
498.398	103.75
498.615	109.75
498.832	99.75
499.049	91.75
499.267	88.75
499.484	76.75
499.701	74.75
499.918	85.75
500.135	92.75
500.352	67.75
500.569	79.75
500.786	82.75
501.003	90.75
501.22	75.75
501.437	74.75
501.654	93.75
501.871	100.75
502.088	78.75
502.305	88.75
502.522	90.75
502.739	94.75
502.956	71.75
503.172	95.75
503.389	85.75
503.606	79.75
503.823	104.75
504.04	89.75
504.256	84.75
504.473	87.75
504.69	95.75
504.907	91.75
505.123	96.75
505.34	70.75
505.557	96.75
505.773	99.75
505.99	98.75
506.207	82.75
506.423	79.75
506.64	78.75
506.856	98.75
507.073	79.75
507.289	81.75
507.506	92.75
507.722	104.75
507.939	107.75
508.155	83.75
508.372	96.75
508.588	89.75
508.805	91.75
509.021	83.75
509.238	90.75
509.454	100.75
509.67	94.75
509.887	104.75
510.103	128.75
510.319	188.75
510.536	633.75
510.752	1892.75
510.968	513.75
511.184	137.75
511.401	100.75
511.617	84.75
511.833	103.75
512.049	81.75
512.265	94.75
512.481	88.75
512.698	96.75
512.914	82.75
513.13	90.75
513.346	84.75
513.562	84.75
513.778	90.75
513.994	94.75
514.21	110.75
514.426	119.75
514.642	112.75
514.858	115.75
515.074	147.75
515.29	336.75
515.506	1131.75
515.721	403.75
515.937	118.75
516.153	110.75
516.369	88.75
516.585	83.75
