Data from Uncirc_1981_H10_HRD10591_00077.txt Node
Date: Wed Jan 03 12:33:23 EST 2024
User: Yrep
Spectrometer: HR+D1059
Trigger mode: 1
Integration Time (sec): 1.000000E-1
Scans to average: 1
Electric dark correction enabled: true
Nonlinearity correction enabled: false
Boxcar width: 0
XAxis mode: Wavelengths
Number of Pixels in Spectrum: 2048
>>>>>Begin Spectral Data<<<<<
223.165	-16.06
223.4	-16.06
223.635	-16.06
223.869	-27.06
224.104	-24.06
224.338	-22.06
224.573	3.94
224.808	-1.06
225.042	-7.06
225.277	-12.06
225.511	-15.06
225.746	8.94
225.98	18.94
226.215	17.94
226.449	8.94
226.683	10.94
226.918	27.94
227.152	26.94
227.387	38.94
227.621	31.94
227.856	40.94
228.09	58.94
228.324	48.94
228.559	59.94
228.793	68.94
229.027	63.94
229.262	70.94
229.496	60.94
229.73	70.94
229.964	76.94
230.199	62.94
230.433	83.94
230.667	78.94
230.901	80.94
231.136	69.94
231.37	102.94
231.604	65.94
231.838	82.94
232.072	75.94
232.306	88.94
232.541	70.94
232.775	73.94
233.009	84.94
233.243	58.94
233.477	70.94
233.711	75.94
233.945	76.94
234.179	69.94
234.413	74.94
234.647	78.94
234.881	66.94
235.115	70.94
235.349	83.94
235.583	77.94
235.817	67.94
236.051	82.94
236.285	82.94
236.519	77.94
236.753	66.94
236.987	74.94
237.221	73.94
237.455	81.94
237.689	71.94
237.922	71.94
238.156	75.94
238.39	79.94
238.624	73.94
238.858	71.94
239.091	67.94
239.325	73.94
239.559	83.94
239.793	75.94
240.027	83.94
240.26	68.94
240.494	84.94
240.728	94.94
240.961	68.94
241.195	70.94
241.429	83.94
241.662	94.94
241.896	78.94
242.13	71.94
242.363	80.94
242.597	86.94
242.83	64.94
243.064	74.94
243.298	83.94
243.531	70.94
243.765	69.94
243.998	74.94
244.232	59.94
244.465	64.94
244.699	87.94
244.932	73.94
245.166	86.94
245.399	78.94
245.633	79.94
245.866	82.94
246.099	76.94
246.333	73.94
246.566	70.94
246.8	83.94
247.033	71.94
247.266	74.94
247.5	67.94
247.733	66.94
247.966	57.94
248.2	74.94
248.433	74.94
248.666	79.94
248.899	87.94
249.133	82.94
249.366	99.94
249.599	87.94
249.832	79.94
250.066	85.94
250.299	83.94
250.532	80.94
250.765	80.94
250.998	79.94
251.231	75.94
251.465	79.94
251.698	85.94
251.931	77.94
252.164	76.94
252.397	87.94
252.63	65.94
252.863	78.94
253.096	70.94
253.329	70.94
253.562	82.94
253.795	76.94
254.028	90.94
254.261	82.94
254.494	85.94
254.727	68.94
254.96	83.94
255.193	94.94
255.426	91.94
255.659	82.94
255.892	78.94
256.124	88.94
256.357	82.94
256.59	80.94
256.823	73.94
257.056	83.94
257.289	98.94
257.521	79.94
257.754	76.94
257.987	83.94
258.22	96.94
258.452	77.94
258.685	74.94
258.918	76.94
259.151	75.94
259.383	81.94
259.616	81.94
259.849	97.94
260.081	99.94
260.314	78.94
260.547	78.94
260.779	86.94
261.012	66.94
261.244	93.94
261.477	89.94
261.71	87.94
261.942	109.94
262.175	114.94
262.407	83.94
262.64	78.94
262.872	78.94
263.105	102.94
263.337	89.94
263.57	95.94
263.802	87.94
264.035	80.94
264.267	70.94
264.499	75.94
264.732	86.94
264.964	72.94
265.197	91.94
265.429	85.94
265.661	84.94
265.894	86.94
266.126	90.94
266.358	69.94
266.591	78.94
266.823	71.94
267.055	88.94
267.287	90.94
267.52	84.94
267.752	78.94
267.984	70.94
268.216	87.94
268.448	88.94
268.681	79.94
268.913	92.94
269.145	80.94
269.377	79.94
269.609	83.94
269.841	79.94
270.073	74.94
270.306	78.94
270.538	74.94
270.77	82.94
271.002	73.94
271.234	73.94
271.466	92.94
271.698	86.94
271.93	96.94
272.162	88.94
272.394	83.94
272.626	79.94
272.858	86.94
273.09	81.94
273.322	100.94
273.553	94.94
273.785	90.94
274.017	82.94
274.249	86.94
274.481	84.94
274.713	79.94
274.945	74.94
275.176	73.94
275.408	96.94
275.64	84.94
275.872	63.94
276.104	78.94
276.335	83.94
276.567	93.94
276.799	94.94
277.031	82.94
277.262	92.94
277.494	82.94
277.726	96.94
277.957	79.94
278.189	85.94
278.421	78.94
278.652	71.94
278.884	72.94
279.115	80.94
279.347	78.94
279.579	89.94
279.81	92.94
280.042	103.94
280.273	100.94
280.505	75.94
280.736	75.94
280.968	75.94
281.199	83.94
281.431	94.94
281.662	93.94
281.894	87.94
282.125	81.94
282.356	108.94
282.588	119.94
282.819	87.94
283.051	92.94
283.282	90.94
283.513	84.94
283.745	80.94
283.976	94.94
284.207	98.94
284.439	88.94
284.67	71.94
284.901	87.94
285.132	89.94
285.364	81.94
285.595	78.94
285.826	90.94
286.057	90.94
286.288	91.94
286.52	97.94
286.751	84.94
286.982	96.94
287.213	90.94
287.444	100.94
287.675	100.94
287.906	94.94
288.138	81.94
288.369	102.94
288.6	96.94
288.831	82.94
289.062	94.94
289.293	98.94
289.524	103.94
289.755	78.94
289.986	88.94
290.217	87.94
290.448	61.94
290.679	86.94
290.91	93.94
291.141	78.94
291.371	73.94
291.602	90.94
291.833	95.94
292.064	100.94
292.295	83.94
292.526	97.94
292.757	97.94
292.987	62.94
293.218	91.94
293.449	82.94
293.68	92.94
293.91	81.94
294.141	89.94
294.372	84.94
294.603	87.94
294.833	88.94
295.064	82.94
295.295	89.94
295.525	92.94
295.756	96.94
295.987	107.94
296.217	115.94
296.448	113.94
296.679	92.94
296.909	94.94
297.14	68.94
297.37	84.94
297.601	91.94
297.831	97.94
298.062	84.94
298.292	84.94
298.523	80.94
298.753	78.94
298.984	79.94
299.214	98.94
299.445	67.94
299.675	89.94
299.905	78.94
300.136	82.94
300.366	76.94
300.597	80.94
300.827	102.94
301.057	89.94
301.288	107.94
301.518	80.94
301.748	76.94
301.979	104.94
302.209	101.94
302.439	102.94
302.669	76.94
302.9	90.94
303.13	78.94
303.36	101.94
303.59	103.94
303.82	103.94
304.051	88.94
304.281	74.94
304.511	83.94
304.741	78.94
304.971	79.94
305.201	92.94
305.431	88.94
305.661	79.94
305.891	88.94
306.121	102.94
306.352	96.94
306.582	96.94
306.812	96.94
307.042	107.94
307.272	97.94
307.502	88.94
307.731	82.94
307.961	98.94
308.191	92.94
308.421	87.94
308.651	90.94
308.881	88.94
309.111	93.94
309.341	90.94
309.571	89.94
309.8	95.94
310.03	97.94
310.26	81.94
310.49	78.94
310.72	90.94
310.949	107.94
311.179	95.94
311.409	90.94
311.639	92.94
311.868	90.94
312.098	97.94
312.328	92.94
312.557	90.94
312.787	88.94
313.017	95.94
313.246	82.94
313.476	83.94
313.706	96.94
313.935	88.94
314.165	87.94
314.394	89.94
314.624	86.94
314.853	81.94
315.083	88.94
315.312	90.94
315.542	100.94
315.771	87.94
316.001	86.94
316.23	96.94
316.46	78.94
316.689	91.94
316.919	90.94
317.148	82.94
317.377	87.94
317.607	88.94
317.836	94.94
318.065	100.94
318.295	97.94
318.524	88.94
318.753	97.94
318.983	83.94
319.212	88.94
319.441	89.94
319.67	113.94
319.9	84.94
320.129	100.94
320.358	83.94
320.587	97.94
320.816	92.94
321.046	102.94
321.275	88.94
321.504	83.94
321.733	88.94
321.962	106.94
322.191	85.94
322.42	110.94
322.649	104.94
322.878	86.94
323.108	105.94
323.337	110.94
323.566	118.94
323.795	143.94
324.024	197.94
324.253	388.94
324.482	788.94
324.71	1713.94
324.939	2305.94
325.168	810.94
325.397	233.94
325.626	143.94
325.855	128.94
326.084	116.94
326.313	114.94
326.542	139.94
326.77	225.94
326.999	433.94
327.228	946.94
327.457	1758.94
327.686	1395.94
327.914	364.94
328.143	186.94
328.372	144.94
328.6	136.94
328.829	104.94
329.058	127.94
329.287	112.94
329.515	86.94
329.744	102.94
329.972	97.94
330.201	118.94
330.43	118.94
330.658	114.94
330.887	119.94
331.115	126.94
331.344	99.94
331.572	98.94
331.801	98.94
332.03	104.94
332.258	87.94
332.486	107.94
332.715	98.94
332.943	100.94
333.172	87.94
333.4	98.94
333.629	98.94
333.857	100.94
334.085	106.94
334.314	107.94
334.542	118.94
334.771	116.94
334.999	92.94
335.227	101.94
335.455	105.94
335.684	100.94
335.912	84.94
336.14	91.94
336.369	89.94
336.597	99.94
336.825	100.94
337.053	89.94
337.281	78.94
337.51	78.94
337.738	68.94
337.966	80.94
338.194	84.94
338.422	90.94
338.65	90.94
338.878	91.94
339.106	84.94
339.334	98.94
339.562	80.94
339.79	97.94
340.018	101.94
340.246	90.94
340.474	91.94
340.702	100.94
340.93	98.94
341.158	104.94
341.386	82.94
341.614	85.94
341.842	98.94
342.07	84.94
342.298	90.94
342.526	92.94
342.754	100.94
342.981	76.94
343.209	90.94
343.437	96.94
343.665	102.94
343.893	100.94
344.12	101.94
344.348	86.94
344.576	97.94
344.804	101.94
345.031	80.94
345.259	90.94
345.487	87.94
345.714	80.94
345.942	90.94
346.17	86.94
346.397	95.94
346.625	84.94
346.853	95.94
347.08	96.94
347.308	84.94
347.535	98.94
347.763	100.94
347.99	98.94
348.218	92.94
348.445	104.94
348.673	97.94
348.9	74.94
349.128	96.94
349.355	86.94
349.583	103.94
349.81	95.94
350.037	79.94
350.265	106.94
350.492	86.94
350.72	95.94
350.947	95.94
351.174	94.94
351.402	103.94
351.629	96.94
351.856	82.94
352.083	106.94
352.311	102.94
352.538	107.94
352.765	107.94
352.992	102.94
353.22	97.94
353.447	108.94
353.674	113.94
353.901	94.94
354.128	97.94
354.355	95.94
354.583	84.94
354.81	93.94
355.037	94.94
355.264	98.94
355.491	102.94
355.718	70.94
355.945	91.94
356.172	94.94
356.399	93.94
356.626	108.94
356.853	94.94
357.08	94.94
357.307	98.94
357.534	91.94
357.761	110.94
357.988	89.94
358.215	107.94
358.441	79.94
358.668	94.94
358.895	71.94
359.122	91.94
359.349	90.94
359.576	91.94
359.802	87.94
360.029	93.94
360.256	96.94
360.483	94.94
360.709	93.94
360.936	90.94
361.163	91.94
361.39	90.94
361.616	86.94
361.843	89.94
362.07	90.94
362.296	102.94
362.523	99.94
362.749	88.94
362.976	80.94
363.203	105.94
363.429	80.94
363.656	97.94
363.882	97.94
364.109	103.94
364.335	94.94
364.562	101.94
364.788	87.94
365.015	85.94
365.241	105.94
365.468	101.94
365.694	89.94
365.92	105.94
366.147	100.94
366.373	101.94
366.599	97.94
366.826	89.94
367.052	83.94
367.278	82.94
367.505	88.94
367.731	86.94
367.957	95.94
368.184	100.94
368.41	98.94
368.636	90.94
368.862	120.94
369.089	108.94
369.315	90.94
369.541	90.94
369.767	83.94
369.993	92.94
370.219	90.94
370.445	88.94
370.672	78.94
370.898	84.94
371.124	85.94
371.35	98.94
371.576	83.94
371.802	70.94
372.028	84.94
372.254	88.94
372.48	78.94
372.706	85.94
372.932	85.94
373.158	79.94
373.384	96.94
373.61	87.94
373.835	82.94
374.061	102.94
374.287	88.94
374.513	87.94
374.739	72.94
374.965	89.94
375.191	83.94
375.416	82.94
375.642	87.94
375.868	90.94
376.094	73.94
376.319	83.94
376.545	89.94
376.771	98.94
376.997	98.94
377.222	90.94
377.448	100.94
377.674	93.94
377.899	90.94
378.125	96.94
378.35	89.94
378.576	83.94
378.802	86.94
379.027	98.94
379.253	89.94
379.478	88.94
379.704	97.94
379.929	84.94
380.155	80.94
380.38	74.94
380.606	104.94
380.831	98.94
381.057	99.94
381.282	84.94
381.507	91.94
381.733	96.94
381.958	88.94
382.184	95.94
382.409	84.94
382.634	98.94
382.86	91.94
383.085	97.94
383.31	100.94
383.535	91.94
383.761	105.94
383.986	107.94
384.211	82.94
384.436	103.94
384.662	103.94
384.887	103.94
385.112	97.94
385.337	91.94
385.562	92.94
385.787	100.94
386.013	95.94
386.238	105.94
386.463	104.94
386.688	114.94
386.913	108.94
387.138	107.94
387.363	104.94
387.588	85.94
387.813	101.94
388.038	106.94
388.263	113.94
388.488	113.94
388.713	108.94
388.938	103.94
389.163	100.94
389.387	100.94
389.612	86.94
389.837	78.94
390.062	94.94
390.287	87.94
390.512	105.94
390.736	82.94
390.961	82.94
391.186	88.94
391.411	85.94
391.636	107.94
391.86	97.94
392.085	91.94
392.31	73.94
392.534	89.94
392.759	89.94
392.984	84.94
393.208	90.94
393.433	79.94
393.658	94.94
393.882	75.94
394.107	96.94
394.331	80.94
394.556	91.94
394.78	88.94
395.005	92.94
395.229	87.94
395.454	82.94
395.678	74.94
395.903	83.94
396.127	82.94
396.352	72.94
396.576	70.94
396.801	82.94
397.025	83.94
397.249	98.94
397.474	95.94
397.698	69.94
397.922	100.94
398.147	78.94
398.371	80.94
398.595	99.94
398.82	95.94
399.044	83.94
399.268	66.94
399.492	80.94
399.717	80.94
399.941	74.94
400.165	98.94
400.389	69.94
400.613	70.94
400.837	84.94
401.062	88.94
401.286	90.94
401.51	94.94
401.734	89.94
401.958	78.94
402.182	114.94
402.406	143.94
402.63	100.94
402.854	90.94
403.078	102.94
403.302	87.94
403.526	76.94
403.75	79.94
403.974	81.94
404.198	71.94
404.422	82.94
404.645	83.94
404.869	86.94
405.093	102.94
405.317	84.94
405.541	87.94
405.765	97.94
405.988	106.94
406.212	138.94
406.436	202.94
406.66	130.94
406.883	90.94
407.107	83.94
407.331	91.94
407.555	100.94
407.778	90.94
408.002	91.94
408.226	70.94
408.449	98.94
408.673	86.94
408.896	87.94
409.12	98.94
409.344	98.94
409.567	95.94
409.791	98.94
410.014	94.94
410.238	91.94
410.461	92.94
410.685	94.94
410.908	102.94
411.132	92.94
411.355	89.94
411.578	87.94
411.802	90.94
412.025	97.94
412.249	88.94
412.472	107.94
412.695	92.94
412.919	87.94
413.142	92.94
413.365	77.94
413.589	96.94
413.812	88.94
414.035	89.94
414.258	90.94
414.482	89.94
414.705	90.94
414.928	83.94
415.151	91.94
415.374	101.94
415.597	87.94
415.821	86.94
416.044	78.94
416.267	85.94
416.49	87.94
416.713	70.94
416.936	88.94
417.159	88.94
417.382	74.94
417.605	92.94
417.828	102.94
418.051	78.94
418.274	75.94
418.497	75.94
418.72	87.94
418.943	86.94
419.166	88.94
419.389	71.94
419.611	78.94
419.834	86.94
420.057	97.94
420.28	71.94
420.503	102.94
420.726	78.94
420.948	88.94
421.171	87.94
421.394	81.94
421.617	82.94
421.839	79.94
422.062	91.94
422.285	97.94
422.507	110.94
422.73	84.94
422.953	71.94
423.175	97.94
423.398	89.94
423.621	80.94
423.843	80.94
424.066	78.94
424.288	79.94
424.511	90.94
424.733	89.94
424.956	115.94
425.178	107.94
425.401	88.94
425.623	100.94
425.846	82.94
426.068	86.94
426.291	83.94
426.513	84.94
426.735	87.94
426.958	106.94
427.18	93.94
427.402	117.94
427.625	146.94
427.847	118.94
428.069	106.94
428.292	88.94
428.514	93.94
428.736	88.94
428.958	70.94
429.181	84.94
429.403	88.94
429.625	82.94
429.847	83.94
430.069	95.94
430.292	90.94
430.514	88.94
430.736	92.94
430.958	79.94
431.18	80.94
431.402	86.94
431.624	82.94
431.846	88.94
432.068	89.94
432.29	90.94
432.512	88.94
432.734	88.94
432.956	83.94
433.178	96.94
433.4	95.94
433.622	76.94
433.844	103.94
434.066	103.94
434.287	108.94
434.509	82.94
434.731	76.94
434.953	81.94
435.175	78.94
435.397	85.94
435.618	96.94
435.84	105.94
436.062	109.94
436.284	107.94
436.505	98.94
436.727	88.94
436.949	85.94
437.17	79.94
437.392	86.94
437.614	80.94
437.835	102.94
438.057	119.94
438.278	100.94
438.5	108.94
438.721	116.94
438.943	81.94
439.165	79.94
439.386	87.94
439.608	90.94
439.829	82.94
440.05	110.94
440.272	144.94
440.493	87.94
440.715	84.94
440.936	68.94
441.158	84.94
441.379	83.94
441.6	92.94
441.822	91.94
442.043	97.94
442.264	90.94
442.486	91.94
442.707	80.94
442.928	101.94
443.149	107.94
443.371	115.94
443.592	83.94
443.813	102.94
444.034	116.94
444.255	93.94
444.476	80.94
444.698	82.94
444.919	78.94
445.14	137.94
445.361	113.94
445.582	107.94
445.803	123.94
446.024	120.94
446.245	133.94
446.466	105.94
446.687	88.94
446.908	80.94
447.129	93.94
447.35	88.94
447.571	85.94
447.792	89.94
448.013	95.94
448.234	92.94
448.455	85.94
448.675	110.94
448.896	96.94
449.117	107.94
449.338	86.94
449.559	115.94
449.779	127.94
450	102.94
450.221	78.94
450.442	83.94
450.662	92.94
450.883	84.94
451.104	109.94
451.324	83.94
451.545	84.94
451.766	87.94
451.986	84.94
452.207	95.94
452.428	80.94
452.648	78.94
452.869	85.94
453.089	113.94
453.31	104.94
453.53	76.94
453.751	84.94
453.971	99.94
454.192	95.94
454.412	75.94
454.633	91.94
454.853	67.94
455.073	78.94
455.294	91.94
455.514	91.94
455.734	80.94
455.955	71.94
456.175	83.94
456.395	73.94
456.616	90.94
456.836	98.94
457.056	82.94
457.276	72.94
457.497	82.94
457.717	84.94
457.937	84.94
458.157	80.94
458.377	92.94
458.598	102.94
458.818	138.94
459.038	153.94
459.258	105.94
459.478	98.94
459.698	89.94
459.918	77.94
460.138	84.94
460.358	82.94
460.578	71.94
460.798	85.94
461.018	84.94
461.238	89.94
461.458	74.94
461.678	88.94
461.898	93.94
462.118	75.94
462.338	85.94
462.558	87.94
462.777	90.94
462.997	94.94
463.217	90.94
463.437	81.94
463.657	90.94
463.876	64.94
464.096	91.94
464.316	91.94
464.536	77.94
464.755	96.94
464.975	101.94
465.195	146.94
465.414	146.94
465.634	80.94
465.854	89.94
466.073	90.94
466.293	80.94
466.512	89.94
466.732	84.94
466.951	97.94
467.171	101.94
467.391	86.94
467.61	91.94
467.829	74.94
468.049	92.94
468.268	96.94
468.488	90.94
468.707	63.94
468.927	83.94
469.146	83.94
469.365	72.94
469.585	88.94
469.804	106.94
470.023	69.94
470.243	64.94
470.462	97.94
470.681	102.94
470.901	83.94
471.12	87.94
471.339	82.94
471.558	68.94
471.777	77.94
471.997	98.94
472.216	116.94
472.435	132.94
472.654	101.94
472.873	94.94
473.092	76.94
473.311	91.94
473.53	86.94
473.749	79.94
473.968	92.94
474.187	91.94
474.406	83.94
474.625	80.94
474.844	95.94
475.063	80.94
475.282	74.94
475.501	74.94
475.72	80.94
475.939	88.94
476.158	73.94
476.377	78.94
476.596	82.94
476.814	94.94
477.033	78.94
477.252	102.94
477.471	91.94
477.69	89.94
477.908	82.94
478.127	82.94
478.346	93.94
478.564	90.94
478.783	97.94
479.002	96.94
479.22	84.94
479.439	92.94
479.658	98.94
479.876	86.94
480.095	88.94
480.313	100.94
480.532	100.94
480.751	86.94
480.969	108.94
481.188	176.94
481.406	147.94
481.624	98.94
481.843	94.94
482.061	92.94
482.28	87.94
482.498	99.94
482.717	71.94
482.935	90.94
483.153	91.94
483.372	91.94
483.59	86.94
483.808	93.94
484.027	100.94
484.245	88.94
484.463	106.94
484.681	107.94
484.9	87.94
485.118	100.94
485.336	89.94
485.554	100.94
485.772	96.94
485.99	106.94
486.209	90.94
486.427	98.94
486.645	104.94
486.863	96.94
487.081	91.94
487.299	88.94
487.517	93.94
487.735	98.94
487.953	91.94
488.171	90.94
488.389	89.94
488.607	100.94
488.825	105.94
489.043	100.94
489.261	95.94
489.479	93.94
489.696	80.94
489.914	93.94
490.132	78.94
490.35	87.94
490.568	97.94
490.786	89.94
491.003	67.94
491.221	91.94
491.439	69.94
491.657	96.94
491.874	104.94
492.092	88.94
492.31	100.94
492.527	78.94
492.745	83.94
492.963	101.94
493.18	85.94
493.398	90.94
493.615	92.94
493.833	102.94
494.05	91.94
494.268	99.94
494.485	102.94
494.703	92.94
494.92	73.94
495.138	90.94
495.355	88.94
495.573	102.94
495.79	100.94
496.008	90.94
496.225	80.94
496.442	98.94
496.66	77.94
496.877	111.94
497.094	97.94
497.312	88.94
497.529	79.94
497.746	86.94
497.963	88.94
498.181	79.94
498.398	82.94
498.615	95.94
498.832	99.94
499.049	87.94
499.267	91.94
499.484	75.94
499.701	86.94
499.918	95.94
500.135	90.94
500.352	80.94
500.569	87.94
500.786	86.94
501.003	82.94
501.22	90.94
501.437	83.94
501.654	88.94
501.871	88.94
502.088	81.94
502.305	83.94
502.522	74.94
502.739	97.94
502.956	90.94
503.172	78.94
503.389	84.94
503.606	89.94
503.823	91.94
504.04	94.94
504.256	91.94
504.473	82.94
504.69	81.94
504.907	80.94
505.123	75.94
505.34	82.94
505.557	101.94
505.773	79.94
505.99	82.94
506.207	96.94
506.423	95.94
506.64	85.94
506.856	85.94
507.073	82.94
507.289	87.94
507.506	85.94
507.722	106.94
507.939	102.94
508.155	93.94
508.372	90.94
508.588	89.94
508.805	91.94
509.021	105.94
509.238	95.94
509.454	77.94
509.67	99.94
509.887	86.94
510.103	122.94
510.319	181.94
510.536	643.94
510.752	1874.94
510.968	540.94
511.184	140.94
511.401	98.94
511.617	81.94
511.833	97.94
512.049	84.94
512.265	82.94
512.481	81.94
512.698	89.94
512.914	102.94
513.13	99.94
513.346	96.94
513.562	92.94
513.778	91.94
513.994	102.94
514.21	93.94
514.426	107.94
514.642	117.94
514.858	113.94
515.074	138.94
515.29	379.94
515.506	1153.94
515.721	432.94
515.937	129.94
516.153	101.94
516.369	109.94
