Data from Uncirc_1981_H10_HRD10591_00026.txt Node
Date: Wed Jan 03 12:33:13 EST 2024
User: Yrep
Spectrometer: HR+D1059
Trigger mode: 1
Integration Time (sec): 1.000000E-1
Scans to average: 1
Electric dark correction enabled: true
Nonlinearity correction enabled: false
Boxcar width: 0
XAxis mode: Wavelengths
Number of Pixels in Spectrum: 2048
>>>>>Begin Spectral Data<<<<<
223.165	-24.25
223.4	-24.25
223.635	-24.25
223.869	-15.25
224.104	-16.25
224.338	-26.25
224.573	-21.25
224.808	-11.25
225.042	-6.25
225.277	1.75
225.511	-3.25
225.746	3.75
225.98	14.75
226.215	16.75
226.449	11.75
226.683	29.75
226.918	28.75
227.152	16.75
227.387	36.75
227.621	25.75
227.856	23.75
228.09	57.75
228.324	57.75
228.559	44.75
228.793	51.75
229.027	60.75
229.262	55.75
229.496	59.75
229.73	87.75
229.964	75.75
230.199	69.75
230.433	87.75
230.667	81.75
230.901	72.75
231.136	69.75
231.37	83.75
231.604	87.75
231.838	76.75
232.072	79.75
232.306	68.75
232.541	87.75
232.775	69.75
233.009	77.75
233.243	62.75
233.477	67.75
233.711	84.75
233.945	85.75
234.179	74.75
234.413	80.75
234.647	85.75
234.881	80.75
235.115	73.75
235.349	80.75
235.583	82.75
235.817	85.75
236.051	74.75
236.285	87.75
236.519	77.75
236.753	76.75
236.987	82.75
237.221	67.75
237.455	88.75
237.689	73.75
237.922	79.75
238.156	71.75
238.39	68.75
238.624	81.75
238.858	82.75
239.091	92.75
239.325	81.75
239.559	73.75
239.793	70.75
240.027	81.75
240.26	79.75
240.494	75.75
240.728	86.75
240.961	67.75
241.195	80.75
241.429	73.75
241.662	63.75
241.896	70.75
242.13	67.75
242.363	76.75
242.597	70.75
242.83	79.75
243.064	83.75
243.298	65.75
243.531	74.75
243.765	79.75
243.998	77.75
244.232	79.75
244.465	79.75
244.699	73.75
244.932	92.75
245.166	82.75
245.399	83.75
245.633	72.75
245.866	80.75
246.099	75.75
246.333	67.75
246.566	86.75
246.8	77.75
247.033	66.75
247.266	72.75
247.5	70.75
247.733	73.75
247.966	79.75
248.2	95.75
248.433	79.75
248.666	93.75
248.899	99.75
249.133	91.75
249.366	82.75
249.599	75.75
249.832	83.75
250.066	82.75
250.299	76.75
250.532	72.75
250.765	85.75
250.998	84.75
251.231	86.75
251.465	73.75
251.698	82.75
251.931	87.75
252.164	83.75
252.397	88.75
252.63	63.75
252.863	90.75
253.096	81.75
253.329	83.75
253.562	73.75
253.795	84.75
254.028	68.75
254.261	81.75
254.494	85.75
254.727	85.75
254.96	80.75
255.193	86.75
255.426	93.75
255.659	84.75
255.892	93.75
256.124	92.75
256.357	66.75
256.59	76.75
256.823	75.75
257.056	77.75
257.289	79.75
257.521	81.75
257.754	80.75
257.987	77.75
258.22	73.75
258.452	89.75
258.685	91.75
258.918	84.75
259.151	81.75
259.383	86.75
259.616	84.75
259.849	78.75
260.081	59.75
260.314	74.75
260.547	81.75
260.779	74.75
261.012	79.75
261.244	88.75
261.477	92.75
261.71	79.75
261.942	85.75
262.175	97.75
262.407	73.75
262.64	75.75
262.872	93.75
263.105	83.75
263.337	83.75
263.57	86.75
263.802	82.75
264.035	83.75
264.267	88.75
264.499	81.75
264.732	68.75
264.964	75.75
265.197	81.75
265.429	87.75
265.661	73.75
265.894	84.75
266.126	67.75
266.358	79.75
266.591	70.75
266.823	83.75
267.055	85.75
267.287	81.75
267.52	76.75
267.752	83.75
267.984	83.75
268.216	95.75
268.448	90.75
268.681	78.75
268.913	85.75
269.145	81.75
269.377	72.75
269.609	88.75
269.841	97.75
270.073	92.75
270.306	88.75
270.538	75.75
270.77	82.75
271.002	90.75
271.234	76.75
271.466	77.75
271.698	90.75
271.93	77.75
272.162	64.75
272.394	69.75
272.626	79.75
272.858	63.75
273.09	89.75
273.322	81.75
273.553	82.75
273.785	87.75
274.017	95.75
274.249	83.75
274.481	82.75
274.713	85.75
274.945	92.75
275.176	68.75
275.408	90.75
275.64	83.75
275.872	77.75
276.104	89.75
276.335	90.75
276.567	76.75
276.799	90.75
277.031	81.75
277.262	83.75
277.494	97.75
277.726	103.75
277.957	84.75
278.189	91.75
278.421	79.75
278.652	76.75
278.884	90.75
279.115	92.75
279.347	85.75
279.579	75.75
279.81	97.75
280.042	91.75
280.273	85.75
280.505	74.75
280.736	69.75
280.968	95.75
281.199	83.75
281.431	75.75
281.662	99.75
281.894	69.75
282.125	88.75
282.356	103.75
282.588	95.75
282.819	88.75
283.051	105.75
283.282	86.75
283.513	77.75
283.745	81.75
283.976	85.75
284.207	89.75
284.439	74.75
284.67	78.75
284.901	73.75
285.132	84.75
285.364	64.75
285.595	87.75
285.826	96.75
286.057	82.75
286.288	74.75
286.52	96.75
286.751	80.75
286.982	68.75
287.213	94.75
287.444	69.75
287.675	74.75
287.906	85.75
288.138	93.75
288.369	90.75
288.6	89.75
288.831	92.75
289.062	89.75
289.293	85.75
289.524	72.75
289.755	91.75
289.986	77.75
290.217	87.75
290.448	69.75
290.679	87.75
290.91	71.75
291.141	90.75
291.371	90.75
291.602	84.75
291.833	81.75
292.064	85.75
292.295	85.75
292.526	87.75
292.757	75.75
292.987	93.75
293.218	93.75
293.449	84.75
293.68	93.75
293.91	85.75
294.141	88.75
294.372	91.75
294.603	79.75
294.833	80.75
295.064	92.75
295.295	78.75
295.525	96.75
295.756	104.75
295.987	98.75
296.217	106.75
296.448	99.75
296.679	103.75
296.909	92.75
297.14	81.75
297.37	87.75
297.601	87.75
297.831	114.75
298.062	83.75
298.292	92.75
298.523	87.75
298.753	88.75
298.984	95.75
299.214	79.75
299.445	84.75
299.675	86.75
299.905	103.75
300.136	88.75
300.366	83.75
300.597	89.75
300.827	91.75
301.057	83.75
301.288	103.75
301.518	97.75
301.748	90.75
301.979	89.75
302.209	84.75
302.439	81.75
302.669	84.75
302.9	97.75
303.13	88.75
303.36	80.75
303.59	73.75
303.82	101.75
304.051	83.75
304.281	104.75
304.511	93.75
304.741	88.75
304.971	91.75
305.201	79.75
305.431	94.75
305.661	96.75
305.891	90.75
306.121	94.75
306.352	105.75
306.582	104.75
306.812	87.75
307.042	84.75
307.272	81.75
307.502	77.75
307.731	89.75
307.961	92.75
308.191	82.75
308.421	78.75
308.651	88.75
308.881	87.75
309.111	83.75
309.341	89.75
309.571	81.75
309.8	98.75
310.03	90.75
310.26	104.75
310.49	98.75
310.72	88.75
310.949	98.75
311.179	90.75
311.409	79.75
311.639	89.75
311.868	98.75
312.098	94.75
312.328	96.75
312.557	109.75
312.787	95.75
313.017	84.75
313.246	61.75
313.476	73.75
313.706	90.75
313.935	87.75
314.165	80.75
314.394	95.75
314.624	97.75
314.853	76.75
315.083	84.75
315.312	95.75
315.542	89.75
315.771	88.75
316.001	84.75
316.23	87.75
316.46	91.75
316.689	89.75
316.919	90.75
317.148	87.75
317.377	95.75
317.607	93.75
317.836	84.75
318.065	84.75
318.295	94.75
318.524	79.75
318.753	98.75
318.983	97.75
319.212	94.75
319.441	96.75
319.67	94.75
319.9	87.75
320.129	84.75
320.358	90.75
320.587	86.75
320.816	89.75
321.046	87.75
321.275	87.75
321.504	91.75
321.733	82.75
321.962	99.75
322.191	100.75
322.42	99.75
322.649	97.75
322.878	99.75
323.108	108.75
323.337	114.75
323.566	126.75
323.795	128.75
324.024	167.75
324.253	302.75
324.482	632.75
324.71	1280.75
324.939	1645.75
325.168	609.75
325.397	185.75
325.626	123.75
325.855	120.75
326.084	116.75
326.313	122.75
326.542	125.75
326.77	179.75
326.999	347.75
327.228	746.75
327.457	1330.75
327.686	1053.75
327.914	312.75
328.143	145.75
328.372	135.75
328.6	109.75
328.829	102.75
329.058	103.75
329.287	104.75
329.515	97.75
329.744	98.75
329.972	92.75
330.201	108.75
330.43	109.75
330.658	98.75
330.887	110.75
331.115	102.75
331.344	82.75
331.572	90.75
331.801	92.75
332.03	97.75
332.258	96.75
332.486	77.75
332.715	98.75
332.943	91.75
333.172	94.75
333.4	83.75
333.629	93.75
333.857	106.75
334.085	97.75
334.314	99.75
334.542	103.75
334.771	119.75
334.999	88.75
335.227	92.75
335.455	85.75
335.684	105.75
335.912	93.75
336.14	80.75
336.369	83.75
336.597	90.75
336.825	97.75
337.053	93.75
337.281	83.75
337.51	83.75
337.738	72.75
337.966	85.75
338.194	100.75
338.422	78.75
338.65	82.75
338.878	99.75
339.106	87.75
339.334	88.75
339.562	82.75
339.79	86.75
340.018	81.75
340.246	76.75
340.474	89.75
340.702	71.75
340.93	87.75
341.158	91.75
341.386	96.75
341.614	96.75
341.842	104.75
342.07	87.75
342.298	74.75
342.526	90.75
342.754	91.75
342.981	82.75
343.209	80.75
343.437	82.75
343.665	79.75
343.893	99.75
344.12	81.75
344.348	92.75
344.576	81.75
344.804	93.75
345.031	95.75
345.259	92.75
345.487	87.75
345.714	91.75
345.942	90.75
346.17	99.75
346.397	113.75
346.625	100.75
346.853	95.75
347.08	95.75
347.308	89.75
347.535	109.75
347.763	86.75
347.99	86.75
348.218	72.75
348.445	96.75
348.673	92.75
348.9	108.75
349.128	93.75
349.355	96.75
349.583	105.75
349.81	88.75
350.037	93.75
350.265	95.75
350.492	84.75
350.72	84.75
350.947	100.75
351.174	89.75
351.402	84.75
351.629	90.75
351.856	101.75
352.083	92.75
352.311	103.75
352.538	89.75
352.765	96.75
352.992	112.75
353.22	106.75
353.447	91.75
353.674	104.75
353.901	96.75
354.128	101.75
354.355	99.75
354.583	106.75
354.81	100.75
355.037	95.75
355.264	90.75
355.491	89.75
355.718	88.75
355.945	78.75
356.172	83.75
356.399	96.75
356.626	104.75
356.853	97.75
357.08	97.75
357.307	104.75
357.534	99.75
357.761	90.75
357.988	93.75
358.215	96.75
358.441	87.75
358.668	95.75
358.895	99.75
359.122	82.75
359.349	70.75
359.576	79.75
359.802	70.75
360.029	89.75
360.256	92.75
360.483	94.75
360.709	97.75
360.936	90.75
361.163	83.75
361.39	88.75
361.616	74.75
361.843	88.75
362.07	76.75
362.296	90.75
362.523	74.75
362.749	82.75
362.976	93.75
363.203	85.75
363.429	76.75
363.656	100.75
363.882	79.75
364.109	98.75
364.335	91.75
364.562	88.75
364.788	87.75
365.015	88.75
365.241	74.75
365.468	99.75
365.694	91.75
365.92	79.75
366.147	100.75
366.373	84.75
366.599	76.75
366.826	100.75
367.052	96.75
367.278	85.75
367.505	81.75
367.731	91.75
367.957	81.75
368.184	91.75
368.41	92.75
368.636	100.75
368.862	100.75
369.089	84.75
369.315	73.75
369.541	69.75
369.767	96.75
369.993	88.75
370.219	91.75
370.445	76.75
370.672	86.75
370.898	75.75
371.124	109.75
371.35	91.75
371.576	90.75
371.802	88.75
372.028	80.75
372.254	91.75
372.48	98.75
372.706	96.75
372.932	90.75
373.158	78.75
373.384	94.75
373.61	80.75
373.835	89.75
374.061	84.75
374.287	83.75
374.513	96.75
374.739	69.75
374.965	82.75
375.191	92.75
375.416	93.75
375.642	98.75
375.868	79.75
376.094	93.75
376.319	73.75
376.545	87.75
376.771	73.75
376.997	94.75
377.222	102.75
377.448	91.75
377.674	79.75
377.899	74.75
378.125	99.75
378.35	104.75
378.576	104.75
378.802	92.75
379.027	87.75
379.253	96.75
379.478	103.75
379.704	99.75
379.929	88.75
380.155	97.75
380.38	84.75
380.606	95.75
380.831	82.75
381.057	110.75
381.282	92.75
381.507	92.75
381.733	101.75
381.958	97.75
382.184	105.75
382.409	99.75
382.634	105.75
382.86	100.75
383.085	80.75
383.31	97.75
383.535	100.75
383.761	99.75
383.986	104.75
384.211	97.75
384.436	118.75
384.662	107.75
384.887	105.75
385.112	107.75
385.337	112.75
385.562	117.75
385.787	87.75
386.013	112.75
386.238	119.75
386.463	101.75
386.688	126.75
386.913	126.75
387.138	120.75
387.363	108.75
387.588	94.75
387.813	98.75
388.038	113.75
388.263	126.75
388.488	122.75
388.713	103.75
388.938	97.75
389.163	107.75
389.387	107.75
389.612	91.75
389.837	88.75
390.062	89.75
390.287	96.75
390.512	81.75
390.736	87.75
390.961	87.75
391.186	85.75
391.411	91.75
391.636	92.75
391.86	87.75
392.085	100.75
392.31	88.75
392.534	88.75
392.759	82.75
392.984	82.75
393.208	91.75
393.433	82.75
393.658	95.75
393.882	84.75
394.107	85.75
394.331	78.75
394.556	92.75
394.78	92.75
395.005	72.75
395.229	85.75
395.454	93.75
395.678	89.75
395.903	88.75
396.127	94.75
396.352	79.75
396.576	93.75
396.801	79.75
397.025	79.75
397.249	92.75
397.474	85.75
397.698	100.75
397.922	95.75
398.147	87.75
398.371	86.75
398.595	82.75
398.82	84.75
399.044	86.75
399.268	81.75
399.492	81.75
399.717	92.75
399.941	84.75
400.165	77.75
400.389	89.75
400.613	83.75
400.837	77.75
401.062	95.75
401.286	95.75
401.51	85.75
401.734	71.75
401.958	93.75
402.182	103.75
402.406	129.75
402.63	99.75
402.854	83.75
403.078	93.75
403.302	78.75
403.526	71.75
403.75	83.75
403.974	90.75
404.198	73.75
404.422	75.75
404.645	78.75
404.869	75.75
405.093	88.75
405.317	97.75
405.541	87.75
405.765	81.75
405.988	90.75
406.212	120.75
406.436	158.75
406.66	114.75
406.883	99.75
407.107	72.75
407.331	91.75
407.555	93.75
407.778	86.75
408.002	104.75
408.226	97.75
408.449	88.75
408.673	90.75
408.896	87.75
409.12	87.75
409.344	91.75
409.567	89.75
409.791	102.75
410.014	93.75
410.238	105.75
410.461	87.75
410.685	84.75
410.908	92.75
411.132	105.75
411.355	103.75
411.578	97.75
411.802	86.75
412.025	73.75
412.249	96.75
412.472	96.75
412.695	94.75
412.919	90.75
413.142	97.75
413.365	77.75
413.589	84.75
413.812	83.75
414.035	86.75
414.258	91.75
414.482	88.75
414.705	87.75
414.928	91.75
415.151	83.75
415.374	88.75
415.597	71.75
415.821	84.75
416.044	70.75
416.267	92.75
416.49	94.75
416.713	95.75
416.936	102.75
417.159	85.75
417.382	77.75
417.605	77.75
417.828	105.75
418.051	82.75
418.274	79.75
418.497	82.75
418.72	89.75
418.943	83.75
419.166	95.75
419.389	104.75
419.611	91.75
419.834	98.75
420.057	89.75
420.28	93.75
420.503	86.75
420.726	85.75
420.948	96.75
421.171	92.75
421.394	93.75
421.617	90.75
421.839	88.75
422.062	81.75
422.285	87.75
422.507	87.75
422.73	97.75
422.953	74.75
423.175	75.75
423.398	96.75
423.621	77.75
423.843	89.75
424.066	84.75
424.288	98.75
424.511	83.75
424.733	87.75
424.956	85.75
425.178	79.75
425.401	103.75
425.623	88.75
425.846	86.75
426.068	92.75
426.291	82.75
426.513	94.75
426.735	79.75
426.958	91.75
427.18	101.75
427.402	117.75
427.625	129.75
427.847	119.75
428.069	97.75
428.292	92.75
428.514	75.75
428.736	99.75
428.958	71.75
429.181	75.75
429.403	91.75
429.625	83.75
429.847	82.75
430.069	103.75
430.292	84.75
430.514	85.75
430.736	87.75
430.958	74.75
431.18	77.75
431.402	91.75
431.624	80.75
431.846	85.75
432.068	90.75
432.29	93.75
432.512	81.75
432.734	89.75
432.956	92.75
433.178	96.75
433.4	109.75
433.622	85.75
433.844	94.75
434.066	82.75
434.287	89.75
434.509	92.75
434.731	80.75
434.953	87.75
435.175	88.75
435.397	92.75
435.618	97.75
435.84	88.75
436.062	104.75
436.284	88.75
436.505	85.75
436.727	98.75
436.949	97.75
437.17	87.75
437.392	95.75
437.614	93.75
437.835	95.75
438.057	101.75
438.278	100.75
438.5	102.75
438.721	96.75
438.943	84.75
439.165	83.75
439.386	89.75
439.608	92.75
439.829	99.75
440.05	100.75
440.272	107.75
440.493	102.75
440.715	89.75
440.936	100.75
441.158	91.75
441.379	90.75
441.6	76.75
441.822	89.75
442.043	91.75
442.264	83.75
442.486	85.75
442.707	69.75
442.928	99.75
443.149	108.75
443.371	98.75
443.592	110.75
443.813	101.75
444.034	79.75
444.255	96.75
444.476	90.75
444.698	76.75
444.919	87.75
445.14	132.75
445.361	102.75
445.582	103.75
445.803	105.75
446.024	115.75
446.245	108.75
446.466	106.75
446.687	89.75
446.908	85.75
447.129	86.75
447.35	67.75
447.571	94.75
447.792	92.75
448.013	75.75
448.234	84.75
448.455	93.75
448.675	97.75
448.896	88.75
449.117	84.75
449.338	99.75
449.559	112.75
449.779	112.75
450	78.75
450.221	86.75
450.442	76.75
450.662	104.75
450.883	82.75
451.104	97.75
451.324	88.75
451.545	89.75
451.766	100.75
451.986	81.75
452.207	74.75
452.428	89.75
452.648	87.75
452.869	93.75
453.089	91.75
453.31	90.75
453.53	73.75
453.751	89.75
453.971	85.75
454.192	100.75
454.412	87.75
454.633	81.75
454.853	81.75
455.073	74.75
455.294	85.75
455.514	87.75
455.734	81.75
455.955	83.75
456.175	95.75
456.395	78.75
456.616	59.75
456.836	95.75
457.056	86.75
457.276	83.75
457.497	85.75
457.717	71.75
457.937	77.75
458.157	73.75
458.377	85.75
458.598	94.75
458.818	119.75
459.038	120.75
459.258	97.75
459.478	95.75
459.698	77.75
459.918	95.75
460.138	67.75
460.358	83.75
460.578	74.75
460.798	87.75
461.018	81.75
461.238	91.75
461.458	85.75
461.678	74.75
461.898	87.75
462.118	88.75
462.338	83.75
462.558	84.75
462.777	89.75
462.997	73.75
463.217	71.75
463.437	85.75
463.657	86.75
463.876	79.75
464.096	68.75
464.316	83.75
464.536	97.75
464.755	81.75
464.975	106.75
465.195	136.75
465.414	117.75
465.634	88.75
465.854	79.75
466.073	83.75
466.293	90.75
466.512	85.75
466.732	81.75
466.951	90.75
467.171	91.75
467.391	94.75
467.61	88.75
467.829	88.75
468.049	94.75
468.268	88.75
468.488	94.75
468.707	74.75
468.927	71.75
469.146	97.75
469.365	88.75
469.585	76.75
469.804	98.75
470.023	91.75
470.243	104.75
470.462	93.75
470.681	106.75
470.901	67.75
471.12	91.75
471.339	99.75
471.558	89.75
471.777	89.75
471.997	85.75
472.216	89.75
472.435	116.75
472.654	90.75
472.873	96.75
473.092	67.75
473.311	68.75
473.53	79.75
473.749	94.75
473.968	88.75
474.187	103.75
474.406	69.75
474.625	85.75
474.844	80.75
475.063	101.75
475.282	95.75
475.501	77.75
475.72	78.75
475.939	84.75
476.158	81.75
476.377	83.75
476.596	90.75
476.814	83.75
477.033	91.75
477.252	86.75
477.471	72.75
477.69	86.75
477.908	73.75
478.127	84.75
478.346	77.75
478.564	76.75
478.783	89.75
479.002	92.75
479.22	81.75
479.439	92.75
479.658	93.75
479.876	92.75
480.095	84.75
480.313	80.75
480.532	97.75
480.751	83.75
480.969	109.75
481.188	136.75
481.406	108.75
481.624	77.75
481.843	91.75
482.061	76.75
482.28	88.75
482.498	81.75
482.717	74.75
482.935	79.75
483.153	92.75
483.372	77.75
483.59	80.75
483.808	83.75
484.027	100.75
484.245	87.75
484.463	95.75
484.681	96.75
484.9	84.75
485.118	83.75
485.336	73.75
485.554	97.75
485.772	88.75
485.99	109.75
486.209	94.75
486.427	103.75
486.645	91.75
486.863	103.75
487.081	97.75
487.299	98.75
487.517	107.75
487.735	88.75
487.953	91.75
488.171	94.75
488.389	99.75
488.607	87.75
488.825	99.75
489.043	90.75
489.261	79.75
489.479	92.75
489.696	87.75
489.914	89.75
490.132	81.75
490.35	82.75
490.568	86.75
490.786	90.75
491.003	81.75
491.221	83.75
491.439	92.75
491.657	94.75
491.874	84.75
492.092	96.75
492.31	96.75
492.527	77.75
492.745	87.75
492.963	86.75
493.18	86.75
493.398	95.75
493.615	91.75
493.833	102.75
494.05	86.75
494.268	92.75
494.485	86.75
494.703	88.75
494.92	83.75
495.138	88.75
495.355	100.75
495.573	96.75
495.79	87.75
496.008	92.75
496.225	92.75
496.442	96.75
496.66	92.75
496.877	103.75
497.094	96.75
497.312	77.75
497.529	105.75
497.746	90.75
497.963	90.75
498.181	81.75
498.398	91.75
498.615	101.75
498.832	85.75
499.049	102.75
499.267	97.75
499.484	81.75
499.701	97.75
499.918	86.75
500.135	91.75
500.352	90.75
500.569	70.75
500.786	98.75
501.003	93.75
501.22	89.75
501.437	95.75
501.654	92.75
501.871	80.75
502.088	75.75
502.305	93.75
502.522	79.75
502.739	95.75
502.956	89.75
503.172	86.75
503.389	94.75
503.606	95.75
503.823	90.75
504.04	93.75
504.256	87.75
504.473	79.75
504.69	107.75
504.907	97.75
505.123	88.75
505.34	83.75
505.557	85.75
505.773	93.75
505.99	88.75
506.207	93.75
506.423	85.75
506.64	92.75
506.856	91.75
507.073	88.75
507.289	81.75
507.506	85.75
507.722	97.75
507.939	93.75
508.155	83.75
508.372	79.75
508.588	80.75
508.805	87.75
509.021	90.75
509.238	109.75
509.454	99.75
509.67	97.75
509.887	95.75
510.103	112.75
510.319	162.75
510.536	451.75
510.752	1241.75
510.968	379.75
511.184	121.75
511.401	95.75
511.617	97.75
511.833	95.75
512.049	89.75
512.265	81.75
512.481	91.75
512.698	70.75
512.914	87.75
513.13	89.75
513.346	92.75
513.562	90.75
513.778	96.75
513.994	88.75
514.21	87.75
514.426	98.75
514.642	108.75
514.858	111.75
515.074	128.75
515.29	264.75
515.506	737.75
515.721	305.75
515.937	114.75
516.153	94.75
516.369	95.75
516.585	90.75
516.801	91.75
517.016	91.75
517.232	98.75
517.448	99.75
