Data from Uncirc_1981_H10_HRD10591_00049.txt Node
Date: Wed Jan 03 12:33:17 EST 2024
User: Yrep
Spectrometer: HR+D1059
Trigger mode: 1
Integration Time (sec): 1.000000E-1
Scans to average: 1
Electric dark correction enabled: true
Nonlinearity correction enabled: false
Boxcar width: 0
XAxis mode: Wavelengths
Number of Pixels in Spectrum: 2048
>>>>>Begin Spectral Data<<<<<
223.165	-14.88
223.4	-14.88
223.635	-14.88
223.869	-3.88
224.104	-31.88
224.338	-9.88
224.573	-2.88
224.808	-13.88
225.042	-5.88
225.277	-5.88
225.511	9.12
225.746	-1.88
225.98	5.12
226.215	14.12
226.449	7.12
226.683	16.12
226.918	15.12
227.152	24.12
227.387	38.12
227.621	29.12
227.856	38.12
228.09	46.12
228.324	67.12
228.559	61.12
228.793	62.12
229.027	74.12
229.262	76.12
229.496	87.12
229.73	79.12
229.964	69.12
230.199	77.12
230.433	75.12
230.667	73.12
230.901	79.12
231.136	81.12
231.37	94.12
231.604	88.12
231.838	84.12
232.072	75.12
232.306	88.12
232.541	73.12
232.775	86.12
233.009	67.12
233.243	66.12
233.477	84.12
233.711	84.12
233.945	70.12
234.179	90.12
234.413	85.12
234.647	90.12
234.881	78.12
235.115	87.12
235.349	71.12
235.583	81.12
235.817	78.12
236.051	91.12
236.285	87.12
236.519	71.12
236.753	85.12
236.987	75.12
237.221	84.12
237.455	84.12
237.689	69.12
237.922	69.12
238.156	60.12
238.39	63.12
238.624	78.12
238.858	85.12
239.091	79.12
239.325	74.12
239.559	85.12
239.793	91.12
240.027	88.12
240.26	67.12
240.494	70.12
240.728	82.12
240.961	74.12
241.195	92.12
241.429	94.12
241.662	66.12
241.896	63.12
242.13	66.12
242.363	68.12
242.597	76.12
242.83	78.12
243.064	69.12
243.298	79.12
243.531	93.12
243.765	79.12
243.998	74.12
244.232	67.12
244.465	77.12
244.699	80.12
244.932	79.12
245.166	93.12
245.399	79.12
245.633	88.12
245.866	73.12
246.099	68.12
246.333	84.12
246.566	84.12
246.8	85.12
247.033	76.12
247.266	78.12
247.5	77.12
247.733	79.12
247.966	80.12
248.2	73.12
248.433	70.12
248.666	77.12
248.899	73.12
249.133	73.12
249.366	92.12
249.599	93.12
249.832	75.12
250.066	64.12
250.299	70.12
250.532	77.12
250.765	77.12
250.998	74.12
251.231	77.12
251.465	72.12
251.698	77.12
251.931	73.12
252.164	85.12
252.397	92.12
252.63	83.12
252.863	89.12
253.096	86.12
253.329	86.12
253.562	88.12
253.795	75.12
254.028	82.12
254.261	84.12
254.494	85.12
254.727	83.12
254.96	86.12
255.193	91.12
255.426	88.12
255.659	62.12
255.892	96.12
256.124	71.12
256.357	76.12
256.59	80.12
256.823	74.12
257.056	88.12
257.289	82.12
257.521	88.12
257.754	89.12
257.987	78.12
258.22	78.12
258.452	86.12
258.685	82.12
258.918	84.12
259.151	82.12
259.383	85.12
259.616	79.12
259.849	82.12
260.081	89.12
260.314	77.12
260.547	69.12
260.779	82.12
261.012	95.12
261.244	75.12
261.477	79.12
261.71	92.12
261.942	96.12
262.175	96.12
262.407	78.12
262.64	83.12
262.872	82.12
263.105	90.12
263.337	86.12
263.57	82.12
263.802	101.12
264.035	94.12
264.267	85.12
264.499	93.12
264.732	103.12
264.964	102.12
265.197	79.12
265.429	83.12
265.661	86.12
265.894	100.12
266.126	95.12
266.358	102.12
266.591	86.12
266.823	84.12
267.055	70.12
267.287	90.12
267.52	85.12
267.752	92.12
267.984	102.12
268.216	93.12
268.448	86.12
268.681	78.12
268.913	82.12
269.145	84.12
269.377	84.12
269.609	88.12
269.841	89.12
270.073	83.12
270.306	103.12
270.538	87.12
270.77	74.12
271.002	81.12
271.234	91.12
271.466	86.12
271.698	94.12
271.93	94.12
272.162	96.12
272.394	77.12
272.626	71.12
272.858	86.12
273.09	73.12
273.322	65.12
273.553	82.12
273.785	78.12
274.017	70.12
274.249	78.12
274.481	69.12
274.713	97.12
274.945	76.12
275.176	94.12
275.408	100.12
275.64	71.12
275.872	77.12
276.104	72.12
276.335	82.12
276.567	78.12
276.799	94.12
277.031	71.12
277.262	77.12
277.494	91.12
277.726	98.12
277.957	81.12
278.189	71.12
278.421	84.12
278.652	98.12
278.884	96.12
279.115	83.12
279.347	84.12
279.579	85.12
279.81	104.12
280.042	93.12
280.273	81.12
280.505	83.12
280.736	77.12
280.968	86.12
281.199	76.12
281.431	95.12
281.662	97.12
281.894	101.12
282.125	103.12
282.356	105.12
282.588	121.12
282.819	99.12
283.051	101.12
283.282	90.12
283.513	98.12
283.745	78.12
283.976	88.12
284.207	88.12
284.439	83.12
284.67	94.12
284.901	90.12
285.132	89.12
285.364	100.12
285.595	85.12
285.826	76.12
286.057	92.12
286.288	102.12
286.52	106.12
286.751	94.12
286.982	84.12
287.213	74.12
287.444	72.12
287.675	80.12
287.906	89.12
288.138	92.12
288.369	102.12
288.6	91.12
288.831	95.12
289.062	99.12
289.293	104.12
289.524	92.12
289.755	98.12
289.986	97.12
290.217	93.12
290.448	99.12
290.679	93.12
290.91	78.12
291.141	86.12
291.371	83.12
291.602	87.12
291.833	86.12
292.064	99.12
292.295	83.12
292.526	80.12
292.757	86.12
292.987	84.12
293.218	75.12
293.449	77.12
293.68	84.12
293.91	82.12
294.141	87.12
294.372	87.12
294.603	98.12
294.833	79.12
295.064	97.12
295.295	89.12
295.525	105.12
295.756	96.12
295.987	105.12
296.217	123.12
296.448	112.12
296.679	82.12
296.909	100.12
297.14	101.12
297.37	81.12
297.601	82.12
297.831	98.12
298.062	96.12
298.292	98.12
298.523	107.12
298.753	100.12
298.984	95.12
299.214	86.12
299.445	87.12
299.675	91.12
299.905	92.12
300.136	79.12
300.366	100.12
300.597	91.12
300.827	102.12
301.057	85.12
301.288	99.12
301.518	88.12
301.748	104.12
301.979	84.12
302.209	101.12
302.439	83.12
302.669	88.12
302.9	87.12
303.13	95.12
303.36	96.12
303.59	72.12
303.82	92.12
304.051	94.12
304.281	93.12
304.511	84.12
304.741	99.12
304.971	104.12
305.201	95.12
305.431	90.12
305.661	89.12
305.891	90.12
306.121	87.12
306.352	118.12
306.582	103.12
306.812	107.12
307.042	99.12
307.272	84.12
307.502	100.12
307.731	99.12
307.961	93.12
308.191	100.12
308.421	95.12
308.651	92.12
308.881	101.12
309.111	99.12
309.341	102.12
309.571	100.12
309.8	94.12
310.03	90.12
310.26	81.12
310.49	94.12
310.72	101.12
310.949	98.12
311.179	77.12
311.409	96.12
311.639	90.12
311.868	107.12
312.098	91.12
312.328	89.12
312.557	98.12
312.787	96.12
313.017	95.12
313.246	91.12
313.476	83.12
313.706	102.12
313.935	84.12
314.165	102.12
314.394	95.12
314.624	94.12
314.853	91.12
315.083	86.12
315.312	93.12
315.542	75.12
315.771	97.12
316.001	84.12
316.23	86.12
316.46	84.12
316.689	75.12
316.919	79.12
317.148	91.12
317.377	96.12
317.607	93.12
317.836	85.12
318.065	103.12
318.295	90.12
318.524	84.12
318.753	90.12
318.983	91.12
319.212	102.12
319.441	102.12
319.67	104.12
319.9	75.12
320.129	95.12
320.358	100.12
320.587	104.12
320.816	102.12
321.046	105.12
321.275	97.12
321.504	91.12
321.733	91.12
321.962	93.12
322.191	98.12
322.42	102.12
322.649	108.12
322.878	109.12
323.108	100.12
323.337	116.12
323.566	124.12
323.795	140.12
324.024	170.12
324.253	345.12
324.482	680.12
324.71	1397.12
324.939	1831.12
325.168	667.12
325.397	222.12
325.626	141.12
325.855	121.12
326.084	111.12
326.313	118.12
326.542	124.12
326.77	226.12
326.999	396.12
327.228	822.12
327.457	1474.12
327.686	1136.12
327.914	324.12
328.143	156.12
328.372	141.12
328.6	115.12
328.829	102.12
329.058	114.12
329.287	103.12
329.515	106.12
329.744	129.12
329.972	99.12
330.201	108.12
330.43	133.12
330.658	124.12
330.887	106.12
331.115	94.12
331.344	86.12
331.572	90.12
331.801	89.12
332.03	91.12
332.258	106.12
332.486	94.12
332.715	86.12
332.943	92.12
333.172	90.12
333.4	101.12
333.629	112.12
333.857	102.12
334.085	107.12
334.314	112.12
334.542	117.12
334.771	112.12
334.999	101.12
335.227	100.12
335.455	89.12
335.684	108.12
335.912	97.12
336.14	109.12
336.369	100.12
336.597	101.12
336.825	99.12
337.053	100.12
337.281	92.12
337.51	102.12
337.738	75.12
337.966	88.12
338.194	93.12
338.422	91.12
338.65	96.12
338.878	91.12
339.106	101.12
339.334	89.12
339.562	78.12
339.79	78.12
340.018	94.12
340.246	91.12
340.474	89.12
340.702	99.12
340.93	83.12
341.158	85.12
341.386	98.12
341.614	106.12
341.842	90.12
342.07	78.12
342.298	105.12
342.526	92.12
342.754	85.12
342.981	87.12
343.209	92.12
343.437	110.12
343.665	96.12
343.893	109.12
344.12	99.12
344.348	100.12
344.576	86.12
344.804	89.12
345.031	102.12
345.259	100.12
345.487	100.12
345.714	95.12
345.942	102.12
346.17	101.12
346.397	100.12
346.625	98.12
346.853	93.12
347.08	96.12
347.308	93.12
347.535	101.12
347.763	99.12
347.99	106.12
348.218	102.12
348.445	93.12
348.673	114.12
348.9	90.12
349.128	88.12
349.355	109.12
349.583	94.12
349.81	92.12
350.037	93.12
350.265	107.12
350.492	98.12
350.72	78.12
350.947	100.12
351.174	107.12
351.402	99.12
351.629	101.12
351.856	103.12
352.083	91.12
352.311	107.12
352.538	108.12
352.765	110.12
352.992	104.12
353.22	103.12
353.447	107.12
353.674	108.12
353.901	111.12
354.128	105.12
354.355	108.12
354.583	83.12
354.81	100.12
355.037	91.12
355.264	88.12
355.491	86.12
355.718	91.12
355.945	93.12
356.172	86.12
356.399	97.12
356.626	98.12
356.853	101.12
357.08	102.12
357.307	95.12
357.534	102.12
357.761	95.12
357.988	98.12
358.215	90.12
358.441	98.12
358.668	105.12
358.895	94.12
359.122	93.12
359.349	89.12
359.576	87.12
359.802	94.12
360.029	97.12
360.256	101.12
360.483	90.12
360.709	95.12
360.936	100.12
361.163	90.12
361.39	100.12
361.616	78.12
361.843	87.12
362.07	92.12
362.296	92.12
362.523	91.12
362.749	90.12
362.976	97.12
363.203	83.12
363.429	93.12
363.656	89.12
363.882	98.12
364.109	99.12
364.335	91.12
364.562	99.12
364.788	94.12
365.015	90.12
365.241	99.12
365.468	98.12
365.694	95.12
365.92	95.12
366.147	94.12
366.373	93.12
366.599	103.12
366.826	94.12
367.052	90.12
367.278	89.12
367.505	92.12
367.731	92.12
367.957	91.12
368.184	98.12
368.41	87.12
368.636	94.12
368.862	105.12
369.089	92.12
369.315	95.12
369.541	106.12
369.767	92.12
369.993	64.12
370.219	82.12
370.445	85.12
370.672	86.12
370.898	86.12
371.124	93.12
371.35	90.12
371.576	109.12
371.802	83.12
372.028	91.12
372.254	82.12
372.48	86.12
372.706	95.12
372.932	94.12
373.158	88.12
373.384	90.12
373.61	105.12
373.835	88.12
374.061	86.12
374.287	86.12
374.513	86.12
374.739	106.12
374.965	92.12
375.191	93.12
375.416	108.12
375.642	104.12
375.868	94.12
376.094	97.12
376.319	83.12
376.545	92.12
376.771	92.12
376.997	84.12
377.222	94.12
377.448	110.12
377.674	98.12
377.899	86.12
378.125	98.12
378.35	104.12
378.576	97.12
378.802	93.12
379.027	104.12
379.253	99.12
379.478	89.12
379.704	99.12
379.929	99.12
380.155	106.12
380.38	86.12
380.606	101.12
380.831	95.12
381.057	98.12
381.282	111.12
381.507	93.12
381.733	98.12
381.958	106.12
382.184	109.12
382.409	88.12
382.634	98.12
382.86	92.12
383.085	96.12
383.31	104.12
383.535	106.12
383.761	96.12
383.986	103.12
384.211	102.12
384.436	89.12
384.662	111.12
384.887	118.12
385.112	102.12
385.337	101.12
385.562	116.12
385.787	105.12
386.013	110.12
386.238	128.12
386.463	111.12
386.688	100.12
386.913	117.12
387.138	115.12
387.363	106.12
387.588	104.12
387.813	110.12
388.038	114.12
388.263	125.12
388.488	119.12
388.713	104.12
388.938	95.12
389.163	92.12
389.387	92.12
389.612	101.12
389.837	104.12
390.062	98.12
390.287	87.12
390.512	89.12
390.736	102.12
390.961	86.12
391.186	117.12
391.411	102.12
391.636	95.12
391.86	92.12
392.085	74.12
392.31	77.12
392.534	88.12
392.759	89.12
392.984	79.12
393.208	103.12
393.433	94.12
393.658	101.12
393.882	92.12
394.107	85.12
394.331	88.12
394.556	90.12
394.78	82.12
395.005	74.12
395.229	75.12
395.454	88.12
395.678	75.12
395.903	86.12
396.127	91.12
396.352	88.12
396.576	77.12
396.801	67.12
397.025	72.12
397.249	82.12
397.474	91.12
397.698	88.12
397.922	92.12
398.147	90.12
398.371	91.12
398.595	102.12
398.82	99.12
399.044	89.12
399.268	84.12
399.492	93.12
399.717	87.12
399.941	95.12
400.165	106.12
400.389	101.12
400.613	83.12
400.837	73.12
401.062	74.12
401.286	86.12
401.51	91.12
401.734	96.12
401.958	89.12
402.182	115.12
402.406	119.12
402.63	87.12
402.854	94.12
403.078	107.12
403.302	99.12
403.526	106.12
403.75	100.12
403.974	80.12
404.198	88.12
404.422	71.12
404.645	99.12
404.869	101.12
405.093	96.12
405.317	96.12
405.541	94.12
405.765	102.12
405.988	99.12
406.212	131.12
406.436	164.12
406.66	125.12
406.883	98.12
407.107	91.12
407.331	100.12
407.555	87.12
407.778	96.12
408.002	97.12
408.226	78.12
408.449	90.12
408.673	88.12
408.896	94.12
409.12	86.12
409.344	94.12
409.567	85.12
409.791	90.12
410.014	100.12
410.238	92.12
410.461	89.12
410.685	86.12
410.908	116.12
411.132	95.12
411.355	103.12
411.578	97.12
411.802	95.12
412.025	100.12
412.249	86.12
412.472	91.12
412.695	84.12
412.919	101.12
413.142	87.12
413.365	93.12
413.589	99.12
413.812	92.12
414.035	94.12
414.258	94.12
414.482	91.12
414.705	100.12
414.928	84.12
415.151	90.12
415.374	82.12
415.597	104.12
415.821	94.12
416.044	100.12
416.267	104.12
416.49	92.12
416.713	96.12
416.936	94.12
417.159	98.12
417.382	103.12
417.605	99.12
417.828	88.12
418.051	88.12
418.274	100.12
418.497	81.12
418.72	95.12
418.943	95.12
419.166	87.12
419.389	101.12
419.611	91.12
419.834	86.12
420.057	76.12
420.28	95.12
420.503	105.12
420.726	101.12
420.948	87.12
421.171	90.12
421.394	102.12
421.617	95.12
421.839	86.12
422.062	88.12
422.285	90.12
422.507	98.12
422.73	98.12
422.953	93.12
423.175	86.12
423.398	101.12
423.621	98.12
423.843	83.12
424.066	89.12
424.288	80.12
424.511	82.12
424.733	92.12
424.956	99.12
425.178	110.12
425.401	96.12
425.623	75.12
425.846	98.12
426.068	86.12
426.291	85.12
426.513	91.12
426.735	84.12
426.958	92.12
427.18	95.12
427.402	129.12
427.625	139.12
427.847	109.12
428.069	111.12
428.292	102.12
428.514	97.12
428.736	83.12
428.958	88.12
429.181	92.12
429.403	76.12
429.625	80.12
429.847	86.12
430.069	100.12
430.292	101.12
430.514	100.12
430.736	92.12
430.958	92.12
431.18	84.12
431.402	94.12
431.624	86.12
431.846	96.12
432.068	72.12
432.29	74.12
432.512	82.12
432.734	84.12
432.956	91.12
433.178	98.12
433.4	104.12
433.622	96.12
433.844	99.12
434.066	98.12
434.287	85.12
434.509	87.12
434.731	94.12
434.953	99.12
435.175	78.12
435.397	95.12
435.618	94.12
435.84	122.12
436.062	117.12
436.284	103.12
436.505	95.12
436.727	89.12
436.949	102.12
437.17	93.12
437.392	86.12
437.614	98.12
437.835	96.12
438.057	97.12
438.278	90.12
438.5	103.12
438.721	112.12
438.943	87.12
439.165	94.12
439.386	92.12
439.608	90.12
439.829	101.12
440.05	104.12
440.272	115.12
440.493	93.12
440.715	107.12
440.936	82.12
441.158	90.12
441.379	102.12
441.6	100.12
441.822	82.12
442.043	88.12
442.264	97.12
442.486	106.12
442.707	82.12
442.928	107.12
443.149	121.12
443.371	103.12
443.592	106.12
443.813	106.12
444.034	95.12
444.255	93.12
444.476	87.12
444.698	99.12
444.919	77.12
445.14	149.12
445.361	118.12
445.582	107.12
445.803	109.12
446.024	121.12
446.245	116.12
446.466	116.12
446.687	86.12
446.908	92.12
447.129	84.12
447.35	88.12
447.571	94.12
447.792	97.12
448.013	95.12
448.234	88.12
448.455	103.12
448.675	109.12
448.896	96.12
449.117	99.12
449.338	100.12
449.559	112.12
449.779	117.12
450	97.12
450.221	93.12
450.442	97.12
450.662	96.12
450.883	98.12
451.104	98.12
451.324	95.12
451.545	94.12
451.766	95.12
451.986	100.12
452.207	108.12
452.428	87.12
452.648	104.12
452.869	108.12
453.089	106.12
453.31	112.12
453.53	92.12
453.751	95.12
453.971	101.12
454.192	98.12
454.412	83.12
454.633	88.12
454.853	76.12
455.073	91.12
455.294	96.12
455.514	86.12
455.734	80.12
455.955	90.12
456.175	85.12
456.395	87.12
456.616	98.12
456.836	83.12
457.056	88.12
457.276	88.12
457.497	91.12
457.717	92.12
457.937	87.12
458.157	85.12
458.377	75.12
458.598	88.12
458.818	111.12
459.038	127.12
459.258	105.12
459.478	91.12
459.698	95.12
459.918	85.12
460.138	84.12
460.358	88.12
460.578	77.12
460.798	93.12
461.018	84.12
461.238	85.12
461.458	99.12
461.678	95.12
461.898	88.12
462.118	86.12
462.338	94.12
462.558	104.12
462.777	98.12
462.997	95.12
463.217	92.12
463.437	87.12
463.657	82.12
463.876	85.12
464.096	104.12
464.316	91.12
464.536	85.12
464.755	91.12
464.975	100.12
465.195	130.12
465.414	124.12
465.634	104.12
465.854	78.12
466.073	88.12
466.293	91.12
466.512	96.12
466.732	87.12
466.951	95.12
467.171	85.12
467.391	92.12
467.61	90.12
467.829	91.12
468.049	102.12
468.268	91.12
468.488	84.12
468.707	89.12
468.927	85.12
469.146	87.12
469.365	93.12
469.585	82.12
469.804	87.12
470.023	95.12
470.243	88.12
470.462	100.12
470.681	84.12
470.901	85.12
471.12	92.12
471.339	106.12
471.558	93.12
471.777	90.12
471.997	92.12
472.216	117.12
472.435	118.12
472.654	87.12
472.873	82.12
473.092	72.12
473.311	103.12
473.53	85.12
473.749	77.12
473.968	93.12
474.187	91.12
474.406	84.12
474.625	93.12
474.844	71.12
475.063	87.12
475.282	84.12
475.501	78.12
475.72	94.12
475.939	87.12
476.158	97.12
476.377	87.12
476.596	90.12
476.814	70.12
477.033	78.12
477.252	100.12
477.471	88.12
477.69	85.12
477.908	80.12
478.127	86.12
478.346	98.12
478.564	87.12
478.783	95.12
479.002	87.12
479.22	86.12
479.439	113.12
479.658	106.12
479.876	87.12
480.095	75.12
480.313	86.12
480.532	91.12
480.751	97.12
480.969	102.12
481.188	170.12
481.406	143.12
481.624	90.12
481.843	95.12
482.061	87.12
482.28	96.12
482.498	98.12
482.717	86.12
482.935	88.12
483.153	101.12
483.372	98.12
483.59	100.12
483.808	94.12
484.027	92.12
484.245	101.12
484.463	91.12
484.681	103.12
484.9	95.12
485.118	99.12
485.336	98.12
485.554	102.12
485.772	95.12
485.99	103.12
486.209	95.12
486.427	91.12
486.645	117.12
486.863	102.12
487.081	104.12
487.299	102.12
487.517	93.12
487.735	94.12
487.953	98.12
488.171	82.12
488.389	95.12
488.607	98.12
488.825	90.12
489.043	85.12
489.261	84.12
489.479	95.12
489.696	74.12
489.914	84.12
490.132	92.12
490.35	92.12
490.568	70.12
490.786	106.12
491.003	89.12
491.221	98.12
491.439	86.12
491.657	93.12
491.874	99.12
492.092	94.12
492.31	79.12
492.527	106.12
492.745	103.12
492.963	91.12
493.18	87.12
493.398	83.12
493.615	88.12
493.833	99.12
494.05	89.12
494.268	94.12
494.485	104.12
494.703	108.12
494.92	84.12
495.138	94.12
495.355	103.12
495.573	90.12
495.79	83.12
496.008	88.12
496.225	93.12
496.442	86.12
496.66	86.12
496.877	84.12
497.094	94.12
497.312	110.12
497.529	77.12
497.746	92.12
497.963	94.12
498.181	88.12
498.398	102.12
498.615	107.12
498.832	91.12
499.049	98.12
499.267	84.12
499.484	72.12
499.701	101.12
499.918	105.12
500.135	84.12
500.352	88.12
500.569	87.12
500.786	106.12
501.003	95.12
501.22	96.12
501.437	95.12
501.654	100.12
501.871	86.12
502.088	90.12
502.305	68.12
502.522	90.12
502.739	82.12
502.956	85.12
503.172	103.12
503.389	101.12
503.606	87.12
503.823	101.12
504.04	94.12
504.256	88.12
504.473	93.12
504.69	83.12
504.907	80.12
505.123	86.12
505.34	99.12
505.557	90.12
505.773	90.12
505.99	95.12
506.207	88.12
506.423	95.12
506.64	83.12
506.856	91.12
507.073	88.12
507.289	93.12
507.506	86.12
507.722	109.12
507.939	110.12
508.155	102.12
508.372	98.12
508.588	88.12
508.805	84.12
509.021	97.12
509.238	108.12
509.454	90.12
509.67	106.12
509.887	107.12
510.103	138.12
510.319	188.12
510.536	560.12
510.752	1563.12
510.968	443.12
511.184	133.12
511.401	116.12
511.617	116.12
511.833	89.12
512.049	86.12
512.265	92.12
512.481	77.12
512.698	98.12
512.914	82.12
513.13	108.12
513.346	93.12
513.562	105.12
513.778	96.12
513.994	96.12
514.21	112.12
514.426	122.12
514.642	121.12
514.858	110.12
515.074	150.12
515.29	325.12
