Data from Uncirc_1981_H10_HRD10591_00082.txt Node
Date: Wed Jan 03 12:33:24 EST 2024
User: Yrep
Spectrometer: HR+D1059
Trigger mode: 1
Integration Time (sec): 1.000000E-1
Scans to average: 1
Electric dark correction enabled: true
Nonlinearity correction enabled: false
Boxcar width: 0
XAxis mode: Wavelengths
Number of Pixels in Spectrum: 2048
>>>>>Begin Spectral Data<<<<<
223.165	-23
223.4	-23
223.635	-23
223.869	-24
224.104	-15
224.338	-21
224.573	-17
224.808	-17
225.042	-14
225.277	-14
225.511	11
225.746	-1
225.98	6
226.215	23
226.449	16
226.683	28
226.918	33
227.152	29
227.387	18
227.621	42
227.856	39
228.09	67
228.324	68
228.559	67
228.793	75
229.027	66
229.262	60
229.496	71
229.73	84
229.964	90
230.199	90
230.433	87
230.667	92
230.901	81
231.136	71
231.37	88
231.604	93
231.838	68
232.072	78
232.306	76
232.541	77
232.775	92
233.009	79
233.243	83
233.477	82
233.711	93
233.945	74
234.179	90
234.413	82
234.647	71
234.881	73
235.115	71
235.349	87
235.583	79
235.817	80
236.051	83
236.285	68
236.519	74
236.753	92
236.987	75
237.221	85
237.455	90
237.689	100
237.922	82
238.156	84
238.39	70
238.624	78
238.858	93
239.091	66
239.325	70
239.559	89
239.793	82
240.027	96
240.26	82
240.494	84
240.728	73
240.961	82
241.195	68
241.429	93
241.662	76
241.896	62
242.13	71
242.363	79
242.597	72
242.83	80
243.064	69
243.298	75
243.531	87
243.765	68
243.998	77
244.232	75
244.465	76
244.699	82
244.932	86
245.166	76
245.399	84
245.633	94
245.866	88
246.099	84
246.333	83
246.566	82
246.8	84
247.033	89
247.266	84
247.5	93
247.733	87
247.966	87
248.2	86
248.433	90
248.666	84
248.899	86
249.133	86
249.366	95
249.599	96
249.832	87
250.066	91
250.299	84
250.532	81
250.765	77
250.998	71
251.231	91
251.465	83
251.698	91
251.931	91
252.164	95
252.397	86
252.63	85
252.863	90
253.096	80
253.329	84
253.562	79
253.795	92
254.028	75
254.261	95
254.494	83
254.727	92
254.96	80
255.193	88
255.426	87
255.659	72
255.892	67
256.124	90
256.357	78
256.59	98
256.823	90
257.056	84
257.289	87
257.521	93
257.754	82
257.987	73
258.22	102
258.452	92
258.685	73
258.918	84
259.151	82
259.383	84
259.616	86
259.849	84
260.081	81
260.314	71
260.547	96
260.779	83
261.012	88
261.244	88
261.477	86
261.71	102
261.942	107
262.175	100
262.407	86
262.64	101
262.872	80
263.105	74
263.337	92
263.57	83
263.802	97
264.035	85
264.267	87
264.499	83
264.732	88
264.964	83
265.197	76
265.429	87
265.661	95
265.894	83
266.126	99
266.358	96
266.591	74
266.823	72
267.055	88
267.287	74
267.52	84
267.752	87
267.984	87
268.216	85
268.448	97
268.681	96
268.913	97
269.145	82
269.377	87
269.609	80
269.841	75
270.073	74
270.306	85
270.538	86
270.77	83
271.002	92
271.234	91
271.466	105
271.698	74
271.93	92
272.162	90
272.394	80
272.626	85
272.858	82
273.09	76
273.322	84
273.553	76
273.785	82
274.017	88
274.249	93
274.481	87
274.713	97
274.945	97
275.176	94
275.408	92
275.64	90
275.872	102
276.104	79
276.335	92
276.567	93
276.799	105
277.031	88
277.262	104
277.494	90
277.726	91
277.957	86
278.189	92
278.421	80
278.652	83
278.884	95
279.115	85
279.347	92
279.579	84
279.81	84
280.042	85
280.273	80
280.505	86
280.736	93
280.968	106
281.199	78
281.431	79
281.662	88
281.894	78
282.125	102
282.356	115
282.588	108
282.819	92
283.051	96
283.282	94
283.513	99
283.745	88
283.976	97
284.207	100
284.439	115
284.67	81
284.901	96
285.132	86
285.364	76
285.595	78
285.826	76
286.057	88
286.288	77
286.52	86
286.751	85
286.982	78
287.213	99
287.444	86
287.675	84
287.906	83
288.138	98
288.369	101
288.6	96
288.831	93
289.062	85
289.293	79
289.524	94
289.755	90
289.986	106
290.217	84
290.448	94
290.679	85
290.91	95
291.141	84
291.371	74
291.602	90
291.833	85
292.064	82
292.295	94
292.526	93
292.757	70
292.987	82
293.218	82
293.449	87
293.68	98
293.91	76
294.141	111
294.372	87
294.603	102
294.833	111
295.064	98
295.295	85
295.525	80
295.756	92
295.987	103
296.217	122
296.448	111
296.679	93
296.909	107
297.14	90
297.37	94
297.601	91
297.831	87
298.062	97
298.292	92
298.523	101
298.753	95
298.984	78
299.214	95
299.445	91
299.675	91
299.905	98
300.136	90
300.366	84
300.597	84
300.827	91
301.057	102
301.288	103
301.518	92
301.748	88
301.979	91
302.209	92
302.439	101
302.669	90
302.9	88
303.13	94
303.36	88
303.59	92
303.82	106
304.051	104
304.281	86
304.511	83
304.741	83
304.971	90
305.201	108
305.431	104
305.661	99
305.891	97
306.121	90
306.352	97
306.582	113
306.812	93
307.042	101
307.272	106
307.502	104
307.731	95
307.961	76
308.191	86
308.421	82
308.651	88
308.881	91
309.111	77
309.341	109
309.571	105
309.8	95
310.03	95
310.26	101
310.49	96
310.72	78
310.949	103
311.179	103
311.409	88
311.639	94
311.868	92
312.098	86
312.328	90
312.557	92
312.787	103
313.017	88
313.246	99
313.476	89
313.706	88
313.935	107
314.165	84
314.394	95
314.624	102
314.853	100
315.083	95
315.312	104
315.542	100
315.771	94
316.001	98
316.23	72
316.46	84
316.689	91
316.919	94
317.148	103
317.377	98
317.607	84
317.836	96
318.065	112
318.295	79
318.524	93
318.753	95
318.983	106
319.212	96
319.441	93
319.67	114
319.9	92
320.129	86
320.358	103
320.587	105
320.816	96
321.046	100
321.275	100
321.504	102
321.733	86
321.962	89
322.191	114
322.42	89
322.649	106
322.878	101
323.108	95
323.337	115
323.566	122
323.795	122
324.024	188
324.253	346
324.482	736
324.71	1487
324.939	1999
325.168	716
325.397	213
325.626	132
325.855	131
326.084	124
326.313	134
326.542	141
326.77	208
326.999	424
327.228	876
327.457	1570
327.686	1256
327.914	327
328.143	175
328.372	152
328.6	116
328.829	106
329.058	106
329.287	117
329.515	112
329.744	119
329.972	100
330.201	130
330.43	122
330.658	115
330.887	106
331.115	105
331.344	88
331.572	93
331.801	95
332.03	97
332.258	99
332.486	98
332.715	84
332.943	84
333.172	105
333.4	99
333.629	106
333.857	107
334.085	91
334.314	113
334.542	136
334.771	129
334.999	99
335.227	89
335.455	92
335.684	104
335.912	91
336.14	81
336.369	100
336.597	98
336.825	107
337.053	85
337.281	92
337.51	84
337.738	98
337.966	90
338.194	87
338.422	94
338.65	97
338.878	93
339.106	80
339.334	94
339.562	92
339.79	79
340.018	96
340.246	100
340.474	104
340.702	101
340.93	88
341.158	100
341.386	101
341.614	112
341.842	113
342.07	97
342.298	89
342.526	77
342.754	89
342.981	82
343.209	102
343.437	110
343.665	82
343.893	106
344.12	105
344.348	92
344.576	94
344.804	100
345.031	108
345.259	110
345.487	83
345.714	110
345.942	108
346.17	104
346.397	99
346.625	87
346.853	93
347.08	99
347.308	94
347.535	96
347.763	106
347.99	103
348.218	92
348.445	120
348.673	106
348.9	107
349.128	98
349.355	86
349.583	91
349.81	107
350.037	95
350.265	99
350.492	99
350.72	99
350.947	98
351.174	106
351.402	107
351.629	99
351.856	110
352.083	87
352.311	114
352.538	102
352.765	94
352.992	89
353.22	108
353.447	104
353.674	95
353.901	98
354.128	96
354.355	96
354.583	107
354.81	107
355.037	106
355.264	103
355.491	108
355.718	111
355.945	94
356.172	109
356.399	98
356.626	96
356.853	111
357.08	93
357.307	82
357.534	95
357.761	103
357.988	95
358.215	100
358.441	94
358.668	84
358.895	82
359.122	87
359.349	78
359.576	101
359.802	98
360.029	93
360.256	88
360.483	82
360.709	102
360.936	98
361.163	109
361.39	92
361.616	86
361.843	86
362.07	100
362.296	93
362.523	88
362.749	100
362.976	89
363.203	98
363.429	95
363.656	93
363.882	79
364.109	96
364.335	88
364.562	96
364.788	90
365.015	86
365.241	84
365.468	123
365.694	107
365.92	94
366.147	78
366.373	97
366.599	102
366.826	108
367.052	90
367.278	101
367.505	95
367.731	79
367.957	88
368.184	103
368.41	98
368.636	87
368.862	113
369.089	88
369.315	84
369.541	104
369.767	100
369.993	101
370.219	93
370.445	98
370.672	95
370.898	96
371.124	96
371.35	66
371.576	86
371.802	95
372.028	94
372.254	79
372.48	88
372.706	92
372.932	86
373.158	87
373.384	94
373.61	94
373.835	88
374.061	98
374.287	84
374.513	97
374.739	84
374.965	89
375.191	102
375.416	110
375.642	95
375.868	93
376.094	102
376.319	95
376.545	98
376.771	104
376.997	95
377.222	95
377.448	96
377.674	87
377.899	86
378.125	93
378.35	96
378.576	87
378.802	85
379.027	99
379.253	90
379.478	91
379.704	98
379.929	86
380.155	90
380.38	106
380.606	95
380.831	93
381.057	108
381.282	101
381.507	86
381.733	87
381.958	95
382.184	82
382.409	99
382.634	105
382.86	95
383.085	99
383.31	95
383.535	92
383.761	106
383.986	89
384.211	84
384.436	98
384.662	96
384.887	103
385.112	104
385.337	104
385.562	98
385.787	104
386.013	108
386.238	119
386.463	112
386.688	124
386.913	116
387.138	112
387.363	104
387.588	99
387.813	90
388.038	111
388.263	104
388.488	108
388.713	110
388.938	99
389.163	87
389.387	95
389.612	102
389.837	98
390.062	107
390.287	85
390.512	98
390.736	107
390.961	91
391.186	104
391.411	112
391.636	114
391.86	92
392.085	93
392.31	95
392.534	91
392.759	95
392.984	96
393.208	87
393.433	78
393.658	91
393.882	92
394.107	76
394.331	80
394.556	66
394.78	84
395.005	78
395.229	84
395.454	73
395.678	82
395.903	94
396.127	100
396.352	86
396.576	90
396.801	91
397.025	86
397.249	79
397.474	84
397.698	94
397.922	98
398.147	95
398.371	90
398.595	76
398.82	84
399.044	72
399.268	97
399.492	94
399.717	93
399.941	84
400.165	86
400.389	89
400.613	88
400.837	94
401.062	89
401.286	93
401.51	93
401.734	94
401.958	103
402.182	121
402.406	142
402.63	112
402.854	98
403.078	101
403.302	101
403.526	85
403.75	73
403.974	91
404.198	78
404.422	95
404.645	86
404.869	90
405.093	85
405.317	92
405.541	94
405.765	93
405.988	112
406.212	155
406.436	183
406.66	118
406.883	93
407.107	94
407.331	98
407.555	87
407.778	107
408.002	96
408.226	78
408.449	87
408.673	90
408.896	91
409.12	92
409.344	85
409.567	97
409.791	104
410.014	100
410.238	100
410.461	92
410.685	98
410.908	91
411.132	100
411.355	98
411.578	96
411.802	87
412.025	94
412.249	87
412.472	104
412.695	99
412.919	96
413.142	94
413.365	96
413.589	78
413.812	100
414.035	94
414.258	86
414.482	99
414.705	97
414.928	99
415.151	96
415.374	105
415.597	108
415.821	95
416.044	88
416.267	74
416.49	86
416.713	83
416.936	102
417.159	93
417.382	90
417.605	93
417.828	86
418.051	75
418.274	87
418.497	98
418.72	103
418.943	84
419.166	88
419.389	91
419.611	94
419.834	84
420.057	92
420.28	91
420.503	82
420.726	91
420.948	78
421.171	99
421.394	88
421.617	85
421.839	89
422.062	86
422.285	80
422.507	87
422.73	92
422.953	95
423.175	85
423.398	89
423.621	93
423.843	88
424.066	96
424.288	94
424.511	93
424.733	95
424.956	101
425.178	112
425.401	95
425.623	100
425.846	94
426.068	100
426.291	105
426.513	97
426.735	95
426.958	99
427.18	96
427.402	129
427.625	143
427.847	127
428.069	108
428.292	82
428.514	78
428.736	90
428.958	78
429.181	100
429.403	89
429.625	84
429.847	90
430.069	104
430.292	95
430.514	86
430.736	79
430.958	82
431.18	82
431.402	88
431.624	94
431.846	84
432.068	84
432.29	79
432.512	103
432.734	78
432.956	102
433.178	101
433.4	102
433.622	93
433.844	90
434.066	100
434.287	86
434.509	97
434.731	98
434.953	96
435.175	75
435.397	92
435.618	86
435.84	84
436.062	117
436.284	96
436.505	91
436.727	103
436.949	94
437.17	92
437.392	88
437.614	90
437.835	102
438.057	115
438.278	79
438.5	112
438.721	114
438.943	92
439.165	84
439.386	86
439.608	94
439.829	91
440.05	112
440.272	134
440.493	99
440.715	95
440.936	100
441.158	75
441.379	96
441.6	79
441.822	85
442.043	93
442.264	105
442.486	90
442.707	93
442.928	86
443.149	105
443.371	121
443.592	102
443.813	104
444.034	103
444.255	105
444.476	88
444.698	88
444.919	102
445.14	138
445.361	115
445.582	109
445.803	112
446.024	123
446.245	126
446.466	123
446.687	86
446.908	90
447.129	82
447.35	82
447.571	85
447.792	93
448.013	96
448.234	103
448.455	94
448.675	103
448.896	108
449.117	92
449.338	107
449.559	122
449.779	130
450	92
450.221	75
450.442	98
450.662	89
450.883	102
451.104	100
451.324	94
451.545	89
451.766	83
451.986	65
452.207	96
452.428	94
452.648	95
452.869	113
453.089	114
453.31	96
453.53	96
453.751	93
453.971	94
454.192	109
454.412	85
454.633	85
454.853	104
455.073	81
455.294	92
455.514	89
455.734	90
455.955	102
456.175	93
456.395	72
456.616	99
456.836	96
457.056	89
457.276	84
457.497	88
457.717	99
457.937	77
458.157	87
458.377	86
458.598	109
458.818	128
459.038	129
459.258	110
459.478	74
459.698	92
459.918	83
460.138	85
460.358	98
460.578	83
460.798	87
461.018	87
461.238	101
461.458	91
461.678	90
461.898	92
462.118	87
462.338	90
462.558	95
462.777	103
462.997	87
463.217	88
463.437	95
463.657	85
463.876	99
464.096	80
464.316	91
464.536	111
464.755	99
464.975	86
465.195	136
465.414	130
465.634	111
465.854	86
466.073	90
466.293	94
466.512	92
466.732	108
466.951	80
467.171	96
467.391	93
467.61	91
467.829	101
468.049	90
468.268	99
468.488	80
468.707	86
468.927	78
469.146	79
469.365	86
469.585	100
469.804	99
470.023	92
470.243	96
470.462	91
470.681	112
470.901	111
471.12	82
471.339	88
471.558	83
471.777	76
471.997	87
472.216	92
472.435	126
472.654	90
472.873	95
473.092	82
473.311	80
473.53	90
473.749	91
473.968	87
474.187	112
474.406	93
474.625	85
474.844	99
475.063	91
475.282	83
475.501	87
475.72	86
475.939	102
476.158	86
476.377	93
476.596	92
476.814	89
477.033	104
477.252	79
477.471	91
477.69	86
477.908	92
478.127	96
478.346	91
478.564	91
478.783	86
479.002	86
479.22	92
479.439	112
479.658	118
479.876	107
480.095	94
480.313	89
480.532	79
480.751	102
480.969	105
481.188	174
481.406	135
481.624	101
481.843	103
482.061	84
482.28	96
482.498	90
482.717	92
482.935	94
483.153	92
483.372	95
483.59	92
483.808	100
484.027	87
484.245	87
484.463	85
484.681	100
484.9	108
485.118	81
485.336	95
485.554	102
485.772	89
485.99	109
486.209	94
486.427	104
486.645	102
486.863	109
487.081	100
487.299	89
487.517	102
487.735	95
487.953	106
488.171	86
488.389	85
488.607	95
488.825	78
489.043	71
489.261	99
489.479	109
489.696	87
489.914	73
490.132	84
490.35	80
490.568	92
490.786	87
491.003	99
491.221	93
491.439	98
491.657	106
491.874	87
492.092	97
492.31	88
492.527	96
492.745	94
492.963	79
493.18	101
493.398	109
493.615	95
493.833	100
494.05	107
494.268	90
494.485	96
494.703	100
494.92	100
495.138	87
495.355	102
495.573	102
495.79	79
496.008	98
496.225	82
496.442	86
496.66	92
496.877	102
497.094	96
497.312	100
497.529	88
497.746	98
497.963	79
498.181	99
498.398	101
498.615	106
498.832	108
499.049	72
499.267	93
499.484	68
499.701	102
499.918	107
500.135	96
500.352	97
500.569	104
500.786	91
501.003	109
501.22	79
501.437	100
501.654	85
501.871	110
502.088	79
502.305	98
502.522	96
502.739	97
502.956	95
503.172	104
503.389	95
503.606	101
503.823	101
504.04	95
504.256	103
504.473	90
504.69	89
504.907	86
505.123	87
505.34	103
505.557	81
505.773	98
505.99	91
506.207	96
506.423	104
506.64	101
506.856	95
507.073	98
507.289	103
507.506	87
507.722	106
507.939	122
508.155	99
508.372	99
508.588	84
508.805	86
509.021	107
509.238	86
509.454	88
509.67	109
509.887	109
510.103	135
510.319	191
510.536	589
510.752	1810
510.968	500
511.184	133
511.401	109
511.617	102
511.833	101
512.049	82
512.265	93
512.481	89
512.698	99
512.914	88
513.13	106
513.346	83
513.562	93
513.778	101
513.994	88
514.21	94
514.426	103
514.642	121
514.858	115
515.074	143
515.29	328
515.506	1068
515.721	380
515.937	139
516.153	117
516.369	117
516.585	102
516.801	95
517.016	85
517.232	103
517.448	92
517.664	94
517.879	92
518.095	91
518.311	94
518.527	88
518.742	90
518.958	93
519.173	94
519.389	83
519.605	95
519.82	90
520.036	99
520.251	106
520.467	101
520.682	95
520.898	106
521.113	106
521.329	120
521.544	167
521.76	435
521.975	1736
522.19	1016
522.406	264
522.621	105
522.836	96
523.052	88
523.267	106
523.482	104
523.698	86
523.913	116
524.128	95
524.343	102
524.559	101
524.774	103
524.989	91
525.204	100
525.419	92
525.634	99
525.849	91
526.064	99
526.28	112
526.495	88
526.71	81
526.925	93
527.14	106
527.355	90
527.57	85
527.785	101
527.999	95
528.214	102
528.429	91
528.644	88
528.859	99
529.074	82
529.289	121
529.503	155
529.718	114
529.933	107
530.148	80
530.363	85
530.577	82
530.792	96
531.007	85
531.221	92
531.436	90
531.651	93
531.865	101
532.08	103
532.295	102
532.509	87
532.724	98
532.938	88
533.153	98
533.367	93
533.582	109
533.796	83
534.011	102
534.225	97
534.44	92
534.654	103
534.868	84
535.083	96
535.297	97
535.511	96
535.726	99
535.94	90
536.154	91
536.369	84
536.583	86
536.797	96
537.011	75
537.225	101
537.44	86
537.654	78
537.868	73
538.082	76
538.296	93
538.51	82
538.724	90
538.938	103
539.153	94
539.367	100
539.581	97
539.795	105
540.009	105
540.222	87
540.436	98
540.65	102
540.864	106
541.078	100
541.292	102
541.506	102
541.72	86
541.934	93
542.147	87
542.361	80
542.575	92
542.789	88
543.002	108
543.216	101
543.43	101
543.644	91
543.857	103
544.071	101
544.285	89
544.498	79
544.712	78
544.925	86
545.139	84
545.352	82
545.566	92
545.779	84
545.993	100
546.206	85
546.42	91
546.633	98
546.847	86
547.06	88
547.274	84
547.487	92
547.7	85
547.914	86
548.127	101
548.34	98
548.554	83
548.767	88
548.98	97
549.193	90
549.407	86
549.62	84
549.833	78
550.046	82
550.259	89
550.473	91
550.686	86
550.899	102
551.112	90
551.325	98
551.538	75
551.751	81
551.964	95
552.177	87
552.39	93
552.603	96
552.816	111
553.029	83
553.242	104
553.455	107
553.667	113
553.88	114
554.093	96
554.306	92
554.519	90
554.732	87
554.944	82
555.157	83
555.37	93
555.583	104
555.795	78
556.008	93
556.221	102
556.433	93
556.646	100
556.859	102
557.071	93
557.284	90
557.496	75
557.709	86
557.921	89
558.134	89
558.346	97
558.559	90
558.771	76
558.984	73
559.196	80
559.409	95
559.621	80
559.833	92
560.046	85
560.258	82
560.47	83
560.683	96
560.895	96
561.107	94
561.32	99
561.532	82
561.744	106
561.956	85
562.168	107
562.381	87
562.593	91
562.805	88
563.017	103
563.229	87
563.441	88
563.653	105
563.865	92
564.077	80
564.289	91
564.501	94
564.713	94
564.925	92
565.137	78
565.349	76
565.561	102
565.773	90
565.985	102
566.197	83
566.408	88
566.62	91
566.832	96
567.044	90
567.255	95
567.467	97
567.679	80
567.891	86
568.102	86
568.314	86
568.526	95
568.737	83
568.949	66
569.161	88
569.372	91
569.584	98
569.795	92
570.007	103
570.218	196
570.43	126
570.641	88
570.853	95
571.064	100
571.276	90
571.487	104
571.698	78
571.91	89
572.121	84
572.333	97
572.544	92
572.755	88
572.966	88
573.178	92
573.389	101
573.6	82
573.811	90
574.023	78
574.234	94
574.445	87
574.656	84
574.867	93
575.078	94
575.289	100
575.501	107
575.712	95
575.923	91
576.134	88
576.345	89
576.556	91
576.767	94
576.978	95
577.188	102
577.399	95
577.61	103
577.821	106
578.032	93
578.243	234
578.454	590
578.665	186
578.875	95
579.086	84
579.297	95
579.508	96
579.718	100
579.929	99
580.14	97
580.35	94
580.561	89
580.772	106
580.982	77
581.193	111
581.403	102
581.614	99
581.825	89
582.035	94
582.246	95
582.456	96
582.667	97
582.877	87
