Data from Uncirc_1981_H10_HRD10591_00062.txt Node
Date: Wed Jan 03 12:33:20 EST 2024
User: Yrep
Spectrometer: HR+D1059
Trigger mode: 1
Integration Time (sec): 1.000000E-1
Scans to average: 1
Electric dark correction enabled: true
Nonlinearity correction enabled: false
Boxcar width: 0
XAxis mode: Wavelengths
Number of Pixels in Spectrum: 2048
>>>>>Begin Spectral Data<<<<<
223.165	-20.44
223.4	-20.44
223.635	-20.44
223.869	-8.44
224.104	-26.44
224.338	-7.44
224.573	-11.44
224.808	-9.44
225.042	-14.44
225.277	-19.44
225.511	-8.44
225.746	2.56
225.98	15.56
226.215	11.56
226.449	15.56
226.683	19.56
226.918	27.56
227.152	33.56
227.387	31.56
227.621	32.56
227.856	42.56
228.09	43.56
228.324	51.56
228.559	62.56
228.793	59.56
229.027	63.56
229.262	62.56
229.496	76.56
229.73	73.56
229.964	68.56
230.199	69.56
230.433	52.56
230.667	76.56
230.901	86.56
231.136	66.56
231.37	74.56
231.604	62.56
231.838	60.56
232.072	73.56
232.306	75.56
232.541	73.56
232.775	78.56
233.009	74.56
233.243	84.56
233.477	90.56
233.711	82.56
233.945	87.56
234.179	90.56
234.413	76.56
234.647	75.56
234.881	72.56
235.115	83.56
235.349	88.56
235.583	92.56
235.817	78.56
236.051	76.56
236.285	70.56
236.519	65.56
236.753	65.56
236.987	69.56
237.221	80.56
237.455	78.56
237.689	75.56
237.922	75.56
238.156	72.56
238.39	75.56
238.624	80.56
238.858	66.56
239.091	63.56
239.325	68.56
239.559	82.56
239.793	84.56
240.027	81.56
240.26	70.56
240.494	67.56
240.728	91.56
240.961	82.56
241.195	70.56
241.429	78.56
241.662	70.56
241.896	63.56
242.13	67.56
242.363	86.56
242.597	78.56
242.83	72.56
243.064	79.56
243.298	72.56
243.531	79.56
243.765	77.56
243.998	56.56
244.232	65.56
244.465	62.56
244.699	66.56
244.932	84.56
245.166	68.56
245.399	73.56
245.633	67.56
245.866	87.56
246.099	74.56
246.333	65.56
246.566	70.56
246.8	65.56
247.033	59.56
247.266	84.56
247.5	71.56
247.733	83.56
247.966	87.56
248.2	86.56
248.433	82.56
248.666	84.56
248.899	85.56
249.133	75.56
249.366	90.56
249.599	84.56
249.832	80.56
250.066	81.56
250.299	90.56
250.532	85.56
250.765	71.56
250.998	71.56
251.231	60.56
251.465	78.56
251.698	74.56
251.931	86.56
252.164	87.56
252.397	72.56
252.63	81.56
252.863	80.56
253.096	88.56
253.329	83.56
253.562	88.56
253.795	91.56
254.028	79.56
254.261	84.56
254.494	66.56
254.727	90.56
254.96	84.56
255.193	76.56
255.426	70.56
255.659	72.56
255.892	84.56
256.124	69.56
256.357	67.56
256.59	72.56
256.823	85.56
257.056	84.56
257.289	81.56
257.521	69.56
257.754	78.56
257.987	73.56
258.22	82.56
258.452	80.56
258.685	68.56
258.918	66.56
259.151	83.56
259.383	90.56
259.616	70.56
259.849	88.56
260.081	86.56
260.314	90.56
260.547	69.56
260.779	78.56
261.012	87.56
261.244	71.56
261.477	83.56
261.71	82.56
261.942	102.56
262.175	96.56
262.407	84.56
262.64	77.56
262.872	75.56
263.105	68.56
263.337	91.56
263.57	84.56
263.802	80.56
264.035	90.56
264.267	70.56
264.499	74.56
264.732	83.56
264.964	76.56
265.197	71.56
265.429	73.56
265.661	89.56
265.894	78.56
266.126	91.56
266.358	88.56
266.591	85.56
266.823	92.56
267.055	91.56
267.287	77.56
267.52	88.56
267.752	80.56
267.984	71.56
268.216	76.56
268.448	96.56
268.681	75.56
268.913	86.56
269.145	91.56
269.377	69.56
269.609	88.56
269.841	82.56
270.073	80.56
270.306	85.56
270.538	87.56
270.77	89.56
271.002	90.56
271.234	77.56
271.466	87.56
271.698	89.56
271.93	83.56
272.162	80.56
272.394	82.56
272.626	91.56
272.858	83.56
273.09	89.56
273.322	88.56
273.553	82.56
273.785	88.56
274.017	79.56
274.249	75.56
274.481	79.56
274.713	84.56
274.945	89.56
275.176	72.56
275.408	86.56
275.64	79.56
275.872	86.56
276.104	82.56
276.335	78.56
276.567	89.56
276.799	94.56
277.031	83.56
277.262	86.56
277.494	96.56
277.726	82.56
277.957	84.56
278.189	85.56
278.421	72.56
278.652	88.56
278.884	90.56
279.115	90.56
279.347	84.56
279.579	73.56
279.81	73.56
280.042	82.56
280.273	91.56
280.505	75.56
280.736	76.56
280.968	84.56
281.199	92.56
281.431	90.56
281.662	93.56
281.894	70.56
282.125	88.56
282.356	96.56
282.588	111.56
282.819	89.56
283.051	91.56
283.282	84.56
283.513	84.56
283.745	95.56
283.976	76.56
284.207	87.56
284.439	98.56
284.67	74.56
284.901	84.56
285.132	97.56
285.364	89.56
285.595	81.56
285.826	87.56
286.057	74.56
286.288	75.56
286.52	80.56
286.751	90.56
286.982	83.56
287.213	87.56
287.444	85.56
287.675	82.56
287.906	92.56
288.138	90.56
288.369	81.56
288.6	87.56
288.831	73.56
289.062	95.56
289.293	88.56
289.524	72.56
289.755	74.56
289.986	78.56
290.217	90.56
290.448	83.56
290.679	76.56
290.91	86.56
291.141	75.56
291.371	87.56
291.602	85.56
291.833	79.56
292.064	86.56
292.295	91.56
292.526	64.56
292.757	89.56
292.987	71.56
293.218	104.56
293.449	76.56
293.68	93.56
293.91	89.56
294.141	83.56
294.372	78.56
294.603	99.56
294.833	91.56
295.064	86.56
295.295	74.56
295.525	85.56
295.756	108.56
295.987	104.56
296.217	114.56
296.448	104.56
296.679	80.56
296.909	86.56
297.14	81.56
297.37	84.56
297.601	71.56
297.831	78.56
298.062	98.56
298.292	95.56
298.523	87.56
298.753	97.56
298.984	88.56
299.214	79.56
299.445	78.56
299.675	93.56
299.905	87.56
300.136	90.56
300.366	77.56
300.597	79.56
300.827	89.56
301.057	90.56
301.288	96.56
301.518	78.56
301.748	90.56
301.979	115.56
302.209	84.56
302.439	81.56
302.669	112.56
302.9	80.56
303.13	80.56
303.36	86.56
303.59	92.56
303.82	84.56
304.051	92.56
304.281	106.56
304.511	103.56
304.741	73.56
304.971	75.56
305.201	98.56
305.431	94.56
305.661	86.56
305.891	91.56
306.121	99.56
306.352	79.56
306.582	86.56
306.812	81.56
307.042	80.56
307.272	108.56
307.502	94.56
307.731	88.56
307.961	79.56
308.191	75.56
308.421	100.56
308.651	94.56
308.881	90.56
309.111	92.56
309.341	75.56
309.571	75.56
309.8	92.56
310.03	88.56
310.26	81.56
310.49	75.56
310.72	83.56
310.949	91.56
311.179	107.56
311.409	88.56
311.639	85.56
311.868	86.56
312.098	96.56
312.328	90.56
312.557	87.56
312.787	104.56
313.017	105.56
313.246	91.56
313.476	99.56
313.706	90.56
313.935	82.56
314.165	94.56
314.394	88.56
314.624	87.56
314.853	99.56
315.083	95.56
315.312	88.56
315.542	75.56
315.771	81.56
316.001	85.56
316.23	84.56
316.46	80.56
316.689	89.56
316.919	93.56
317.148	97.56
317.377	91.56
317.607	85.56
317.836	83.56
318.065	75.56
318.295	91.56
318.524	82.56
318.753	97.56
318.983	71.56
319.212	90.56
319.441	92.56
319.67	91.56
319.9	101.56
320.129	84.56
320.358	95.56
320.587	94.56
320.816	90.56
321.046	107.56
321.275	97.56
321.504	90.56
321.733	83.56
321.962	91.56
322.191	85.56
322.42	99.56
322.649	85.56
322.878	100.56
323.108	112.56
323.337	103.56
323.566	119.56
323.795	141.56
324.024	166.56
324.253	334.56
324.482	672.56
324.71	1393.56
324.939	1788.56
325.168	675.56
325.397	211.56
325.626	131.56
325.855	117.56
326.084	123.56
326.313	124.56
326.542	134.56
326.77	191.56
326.999	398.56
327.228	827.56
327.457	1459.56
327.686	1118.56
327.914	308.56
328.143	167.56
328.372	130.56
328.6	114.56
328.829	96.56
329.058	110.56
329.287	84.56
329.515	112.56
329.744	98.56
329.972	98.56
330.201	104.56
330.43	112.56
330.658	104.56
330.887	116.56
331.115	107.56
331.344	97.56
331.572	104.56
331.801	96.56
332.03	97.56
332.258	86.56
332.486	98.56
332.715	75.56
332.943	80.56
333.172	94.56
333.4	91.56
333.629	88.56
333.857	103.56
334.085	97.56
334.314	104.56
334.542	107.56
334.771	102.56
334.999	92.56
335.227	103.56
335.455	88.56
335.684	96.56
335.912	107.56
336.14	99.56
336.369	97.56
336.597	106.56
336.825	83.56
337.053	83.56
337.281	81.56
337.51	87.56
337.738	99.56
337.966	91.56
338.194	91.56
338.422	96.56
338.65	75.56
338.878	91.56
339.106	87.56
339.334	91.56
339.562	91.56
339.79	73.56
340.018	100.56
340.246	90.56
340.474	101.56
340.702	86.56
340.93	91.56
341.158	83.56
341.386	89.56
341.614	91.56
341.842	78.56
342.07	84.56
342.298	89.56
342.526	101.56
342.754	99.56
342.981	90.56
343.209	86.56
343.437	98.56
343.665	98.56
343.893	96.56
344.12	79.56
344.348	89.56
344.576	97.56
344.804	90.56
345.031	83.56
345.259	78.56
345.487	96.56
345.714	85.56
345.942	93.56
346.17	94.56
346.397	96.56
346.625	72.56
346.853	91.56
347.08	100.56
347.308	83.56
347.535	97.56
347.763	91.56
347.99	87.56
348.218	106.56
348.445	104.56
348.673	94.56
348.9	90.56
349.128	104.56
349.355	69.56
349.583	92.56
349.81	99.56
350.037	82.56
350.265	97.56
350.492	101.56
350.72	89.56
350.947	82.56
351.174	107.56
351.402	107.56
351.629	87.56
351.856	99.56
352.083	98.56
352.311	96.56
352.538	101.56
352.765	91.56
352.992	101.56
353.22	102.56
353.447	99.56
353.674	95.56
353.901	98.56
354.128	106.56
354.355	98.56
354.583	89.56
354.81	94.56
355.037	107.56
355.264	93.56
355.491	85.56
355.718	82.56
355.945	96.56
356.172	102.56
356.399	92.56
356.626	83.56
356.853	88.56
357.08	88.56
357.307	92.56
357.534	92.56
357.761	99.56
357.988	93.56
358.215	83.56
358.441	90.56
358.668	104.56
358.895	81.56
359.122	86.56
359.349	86.56
359.576	91.56
359.802	85.56
360.029	88.56
360.256	100.56
360.483	83.56
360.709	91.56
360.936	95.56
361.163	84.56
361.39	89.56
361.616	86.56
361.843	71.56
362.07	106.56
362.296	85.56
362.523	94.56
362.749	87.56
362.976	94.56
363.203	80.56
363.429	94.56
363.656	91.56
363.882	107.56
364.109	94.56
364.335	92.56
364.562	93.56
364.788	87.56
365.015	85.56
365.241	89.56
365.468	79.56
365.694	99.56
365.92	83.56
366.147	80.56
366.373	87.56
366.599	94.56
366.826	77.56
367.052	85.56
367.278	94.56
367.505	88.56
367.731	77.56
367.957	80.56
368.184	100.56
368.41	80.56
368.636	106.56
368.862	105.56
369.089	97.56
369.315	82.56
369.541	97.56
369.767	82.56
369.993	98.56
370.219	72.56
370.445	86.56
370.672	84.56
370.898	80.56
371.124	83.56
371.35	80.56
371.576	84.56
371.802	85.56
372.028	98.56
372.254	83.56
372.48	76.56
372.706	89.56
372.932	83.56
373.158	80.56
373.384	81.56
373.61	87.56
373.835	83.56
374.061	95.56
374.287	85.56
374.513	89.56
374.739	95.56
374.965	82.56
375.191	97.56
375.416	86.56
375.642	83.56
375.868	107.56
376.094	80.56
376.319	94.56
376.545	80.56
376.771	96.56
376.997	81.56
377.222	89.56
377.448	82.56
377.674	88.56
377.899	89.56
378.125	88.56
378.35	95.56
378.576	89.56
378.802	92.56
379.027	75.56
379.253	91.56
379.478	98.56
379.704	89.56
379.929	91.56
380.155	76.56
380.38	91.56
380.606	80.56
380.831	78.56
381.057	98.56
381.282	100.56
381.507	82.56
381.733	94.56
381.958	99.56
382.184	98.56
382.409	100.56
382.634	103.56
382.86	103.56
383.085	102.56
383.31	107.56
383.535	105.56
383.761	91.56
383.986	85.56
384.211	93.56
384.436	93.56
384.662	115.56
384.887	102.56
385.112	109.56
385.337	108.56
385.562	100.56
385.787	92.56
386.013	101.56
386.238	106.56
386.463	96.56
386.688	90.56
386.913	98.56
387.138	100.56
387.363	97.56
387.588	116.56
387.813	111.56
388.038	111.56
388.263	115.56
388.488	113.56
388.713	103.56
388.938	87.56
389.163	88.56
389.387	85.56
389.612	95.56
389.837	89.56
390.062	95.56
390.287	98.56
390.512	103.56
390.736	86.56
390.961	88.56
391.186	101.56
391.411	103.56
391.636	101.56
391.86	95.56
392.085	74.56
392.31	96.56
392.534	87.56
392.759	86.56
392.984	79.56
393.208	70.56
393.433	89.56
393.658	88.56
393.882	74.56
394.107	86.56
394.331	86.56
394.556	81.56
394.78	87.56
395.005	80.56
395.229	73.56
395.454	79.56
395.678	88.56
395.903	75.56
396.127	86.56
396.352	86.56
396.576	102.56
396.801	81.56
397.025	84.56
397.249	83.56
397.474	73.56
397.698	82.56
397.922	91.56
398.147	99.56
398.371	87.56
398.595	90.56
398.82	78.56
399.044	83.56
399.268	79.56
399.492	75.56
399.717	90.56
399.941	76.56
400.165	95.56
400.389	88.56
400.613	78.56
400.837	88.56
401.062	91.56
401.286	79.56
401.51	88.56
401.734	92.56
401.958	92.56
402.182	106.56
402.406	121.56
402.63	88.56
402.854	72.56
403.078	95.56
403.302	87.56
403.526	84.56
403.75	83.56
403.974	81.56
404.198	72.56
404.422	80.56
404.645	89.56
404.869	77.56
405.093	89.56
405.317	92.56
405.541	101.56
405.765	74.56
405.988	90.56
406.212	126.56
406.436	156.56
406.66	114.56
406.883	84.56
407.107	88.56
407.331	80.56
407.555	80.56
407.778	85.56
408.002	73.56
408.226	82.56
408.449	94.56
408.673	96.56
408.896	100.56
409.12	101.56
409.344	80.56
409.567	81.56
409.791	94.56
410.014	78.56
410.238	86.56
410.461	87.56
410.685	91.56
410.908	88.56
411.132	95.56
411.355	74.56
411.578	98.56
411.802	96.56
412.025	82.56
412.249	75.56
412.472	104.56
412.695	90.56
412.919	90.56
413.142	85.56
413.365	79.56
413.589	82.56
413.812	88.56
414.035	94.56
414.258	91.56
414.482	99.56
414.705	94.56
414.928	83.56
415.151	88.56
415.374	96.56
415.597	91.56
415.821	79.56
416.044	79.56
416.267	80.56
416.49	82.56
416.713	84.56
416.936	79.56
417.159	86.56
417.382	88.56
417.605	89.56
417.828	101.56
418.051	82.56
418.274	90.56
418.497	78.56
418.72	75.56
418.943	96.56
419.166	69.56
419.389	81.56
419.611	78.56
419.834	79.56
420.057	93.56
420.28	76.56
420.503	84.56
420.726	98.56
420.948	85.56
421.171	84.56
421.394	100.56
421.617	80.56
421.839	91.56
422.062	93.56
422.285	107.56
422.507	115.56
422.73	98.56
422.953	76.56
423.175	87.56
423.398	97.56
423.621	81.56
423.843	81.56
424.066	102.56
424.288	79.56
424.511	84.56
424.733	98.56
424.956	104.56
425.178	84.56
425.401	84.56
425.623	87.56
425.846	99.56
426.068	84.56
426.291	88.56
426.513	88.56
426.735	92.56
426.958	88.56
427.18	94.56
427.402	97.56
427.625	119.56
427.847	105.56
428.069	102.56
428.292	80.56
428.514	91.56
428.736	80.56
428.958	81.56
429.181	89.56
429.403	82.56
429.625	81.56
429.847	83.56
430.069	96.56
430.292	92.56
430.514	76.56
430.736	84.56
430.958	86.56
431.18	86.56
431.402	91.56
431.624	82.56
431.846	82.56
432.068	89.56
432.29	82.56
432.512	83.56
432.734	92.56
432.956	70.56
433.178	98.56
433.4	92.56
433.622	101.56
433.844	86.56
434.066	89.56
434.287	80.56
434.509	79.56
434.731	77.56
434.953	102.56
435.175	91.56
435.397	82.56
435.618	85.56
435.84	94.56
436.062	106.56
436.284	105.56
436.505	80.56
436.727	94.56
436.949	83.56
437.17	82.56
437.392	73.56
437.614	84.56
437.835	96.56
438.057	94.56
438.278	88.56
438.5	96.56
438.721	105.56
438.943	112.56
439.165	84.56
439.386	90.56
439.608	73.56
439.829	98.56
440.05	121.56
440.272	121.56
440.493	81.56
440.715	78.56
440.936	88.56
441.158	97.56
441.379	86.56
441.6	87.56
441.822	88.56
442.043	76.56
442.264	98.56
442.486	90.56
442.707	85.56
442.928	94.56
443.149	108.56
443.371	100.56
443.592	107.56
443.813	90.56
444.034	89.56
444.255	98.56
444.476	91.56
444.698	81.56
444.919	80.56
445.14	132.56
445.361	119.56
445.582	89.56
445.803	116.56
446.024	119.56
446.245	110.56
446.466	88.56
446.687	82.56
446.908	84.56
447.129	68.56
447.35	87.56
447.571	93.56
447.792	75.56
448.013	84.56
448.234	91.56
448.455	84.56
448.675	97.56
448.896	102.56
449.117	93.56
449.338	84.56
449.559	111.56
449.779	130.56
450	92.56
450.221	102.56
450.442	86.56
450.662	94.56
450.883	96.56
451.104	96.56
451.324	89.56
451.545	84.56
451.766	96.56
451.986	88.56
452.207	83.56
452.428	70.56
452.648	97.56
452.869	101.56
453.089	97.56
453.31	105.56
453.53	88.56
453.751	92.56
453.971	85.56
454.192	99.56
454.412	91.56
454.633	89.56
454.853	81.56
455.073	79.56
455.294	76.56
455.514	84.56
455.734	78.56
455.955	95.56
456.175	90.56
456.395	78.56
456.616	86.56
456.836	93.56
457.056	89.56
457.276	93.56
457.497	62.56
457.717	80.56
457.937	68.56
458.157	71.56
458.377	84.56
458.598	105.56
458.818	120.56
459.038	120.56
459.258	106.56
459.478	88.56
459.698	91.56
459.918	88.56
460.138	87.56
460.358	94.56
460.578	88.56
460.798	91.56
461.018	100.56
461.238	88.56
461.458	82.56
461.678	76.56
461.898	80.56
462.118	83.56
462.338	102.56
462.558	82.56
462.777	91.56
462.997	80.56
463.217	66.56
463.437	83.56
463.657	98.56
463.876	81.56
464.096	84.56
464.316	104.56
464.536	92.56
464.755	86.56
464.975	92.56
465.195	108.56
465.414	111.56
465.634	84.56
465.854	75.56
466.073	85.56
466.293	81.56
466.512	74.56
466.732	98.56
466.951	88.56
467.171	86.56
467.391	98.56
467.61	98.56
467.829	93.56
468.049	95.56
468.268	83.56
468.488	91.56
468.707	88.56
468.927	81.56
469.146	99.56
469.365	94.56
469.585	90.56
469.804	86.56
470.023	79.56
470.243	82.56
470.462	102.56
470.681	100.56
470.901	89.56
471.12	80.56
471.339	96.56
471.558	79.56
471.777	87.56
471.997	87.56
472.216	115.56
472.435	115.56
472.654	90.56
472.873	85.56
473.092	90.56
473.311	88.56
473.53	70.56
473.749	95.56
473.968	78.56
474.187	102.56
474.406	94.56
474.625	86.56
474.844	83.56
475.063	88.56
475.282	84.56
475.501	83.56
475.72	85.56
475.939	75.56
476.158	78.56
476.377	78.56
476.596	80.56
476.814	79.56
477.033	84.56
477.252	88.56
477.471	83.56
477.69	89.56
477.908	78.56
478.127	87.56
478.346	87.56
478.564	87.56
478.783	92.56
479.002	103.56
479.22	90.56
479.439	96.56
479.658	105.56
479.876	88.56
480.095	78.56
480.313	88.56
480.532	69.56
480.751	96.56
480.969	99.56
481.188	145.56
481.406	136.56
481.624	98.56
481.843	78.56
482.061	83.56
482.28	99.56
482.498	91.56
482.717	78.56
482.935	85.56
483.153	69.56
483.372	89.56
483.59	94.56
483.808	71.56
484.027	84.56
484.245	96.56
484.463	89.56
484.681	86.56
484.9	83.56
485.118	82.56
485.336	69.56
485.554	105.56
485.772	95.56
485.99	99.56
486.209	105.56
486.427	90.56
486.645	93.56
486.863	116.56
487.081	69.56
487.299	87.56
487.517	85.56
487.735	82.56
487.953	90.56
488.171	101.56
488.389	100.56
488.607	89.56
488.825	95.56
489.043	89.56
489.261	93.56
489.479	98.56
489.696	90.56
489.914	85.56
490.132	94.56
490.35	91.56
490.568	90.56
490.786	75.56
491.003	78.56
491.221	94.56
491.439	81.56
491.657	88.56
491.874	95.56
492.092	79.56
492.31	89.56
492.527	96.56
492.745	91.56
492.963	80.56
493.18	89.56
493.398	97.56
493.615	97.56
493.833	81.56
494.05	81.56
494.268	72.56
494.485	78.56
494.703	87.56
494.92	94.56
495.138	91.56
495.355	84.56
495.573	83.56
495.79	96.56
496.008	86.56
496.225	78.56
496.442	81.56
496.66	103.56
496.877	89.56
497.094	96.56
497.312	85.56
497.529	96.56
497.746	85.56
497.963	82.56
498.181	108.56
498.398	94.56
498.615	105.56
498.832	91.56
499.049	98.56
499.267	94.56
499.484	85.56
499.701	96.56
499.918	84.56
500.135	91.56
500.352	93.56
500.569	96.56
500.786	88.56
501.003	87.56
501.22	88.56
501.437	71.56
501.654	83.56
501.871	105.56
502.088	100.56
502.305	86.56
502.522	79.56
502.739	83.56
502.956	91.56
503.172	87.56
503.389	83.56
503.606	96.56
503.823	95.56
504.04	80.56
504.256	81.56
504.473	89.56
504.69	77.56
504.907	88.56
505.123	93.56
505.34	92.56
505.557	83.56
505.773	110.56
505.99	100.56
506.207	85.56
506.423	82.56
506.64	95.56
506.856	91.56
507.073	98.56
507.289	80.56
507.506	84.56
507.722	106.56
507.939	95.56
508.155	96.56
508.372	95.56
508.588	78.56
508.805	82.56
509.021	83.56
509.238	91.56
509.454	96.56
509.67	98.56
509.887	104.56
510.103	106.56
510.319	171.56
510.536	536.56
510.752	1529.56
510.968	434.56
511.184	121.56
511.401	112.56
511.617	88.56
511.833	102.56
512.049	79.56
512.265	85.56
512.481	74.56
512.698	99.56
512.914	90.56
513.13	96.56
513.346	84.56
513.562	87.56
513.778	84.56
513.994	91.56
514.21	99.56
514.426	104.56
514.642	112.56
514.858	118.56
515.074	132.56
515.29	320.56
515.506	897.56
515.721	325.56
515.937	106.56
516.153	94.56
516.369	92.56
516.585	99.56
516.801	102.56
517.016	93.56
517.232	81.56
