Data from Uncirc_1981_H10_HRD10591_00013.txt Node
Date: Wed Jan 03 12:33:10 EST 2024
User: Yrep
Spectrometer: HR+D1059
Trigger mode: 1
Integration Time (sec): 1.000000E-1
Scans to average: 1
Electric dark correction enabled: true
Nonlinearity correction enabled: false
Boxcar width: 0
XAxis mode: Wavelengths
Number of Pixels in Spectrum: 2048
>>>>>Begin Spectral Data<<<<<
223.165	-21.5
223.4	-21.5
223.635	-21.5
223.869	-13.5
224.104	-22.5
224.338	-21.5
224.573	-13.5
224.808	-1.5
225.042	-2.5
225.277	9.5
225.511	-4.5
225.746	-10.5
225.98	1.5
226.215	-0.5
226.449	13.5
226.683	24.5
226.918	32.5
227.152	30.5
227.387	36.5
227.621	47.5
227.856	41.5
228.09	40.5
228.324	60.5
228.559	52.5
228.793	66.5
229.027	70.5
229.262	66.5
229.496	64.5
229.73	78.5
229.964	76.5
230.199	68.5
230.433	72.5
230.667	75.5
230.901	86.5
231.136	75.5
231.37	56.5
231.604	76.5
231.838	91.5
232.072	72.5
232.306	85.5
232.541	90.5
232.775	75.5
233.009	76.5
233.243	83.5
233.477	85.5
233.711	80.5
233.945	89.5
234.179	78.5
234.413	73.5
234.647	75.5
234.881	90.5
235.115	78.5
235.349	73.5
235.583	84.5
235.817	71.5
236.051	86.5
236.285	81.5
236.519	92.5
236.753	73.5
236.987	70.5
237.221	76.5
237.455	82.5
237.689	71.5
237.922	68.5
238.156	77.5
238.39	76.5
238.624	68.5
238.858	71.5
239.091	77.5
239.325	83.5
239.559	79.5
239.793	98.5
240.027	69.5
240.26	80.5
240.494	80.5
240.728	88.5
240.961	71.5
241.195	68.5
241.429	86.5
241.662	77.5
241.896	80.5
242.13	77.5
242.363	75.5
242.597	69.5
242.83	80.5
243.064	66.5
243.298	70.5
243.531	82.5
243.765	71.5
243.998	82.5
244.232	66.5
244.465	84.5
244.699	84.5
244.932	78.5
245.166	80.5
245.399	91.5
245.633	83.5
245.866	82.5
246.099	91.5
246.333	76.5
246.566	82.5
246.8	68.5
247.033	76.5
247.266	93.5
247.5	84.5
247.733	86.5
247.966	83.5
248.2	69.5
248.433	76.5
248.666	78.5
248.899	80.5
249.133	80.5
249.366	80.5
249.599	93.5
249.832	75.5
250.066	82.5
250.299	86.5
250.532	78.5
250.765	84.5
250.998	75.5
251.231	78.5
251.465	78.5
251.698	86.5
251.931	68.5
252.164	72.5
252.397	74.5
252.63	75.5
252.863	79.5
253.096	92.5
253.329	77.5
253.562	77.5
253.795	88.5
254.028	84.5
254.261	99.5
254.494	85.5
254.727	68.5
254.96	87.5
255.193	90.5
255.426	91.5
255.659	83.5
255.892	84.5
256.124	85.5
256.357	88.5
256.59	83.5
256.823	84.5
257.056	74.5
257.289	75.5
257.521	80.5
257.754	69.5
257.987	90.5
258.22	88.5
258.452	82.5
258.685	73.5
258.918	73.5
259.151	66.5
259.383	86.5
259.616	105.5
259.849	92.5
260.081	84.5
260.314	84.5
260.547	88.5
260.779	100.5
261.012	87.5
261.244	72.5
261.477	77.5
261.71	85.5
261.942	98.5
262.175	121.5
262.407	101.5
262.64	76.5
262.872	90.5
263.105	84.5
263.337	89.5
263.57	81.5
263.802	75.5
264.035	84.5
264.267	84.5
264.499	92.5
264.732	90.5
264.964	70.5
265.197	91.5
265.429	88.5
265.661	82.5
265.894	82.5
266.126	88.5
266.358	99.5
266.591	97.5
266.823	89.5
267.055	72.5
267.287	88.5
267.52	80.5
267.752	73.5
267.984	82.5
268.216	80.5
268.448	88.5
268.681	89.5
268.913	92.5
269.145	84.5
269.377	67.5
269.609	82.5
269.841	84.5
270.073	90.5
270.306	100.5
270.538	73.5
270.77	94.5
271.002	77.5
271.234	84.5
271.466	82.5
271.698	72.5
271.93	88.5
272.162	68.5
272.394	76.5
272.626	65.5
272.858	89.5
273.09	92.5
273.322	86.5
273.553	84.5
273.785	93.5
274.017	103.5
274.249	99.5
274.481	86.5
274.713	103.5
274.945	84.5
275.176	72.5
275.408	69.5
275.64	94.5
275.872	88.5
276.104	105.5
276.335	88.5
276.567	94.5
276.799	100.5
277.031	82.5
277.262	89.5
277.494	75.5
277.726	84.5
277.957	89.5
278.189	97.5
278.421	91.5
278.652	98.5
278.884	88.5
279.115	82.5
279.347	96.5
279.579	85.5
279.81	86.5
280.042	86.5
280.273	95.5
280.505	72.5
280.736	90.5
280.968	74.5
281.199	88.5
281.431	85.5
281.662	86.5
281.894	87.5
282.125	99.5
282.356	101.5
282.588	119.5
282.819	100.5
283.051	77.5
283.282	71.5
283.513	92.5
283.745	69.5
283.976	80.5
284.207	88.5
284.439	82.5
284.67	92.5
284.901	100.5
285.132	96.5
285.364	84.5
285.595	100.5
285.826	84.5
286.057	86.5
286.288	100.5
286.52	86.5
286.751	84.5
286.982	96.5
287.213	74.5
287.444	87.5
287.675	101.5
287.906	90.5
288.138	92.5
288.369	92.5
288.6	96.5
288.831	75.5
289.062	93.5
289.293	76.5
289.524	87.5
289.755	88.5
289.986	84.5
290.217	96.5
290.448	93.5
290.679	74.5
290.91	86.5
291.141	89.5
291.371	91.5
291.602	84.5
291.833	96.5
292.064	84.5
292.295	74.5
292.526	81.5
292.757	99.5
292.987	90.5
293.218	82.5
293.449	90.5
293.68	87.5
293.91	75.5
294.141	79.5
294.372	92.5
294.603	92.5
294.833	83.5
295.064	76.5
295.295	86.5
295.525	82.5
295.756	87.5
295.987	108.5
296.217	115.5
296.448	109.5
296.679	100.5
296.909	92.5
297.14	111.5
297.37	97.5
297.601	92.5
297.831	93.5
298.062	75.5
298.292	80.5
298.523	88.5
298.753	107.5
298.984	80.5
299.214	82.5
299.445	86.5
299.675	91.5
299.905	81.5
300.136	86.5
300.366	77.5
300.597	101.5
300.827	98.5
301.057	82.5
301.288	93.5
301.518	89.5
301.748	98.5
301.979	105.5
302.209	92.5
302.439	81.5
302.669	89.5
302.9	88.5
303.13	95.5
303.36	94.5
303.59	100.5
303.82	102.5
304.051	110.5
304.281	84.5
304.511	86.5
304.741	93.5
304.971	87.5
305.201	77.5
305.431	88.5
305.661	89.5
305.891	92.5
306.121	84.5
306.352	101.5
306.582	106.5
306.812	109.5
307.042	91.5
307.272	97.5
307.502	93.5
307.731	86.5
307.961	95.5
308.191	91.5
308.421	93.5
308.651	92.5
308.881	77.5
309.111	93.5
309.341	86.5
309.571	92.5
309.8	77.5
310.03	97.5
310.26	96.5
310.49	94.5
310.72	94.5
310.949	91.5
311.179	88.5
311.409	84.5
311.639	79.5
311.868	102.5
312.098	103.5
312.328	82.5
312.557	84.5
312.787	102.5
313.017	97.5
313.246	92.5
313.476	99.5
313.706	99.5
313.935	99.5
314.165	109.5
314.394	99.5
314.624	103.5
314.853	90.5
315.083	84.5
315.312	75.5
315.542	101.5
315.771	87.5
316.001	89.5
316.23	82.5
316.46	74.5
316.689	89.5
316.919	89.5
317.148	96.5
317.377	102.5
317.607	104.5
317.836	90.5
318.065	90.5
318.295	89.5
318.524	93.5
318.753	76.5
318.983	100.5
319.212	85.5
319.441	92.5
319.67	92.5
319.9	89.5
320.129	88.5
320.358	88.5
320.587	96.5
320.816	80.5
321.046	89.5
321.275	92.5
321.504	103.5
321.733	99.5
321.962	86.5
322.191	88.5
322.42	83.5
322.649	99.5
322.878	110.5
323.108	104.5
323.337	119.5
323.566	114.5
323.795	138.5
324.024	179.5
324.253	347.5
324.482	724.5
324.71	1492.5
324.939	2021.5
325.168	699.5
325.397	226.5
325.626	147.5
325.855	111.5
326.084	121.5
326.313	117.5
326.542	152.5
326.77	215.5
326.999	408.5
327.228	866.5
327.457	1557.5
327.686	1253.5
327.914	320.5
328.143	160.5
328.372	117.5
328.6	126.5
328.829	101.5
329.058	106.5
329.287	122.5
329.515	106.5
329.744	101.5
329.972	91.5
330.201	104.5
330.43	103.5
330.658	98.5
330.887	112.5
331.115	119.5
331.344	97.5
331.572	109.5
331.801	98.5
332.03	101.5
332.258	98.5
332.486	85.5
332.715	94.5
332.943	103.5
333.172	96.5
333.4	100.5
333.629	94.5
333.857	93.5
334.085	105.5
334.314	100.5
334.542	116.5
334.771	119.5
334.999	100.5
335.227	102.5
335.455	90.5
335.684	114.5
335.912	94.5
336.14	93.5
336.369	92.5
336.597	86.5
336.825	108.5
337.053	81.5
337.281	81.5
337.51	93.5
337.738	86.5
337.966	94.5
338.194	92.5
338.422	90.5
338.65	91.5
338.878	95.5
339.106	85.5
339.334	98.5
339.562	87.5
339.79	102.5
340.018	88.5
340.246	91.5
340.474	96.5
340.702	94.5
340.93	93.5
341.158	90.5
341.386	104.5
341.614	99.5
341.842	98.5
342.07	78.5
342.298	101.5
342.526	94.5
342.754	86.5
342.981	88.5
343.209	93.5
343.437	82.5
343.665	93.5
343.893	102.5
344.12	88.5
344.348	91.5
344.576	100.5
344.804	88.5
345.031	95.5
345.259	90.5
345.487	102.5
345.714	98.5
345.942	105.5
346.17	72.5
346.397	77.5
346.625	96.5
346.853	96.5
347.08	76.5
347.308	93.5
347.535	92.5
347.763	91.5
347.99	93.5
348.218	98.5
348.445	109.5
348.673	109.5
348.9	96.5
349.128	88.5
349.355	93.5
349.583	115.5
349.81	100.5
350.037	99.5
350.265	100.5
350.492	100.5
350.72	108.5
350.947	96.5
351.174	107.5
351.402	111.5
351.629	92.5
351.856	78.5
352.083	102.5
352.311	101.5
352.538	106.5
352.765	108.5
352.992	90.5
353.22	94.5
353.447	105.5
353.674	93.5
353.901	102.5
354.128	104.5
354.355	90.5
354.583	95.5
354.81	99.5
355.037	96.5
355.264	97.5
355.491	92.5
355.718	94.5
355.945	108.5
356.172	108.5
356.399	85.5
356.626	108.5
356.853	104.5
357.08	102.5
357.307	100.5
357.534	81.5
357.761	97.5
357.988	105.5
358.215	100.5
358.441	111.5
358.668	90.5
358.895	111.5
359.122	85.5
359.349	107.5
359.576	95.5
359.802	84.5
360.029	104.5
360.256	99.5
360.483	88.5
360.709	96.5
360.936	89.5
361.163	89.5
361.39	76.5
361.616	80.5
361.843	94.5
362.07	88.5
362.296	90.5
362.523	85.5
362.749	85.5
362.976	81.5
363.203	93.5
363.429	89.5
363.656	96.5
363.882	86.5
364.109	96.5
364.335	85.5
364.562	88.5
364.788	77.5
365.015	94.5
365.241	88.5
365.468	104.5
365.694	95.5
365.92	93.5
366.147	85.5
366.373	93.5
366.599	83.5
366.826	96.5
367.052	83.5
367.278	91.5
367.505	97.5
367.731	87.5
367.957	97.5
368.184	89.5
368.41	101.5
368.636	110.5
368.862	106.5
369.089	92.5
369.315	90.5
369.541	97.5
369.767	98.5
369.993	89.5
370.219	89.5
370.445	82.5
370.672	93.5
370.898	92.5
371.124	94.5
371.35	75.5
371.576	100.5
371.802	87.5
372.028	102.5
372.254	98.5
372.48	75.5
372.706	97.5
372.932	96.5
373.158	101.5
373.384	112.5
373.61	108.5
373.835	93.5
374.061	95.5
374.287	105.5
374.513	93.5
374.739	103.5
374.965	99.5
375.191	80.5
375.416	77.5
375.642	86.5
375.868	75.5
376.094	107.5
376.319	98.5
376.545	76.5
376.771	91.5
376.997	91.5
377.222	95.5
377.448	105.5
377.674	100.5
377.899	92.5
378.125	109.5
378.35	108.5
378.576	101.5
378.802	96.5
379.027	94.5
379.253	105.5
379.478	97.5
379.704	88.5
379.929	113.5
380.155	106.5
380.38	95.5
380.606	84.5
380.831	108.5
381.057	108.5
381.282	103.5
381.507	122.5
381.733	117.5
381.958	109.5
382.184	91.5
382.409	100.5
382.634	113.5
382.86	119.5
383.085	110.5
383.31	109.5
383.535	119.5
383.761	116.5
383.986	125.5
384.211	107.5
384.436	123.5
384.662	110.5
384.887	133.5
385.112	146.5
385.337	128.5
385.562	132.5
385.787	131.5
386.013	138.5
386.238	129.5
386.463	123.5
386.688	131.5
386.913	140.5
387.138	140.5
387.363	128.5
387.588	113.5
387.813	116.5
388.038	126.5
388.263	152.5
388.488	131.5
388.713	104.5
388.938	101.5
389.163	97.5
389.387	97.5
389.612	83.5
389.837	87.5
390.062	87.5
390.287	91.5
390.512	86.5
390.736	86.5
390.961	71.5
391.186	108.5
391.411	97.5
391.636	102.5
391.86	94.5
392.085	80.5
392.31	87.5
392.534	98.5
392.759	88.5
392.984	75.5
393.208	95.5
393.433	87.5
393.658	95.5
393.882	92.5
394.107	84.5
394.331	99.5
394.556	89.5
394.78	83.5
395.005	99.5
395.229	77.5
395.454	73.5
395.678	76.5
395.903	96.5
396.127	85.5
396.352	83.5
396.576	80.5
396.801	85.5
397.025	74.5
397.249	89.5
397.474	89.5
397.698	83.5
397.922	90.5
398.147	96.5
398.371	80.5
398.595	97.5
398.82	89.5
399.044	97.5
399.268	88.5
399.492	82.5
399.717	83.5
399.941	87.5
400.165	104.5
400.389	88.5
400.613	74.5
400.837	76.5
401.062	84.5
401.286	100.5
401.51	83.5
401.734	96.5
401.958	99.5
402.182	125.5
402.406	124.5
402.63	107.5
402.854	81.5
403.078	88.5
403.302	91.5
403.526	80.5
403.75	87.5
403.974	89.5
404.198	94.5
404.422	81.5
404.645	90.5
404.869	92.5
405.093	97.5
405.317	107.5
405.541	98.5
405.765	104.5
405.988	120.5
406.212	135.5
406.436	163.5
406.66	126.5
406.883	80.5
407.107	87.5
407.331	97.5
407.555	103.5
407.778	95.5
408.002	89.5
408.226	82.5
408.449	99.5
408.673	103.5
408.896	104.5
409.12	94.5
409.344	93.5
409.567	86.5
409.791	96.5
410.014	96.5
410.238	101.5
410.461	91.5
410.685	95.5
410.908	86.5
411.132	117.5
411.355	94.5
411.578	88.5
411.802	85.5
412.025	94.5
412.249	96.5
412.472	86.5
412.695	94.5
412.919	88.5
413.142	97.5
413.365	82.5
413.589	81.5
413.812	102.5
414.035	76.5
414.258	85.5
414.482	88.5
414.705	105.5
414.928	107.5
415.151	92.5
415.374	96.5
415.597	76.5
415.821	86.5
416.044	81.5
416.267	88.5
416.49	81.5
416.713	91.5
416.936	93.5
417.159	99.5
417.382	84.5
417.605	72.5
417.828	92.5
418.051	94.5
418.274	101.5
418.497	101.5
418.72	96.5
418.943	95.5
419.166	96.5
419.389	100.5
419.611	88.5
419.834	91.5
420.057	101.5
420.28	96.5
420.503	90.5
420.726	86.5
420.948	86.5
421.171	93.5
421.394	82.5
421.617	76.5
421.839	92.5
422.062	92.5
422.285	97.5
422.507	80.5
422.73	97.5
422.953	101.5
423.175	88.5
423.398	83.5
423.621	92.5
423.843	81.5
424.066	77.5
424.288	76.5
424.511	81.5
424.733	84.5
424.956	91.5
425.178	101.5
425.401	94.5
425.623	92.5
425.846	100.5
426.068	99.5
426.291	93.5
426.513	87.5
426.735	86.5
426.958	89.5
427.18	114.5
427.402	132.5
427.625	146.5
427.847	105.5
428.069	86.5
428.292	71.5
428.514	96.5
428.736	92.5
428.958	91.5
429.181	84.5
429.403	96.5
429.625	83.5
429.847	86.5
430.069	106.5
430.292	89.5
430.514	86.5
430.736	100.5
430.958	100.5
431.18	81.5
431.402	92.5
431.624	87.5
431.846	80.5
432.068	80.5
432.29	100.5
432.512	96.5
432.734	88.5
432.956	87.5
433.178	86.5
433.4	101.5
433.622	93.5
433.844	97.5
434.066	82.5
434.287	100.5
434.509	101.5
434.731	85.5
434.953	82.5
435.175	94.5
435.397	80.5
435.618	69.5
435.84	101.5
436.062	121.5
436.284	121.5
436.505	103.5
436.727	106.5
436.949	83.5
437.17	91.5
437.392	82.5
437.614	89.5
437.835	100.5
438.057	110.5
438.278	96.5
438.5	94.5
438.721	106.5
438.943	100.5
439.165	92.5
439.386	96.5
439.608	86.5
439.829	99.5
440.05	108.5
440.272	148.5
440.493	101.5
440.715	94.5
440.936	97.5
441.158	87.5
441.379	94.5
441.6	108.5
441.822	92.5
442.043	84.5
442.264	100.5
442.486	84.5
442.707	94.5
442.928	97.5
443.149	123.5
443.371	113.5
443.592	103.5
443.813	94.5
444.034	96.5
444.255	90.5
444.476	93.5
444.698	89.5
444.919	86.5
445.14	133.5
445.361	114.5
445.582	96.5
445.803	123.5
446.024	117.5
446.245	114.5
446.466	103.5
446.687	82.5
446.908	92.5
447.129	103.5
447.35	92.5
447.571	88.5
447.792	101.5
448.013	90.5
448.234	90.5
448.455	115.5
448.675	108.5
448.896	105.5
449.117	82.5
449.338	96.5
449.559	100.5
449.779	125.5
450	100.5
450.221	97.5
450.442	90.5
450.662	93.5
450.883	71.5
451.104	98.5
451.324	82.5
451.545	76.5
451.766	98.5
451.986	84.5
452.207	81.5
452.428	89.5
452.648	98.5
452.869	109.5
453.089	93.5
453.31	109.5
453.53	76.5
453.751	94.5
453.971	92.5
454.192	101.5
454.412	104.5
454.633	88.5
454.853	75.5
455.073	85.5
455.294	77.5
455.514	84.5
455.734	87.5
455.955	73.5
456.175	88.5
456.395	81.5
456.616	88.5
456.836	92.5
457.056	76.5
457.276	94.5
457.497	68.5
457.717	75.5
457.937	89.5
458.157	90.5
458.377	91.5
458.598	102.5
458.818	130.5
459.038	131.5
459.258	108.5
459.478	100.5
459.698	91.5
459.918	96.5
460.138	96.5
460.358	86.5
460.578	94.5
460.798	90.5
461.018	90.5
461.238	97.5
461.458	98.5
461.678	93.5
461.898	79.5
462.118	104.5
462.338	86.5
462.558	90.5
462.777	68.5
462.997	73.5
463.217	85.5
463.437	86.5
463.657	89.5
463.876	85.5
464.096	96.5
464.316	99.5
464.536	91.5
464.755	96.5
464.975	95.5
465.195	118.5
465.414	130.5
465.634	104.5
465.854	80.5
466.073	97.5
466.293	82.5
466.512	80.5
466.732	80.5
466.951	86.5
467.171	95.5
467.391	84.5
467.61	91.5
467.829	103.5
468.049	87.5
468.268	100.5
468.488	90.5
468.707	80.5
468.927	92.5
469.146	83.5
469.365	94.5
469.585	105.5
469.804	100.5
470.023	96.5
470.243	88.5
470.462	106.5
470.681	85.5
470.901	90.5
471.12	83.5
471.339	92.5
471.558	99.5
471.777	92.5
471.997	90.5
472.216	101.5
472.435	132.5
472.654	94.5
472.873	84.5
473.092	85.5
473.311	84.5
473.53	76.5
473.749	97.5
473.968	92.5
474.187	90.5
474.406	84.5
474.625	102.5
474.844	99.5
475.063	90.5
475.282	91.5
475.501	94.5
475.72	82.5
475.939	92.5
476.158	77.5
476.377	82.5
476.596	86.5
476.814	103.5
477.033	88.5
477.252	107.5
477.471	84.5
477.69	93.5
477.908	72.5
478.127	84.5
478.346	82.5
478.564	91.5
478.783	99.5
479.002	100.5
479.22	90.5
479.439	91.5
479.658	100.5
479.876	85.5
480.095	77.5
480.313	92.5
480.532	89.5
480.751	86.5
480.969	101.5
481.188	150.5
481.406	121.5
481.624	105.5
481.843	82.5
482.061	88.5
482.28	87.5
482.498	86.5
482.717	84.5
482.935	93.5
483.153	86.5
483.372	87.5
483.59	85.5
483.808	95.5
484.027	96.5
484.245	96.5
484.463	91.5
484.681	91.5
484.9	107.5
485.118	95.5
485.336	107.5
485.554	97.5
485.772	108.5
485.99	108.5
486.209	98.5
486.427	116.5
486.645	96.5
486.863	102.5
487.081	99.5
487.299	101.5
487.517	107.5
487.735	84.5
487.953	95.5
488.171	101.5
488.389	87.5
488.607	96.5
488.825	85.5
489.043	80.5
489.261	84.5
489.479	98.5
489.696	94.5
489.914	104.5
490.132	80.5
490.35	92.5
490.568	88.5
490.786	80.5
491.003	92.5
491.221	97.5
491.439	108.5
491.657	107.5
491.874	103.5
492.092	83.5
492.31	97.5
492.527	84.5
492.745	84.5
492.963	88.5
493.18	100.5
493.398	94.5
493.615	98.5
493.833	106.5
494.05	105.5
494.268	89.5
494.485	91.5
494.703	78.5
494.92	97.5
495.138	96.5
495.355	106.5
495.573	105.5
495.79	101.5
496.008	80.5
496.225	88.5
496.442	86.5
496.66	102.5
496.877	94.5
497.094	85.5
497.312	83.5
497.529	83.5
497.746	86.5
497.963	91.5
498.181	85.5
498.398	97.5
498.615	93.5
498.832	100.5
499.049	76.5
499.267	99.5
499.484	84.5
499.701	85.5
499.918	85.5
500.135	78.5
500.352	80.5
500.569	95.5
500.786	93.5
501.003	101.5
501.22	87.5
501.437	102.5
501.654	98.5
501.871	107.5
502.088	68.5
502.305	103.5
502.522	100.5
502.739	98.5
502.956	99.5
503.172	82.5
503.389	109.5
503.606	107.5
503.823	84.5
504.04	85.5
504.256	77.5
504.473	97.5
504.69	100.5
504.907	95.5
505.123	91.5
505.34	88.5
505.557	81.5
505.773	87.5
505.99	96.5
506.207	105.5
506.423	95.5
506.64	86.5
506.856	93.5
507.073	105.5
507.289	84.5
507.506	89.5
507.722	112.5
507.939	105.5
508.155	93.5
508.372	97.5
508.588	103.5
508.805	84.5
509.021	86.5
509.238	89.5
509.454	93.5
509.67	95.5
509.887	96.5
510.103	111.5
510.319	151.5
510.536	487.5
510.752	1519.5
510.968	445.5
511.184	126.5
511.401	103.5
511.617	110.5
511.833	100.5
512.049	91.5
512.265	96.5
512.481	98.5
512.698	85.5
512.914	109.5
513.13	93.5
513.346	100.5
513.562	77.5
513.778	98.5
513.994	97.5
514.21	102.5
514.426	115.5
514.642	129.5
514.858	109.5
515.074	129.5
515.29	343.5
515.506	969.5
515.721	375.5
515.937	141.5
516.153	98.5
516.369	105.5
516.585	82.5
516.801	94.5
517.016	84.5
517.232	79.5
517.448	106.5
517.664	94.5
517.879	82.5
518.095	102.5
518.311	95.5
518.527	101.5
518.742	86.5
518.958	92.5
519.173	102.5
519.389	85.5
519.605	107.5
519.82	100.5
520.036	99.5
520.251	108.5
520.467	89.5
520.682	104.5
520.898	105.5
521.113	107.5
521.329	110.5
521.544	163.5
521.76	388.5
521.975	1562.5
522.19	964.5
522.406	228.5
522.621	124.5
522.836	85.5
523.052	97.5
523.267	88.5
523.482	82.5
523.698	91.5
523.913	109.5
524.128	100.5
524.343	86.5
524.559	99.5
524.774	87.5
524.989	96.5
525.204	100.5
525.419	102.5
525.634	84.5
525.849	77.5
526.064	90.5
526.28	88.5
526.495	89.5
526.71	92.5
526.925	91.5
527.14	82.5
527.355	100.5
527.57	81.5
527.785	92.5
527.999	95.5
528.214	96.5
528.429	101.5
528.644	103.5
528.859	94.5
529.074	82.5
529.289	113.5
529.503	144.5
529.718	102.5
529.933	90.5
530.148	90.5
530.363	94.5
530.577	71.5
530.792	96.5
531.007	82.5
531.221	98.5
531.436	91.5
531.651	92.5
531.865	95.5
532.08	100.5
532.295	101.5
532.509	92.5
532.724	88.5
532.938	98.5
533.153	94.5
533.367	91.5
533.582	90.5
533.796	93.5
534.011	86.5
534.225	89.5
534.44	96.5
534.654	98.5
534.868	107.5
