Data from Uncirc_1981_H10_HRD10591_00071.txt Node
Date: Wed Jan 03 12:33:22 EST 2024
User: Yrep
Spectrometer: HR+D1059
Trigger mode: 1
Integration Time (sec): 1.000000E-1
Scans to average: 1
Electric dark correction enabled: true
Nonlinearity correction enabled: false
Boxcar width: 0
XAxis mode: Wavelengths
Number of Pixels in Spectrum: 2048
>>>>>Begin Spectral Data<<<<<
223.165	-11.81
223.4	-11.81
223.635	-11.81
223.869	-21.81
224.104	-12.81
224.338	-27.81
224.573	-24.81
224.808	-7.81
225.042	-14.81
225.277	1.19
225.511	1.19
225.746	4.19
225.98	15.19
226.215	13.19
226.449	23.19
226.683	22.19
226.918	26.19
227.152	15.19
227.387	12.19
227.621	43.19
227.856	34.19
228.09	47.19
228.324	57.19
228.559	56.19
228.793	55.19
229.027	62.19
229.262	54.19
229.496	74.19
229.73	84.19
229.964	82.19
230.199	69.19
230.433	75.19
230.667	81.19
230.901	83.19
231.136	75.19
231.37	81.19
231.604	79.19
231.838	88.19
232.072	81.19
232.306	81.19
232.541	86.19
232.775	71.19
233.009	71.19
233.243	80.19
233.477	89.19
233.711	80.19
233.945	88.19
234.179	77.19
234.413	75.19
234.647	72.19
234.881	67.19
235.115	66.19
235.349	83.19
235.583	71.19
235.817	85.19
236.051	63.19
236.285	71.19
236.519	84.19
236.753	87.19
236.987	75.19
237.221	60.19
237.455	91.19
237.689	89.19
237.922	67.19
238.156	61.19
238.39	70.19
238.624	72.19
238.858	89.19
239.091	74.19
239.325	77.19
239.559	75.19
239.793	71.19
240.027	74.19
240.26	78.19
240.494	71.19
240.728	85.19
240.961	75.19
241.195	75.19
241.429	72.19
241.662	81.19
241.896	63.19
242.13	84.19
242.363	71.19
242.597	83.19
242.83	79.19
243.064	64.19
243.298	76.19
243.531	79.19
243.765	69.19
243.998	74.19
244.232	72.19
244.465	87.19
244.699	88.19
244.932	80.19
245.166	87.19
245.399	82.19
245.633	73.19
245.866	73.19
246.099	80.19
246.333	80.19
246.566	80.19
246.8	88.19
247.033	79.19
247.266	84.19
247.5	87.19
247.733	91.19
247.966	76.19
248.2	88.19
248.433	93.19
248.666	81.19
248.899	86.19
249.133	82.19
249.366	95.19
249.599	97.19
249.832	90.19
250.066	78.19
250.299	71.19
250.532	75.19
250.765	73.19
250.998	77.19
251.231	82.19
251.465	87.19
251.698	86.19
251.931	71.19
252.164	62.19
252.397	67.19
252.63	68.19
252.863	92.19
253.096	81.19
253.329	70.19
253.562	73.19
253.795	88.19
254.028	79.19
254.261	59.19
254.494	74.19
254.727	91.19
254.96	75.19
255.193	86.19
255.426	77.19
255.659	82.19
255.892	78.19
256.124	76.19
256.357	70.19
256.59	67.19
256.823	85.19
257.056	86.19
257.289	79.19
257.521	82.19
257.754	83.19
257.987	81.19
258.22	80.19
258.452	73.19
258.685	72.19
258.918	78.19
259.151	80.19
259.383	84.19
259.616	77.19
259.849	69.19
260.081	85.19
260.314	89.19
260.547	76.19
260.779	74.19
261.012	90.19
261.244	74.19
261.477	85.19
261.71	98.19
261.942	90.19
262.175	96.19
262.407	107.19
262.64	100.19
262.872	86.19
263.105	70.19
263.337	91.19
263.57	75.19
263.802	91.19
264.035	83.19
264.267	84.19
264.499	66.19
264.732	68.19
264.964	101.19
265.197	76.19
265.429	77.19
265.661	71.19
265.894	88.19
266.126	93.19
266.358	82.19
266.591	84.19
266.823	76.19
267.055	71.19
267.287	90.19
267.52	93.19
267.752	83.19
267.984	84.19
268.216	84.19
268.448	80.19
268.681	86.19
268.913	77.19
269.145	83.19
269.377	87.19
269.609	76.19
269.841	80.19
270.073	83.19
270.306	63.19
270.538	81.19
270.77	79.19
271.002	82.19
271.234	80.19
271.466	83.19
271.698	77.19
271.93	95.19
272.162	87.19
272.394	80.19
272.626	75.19
272.858	88.19
273.09	94.19
273.322	80.19
273.553	79.19
273.785	93.19
274.017	77.19
274.249	84.19
274.481	81.19
274.713	77.19
274.945	79.19
275.176	89.19
275.408	81.19
275.64	74.19
275.872	82.19
276.104	93.19
276.335	81.19
276.567	85.19
276.799	99.19
277.031	95.19
277.262	89.19
277.494	82.19
277.726	96.19
277.957	95.19
278.189	91.19
278.421	79.19
278.652	93.19
278.884	81.19
279.115	88.19
279.347	85.19
279.579	79.19
279.81	80.19
280.042	75.19
280.273	76.19
280.505	69.19
280.736	79.19
280.968	87.19
281.199	83.19
281.431	82.19
281.662	95.19
281.894	98.19
282.125	89.19
282.356	102.19
282.588	117.19
282.819	91.19
283.051	91.19
283.282	97.19
283.513	95.19
283.745	76.19
283.976	81.19
284.207	75.19
284.439	87.19
284.67	74.19
284.901	81.19
285.132	88.19
285.364	77.19
285.595	88.19
285.826	101.19
286.057	103.19
286.288	81.19
286.52	83.19
286.751	73.19
286.982	83.19
287.213	85.19
287.444	69.19
287.675	77.19
287.906	93.19
288.138	83.19
288.369	84.19
288.6	73.19
288.831	86.19
289.062	79.19
289.293	79.19
289.524	80.19
289.755	65.19
289.986	96.19
290.217	79.19
290.448	74.19
290.679	81.19
290.91	83.19
291.141	84.19
291.371	72.19
291.602	85.19
291.833	102.19
292.064	95.19
292.295	75.19
292.526	83.19
292.757	100.19
292.987	85.19
293.218	71.19
293.449	89.19
293.68	88.19
293.91	84.19
294.141	94.19
294.372	99.19
294.603	86.19
294.833	72.19
295.064	75.19
295.295	87.19
295.525	95.19
295.756	104.19
295.987	91.19
296.217	103.19
296.448	104.19
296.679	95.19
296.909	90.19
297.14	92.19
297.37	108.19
297.601	86.19
297.831	84.19
298.062	95.19
298.292	97.19
298.523	104.19
298.753	83.19
298.984	85.19
299.214	92.19
299.445	98.19
299.675	83.19
299.905	94.19
300.136	97.19
300.366	92.19
300.597	83.19
300.827	88.19
301.057	101.19
301.288	96.19
301.518	86.19
301.748	79.19
301.979	97.19
302.209	67.19
302.439	80.19
302.669	90.19
302.9	104.19
303.13	79.19
303.36	79.19
303.59	81.19
303.82	99.19
304.051	90.19
304.281	88.19
304.511	91.19
304.741	74.19
304.971	89.19
305.201	97.19
305.431	76.19
305.661	84.19
305.891	87.19
306.121	81.19
306.352	77.19
306.582	93.19
306.812	87.19
307.042	103.19
307.272	74.19
307.502	79.19
307.731	77.19
307.961	93.19
308.191	89.19
308.421	97.19
308.651	92.19
308.881	89.19
309.111	101.19
309.341	91.19
309.571	91.19
309.8	92.19
310.03	88.19
310.26	91.19
310.49	96.19
310.72	88.19
310.949	92.19
311.179	97.19
311.409	89.19
311.639	85.19
311.868	94.19
312.098	98.19
312.328	83.19
312.557	108.19
312.787	95.19
313.017	99.19
313.246	85.19
313.476	96.19
313.706	95.19
313.935	79.19
314.165	106.19
314.394	96.19
314.624	87.19
314.853	97.19
315.083	95.19
315.312	80.19
315.542	83.19
315.771	101.19
316.001	99.19
316.23	93.19
316.46	98.19
316.689	85.19
316.919	102.19
317.148	92.19
317.377	92.19
317.607	104.19
317.836	79.19
318.065	79.19
318.295	91.19
318.524	81.19
318.753	85.19
318.983	98.19
319.212	97.19
319.441	107.19
319.67	97.19
319.9	96.19
320.129	95.19
320.358	83.19
320.587	95.19
320.816	78.19
321.046	98.19
321.275	114.19
321.504	83.19
321.733	88.19
321.962	98.19
322.191	107.19
322.42	106.19
322.649	113.19
322.878	108.19
323.108	99.19
323.337	108.19
323.566	119.19
323.795	123.19
324.024	179.19
324.253	319.19
324.482	642.19
324.71	1345.19
324.939	1749.19
325.168	654.19
325.397	202.19
325.626	121.19
325.855	119.19
326.084	124.19
326.313	114.19
326.542	132.19
326.77	179.19
326.999	365.19
327.228	769.19
327.457	1402.19
327.686	1123.19
327.914	308.19
328.143	172.19
328.372	136.19
328.6	122.19
328.829	103.19
329.058	107.19
329.287	109.19
329.515	97.19
329.744	92.19
329.972	103.19
330.201	105.19
330.43	109.19
330.658	116.19
330.887	125.19
331.115	120.19
331.344	89.19
331.572	102.19
331.801	96.19
332.03	96.19
332.258	94.19
332.486	100.19
332.715	96.19
332.943	96.19
333.172	96.19
333.4	102.19
333.629	88.19
333.857	113.19
334.085	95.19
334.314	109.19
334.542	112.19
334.771	100.19
334.999	92.19
335.227	94.19
335.455	89.19
335.684	97.19
335.912	87.19
336.14	96.19
336.369	86.19
336.597	92.19
336.825	87.19
337.053	103.19
337.281	104.19
337.51	96.19
337.738	101.19
337.966	100.19
338.194	90.19
338.422	98.19
338.65	93.19
338.878	93.19
339.106	97.19
339.334	87.19
339.562	84.19
339.79	102.19
340.018	91.19
340.246	91.19
340.474	90.19
340.702	82.19
340.93	83.19
341.158	84.19
341.386	84.19
341.614	106.19
341.842	99.19
342.07	90.19
342.298	95.19
342.526	92.19
342.754	96.19
342.981	87.19
343.209	95.19
343.437	108.19
343.665	95.19
343.893	90.19
344.12	89.19
344.348	83.19
344.576	95.19
344.804	76.19
345.031	87.19
345.259	96.19
345.487	93.19
345.714	94.19
345.942	76.19
346.17	93.19
346.397	92.19
346.625	89.19
346.853	103.19
347.08	91.19
347.308	94.19
347.535	101.19
347.763	98.19
347.99	95.19
348.218	101.19
348.445	90.19
348.673	100.19
348.9	91.19
349.128	90.19
349.355	92.19
349.583	84.19
349.81	89.19
350.037	81.19
350.265	81.19
350.492	90.19
350.72	92.19
350.947	93.19
351.174	106.19
351.402	104.19
351.629	101.19
351.856	95.19
352.083	94.19
352.311	95.19
352.538	103.19
352.765	99.19
352.992	91.19
353.22	88.19
353.447	85.19
353.674	88.19
353.901	98.19
354.128	97.19
354.355	95.19
354.583	104.19
354.81	105.19
355.037	94.19
355.264	84.19
355.491	102.19
355.718	88.19
355.945	76.19
356.172	89.19
356.399	95.19
356.626	108.19
356.853	112.19
357.08	106.19
357.307	103.19
357.534	99.19
357.761	93.19
357.988	101.19
358.215	93.19
358.441	80.19
358.668	87.19
358.895	102.19
359.122	95.19
359.349	88.19
359.576	90.19
359.802	82.19
360.029	92.19
360.256	83.19
360.483	79.19
360.709	82.19
360.936	103.19
361.163	79.19
361.39	87.19
361.616	81.19
361.843	93.19
362.07	90.19
362.296	98.19
362.523	92.19
362.749	87.19
362.976	74.19
363.203	86.19
363.429	88.19
363.656	77.19
363.882	87.19
364.109	97.19
364.335	87.19
364.562	77.19
364.788	103.19
365.015	108.19
365.241	102.19
365.468	97.19
365.694	101.19
365.92	98.19
366.147	81.19
366.373	85.19
366.599	95.19
366.826	85.19
367.052	73.19
367.278	92.19
367.505	89.19
367.731	99.19
367.957	91.19
368.184	99.19
368.41	96.19
368.636	95.19
368.862	102.19
369.089	89.19
369.315	87.19
369.541	82.19
369.767	80.19
369.993	71.19
370.219	74.19
370.445	89.19
370.672	81.19
370.898	85.19
371.124	80.19
371.35	95.19
371.576	75.19
371.802	85.19
372.028	93.19
372.254	88.19
372.48	84.19
372.706	99.19
372.932	81.19
373.158	85.19
373.384	90.19
373.61	99.19
373.835	100.19
374.061	70.19
374.287	83.19
374.513	84.19
374.739	90.19
374.965	93.19
375.191	87.19
375.416	83.19
375.642	89.19
375.868	92.19
376.094	91.19
376.319	89.19
376.545	73.19
376.771	99.19
376.997	80.19
377.222	96.19
377.448	92.19
377.674	92.19
377.899	85.19
378.125	86.19
378.35	98.19
378.576	84.19
378.802	103.19
379.027	83.19
379.253	93.19
379.478	92.19
379.704	87.19
379.929	99.19
380.155	88.19
380.38	95.19
380.606	87.19
380.831	85.19
381.057	104.19
381.282	102.19
381.507	89.19
381.733	92.19
381.958	93.19
382.184	101.19
382.409	103.19
382.634	100.19
382.86	98.19
383.085	90.19
383.31	87.19
383.535	101.19
383.761	85.19
383.986	90.19
384.211	85.19
384.436	99.19
384.662	105.19
384.887	103.19
385.112	104.19
385.337	99.19
385.562	107.19
385.787	101.19
386.013	95.19
386.238	120.19
386.463	95.19
386.688	106.19
386.913	105.19
387.138	102.19
387.363	105.19
387.588	77.19
387.813	104.19
388.038	93.19
388.263	100.19
388.488	117.19
388.713	98.19
388.938	95.19
389.163	99.19
389.387	106.19
389.612	93.19
389.837	87.19
390.062	84.19
390.287	100.19
390.512	92.19
390.736	91.19
390.961	93.19
391.186	100.19
391.411	93.19
391.636	104.19
391.86	76.19
392.085	76.19
392.31	79.19
392.534	100.19
392.759	69.19
392.984	81.19
393.208	95.19
393.433	83.19
393.658	78.19
393.882	87.19
394.107	82.19
394.331	76.19
394.556	87.19
394.78	93.19
395.005	88.19
395.229	95.19
395.454	86.19
395.678	82.19
395.903	89.19
396.127	93.19
396.352	79.19
396.576	87.19
396.801	83.19
397.025	91.19
397.249	96.19
397.474	93.19
397.698	78.19
397.922	91.19
398.147	83.19
398.371	74.19
398.595	99.19
398.82	94.19
399.044	85.19
399.268	85.19
399.492	80.19
399.717	77.19
399.941	90.19
400.165	95.19
400.389	90.19
400.613	89.19
400.837	89.19
401.062	94.19
401.286	95.19
401.51	99.19
401.734	87.19
401.958	91.19
402.182	108.19
402.406	118.19
402.63	119.19
402.854	88.19
403.078	80.19
403.302	89.19
403.526	98.19
403.75	70.19
403.974	75.19
404.198	86.19
404.422	79.19
404.645	64.19
404.869	88.19
405.093	91.19
405.317	91.19
405.541	92.19
405.765	105.19
405.988	101.19
406.212	146.19
406.436	165.19
406.66	116.19
406.883	92.19
407.107	81.19
407.331	89.19
407.555	89.19
407.778	79.19
408.002	89.19
408.226	88.19
408.449	98.19
408.673	88.19
408.896	99.19
409.12	84.19
409.344	98.19
409.567	93.19
409.791	82.19
410.014	82.19
410.238	87.19
410.461	102.19
410.685	98.19
410.908	98.19
411.132	99.19
411.355	104.19
411.578	101.19
411.802	85.19
412.025	80.19
412.249	96.19
412.472	96.19
412.695	100.19
412.919	97.19
413.142	87.19
413.365	82.19
413.589	73.19
413.812	79.19
414.035	93.19
414.258	91.19
414.482	80.19
414.705	84.19
414.928	93.19
415.151	87.19
415.374	98.19
415.597	90.19
415.821	98.19
416.044	79.19
416.267	89.19
416.49	82.19
416.713	87.19
416.936	91.19
417.159	91.19
417.382	80.19
417.605	87.19
417.828	87.19
418.051	72.19
418.274	90.19
418.497	91.19
418.72	81.19
418.943	88.19
419.166	96.19
419.389	96.19
419.611	80.19
419.834	84.19
420.057	99.19
420.28	76.19
420.503	80.19
420.726	87.19
420.948	95.19
421.171	88.19
421.394	90.19
421.617	83.19
421.839	95.19
422.062	90.19
422.285	95.19
422.507	105.19
422.73	100.19
422.953	84.19
423.175	85.19
423.398	91.19
423.621	91.19
423.843	92.19
424.066	81.19
424.288	83.19
424.511	99.19
424.733	83.19
424.956	100.19
425.178	89.19
425.401	89.19
425.623	86.19
425.846	79.19
426.068	100.19
426.291	89.19
426.513	69.19
426.735	82.19
426.958	85.19
427.18	92.19
427.402	109.19
427.625	131.19
427.847	119.19
428.069	95.19
428.292	88.19
428.514	89.19
428.736	69.19
428.958	83.19
429.181	87.19
429.403	81.19
429.625	81.19
429.847	80.19
430.069	88.19
430.292	75.19
430.514	95.19
430.736	76.19
430.958	79.19
431.18	96.19
431.402	100.19
431.624	74.19
431.846	85.19
432.068	85.19
432.29	92.19
432.512	98.19
432.734	89.19
432.956	83.19
433.178	106.19
433.4	85.19
433.622	89.19
433.844	89.19
434.066	88.19
434.287	79.19
434.509	74.19
434.731	76.19
434.953	87.19
435.175	83.19
435.397	86.19
435.618	78.19
435.84	83.19
436.062	114.19
436.284	116.19
436.505	87.19
436.727	91.19
436.949	93.19
437.17	98.19
437.392	87.19
437.614	81.19
437.835	90.19
438.057	102.19
438.278	103.19
438.5	104.19
438.721	124.19
438.943	100.19
439.165	83.19
439.386	84.19
439.608	89.19
439.829	86.19
440.05	108.19
440.272	127.19
440.493	109.19
440.715	89.19
440.936	100.19
441.158	81.19
441.379	83.19
441.6	91.19
441.822	81.19
442.043	92.19
442.264	81.19
442.486	93.19
442.707	90.19
442.928	97.19
443.149	107.19
443.371	112.19
443.592	89.19
443.813	90.19
444.034	94.19
444.255	97.19
444.476	81.19
444.698	88.19
444.919	85.19
445.14	142.19
445.361	124.19
445.582	101.19
445.803	98.19
446.024	111.19
446.245	115.19
446.466	86.19
446.687	83.19
446.908	91.19
447.129	81.19
447.35	99.19
447.571	87.19
447.792	89.19
448.013	78.19
448.234	95.19
448.455	106.19
448.675	115.19
448.896	93.19
449.117	90.19
449.338	91.19
449.559	100.19
449.779	112.19
450	90.19
450.221	88.19
450.442	94.19
450.662	87.19
450.883	82.19
451.104	86.19
451.324	83.19
451.545	93.19
451.766	71.19
451.986	83.19
452.207	100.19
452.428	84.19
452.648	96.19
452.869	101.19
453.089	107.19
453.31	113.19
453.53	95.19
453.751	92.19
453.971	91.19
454.192	104.19
454.412	73.19
454.633	85.19
454.853	91.19
455.073	81.19
455.294	82.19
455.514	77.19
455.734	106.19
455.955	72.19
456.175	80.19
456.395	81.19
456.616	90.19
456.836	85.19
457.056	77.19
457.276	92.19
457.497	74.19
457.717	96.19
457.937	101.19
458.157	81.19
458.377	83.19
458.598	98.19
458.818	123.19
459.038	114.19
459.258	100.19
459.478	90.19
459.698	84.19
459.918	72.19
460.138	90.19
460.358	76.19
460.578	90.19
460.798	69.19
461.018	83.19
461.238	90.19
461.458	79.19
461.678	81.19
461.898	83.19
462.118	81.19
462.338	84.19
462.558	96.19
462.777	69.19
462.997	84.19
463.217	81.19
463.437	76.19
463.657	84.19
463.876	92.19
464.096	87.19
464.316	92.19
464.536	90.19
464.755	77.19
464.975	107.19
465.195	136.19
465.414	121.19
465.634	102.19
465.854	91.19
466.073	101.19
466.293	103.19
466.512	77.19
466.732	71.19
466.951	83.19
467.171	81.19
467.391	89.19
467.61	102.19
467.829	93.19
468.049	98.19
468.268	100.19
468.488	81.19
468.707	90.19
468.927	83.19
469.146	70.19
469.365	88.19
469.585	80.19
469.804	81.19
470.023	82.19
470.243	84.19
470.462	96.19
470.681	89.19
470.901	79.19
471.12	93.19
471.339	85.19
471.558	94.19
471.777	75.19
471.997	85.19
472.216	92.19
472.435	121.19
472.654	100.19
472.873	89.19
473.092	84.19
473.311	74.19
473.53	77.19
473.749	84.19
473.968	93.19
474.187	80.19
474.406	100.19
474.625	95.19
474.844	79.19
475.063	96.19
475.282	82.19
475.501	94.19
475.72	79.19
475.939	75.19
476.158	76.19
476.377	70.19
476.596	84.19
476.814	84.19
477.033	88.19
477.252	92.19
477.471	95.19
477.69	80.19
477.908	89.19
478.127	76.19
478.346	88.19
478.564	93.19
478.783	83.19
479.002	83.19
479.22	83.19
479.439	101.19
479.658	99.19
479.876	91.19
480.095	63.19
480.313	103.19
480.532	91.19
480.751	88.19
480.969	104.19
481.188	170.19
481.406	122.19
481.624	86.19
481.843	91.19
482.061	73.19
482.28	79.19
482.498	85.19
482.717	91.19
482.935	94.19
483.153	83.19
483.372	91.19
483.59	91.19
483.808	91.19
484.027	90.19
484.245	91.19
484.463	87.19
484.681	99.19
484.9	92.19
485.118	105.19
485.336	98.19
485.554	85.19
485.772	77.19
485.99	98.19
486.209	98.19
486.427	90.19
486.645	108.19
486.863	108.19
487.081	92.19
487.299	99.19
487.517	96.19
487.735	87.19
487.953	85.19
488.171	76.19
488.389	76.19
488.607	81.19
488.825	100.19
489.043	93.19
489.261	96.19
489.479	89.19
489.696	96.19
489.914	95.19
490.132	96.19
490.35	97.19
490.568	89.19
490.786	91.19
491.003	99.19
491.221	99.19
491.439	95.19
491.657	109.19
491.874	99.19
492.092	89.19
492.31	102.19
492.527	89.19
492.745	83.19
492.963	84.19
493.18	99.19
493.398	91.19
493.615	97.19
493.833	98.19
494.05	109.19
494.268	94.19
494.485	95.19
494.703	88.19
494.92	99.19
495.138	83.19
495.355	87.19
495.573	98.19
495.79	100.19
496.008	101.19
496.225	94.19
496.442	94.19
496.66	91.19
496.877	80.19
497.094	83.19
497.312	86.19
497.529	95.19
497.746	91.19
497.963	97.19
498.181	97.19
498.398	82.19
498.615	96.19
498.832	101.19
499.049	85.19
499.267	84.19
499.484	84.19
499.701	81.19
499.918	80.19
500.135	84.19
500.352	73.19
500.569	82.19
500.786	93.19
501.003	89.19
501.22	84.19
501.437	98.19
501.654	96.19
501.871	94.19
502.088	91.19
502.305	84.19
502.522	92.19
502.739	85.19
502.956	83.19
503.172	82.19
503.389	79.19
503.606	100.19
503.823	88.19
504.04	93.19
504.256	91.19
504.473	93.19
504.69	93.19
504.907	97.19
505.123	70.19
505.34	93.19
505.557	83.19
505.773	82.19
505.99	93.19
506.207	75.19
506.423	82.19
506.64	91.19
506.856	80.19
507.073	74.19
507.289	92.19
507.506	88.19
507.722	108.19
507.939	94.19
508.155	84.19
508.372	86.19
508.588	85.19
508.805	87.19
509.021	83.19
509.238	97.19
509.454	86.19
509.67	79.19
509.887	105.19
510.103	117.19
510.319	180.19
510.536	577.19
510.752	1661.19
510.968	460.19
511.184	121.19
511.401	108.19
511.617	96.19
511.833	92.19
512.049	80.19
512.265	89.19
512.481	89.19
512.698	99.19
512.914	89.19
513.13	99.19
513.346	91.19
513.562	98.19
513.778	89.19
513.994	92.19
514.21	99.19
514.426	109.19
514.642	117.19
514.858	118.19
515.074	127.19
515.29	311.19
515.506	931.19
515.721	365.19
515.937	132.19
516.153	103.19
516.369	90.19
516.585	85.19
516.801	87.19
517.016	85.19
