Data from Uncirc_1981_H10_HRD10591_00048.txt Node
Date: Wed Jan 03 12:33:17 EST 2024
User: Yrep
Spectrometer: HR+D1059
Trigger mode: 1
Integration Time (sec): 1.000000E-1
Scans to average: 1
Electric dark correction enabled: true
Nonlinearity correction enabled: false
Boxcar width: 0
XAxis mode: Wavelengths
Number of Pixels in Spectrum: 2048
>>>>>Begin Spectral Data<<<<<
223.165	-28.88
223.4	-28.88
223.635	-28.88
223.869	-13.88
224.104	-15.88
224.338	-17.88
224.573	-5.88
224.808	-6.88
225.042	-24.88
225.277	14.12
225.511	-18.88
225.746	-5.88
225.98	8.12
226.215	10.12
226.449	23.12
226.683	20.12
226.918	28.12
227.152	35.12
227.387	43.12
227.621	36.12
227.856	59.12
228.09	64.12
228.324	58.12
228.559	56.12
228.793	58.12
229.027	71.12
229.262	62.12
229.496	75.12
229.73	79.12
229.964	83.12
230.199	77.12
230.433	72.12
230.667	69.12
230.901	83.12
231.136	81.12
231.37	84.12
231.604	65.12
231.838	83.12
232.072	84.12
232.306	70.12
232.541	100.12
232.775	87.12
233.009	91.12
233.243	93.12
233.477	80.12
233.711	75.12
233.945	75.12
234.179	103.12
234.413	74.12
234.647	87.12
234.881	82.12
235.115	91.12
235.349	89.12
235.583	84.12
235.817	86.12
236.051	79.12
236.285	77.12
236.519	75.12
236.753	78.12
236.987	81.12
237.221	90.12
237.455	86.12
237.689	78.12
237.922	68.12
238.156	73.12
238.39	89.12
238.624	84.12
238.858	74.12
239.091	82.12
239.325	76.12
239.559	76.12
239.793	61.12
240.027	87.12
240.26	76.12
240.494	104.12
240.728	80.12
240.961	78.12
241.195	71.12
241.429	87.12
241.662	84.12
241.896	77.12
242.13	89.12
242.363	80.12
242.597	86.12
242.83	87.12
243.064	100.12
243.298	74.12
243.531	76.12
243.765	80.12
243.998	78.12
244.232	86.12
244.465	84.12
244.699	80.12
244.932	94.12
245.166	88.12
245.399	89.12
245.633	72.12
245.866	93.12
246.099	86.12
246.333	70.12
246.566	87.12
246.8	85.12
247.033	71.12
247.266	84.12
247.5	98.12
247.733	61.12
247.966	86.12
248.2	91.12
248.433	86.12
248.666	82.12
248.899	84.12
249.133	84.12
249.366	103.12
249.599	89.12
249.832	75.12
250.066	83.12
250.299	84.12
250.532	71.12
250.765	77.12
250.998	89.12
251.231	84.12
251.465	87.12
251.698	88.12
251.931	95.12
252.164	82.12
252.397	69.12
252.63	79.12
252.863	86.12
253.096	89.12
253.329	91.12
253.562	75.12
253.795	79.12
254.028	103.12
254.261	88.12
254.494	82.12
254.727	74.12
254.96	78.12
255.193	91.12
255.426	78.12
255.659	82.12
255.892	93.12
256.124	88.12
256.357	74.12
256.59	69.12
256.823	82.12
257.056	98.12
257.289	71.12
257.521	79.12
257.754	76.12
257.987	86.12
258.22	76.12
258.452	92.12
258.685	68.12
258.918	69.12
259.151	102.12
259.383	78.12
259.616	79.12
259.849	86.12
260.081	85.12
260.314	89.12
260.547	92.12
260.779	95.12
261.012	88.12
261.244	91.12
261.477	83.12
261.71	88.12
261.942	115.12
262.175	104.12
262.407	88.12
262.64	76.12
262.872	90.12
263.105	87.12
263.337	92.12
263.57	93.12
263.802	86.12
264.035	99.12
264.267	90.12
264.499	90.12
264.732	89.12
264.964	75.12
265.197	90.12
265.429	87.12
265.661	97.12
265.894	78.12
266.126	91.12
266.358	79.12
266.591	68.12
266.823	83.12
267.055	84.12
267.287	103.12
267.52	75.12
267.752	80.12
267.984	87.12
268.216	82.12
268.448	79.12
268.681	74.12
268.913	99.12
269.145	109.12
269.377	84.12
269.609	84.12
269.841	88.12
270.073	87.12
270.306	91.12
270.538	83.12
270.77	110.12
271.002	78.12
271.234	100.12
271.466	94.12
271.698	87.12
271.93	101.12
272.162	85.12
272.394	86.12
272.626	80.12
272.858	84.12
273.09	105.12
273.322	87.12
273.553	95.12
273.785	80.12
274.017	90.12
274.249	82.12
274.481	82.12
274.713	82.12
274.945	87.12
275.176	99.12
275.408	90.12
275.64	78.12
275.872	88.12
276.104	84.12
276.335	90.12
276.567	99.12
276.799	113.12
277.031	114.12
277.262	100.12
277.494	86.12
277.726	87.12
277.957	90.12
278.189	84.12
278.421	92.12
278.652	79.12
278.884	71.12
279.115	96.12
279.347	86.12
279.579	88.12
279.81	93.12
280.042	103.12
280.273	80.12
280.505	86.12
280.736	84.12
280.968	85.12
281.199	95.12
281.431	79.12
281.662	95.12
281.894	92.12
282.125	104.12
282.356	114.12
282.588	129.12
282.819	109.12
283.051	96.12
283.282	100.12
283.513	84.12
283.745	90.12
283.976	96.12
284.207	71.12
284.439	86.12
284.67	78.12
284.901	94.12
285.132	89.12
285.364	87.12
285.595	91.12
285.826	76.12
286.057	90.12
286.288	92.12
286.52	79.12
286.751	78.12
286.982	85.12
287.213	90.12
287.444	94.12
287.675	90.12
287.906	98.12
288.138	109.12
288.369	100.12
288.6	103.12
288.831	93.12
289.062	91.12
289.293	95.12
289.524	99.12
289.755	86.12
289.986	90.12
290.217	78.12
290.448	84.12
290.679	78.12
290.91	94.12
291.141	85.12
291.371	104.12
291.602	90.12
291.833	92.12
292.064	103.12
292.295	99.12
292.526	85.12
292.757	86.12
292.987	94.12
293.218	90.12
293.449	104.12
293.68	88.12
293.91	82.12
294.141	112.12
294.372	96.12
294.603	103.12
294.833	90.12
295.064	75.12
295.295	91.12
295.525	90.12
295.756	102.12
295.987	115.12
296.217	135.12
296.448	125.12
296.679	84.12
296.909	80.12
297.14	98.12
297.37	104.12
297.601	71.12
297.831	103.12
298.062	99.12
298.292	91.12
298.523	95.12
298.753	93.12
298.984	80.12
299.214	86.12
299.445	92.12
299.675	84.12
299.905	93.12
300.136	95.12
300.366	93.12
300.597	94.12
300.827	100.12
301.057	97.12
301.288	97.12
301.518	94.12
301.748	104.12
301.979	86.12
302.209	96.12
302.439	78.12
302.669	99.12
302.9	85.12
303.13	102.12
303.36	87.12
303.59	104.12
303.82	92.12
304.051	86.12
304.281	98.12
304.511	102.12
304.741	98.12
304.971	95.12
305.201	104.12
305.431	94.12
305.661	89.12
305.891	92.12
306.121	91.12
306.352	101.12
306.582	102.12
306.812	86.12
307.042	92.12
307.272	96.12
307.502	93.12
307.731	91.12
307.961	86.12
308.191	90.12
308.421	83.12
308.651	104.12
308.881	122.12
309.111	100.12
309.341	104.12
309.571	95.12
309.8	100.12
310.03	101.12
310.26	95.12
310.49	93.12
310.72	87.12
310.949	100.12
311.179	98.12
311.409	95.12
311.639	103.12
311.868	103.12
312.098	90.12
312.328	98.12
312.557	102.12
312.787	110.12
313.017	113.12
313.246	97.12
313.476	104.12
313.706	86.12
313.935	103.12
314.165	101.12
314.394	100.12
314.624	100.12
314.853	103.12
315.083	84.12
315.312	90.12
315.542	91.12
315.771	94.12
316.001	100.12
316.23	94.12
316.46	92.12
316.689	95.12
316.919	82.12
317.148	100.12
317.377	108.12
317.607	110.12
317.836	95.12
318.065	92.12
318.295	96.12
318.524	89.12
318.753	88.12
318.983	111.12
319.212	97.12
319.441	116.12
319.67	111.12
319.9	93.12
320.129	101.12
320.358	106.12
320.587	104.12
320.816	107.12
321.046	89.12
321.275	99.12
321.504	100.12
321.733	101.12
321.962	103.12
322.191	100.12
322.42	97.12
322.649	108.12
322.878	120.12
323.108	132.12
323.337	120.12
323.566	123.12
323.795	168.12
324.024	212.12
324.253	405.12
324.482	906.12
324.71	1866.12
324.939	2584.12
325.168	911.12
325.397	261.12
325.626	151.12
325.855	119.12
326.084	134.12
326.313	143.12
326.542	157.12
326.77	232.12
326.999	494.12
327.228	990.12
327.457	1925.12
327.686	1534.12
327.914	398.12
328.143	201.12
328.372	168.12
328.6	127.12
328.829	121.12
329.058	128.12
329.287	139.12
329.515	115.12
329.744	102.12
329.972	121.12
330.201	114.12
330.43	130.12
330.658	107.12
330.887	152.12
331.115	123.12
331.344	87.12
331.572	106.12
331.801	111.12
332.03	114.12
332.258	102.12
332.486	92.12
332.715	86.12
332.943	82.12
333.172	117.12
333.4	101.12
333.629	116.12
333.857	113.12
334.085	99.12
334.314	119.12
334.542	139.12
334.771	131.12
334.999	115.12
335.227	103.12
335.455	100.12
335.684	101.12
335.912	100.12
336.14	104.12
336.369	97.12
336.597	109.12
336.825	102.12
337.053	86.12
337.281	94.12
337.51	91.12
337.738	93.12
337.966	98.12
338.194	106.12
338.422	96.12
338.65	82.12
338.878	98.12
339.106	96.12
339.334	103.12
339.562	107.12
339.79	89.12
340.018	86.12
340.246	111.12
340.474	101.12
340.702	91.12
340.93	92.12
341.158	107.12
341.386	91.12
341.614	95.12
341.842	95.12
342.07	92.12
342.298	88.12
342.526	87.12
342.754	89.12
342.981	97.12
343.209	104.12
343.437	94.12
343.665	86.12
343.893	95.12
344.12	90.12
344.348	105.12
344.576	91.12
344.804	101.12
345.031	96.12
345.259	110.12
345.487	74.12
345.714	92.12
345.942	96.12
346.17	95.12
346.397	86.12
346.625	91.12
346.853	83.12
347.08	99.12
347.308	101.12
347.535	96.12
347.763	116.12
347.99	93.12
348.218	108.12
348.445	109.12
348.673	102.12
348.9	108.12
349.128	106.12
349.355	95.12
349.583	87.12
349.81	93.12
350.037	103.12
350.265	103.12
350.492	98.12
350.72	100.12
350.947	96.12
351.174	109.12
351.402	133.12
351.629	116.12
351.856	97.12
352.083	100.12
352.311	90.12
352.538	107.12
352.765	96.12
352.992	114.12
353.22	119.12
353.447	103.12
353.674	101.12
353.901	105.12
354.128	105.12
354.355	103.12
354.583	89.12
354.81	94.12
355.037	102.12
355.264	90.12
355.491	88.12
355.718	100.12
355.945	96.12
356.172	93.12
356.399	95.12
356.626	99.12
356.853	99.12
357.08	98.12
357.307	93.12
357.534	97.12
357.761	103.12
357.988	93.12
358.215	101.12
358.441	111.12
358.668	84.12
358.895	105.12
359.122	110.12
359.349	93.12
359.576	90.12
359.802	82.12
360.029	109.12
360.256	114.12
360.483	106.12
360.709	91.12
360.936	94.12
361.163	93.12
361.39	86.12
361.616	88.12
361.843	84.12
362.07	87.12
362.296	118.12
362.523	95.12
362.749	97.12
362.976	87.12
363.203	92.12
363.429	98.12
363.656	98.12
363.882	93.12
364.109	98.12
364.335	92.12
364.562	94.12
364.788	100.12
365.015	104.12
365.241	104.12
365.468	111.12
365.694	99.12
365.92	98.12
366.147	84.12
366.373	90.12
366.599	88.12
366.826	90.12
367.052	95.12
367.278	95.12
367.505	79.12
367.731	104.12
367.957	98.12
368.184	92.12
368.41	83.12
368.636	120.12
368.862	118.12
369.089	125.12
369.315	104.12
369.541	97.12
369.767	82.12
369.993	93.12
370.219	79.12
370.445	81.12
370.672	92.12
370.898	86.12
371.124	91.12
371.35	94.12
371.576	92.12
371.802	83.12
372.028	96.12
372.254	67.12
372.48	73.12
372.706	99.12
372.932	91.12
373.158	95.12
373.384	103.12
373.61	90.12
373.835	93.12
374.061	103.12
374.287	94.12
374.513	89.12
374.739	100.12
374.965	84.12
375.191	86.12
375.416	98.12
375.642	100.12
375.868	97.12
376.094	89.12
376.319	87.12
376.545	71.12
376.771	100.12
376.997	90.12
377.222	97.12
377.448	101.12
377.674	89.12
377.899	89.12
378.125	94.12
378.35	88.12
378.576	98.12
378.802	88.12
379.027	111.12
379.253	102.12
379.478	92.12
379.704	95.12
379.929	92.12
380.155	97.12
380.38	76.12
380.606	98.12
380.831	110.12
381.057	120.12
381.282	101.12
381.507	104.12
381.733	83.12
381.958	104.12
382.184	87.12
382.409	100.12
382.634	102.12
382.86	101.12
383.085	95.12
383.31	102.12
383.535	119.12
383.761	118.12
383.986	96.12
384.211	119.12
384.436	100.12
384.662	108.12
384.887	114.12
385.112	112.12
385.337	101.12
385.562	116.12
385.787	101.12
386.013	119.12
386.238	109.12
386.463	108.12
386.688	109.12
386.913	120.12
387.138	109.12
387.363	111.12
387.588	102.12
387.813	102.12
388.038	107.12
388.263	114.12
388.488	118.12
388.713	91.12
388.938	87.12
389.163	110.12
389.387	98.12
389.612	109.12
389.837	100.12
390.062	91.12
390.287	84.12
390.512	86.12
390.736	84.12
390.961	111.12
391.186	100.12
391.411	107.12
391.636	91.12
391.86	95.12
392.085	94.12
392.31	93.12
392.534	83.12
392.759	96.12
392.984	85.12
393.208	92.12
393.433	88.12
393.658	92.12
393.882	88.12
394.107	95.12
394.331	99.12
394.556	86.12
394.78	86.12
395.005	82.12
395.229	82.12
395.454	97.12
395.678	82.12
395.903	77.12
396.127	100.12
396.352	80.12
396.576	80.12
396.801	97.12
397.025	84.12
397.249	102.12
397.474	85.12
397.698	93.12
397.922	92.12
398.147	90.12
398.371	80.12
398.595	94.12
398.82	92.12
399.044	86.12
399.268	96.12
399.492	83.12
399.717	94.12
399.941	115.12
400.165	98.12
400.389	94.12
400.613	105.12
400.837	92.12
401.062	79.12
401.286	92.12
401.51	92.12
401.734	82.12
401.958	89.12
402.182	117.12
402.406	154.12
402.63	118.12
402.854	87.12
403.078	99.12
403.302	88.12
403.526	81.12
403.75	89.12
403.974	96.12
404.198	84.12
404.422	86.12
404.645	100.12
404.869	85.12
405.093	94.12
405.317	107.12
405.541	106.12
405.765	89.12
405.988	103.12
406.212	177.12
406.436	215.12
406.66	143.12
406.883	101.12
407.107	86.12
407.331	89.12
407.555	118.12
407.778	98.12
408.002	102.12
408.226	85.12
408.449	96.12
408.673	95.12
408.896	90.12
409.12	103.12
409.344	102.12
409.567	98.12
409.791	91.12
410.014	103.12
410.238	111.12
410.461	94.12
410.685	104.12
410.908	81.12
411.132	108.12
411.355	94.12
411.578	108.12
411.802	108.12
412.025	102.12
412.249	96.12
412.472	103.12
412.695	108.12
412.919	86.12
413.142	96.12
413.365	82.12
413.589	73.12
413.812	73.12
414.035	86.12
414.258	86.12
414.482	91.12
414.705	99.12
414.928	87.12
415.151	91.12
415.374	95.12
415.597	79.12
415.821	90.12
416.044	97.12
416.267	92.12
416.49	85.12
416.713	93.12
416.936	87.12
417.159	88.12
417.382	86.12
417.605	99.12
417.828	84.12
418.051	101.12
418.274	103.12
418.497	93.12
418.72	77.12
418.943	69.12
419.166	100.12
419.389	79.12
419.611	88.12
419.834	86.12
420.057	94.12
420.28	91.12
420.503	86.12
420.726	92.12
420.948	96.12
421.171	92.12
421.394	104.12
421.617	94.12
421.839	87.12
422.062	89.12
422.285	106.12
422.507	108.12
422.73	116.12
422.953	95.12
423.175	88.12
423.398	93.12
423.621	87.12
423.843	88.12
424.066	84.12
424.288	91.12
424.511	99.12
424.733	94.12
424.956	98.12
425.178	111.12
425.401	85.12
425.623	92.12
425.846	99.12
426.068	92.12
426.291	105.12
426.513	83.12
426.735	97.12
426.958	94.12
427.18	106.12
427.402	150.12
427.625	180.12
427.847	133.12
428.069	100.12
428.292	98.12
428.514	102.12
428.736	101.12
428.958	88.12
429.181	96.12
429.403	73.12
429.625	96.12
429.847	95.12
430.069	106.12
430.292	106.12
430.514	99.12
430.736	98.12
430.958	95.12
431.18	90.12
431.402	93.12
431.624	83.12
431.846	87.12
432.068	93.12
432.29	83.12
432.512	95.12
432.734	79.12
432.956	92.12
433.178	104.12
433.4	103.12
433.622	94.12
433.844	91.12
434.066	106.12
434.287	93.12
434.509	87.12
434.731	95.12
434.953	78.12
435.175	106.12
435.397	90.12
435.618	90.12
435.84	99.12
436.062	135.12
436.284	125.12
436.505	111.12
436.727	94.12
436.949	87.12
437.17	91.12
437.392	79.12
437.614	84.12
437.835	106.12
438.057	123.12
438.278	109.12
438.5	112.12
438.721	128.12
438.943	116.12
439.165	90.12
439.386	91.12
439.608	106.12
439.829	99.12
440.05	127.12
440.272	151.12
440.493	98.12
440.715	77.12
440.936	97.12
441.158	85.12
441.379	98.12
441.6	90.12
441.822	101.12
442.043	94.12
442.264	114.12
442.486	91.12
442.707	92.12
442.928	110.12
443.149	130.12
443.371	133.12
443.592	112.12
443.813	129.12
444.034	118.12
444.255	92.12
444.476	93.12
444.698	94.12
444.919	96.12
445.14	147.12
445.361	138.12
445.582	118.12
445.803	159.12
446.024	132.12
446.245	142.12
446.466	100.12
446.687	82.12
446.908	86.12
447.129	92.12
447.35	106.12
447.571	78.12
447.792	97.12
448.013	106.12
448.234	116.12
448.455	112.12
448.675	107.12
448.896	125.12
449.117	117.12
449.338	104.12
449.559	122.12
449.779	143.12
450	106.12
450.221	79.12
450.442	93.12
450.662	101.12
450.883	103.12
451.104	114.12
451.324	92.12
451.545	90.12
451.766	82.12
451.986	84.12
452.207	72.12
452.428	93.12
452.648	103.12
452.869	109.12
453.089	108.12
453.31	110.12
453.53	117.12
453.751	88.12
453.971	92.12
454.192	122.12
454.412	93.12
454.633	85.12
454.853	91.12
455.073	91.12
455.294	86.12
455.514	107.12
455.734	94.12
455.955	84.12
456.175	84.12
456.395	78.12
456.616	94.12
456.836	82.12
457.056	79.12
457.276	96.12
457.497	107.12
457.717	88.12
457.937	81.12
458.157	87.12
458.377	104.12
458.598	112.12
458.818	158.12
459.038	168.12
459.258	125.12
459.478	82.12
459.698	89.12
459.918	92.12
460.138	104.12
460.358	94.12
460.578	88.12
460.798	94.12
461.018	104.12
461.238	101.12
461.458	90.12
461.678	74.12
461.898	95.12
462.118	91.12
462.338	93.12
462.558	86.12
462.777	97.12
462.997	84.12
463.217	84.12
463.437	100.12
463.657	85.12
463.876	105.12
464.096	87.12
464.316	100.12
464.536	91.12
464.755	77.12
464.975	114.12
465.195	162.12
465.414	163.12
465.634	107.12
465.854	95.12
466.073	62.12
466.293	98.12
466.512	83.12
466.732	91.12
466.951	85.12
467.171	110.12
467.391	103.12
467.61	114.12
467.829	88.12
468.049	91.12
468.268	98.12
468.488	90.12
468.707	94.12
468.927	92.12
469.146	87.12
469.365	88.12
469.585	84.12
469.804	89.12
470.023	104.12
470.243	84.12
470.462	100.12
470.681	108.12
470.901	94.12
471.12	113.12
471.339	93.12
471.558	96.12
471.777	98.12
471.997	90.12
472.216	95.12
472.435	133.12
472.654	100.12
472.873	96.12
473.092	83.12
473.311	89.12
473.53	85.12
473.749	84.12
473.968	82.12
474.187	96.12
474.406	109.12
474.625	93.12
474.844	91.12
475.063	77.12
475.282	81.12
475.501	94.12
475.72	84.12
475.939	88.12
476.158	90.12
476.377	100.12
476.596	92.12
476.814	95.12
477.033	98.12
477.252	105.12
477.471	83.12
477.69	89.12
477.908	95.12
478.127	103.12
478.346	92.12
478.564	92.12
478.783	106.12
479.002	105.12
479.22	92.12
479.439	107.12
479.658	100.12
479.876	93.12
480.095	89.12
480.313	96.12
480.532	105.12
480.751	97.12
480.969	94.12
481.188	193.12
481.406	137.12
481.624	105.12
481.843	87.12
482.061	97.12
482.28	107.12
482.498	78.12
482.717	86.12
482.935	87.12
483.153	94.12
483.372	88.12
483.59	91.12
483.808	99.12
484.027	92.12
484.245	102.12
484.463	96.12
484.681	92.12
484.9	105.12
485.118	99.12
485.336	94.12
485.554	92.12
485.772	106.12
485.99	112.12
486.209	110.12
486.427	113.12
486.645	117.12
486.863	118.12
487.081	95.12
487.299	80.12
487.517	86.12
487.735	97.12
487.953	101.12
488.171	99.12
488.389	107.12
488.607	91.12
488.825	95.12
489.043	101.12
489.261	85.12
489.479	95.12
489.696	106.12
489.914	76.12
490.132	84.12
490.35	100.12
490.568	101.12
490.786	85.12
491.003	87.12
491.221	76.12
491.439	96.12
491.657	93.12
491.874	93.12
492.092	106.12
492.31	100.12
492.527	104.12
492.745	100.12
492.963	102.12
493.18	86.12
493.398	95.12
493.615	89.12
493.833	98.12
494.05	89.12
494.268	92.12
494.485	83.12
494.703	98.12
494.92	100.12
495.138	82.12
495.355	98.12
495.573	92.12
495.79	103.12
496.008	88.12
496.225	87.12
496.442	91.12
496.66	96.12
496.877	96.12
497.094	94.12
497.312	84.12
497.529	86.12
497.746	110.12
497.963	77.12
498.181	91.12
498.398	98.12
498.615	97.12
498.832	115.12
499.049	95.12
499.267	94.12
499.484	86.12
499.701	104.12
499.918	98.12
500.135	80.12
500.352	89.12
500.569	91.12
500.786	94.12
501.003	101.12
501.22	82.12
501.437	94.12
501.654	99.12
501.871	108.12
502.088	85.12
502.305	92.12
502.522	101.12
502.739	99.12
502.956	96.12
503.172	90.12
503.389	93.12
503.606	108.12
503.823	102.12
504.04	94.12
504.256	102.12
504.473	90.12
504.69	89.12
504.907	94.12
505.123	93.12
505.34	84.12
505.557	86.12
505.773	88.12
505.99	104.12
506.207	94.12
506.423	80.12
506.64	85.12
506.856	100.12
507.073	94.12
507.289	96.12
507.506	104.12
507.722	112.12
507.939	132.12
508.155	82.12
508.372	89.12
508.588	98.12
508.805	109.12
509.021	98.12
509.238	108.12
509.454	92.12
509.67	109.12
509.887	114.12
510.103	132.12
510.319	196.12
510.536	712.12
510.752	2216.12
510.968	586.12
511.184	170.12
511.401	107.12
511.617	95.12
511.833	84.12
512.049	95.12
512.265	85.12
512.481	85.12
512.698	87.12
512.914	101.12
513.13	95.12
513.346	98.12
513.562	92.12
513.778	90.12
513.994	102.12
