Data from Uncirc_1981_H10_HRD10591_00069.txt Node
Date: Wed Jan 03 12:33:21 EST 2024
User: Yrep
Spectrometer: HR+D1059
Trigger mode: 1
Integration Time (sec): 1.000000E-1
Scans to average: 1
Electric dark correction enabled: true
Nonlinearity correction enabled: false
Boxcar width: 0
XAxis mode: Wavelengths
Number of Pixels in Spectrum: 2048
>>>>>Begin Spectral Data<<<<<
223.165	-30.88
223.4	-30.88
223.635	-30.88
223.869	-12.88
224.104	-14.88
224.338	-19.88
224.573	-12.88
224.808	-14.88
225.042	5.12
225.277	-10.88
225.511	-5.88
225.746	0.12
225.98	20.12
226.215	25.12
226.449	6.12
226.683	14.12
226.918	21.12
227.152	31.12
227.387	52.12
227.621	45.12
227.856	46.12
228.09	38.12
228.324	49.12
228.559	57.12
228.793	58.12
229.027	65.12
229.262	75.12
229.496	63.12
229.73	75.12
229.964	77.12
230.199	67.12
230.433	74.12
230.667	71.12
230.901	79.12
231.136	86.12
231.37	78.12
231.604	75.12
231.838	79.12
232.072	73.12
232.306	81.12
232.541	82.12
232.775	72.12
233.009	83.12
233.243	79.12
233.477	87.12
233.711	74.12
233.945	81.12
234.179	79.12
234.413	79.12
234.647	75.12
234.881	86.12
235.115	85.12
235.349	83.12
235.583	82.12
235.817	83.12
236.051	98.12
236.285	65.12
236.519	64.12
236.753	84.12
236.987	97.12
237.221	87.12
237.455	82.12
237.689	74.12
237.922	77.12
238.156	73.12
238.39	71.12
238.624	72.12
238.858	83.12
239.091	95.12
239.325	72.12
239.559	69.12
239.793	74.12
240.027	76.12
240.26	81.12
240.494	65.12
240.728	79.12
240.961	81.12
241.195	68.12
241.429	81.12
241.662	69.12
241.896	64.12
242.13	76.12
242.363	73.12
242.597	72.12
242.83	93.12
243.064	77.12
243.298	76.12
243.531	81.12
243.765	87.12
243.998	86.12
244.232	83.12
244.465	90.12
244.699	97.12
244.932	65.12
245.166	81.12
245.399	85.12
245.633	80.12
245.866	67.12
246.099	68.12
246.333	73.12
246.566	71.12
246.8	77.12
247.033	68.12
247.266	68.12
247.5	84.12
247.733	80.12
247.966	79.12
248.2	69.12
248.433	68.12
248.666	76.12
248.899	76.12
249.133	83.12
249.366	100.12
249.599	95.12
249.832	77.12
250.066	78.12
250.299	87.12
250.532	83.12
250.765	77.12
250.998	74.12
251.231	67.12
251.465	89.12
251.698	81.12
251.931	85.12
252.164	75.12
252.397	77.12
252.63	95.12
252.863	83.12
253.096	76.12
253.329	85.12
253.562	81.12
253.795	69.12
254.028	75.12
254.261	77.12
254.494	83.12
254.727	75.12
254.96	89.12
255.193	88.12
255.426	81.12
255.659	76.12
255.892	85.12
256.124	83.12
256.357	67.12
256.59	81.12
256.823	70.12
257.056	93.12
257.289	79.12
257.521	97.12
257.754	89.12
257.987	87.12
258.22	89.12
258.452	92.12
258.685	77.12
258.918	81.12
259.151	84.12
259.383	84.12
259.616	87.12
259.849	91.12
260.081	76.12
260.314	89.12
260.547	76.12
260.779	81.12
261.012	85.12
261.244	75.12
261.477	81.12
261.71	85.12
261.942	103.12
262.175	98.12
262.407	91.12
262.64	75.12
262.872	81.12
263.105	78.12
263.337	78.12
263.57	91.12
263.802	78.12
264.035	91.12
264.267	73.12
264.499	84.12
264.732	83.12
264.964	83.12
265.197	93.12
265.429	89.12
265.661	85.12
265.894	89.12
266.126	87.12
266.358	94.12
266.591	67.12
266.823	73.12
267.055	86.12
267.287	73.12
267.52	95.12
267.752	66.12
267.984	85.12
268.216	81.12
268.448	87.12
268.681	80.12
268.913	78.12
269.145	90.12
269.377	87.12
269.609	85.12
269.841	82.12
270.073	83.12
270.306	83.12
270.538	67.12
270.77	78.12
271.002	82.12
271.234	89.12
271.466	77.12
271.698	87.12
271.93	91.12
272.162	87.12
272.394	85.12
272.626	78.12
272.858	72.12
273.09	86.12
273.322	74.12
273.553	77.12
273.785	85.12
274.017	91.12
274.249	78.12
274.481	92.12
274.713	85.12
274.945	86.12
275.176	86.12
275.408	77.12
275.64	85.12
275.872	89.12
276.104	95.12
276.335	85.12
276.567	92.12
276.799	89.12
277.031	93.12
277.262	87.12
277.494	98.12
277.726	93.12
277.957	73.12
278.189	85.12
278.421	85.12
278.652	90.12
278.884	79.12
279.115	79.12
279.347	88.12
279.579	89.12
279.81	86.12
280.042	77.12
280.273	97.12
280.505	101.12
280.736	85.12
280.968	86.12
281.199	89.12
281.431	96.12
281.662	94.12
281.894	96.12
282.125	93.12
282.356	101.12
282.588	105.12
282.819	107.12
283.051	85.12
283.282	100.12
283.513	94.12
283.745	100.12
283.976	80.12
284.207	82.12
284.439	101.12
284.67	85.12
284.901	70.12
285.132	79.12
285.364	87.12
285.595	79.12
285.826	92.12
286.057	98.12
286.288	92.12
286.52	91.12
286.751	79.12
286.982	85.12
287.213	77.12
287.444	95.12
287.675	78.12
287.906	81.12
288.138	81.12
288.369	88.12
288.6	102.12
288.831	72.12
289.062	74.12
289.293	94.12
289.524	75.12
289.755	93.12
289.986	83.12
290.217	87.12
290.448	78.12
290.679	93.12
290.91	91.12
291.141	89.12
291.371	93.12
291.602	78.12
291.833	75.12
292.064	101.12
292.295	82.12
292.526	81.12
292.757	86.12
292.987	85.12
293.218	95.12
293.449	92.12
293.68	83.12
293.91	83.12
294.141	103.12
294.372	91.12
294.603	73.12
294.833	106.12
295.064	90.12
295.295	98.12
295.525	89.12
295.756	106.12
295.987	92.12
296.217	105.12
296.448	105.12
296.679	88.12
296.909	79.12
297.14	79.12
297.37	92.12
297.601	100.12
297.831	82.12
298.062	99.12
298.292	90.12
298.523	86.12
298.753	87.12
298.984	89.12
299.214	100.12
299.445	90.12
299.675	77.12
299.905	92.12
300.136	83.12
300.366	94.12
300.597	86.12
300.827	97.12
301.057	97.12
301.288	76.12
301.518	77.12
301.748	93.12
301.979	84.12
302.209	104.12
302.439	93.12
302.669	89.12
302.9	79.12
303.13	95.12
303.36	89.12
303.59	89.12
303.82	102.12
304.051	86.12
304.281	74.12
304.511	93.12
304.741	93.12
304.971	83.12
305.201	90.12
305.431	89.12
305.661	79.12
305.891	93.12
306.121	92.12
306.352	92.12
306.582	90.12
306.812	88.12
307.042	91.12
307.272	91.12
307.502	84.12
307.731	86.12
307.961	89.12
308.191	86.12
308.421	91.12
308.651	88.12
308.881	101.12
309.111	95.12
309.341	96.12
309.571	95.12
309.8	79.12
310.03	102.12
310.26	89.12
310.49	105.12
310.72	105.12
310.949	95.12
311.179	90.12
311.409	86.12
311.639	86.12
311.868	95.12
312.098	96.12
312.328	81.12
312.557	109.12
312.787	113.12
313.017	93.12
313.246	85.12
313.476	99.12
313.706	89.12
313.935	85.12
314.165	96.12
314.394	101.12
314.624	87.12
314.853	89.12
315.083	98.12
315.312	107.12
315.542	68.12
315.771	88.12
316.001	98.12
316.23	94.12
316.46	71.12
316.689	79.12
316.919	95.12
317.148	105.12
317.377	86.12
317.607	85.12
317.836	85.12
318.065	92.12
318.295	85.12
318.524	99.12
318.753	90.12
318.983	97.12
319.212	105.12
319.441	99.12
319.67	93.12
319.9	83.12
320.129	118.12
320.358	88.12
320.587	101.12
320.816	97.12
321.046	102.12
321.275	98.12
321.504	112.12
321.733	89.12
321.962	103.12
322.191	91.12
322.42	100.12
322.649	89.12
322.878	114.12
323.108	130.12
323.337	110.12
323.566	132.12
323.795	128.12
324.024	176.12
324.253	345.12
324.482	686.12
324.71	1448.12
324.939	1827.12
325.168	679.12
325.397	220.12
325.626	148.12
325.855	119.12
326.084	124.12
326.313	118.12
326.542	142.12
326.77	206.12
326.999	399.12
327.228	834.12
327.457	1485.12
327.686	1172.12
327.914	326.12
328.143	161.12
328.372	134.12
328.6	115.12
328.829	97.12
329.058	118.12
329.287	124.12
329.515	115.12
329.744	113.12
329.972	89.12
330.201	102.12
330.43	116.12
330.658	116.12
330.887	101.12
331.115	108.12
331.344	101.12
331.572	98.12
331.801	94.12
332.03	92.12
332.258	98.12
332.486	102.12
332.715	94.12
332.943	91.12
333.172	102.12
333.4	95.12
333.629	98.12
333.857	115.12
334.085	98.12
334.314	100.12
334.542	121.12
334.771	115.12
334.999	99.12
335.227	98.12
335.455	95.12
335.684	88.12
335.912	103.12
336.14	96.12
336.369	115.12
336.597	96.12
336.825	91.12
337.053	97.12
337.281	95.12
337.51	90.12
337.738	103.12
337.966	97.12
338.194	98.12
338.422	100.12
338.65	96.12
338.878	97.12
339.106	87.12
339.334	99.12
339.562	98.12
339.79	90.12
340.018	89.12
340.246	91.12
340.474	92.12
340.702	86.12
340.93	86.12
341.158	93.12
341.386	90.12
341.614	91.12
341.842	90.12
342.07	90.12
342.298	88.12
342.526	93.12
342.754	92.12
342.981	94.12
343.209	89.12
343.437	94.12
343.665	83.12
343.893	99.12
344.12	97.12
344.348	101.12
344.576	87.12
344.804	83.12
345.031	96.12
345.259	86.12
345.487	96.12
345.714	94.12
345.942	90.12
346.17	86.12
346.397	90.12
346.625	100.12
346.853	111.12
347.08	94.12
347.308	97.12
347.535	103.12
347.763	99.12
347.99	95.12
348.218	85.12
348.445	94.12
348.673	105.12
348.9	92.12
349.128	95.12
349.355	97.12
349.583	95.12
349.81	100.12
350.037	109.12
350.265	92.12
350.492	96.12
350.72	110.12
350.947	97.12
351.174	97.12
351.402	104.12
351.629	105.12
351.856	93.12
352.083	91.12
352.311	106.12
352.538	88.12
352.765	102.12
352.992	113.12
353.22	105.12
353.447	105.12
353.674	101.12
353.901	111.12
354.128	90.12
354.355	102.12
354.583	105.12
354.81	116.12
355.037	97.12
355.264	91.12
355.491	97.12
355.718	94.12
355.945	100.12
356.172	96.12
356.399	92.12
356.626	107.12
356.853	94.12
357.08	96.12
357.307	98.12
357.534	98.12
357.761	90.12
357.988	100.12
358.215	90.12
358.441	99.12
358.668	105.12
358.895	91.12
359.122	86.12
359.349	84.12
359.576	85.12
359.802	89.12
360.029	99.12
360.256	97.12
360.483	87.12
360.709	73.12
360.936	103.12
361.163	75.12
361.39	91.12
361.616	99.12
361.843	95.12
362.07	94.12
362.296	95.12
362.523	87.12
362.749	71.12
362.976	83.12
363.203	85.12
363.429	103.12
363.656	94.12
363.882	91.12
364.109	94.12
364.335	82.12
364.562	100.12
364.788	99.12
365.015	94.12
365.241	85.12
365.468	112.12
365.694	99.12
365.92	83.12
366.147	85.12
366.373	104.12
366.599	86.12
366.826	77.12
367.052	92.12
367.278	83.12
367.505	94.12
367.731	98.12
367.957	87.12
368.184	100.12
368.41	81.12
368.636	98.12
368.862	101.12
369.089	99.12
369.315	91.12
369.541	92.12
369.767	91.12
369.993	81.12
370.219	92.12
370.445	81.12
370.672	85.12
370.898	86.12
371.124	83.12
371.35	90.12
371.576	89.12
371.802	67.12
372.028	91.12
372.254	85.12
372.48	93.12
372.706	93.12
372.932	84.12
373.158	101.12
373.384	106.12
373.61	99.12
373.835	98.12
374.061	89.12
374.287	85.12
374.513	99.12
374.739	101.12
374.965	88.12
375.191	91.12
375.416	100.12
375.642	100.12
375.868	100.12
376.094	90.12
376.319	89.12
376.545	100.12
376.771	96.12
376.997	79.12
377.222	83.12
377.448	91.12
377.674	95.12
377.899	99.12
378.125	84.12
378.35	77.12
378.576	95.12
378.802	96.12
379.027	83.12
379.253	97.12
379.478	94.12
379.704	92.12
379.929	92.12
380.155	98.12
380.38	79.12
380.606	93.12
380.831	95.12
381.057	100.12
381.282	91.12
381.507	90.12
381.733	101.12
381.958	110.12
382.184	99.12
382.409	97.12
382.634	108.12
382.86	93.12
383.085	108.12
383.31	114.12
383.535	94.12
383.761	93.12
383.986	100.12
384.211	89.12
384.436	93.12
384.662	110.12
384.887	98.12
385.112	105.12
385.337	109.12
385.562	102.12
385.787	121.12
386.013	102.12
386.238	118.12
386.463	117.12
386.688	110.12
386.913	113.12
387.138	119.12
387.363	110.12
387.588	106.12
387.813	90.12
388.038	98.12
388.263	102.12
388.488	106.12
388.713	103.12
388.938	90.12
389.163	95.12
389.387	91.12
389.612	86.12
389.837	104.12
390.062	93.12
390.287	94.12
390.512	98.12
390.736	93.12
390.961	100.12
391.186	109.12
391.411	109.12
391.636	90.12
391.86	90.12
392.085	87.12
392.31	94.12
392.534	85.12
392.759	91.12
392.984	87.12
393.208	85.12
393.433	84.12
393.658	84.12
393.882	89.12
394.107	100.12
394.331	84.12
394.556	82.12
394.78	95.12
395.005	89.12
395.229	86.12
395.454	86.12
395.678	106.12
395.903	87.12
396.127	83.12
396.352	84.12
396.576	77.12
396.801	95.12
397.025	74.12
397.249	89.12
397.474	79.12
397.698	104.12
397.922	81.12
398.147	80.12
398.371	98.12
398.595	81.12
398.82	73.12
399.044	94.12
399.268	101.12
399.492	93.12
399.717	98.12
399.941	101.12
400.165	89.12
400.389	93.12
400.613	94.12
400.837	100.12
401.062	85.12
401.286	78.12
401.51	85.12
401.734	97.12
401.958	82.12
402.182	116.12
402.406	130.12
402.63	109.12
402.854	93.12
403.078	79.12
403.302	89.12
403.526	92.12
403.75	101.12
403.974	69.12
404.198	81.12
404.422	89.12
404.645	84.12
404.869	86.12
405.093	95.12
405.317	94.12
405.541	91.12
405.765	93.12
405.988	96.12
406.212	135.12
406.436	179.12
406.66	121.12
406.883	93.12
407.107	86.12
407.331	86.12
407.555	94.12
407.778	98.12
408.002	95.12
408.226	79.12
408.449	93.12
408.673	87.12
408.896	102.12
409.12	98.12
409.344	94.12
409.567	87.12
409.791	97.12
410.014	97.12
410.238	102.12
410.461	78.12
410.685	88.12
410.908	94.12
411.132	108.12
411.355	109.12
411.578	91.12
411.802	105.12
412.025	83.12
412.249	102.12
412.472	93.12
412.695	95.12
412.919	82.12
413.142	94.12
413.365	87.12
413.589	91.12
413.812	93.12
414.035	100.12
414.258	90.12
414.482	84.12
414.705	92.12
414.928	84.12
415.151	95.12
415.374	94.12
415.597	95.12
415.821	82.12
416.044	99.12
416.267	97.12
416.49	95.12
416.713	96.12
416.936	86.12
417.159	87.12
417.382	96.12
417.605	92.12
417.828	94.12
418.051	94.12
418.274	87.12
418.497	96.12
418.72	99.12
418.943	98.12
419.166	85.12
419.389	95.12
419.611	76.12
419.834	75.12
420.057	99.12
420.28	94.12
420.503	89.12
420.726	94.12
420.948	107.12
421.171	90.12
421.394	93.12
421.617	90.12
421.839	90.12
422.062	95.12
422.285	111.12
422.507	94.12
422.73	94.12
422.953	86.12
423.175	90.12
423.398	96.12
423.621	106.12
423.843	106.12
424.066	88.12
424.288	103.12
424.511	103.12
424.733	92.12
424.956	103.12
425.178	87.12
425.401	98.12
425.623	89.12
425.846	89.12
426.068	103.12
426.291	90.12
426.513	86.12
426.735	95.12
426.958	87.12
427.18	96.12
427.402	110.12
427.625	157.12
427.847	120.12
428.069	107.12
428.292	91.12
428.514	86.12
428.736	82.12
428.958	87.12
429.181	98.12
429.403	81.12
429.625	67.12
429.847	75.12
430.069	93.12
430.292	79.12
430.514	88.12
430.736	91.12
430.958	94.12
431.18	101.12
431.402	88.12
431.624	93.12
431.846	91.12
432.068	87.12
432.29	59.12
432.512	96.12
432.734	89.12
432.956	98.12
433.178	81.12
433.4	97.12
433.622	80.12
433.844	111.12
434.066	97.12
434.287	99.12
434.509	81.12
434.731	91.12
434.953	84.12
435.175	100.12
435.397	90.12
435.618	89.12
435.84	104.12
436.062	108.12
436.284	101.12
436.505	92.12
436.727	104.12
436.949	93.12
437.17	76.12
437.392	91.12
437.614	77.12
437.835	92.12
438.057	94.12
438.278	92.12
438.5	102.12
438.721	108.12
438.943	90.12
439.165	89.12
439.386	72.12
439.608	86.12
439.829	98.12
440.05	98.12
440.272	108.12
440.493	94.12
440.715	88.12
440.936	100.12
441.158	83.12
441.379	87.12
441.6	102.12
441.822	103.12
442.043	92.12
442.264	85.12
442.486	94.12
442.707	100.12
442.928	92.12
443.149	97.12
443.371	105.12
443.592	108.12
443.813	103.12
444.034	98.12
444.255	97.12
444.476	87.12
444.698	90.12
444.919	95.12
445.14	123.12
445.361	115.12
445.582	114.12
445.803	131.12
446.024	110.12
446.245	117.12
446.466	92.12
446.687	99.12
446.908	101.12
447.129	94.12
447.35	90.12
447.571	97.12
447.792	99.12
448.013	95.12
448.234	98.12
448.455	97.12
448.675	88.12
448.896	104.12
449.117	95.12
449.338	83.12
449.559	111.12
449.779	120.12
450	91.12
450.221	82.12
450.442	101.12
450.662	89.12
450.883	108.12
451.104	86.12
451.324	99.12
451.545	100.12
451.766	100.12
451.986	71.12
452.207	90.12
452.428	77.12
452.648	91.12
452.869	101.12
453.089	104.12
453.31	93.12
453.53	94.12
453.751	102.12
453.971	103.12
454.192	103.12
454.412	75.12
454.633	83.12
454.853	92.12
455.073	81.12
455.294	94.12
455.514	91.12
455.734	87.12
455.955	92.12
456.175	87.12
456.395	81.12
456.616	94.12
456.836	94.12
457.056	84.12
457.276	93.12
457.497	86.12
457.717	69.12
457.937	83.12
458.157	88.12
458.377	96.12
458.598	107.12
458.818	133.12
459.038	119.12
459.258	100.12
459.478	81.12
459.698	83.12
459.918	94.12
460.138	77.12
460.358	87.12
460.578	84.12
460.798	92.12
461.018	82.12
461.238	89.12
461.458	81.12
461.678	91.12
461.898	79.12
462.118	87.12
462.338	93.12
462.558	89.12
462.777	78.12
462.997	73.12
463.217	89.12
463.437	85.12
463.657	91.12
463.876	97.12
464.096	88.12
464.316	73.12
464.536	97.12
464.755	83.12
464.975	91.12
465.195	133.12
465.414	111.12
465.634	98.12
465.854	84.12
466.073	88.12
466.293	84.12
466.512	83.12
466.732	85.12
466.951	90.12
467.171	87.12
467.391	105.12
467.61	91.12
467.829	102.12
468.049	89.12
468.268	101.12
468.488	69.12
468.707	88.12
468.927	83.12
469.146	96.12
469.365	105.12
469.585	87.12
469.804	99.12
470.023	101.12
470.243	97.12
470.462	93.12
470.681	95.12
470.901	106.12
471.12	92.12
471.339	91.12
471.558	83.12
471.777	99.12
471.997	77.12
472.216	93.12
472.435	122.12
472.654	78.12
472.873	76.12
473.092	67.12
473.311	76.12
473.53	101.12
473.749	91.12
473.968	94.12
474.187	101.12
474.406	91.12
474.625	91.12
474.844	73.12
475.063	96.12
475.282	103.12
475.501	98.12
475.72	76.12
475.939	84.12
476.158	95.12
476.377	94.12
476.596	83.12
476.814	84.12
477.033	89.12
477.252	95.12
477.471	95.12
477.69	88.12
477.908	97.12
478.127	96.12
478.346	97.12
478.564	84.12
478.783	96.12
479.002	87.12
479.22	92.12
479.439	92.12
479.658	89.12
479.876	96.12
480.095	83.12
480.313	97.12
480.532	93.12
480.751	105.12
480.969	118.12
481.188	171.12
481.406	121.12
481.624	88.12
481.843	87.12
482.061	83.12
482.28	91.12
482.498	82.12
482.717	96.12
482.935	93.12
483.153	75.12
483.372	96.12
483.59	83.12
483.808	83.12
484.027	91.12
484.245	83.12
484.463	85.12
484.681	103.12
484.9	95.12
485.118	91.12
485.336	99.12
485.554	106.12
485.772	110.12
485.99	91.12
486.209	110.12
486.427	117.12
486.645	110.12
486.863	104.12
487.081	107.12
487.299	108.12
487.517	89.12
487.735	86.12
487.953	97.12
488.171	100.12
488.389	94.12
488.607	90.12
488.825	92.12
489.043	92.12
489.261	90.12
489.479	90.12
489.696	101.12
489.914	88.12
490.132	99.12
490.35	95.12
490.568	91.12
490.786	92.12
491.003	87.12
491.221	89.12
491.439	91.12
491.657	107.12
491.874	105.12
492.092	100.12
492.31	97.12
492.527	93.12
492.745	87.12
492.963	98.12
493.18	83.12
493.398	79.12
493.615	89.12
493.833	89.12
494.05	92.12
494.268	99.12
494.485	94.12
494.703	90.12
494.92	92.12
495.138	92.12
495.355	103.12
495.573	94.12
495.79	93.12
496.008	89.12
496.225	102.12
496.442	100.12
496.66	90.12
496.877	82.12
497.094	105.12
497.312	98.12
497.529	99.12
497.746	85.12
497.963	91.12
498.181	98.12
498.398	93.12
498.615	110.12
498.832	92.12
499.049	98.12
499.267	95.12
499.484	76.12
499.701	88.12
499.918	93.12
500.135	90.12
500.352	83.12
500.569	98.12
500.786	78.12
501.003	86.12
501.22	101.12
501.437	84.12
501.654	81.12
501.871	89.12
502.088	94.12
502.305	76.12
502.522	107.12
502.739	94.12
502.956	97.12
503.172	81.12
503.389	93.12
503.606	102.12
503.823	85.12
504.04	92.12
504.256	95.12
504.473	97.12
504.69	85.12
504.907	104.12
505.123	101.12
505.34	101.12
505.557	91.12
505.773	92.12
505.99	82.12
506.207	97.12
506.423	106.12
506.64	92.12
506.856	91.12
507.073	85.12
507.289	89.12
507.506	97.12
507.722	108.12
507.939	106.12
508.155	96.12
508.372	86.12
508.588	98.12
508.805	99.12
509.021	98.12
509.238	97.12
509.454	102.12
509.67	97.12
509.887	104.12
510.103	119.12
510.319	174.12
510.536	552.12
510.752	1606.12
510.968	453.12
511.184	127.12
511.401	104.12
511.617	115.12
511.833	89.12
512.049	96.12
512.265	97.12
512.481	99.12
512.698	88.12
512.914	105.12
513.13	86.12
513.346	88.12
513.562	98.12
513.778	90.12
513.994	97.12
514.21	100.12
514.426	110.12
514.642	131.12
514.858	105.12
515.074	108.12
515.29	324.12
515.506	881.12
515.721	358.12
515.937	117.12
