Data from Uncirc_1981_H10_HRD10591_00095.txt Node
Date: Wed Jan 03 12:33:27 EST 2024
User: Yrep
Spectrometer: HR+D1059
Trigger mode: 1
Integration Time (sec): 1.000000E-1
Scans to average: 1
Electric dark correction enabled: true
Nonlinearity correction enabled: false
Boxcar width: 0
XAxis mode: Wavelengths
Number of Pixels in Spectrum: 2048
>>>>>Begin Spectral Data<<<<<
223.165	-27
223.4	-27
223.635	-27
223.869	-17
224.104	-24
224.338	-27
224.573	-12
224.808	-7
225.042	-4
225.277	-5
225.511	-3
225.746	7
225.98	6
226.215	15
226.449	14
226.683	15
226.918	30
227.152	39
227.387	36
227.621	41
227.856	50
228.09	54
228.324	54
228.559	50
228.793	55
229.027	69
229.262	67
229.496	69
229.73	84
229.964	81
230.199	70
230.433	70
230.667	68
230.901	97
231.136	87
231.37	74
231.604	62
231.838	76
232.072	78
232.306	84
232.541	79
232.775	76
233.009	85
233.243	74
233.477	75
233.711	89
233.945	73
234.179	102
234.413	83
234.647	60
234.881	75
235.115	77
235.349	78
235.583	83
235.817	73
236.051	75
236.285	81
236.519	81
236.753	94
236.987	86
237.221	71
237.455	84
237.689	85
237.922	72
238.156	85
238.39	89
238.624	81
238.858	82
239.091	61
239.325	75
239.559	73
239.793	69
240.027	87
240.26	80
240.494	91
240.728	87
240.961	68
241.195	53
241.429	66
241.662	74
241.896	84
242.13	73
242.363	83
242.597	73
242.83	76
243.064	90
243.298	77
243.531	74
243.765	78
243.998	83
244.232	74
244.465	83
244.699	93
244.932	85
245.166	80
245.399	91
245.633	90
245.866	88
246.099	83
246.333	70
246.566	75
246.8	92
247.033	78
247.266	76
247.5	86
247.733	90
247.966	86
248.2	86
248.433	77
248.666	89
248.899	81
249.133	88
249.366	82
249.599	92
249.832	79
250.066	75
250.299	89
250.532	87
250.765	78
250.998	74
251.231	83
251.465	79
251.698	85
251.931	83
252.164	69
252.397	89
252.63	91
252.863	94
253.096	76
253.329	78
253.562	88
253.795	79
254.028	75
254.261	87
254.494	76
254.727	85
254.96	90
255.193	89
255.426	81
255.659	88
255.892	87
256.124	67
256.357	70
256.59	87
256.823	81
257.056	76
257.289	75
257.521	86
257.754	80
257.987	77
258.22	74
258.452	70
258.685	84
258.918	87
259.151	81
259.383	91
259.616	76
259.849	94
260.081	87
260.314	88
260.547	74
260.779	78
261.012	92
261.244	100
261.477	91
261.71	94
261.942	111
262.175	100
262.407	93
262.64	87
262.872	74
263.105	76
263.337	91
263.57	85
263.802	85
264.035	90
264.267	98
264.499	78
264.732	86
264.964	83
265.197	94
265.429	91
265.661	94
265.894	94
266.126	77
266.358	74
266.591	69
266.823	72
267.055	86
267.287	80
267.52	90
267.752	91
267.984	81
268.216	68
268.448	81
268.681	73
268.913	85
269.145	69
269.377	84
269.609	91
269.841	86
270.073	79
270.306	87
270.538	73
270.77	84
271.002	85
271.234	85
271.466	88
271.698	99
271.93	81
272.162	98
272.394	96
272.626	86
272.858	91
273.09	86
273.322	83
273.553	85
273.785	84
274.017	78
274.249	76
274.481	90
274.713	86
274.945	81
275.176	85
275.408	84
275.64	101
275.872	89
276.104	85
276.335	94
276.567	85
276.799	106
277.031	95
277.262	90
277.494	91
277.726	93
277.957	83
278.189	78
278.421	81
278.652	87
278.884	83
279.115	92
279.347	111
279.579	83
279.81	85
280.042	85
280.273	94
280.505	92
280.736	90
280.968	74
281.199	81
281.431	90
281.662	92
281.894	91
282.125	94
282.356	114
282.588	121
282.819	103
283.051	95
283.282	89
283.513	81
283.745	86
283.976	85
284.207	85
284.439	91
284.67	92
284.901	83
285.132	74
285.364	101
285.595	92
285.826	68
286.057	92
286.288	89
286.52	78
286.751	85
286.982	89
287.213	87
287.444	84
287.675	92
287.906	87
288.138	80
288.369	88
288.6	98
288.831	74
289.062	107
289.293	94
289.524	100
289.755	88
289.986	86
290.217	85
290.448	100
290.679	84
290.91	90
291.141	95
291.371	93
291.602	75
291.833	93
292.064	92
292.295	86
292.526	97
292.757	94
292.987	81
293.218	88
293.449	89
293.68	78
293.91	95
294.141	87
294.372	96
294.603	93
294.833	81
295.064	83
295.295	80
295.525	97
295.756	101
295.987	87
296.217	101
296.448	107
296.679	99
296.909	85
297.14	75
297.37	79
297.601	84
297.831	85
298.062	99
298.292	90
298.523	95
298.753	91
298.984	93
299.214	91
299.445	94
299.675	97
299.905	90
300.136	85
300.366	95
300.597	87
300.827	92
301.057	98
301.288	96
301.518	90
301.748	91
301.979	104
302.209	95
302.439	77
302.669	85
302.9	85
303.13	97
303.36	92
303.59	96
303.82	99
304.051	99
304.281	82
304.511	95
304.741	80
304.971	98
305.201	71
305.431	79
305.661	95
305.891	100
306.121	87
306.352	104
306.582	103
306.812	86
307.042	96
307.272	77
307.502	82
307.731	103
307.961	91
308.191	86
308.421	85
308.651	98
308.881	78
309.111	82
309.341	102
309.571	92
309.8	91
310.03	92
310.26	98
310.49	95
310.72	101
310.949	99
311.179	96
311.409	91
311.639	91
311.868	102
312.098	100
312.328	85
312.557	104
312.787	90
313.017	101
313.246	101
313.476	77
313.706	103
313.935	90
314.165	96
314.394	87
314.624	91
314.853	89
315.083	111
315.312	99
315.542	102
315.771	100
316.001	102
316.23	87
316.46	91
316.689	89
316.919	92
317.148	98
317.377	102
317.607	105
317.836	103
318.065	96
318.295	78
318.524	85
318.753	86
318.983	94
319.212	87
319.441	95
319.67	107
319.9	91
320.129	101
320.358	97
320.587	90
320.816	105
321.046	108
321.275	77
321.504	90
321.733	99
321.962	94
322.191	92
322.42	104
322.649	102
322.878	99
323.108	107
323.337	111
323.566	128
323.795	146
324.024	215
324.253	357
324.482	747
324.71	1510
324.939	2003
325.168	709
325.397	227
325.626	146
325.855	130
326.084	116
326.313	130
326.542	148
326.77	198
326.999	426
327.228	872
327.457	1574
327.686	1223
327.914	335
328.143	179
328.372	135
328.6	129
328.829	108
329.058	100
329.287	111
329.515	91
329.744	99
329.972	98
330.201	114
330.43	115
330.658	108
330.887	115
331.115	112
331.344	99
331.572	89
331.801	92
332.03	94
332.258	92
332.486	86
332.715	88
332.943	82
333.172	99
333.4	96
333.629	98
333.857	106
334.085	121
334.314	114
334.542	95
334.771	108
334.999	100
335.227	93
335.455	105
335.684	93
335.912	100
336.14	100
336.369	93
336.597	99
336.825	105
337.053	93
337.281	95
337.51	95
337.738	102
337.966	103
338.194	102
338.422	84
338.65	99
338.878	111
339.106	95
339.334	96
339.562	71
339.79	97
340.018	102
340.246	89
340.474	100
340.702	95
340.93	87
341.158	90
341.386	87
341.614	98
341.842	95
342.07	81
342.298	100
342.526	83
342.754	97
342.981	99
343.209	82
343.437	94
343.665	94
343.893	90
344.12	90
344.348	90
344.576	78
344.804	89
345.031	94
345.259	83
345.487	90
345.714	97
345.942	94
346.17	93
346.397	85
346.625	95
346.853	101
347.08	99
347.308	85
347.535	85
347.763	97
347.99	83
348.218	97
348.445	98
348.673	98
348.9	85
349.128	110
349.355	93
349.583	89
349.81	93
350.037	92
350.265	102
350.492	103
350.72	95
350.947	96
351.174	95
351.402	109
351.629	95
351.856	97
352.083	97
352.311	101
352.538	95
352.765	91
352.992	102
353.22	99
353.447	103
353.674	105
353.901	103
354.128	99
354.355	120
354.583	102
354.81	81
355.037	97
355.264	93
355.491	87
355.718	92
355.945	82
356.172	89
356.399	90
356.626	97
356.853	94
357.08	91
357.307	85
357.534	93
357.761	81
357.988	91
358.215	93
358.441	95
358.668	101
358.895	98
359.122	101
359.349	94
359.576	98
359.802	99
360.029	106
360.256	102
360.483	99
360.709	81
360.936	104
361.163	114
361.39	87
361.616	100
361.843	101
362.07	87
362.296	91
362.523	95
362.749	102
362.976	80
363.203	77
363.429	92
363.656	83
363.882	85
364.109	81
364.335	85
364.562	94
364.788	76
365.015	103
365.241	102
365.468	102
365.694	94
365.92	109
366.147	93
366.373	93
366.599	71
366.826	82
367.052	79
367.278	81
367.505	95
367.731	90
367.957	91
368.184	86
368.41	91
368.636	95
368.862	104
369.089	106
369.315	103
369.541	91
369.767	91
369.993	91
370.219	87
370.445	93
370.672	90
370.898	83
371.124	88
371.35	95
371.576	98
371.802	91
372.028	93
372.254	102
372.48	93
372.706	106
372.932	101
373.158	76
373.384	102
373.61	86
373.835	87
374.061	86
374.287	85
374.513	79
374.739	88
374.965	91
375.191	90
375.416	85
375.642	96
375.868	94
376.094	105
376.319	97
376.545	78
376.771	92
376.997	104
377.222	84
377.448	89
377.674	97
377.899	68
378.125	79
378.35	95
378.576	97
378.802	87
379.027	91
379.253	92
379.478	101
379.704	87
379.929	82
380.155	98
380.38	99
380.606	99
380.831	97
381.057	102
381.282	93
381.507	93
381.733	97
381.958	104
382.184	99
382.409	95
382.634	106
382.86	98
383.085	96
383.31	98
383.535	92
383.761	101
383.986	99
384.211	94
384.436	119
384.662	96
384.887	87
385.112	91
385.337	95
385.562	95
385.787	114
386.013	105
386.238	103
386.463	101
386.688	110
386.913	122
387.138	95
387.363	113
387.588	93
387.813	104
388.038	95
388.263	103
388.488	95
388.713	94
388.938	106
389.163	106
389.387	104
389.612	92
389.837	104
390.062	82
390.287	87
390.512	104
390.736	89
390.961	89
391.186	111
391.411	99
391.636	84
391.86	76
392.085	78
392.31	94
392.534	91
392.759	87
392.984	93
393.208	89
393.433	96
393.658	91
393.882	66
394.107	88
394.331	77
394.556	83
394.78	97
395.005	95
395.229	93
395.454	77
395.678	92
395.903	76
396.127	86
396.352	95
396.576	79
396.801	89
397.025	77
397.249	93
397.474	93
397.698	91
397.922	101
398.147	80
398.371	102
398.595	86
398.82	90
399.044	84
399.268	81
399.492	95
399.717	71
399.941	89
400.165	96
400.389	81
400.613	94
400.837	93
401.062	78
401.286	83
401.51	89
401.734	93
401.958	113
402.182	109
402.406	124
402.63	107
402.854	90
403.078	89
403.302	93
403.526	93
403.75	94
403.974	83
404.198	83
404.422	94
404.645	82
404.869	89
405.093	103
405.317	97
405.541	105
405.765	99
405.988	97
406.212	146
406.436	185
406.66	110
406.883	97
407.107	103
407.331	103
407.555	99
407.778	100
408.002	105
408.226	89
408.449	89
408.673	79
408.896	96
409.12	98
409.344	85
409.567	97
409.791	99
410.014	100
410.238	97
410.461	96
410.685	104
410.908	97
411.132	110
411.355	99
411.578	105
411.802	107
412.025	89
412.249	98
412.472	85
412.695	96
412.919	105
413.142	94
413.365	90
413.589	78
413.812	85
414.035	91
414.258	86
414.482	83
414.705	78
414.928	83
415.151	92
415.374	105
415.597	95
415.821	82
416.044	81
416.267	101
416.49	78
416.713	95
416.936	99
417.159	87
417.382	94
417.605	91
417.828	91
418.051	83
418.274	98
418.497	100
418.72	90
418.943	101
419.166	85
419.389	94
419.611	83
419.834	86
420.057	89
420.28	94
420.503	83
420.726	90
420.948	89
421.171	95
421.394	95
421.617	99
421.839	87
422.062	96
422.285	86
422.507	104
422.73	88
422.953	82
423.175	99
423.398	89
423.621	89
423.843	99
424.066	79
424.288	89
424.511	93
424.733	82
424.956	89
425.178	89
425.401	94
425.623	107
425.846	91
426.068	95
426.291	89
426.513	89
426.735	88
426.958	89
427.18	113
427.402	135
427.625	141
427.847	117
428.069	109
428.292	92
428.514	95
428.736	86
428.958	95
429.181	85
429.403	88
429.625	82
429.847	82
430.069	98
430.292	107
430.514	88
430.736	101
430.958	85
431.18	81
431.402	83
431.624	75
431.846	78
432.068	86
432.29	91
432.512	93
432.734	86
432.956	89
433.178	103
433.4	105
433.622	99
433.844	92
434.066	82
434.287	75
434.509	98
434.731	101
434.953	85
435.175	99
435.397	94
435.618	101
435.84	90
436.062	95
436.284	103
436.505	100
436.727	81
436.949	100
437.17	95
437.392	91
437.614	87
437.835	98
438.057	107
438.278	114
438.5	98
438.721	132
438.943	101
439.165	90
439.386	88
439.608	95
439.829	100
440.05	129
440.272	125
440.493	95
440.715	85
440.936	83
441.158	95
441.379	76
441.6	81
441.822	97
442.043	85
442.264	101
442.486	106
442.707	89
442.928	96
443.149	108
443.371	101
443.592	102
443.813	111
444.034	104
444.255	87
444.476	86
444.698	90
444.919	91
445.14	151
445.361	112
445.582	106
445.803	117
446.024	116
446.245	117
446.466	92
446.687	102
446.908	90
447.129	91
447.35	81
447.571	87
447.792	89
448.013	94
448.234	107
448.455	91
448.675	109
448.896	109
449.117	105
449.338	112
449.559	130
449.779	118
450	96
450.221	89
450.442	88
450.662	74
450.883	81
451.104	105
451.324	88
451.545	91
451.766	71
451.986	102
452.207	100
452.428	94
452.648	101
452.869	101
453.089	110
453.31	110
453.53	101
453.751	89
453.971	91
454.192	79
454.412	78
454.633	85
454.853	83
455.073	83
455.294	104
455.514	94
455.734	87
455.955	83
456.175	83
456.395	82
456.616	75
456.836	77
457.056	92
457.276	87
457.497	95
457.717	77
457.937	87
458.157	85
458.377	90
458.598	102
458.818	109
459.038	121
459.258	113
459.478	109
459.698	86
459.918	82
460.138	111
460.358	83
460.578	93
460.798	83
461.018	85
461.238	89
461.458	91
461.678	82
461.898	82
462.118	97
462.338	95
462.558	87
462.777	87
462.997	93
463.217	70
463.437	83
463.657	94
463.876	90
464.096	91
464.316	90
464.536	69
464.755	95
464.975	97
465.195	139
465.414	125
465.634	82
465.854	84
466.073	86
466.293	84
466.512	82
466.732	81
466.951	91
467.171	97
467.391	97
467.61	93
467.829	94
468.049	95
468.268	93
468.488	79
468.707	82
468.927	86
469.146	83
469.365	95
469.585	90
469.804	92
470.023	94
470.243	91
470.462	95
470.681	108
470.901	99
471.12	98
471.339	100
471.558	94
471.777	86
471.997	78
472.216	97
472.435	131
472.654	81
472.873	89
473.092	94
473.311	99
473.53	92
473.749	103
473.968	91
474.187	95
474.406	83
474.625	79
474.844	94
475.063	78
475.282	98
475.501	84
475.72	87
475.939	76
476.158	65
476.377	91
476.596	85
476.814	77
477.033	77
477.252	110
477.471	95
477.69	81
477.908	91
478.127	86
478.346	86
478.564	92
478.783	93
479.002	99
479.22	99
479.439	105
479.658	102
479.876	88
480.095	77
480.313	95
480.532	89
480.751	87
480.969	109
481.188	167
481.406	129
481.624	97
481.843	82
482.061	85
482.28	86
482.498	84
482.717	92
482.935	100
483.153	107
483.372	81
483.59	77
483.808	105
484.027	91
484.245	100
484.463	100
484.681	97
484.9	82
485.118	86
485.336	80
485.554	99
485.772	82
485.99	106
486.209	91
486.427	90
486.645	103
486.863	112
487.081	111
487.299	91
487.517	96
487.735	107
487.953	102
488.171	94
488.389	86
488.607	90
488.825	99
489.043	83
489.261	100
489.479	83
489.696	110
489.914	97
490.132	95
490.35	92
490.568	89
490.786	86
491.003	100
491.221	91
491.439	94
491.657	91
491.874	94
492.092	77
492.31	96
492.527	93
492.745	84
492.963	99
493.18	83
493.398	87
493.615	87
493.833	92
494.05	92
494.268	90
494.485	82
494.703	79
494.92	93
495.138	85
495.355	89
495.573	94
495.79	82
496.008	91
496.225	84
496.442	84
496.66	93
496.877	90
497.094	90
497.312	84
497.529	103
497.746	87
497.963	92
498.181	89
498.398	89
498.615	108
498.832	97
499.049	89
499.267	94
499.484	90
499.701	100
499.918	93
500.135	83
500.352	98
500.569	89
500.786	70
501.003	83
501.22	81
501.437	90
501.654	92
501.871	114
502.088	100
502.305	107
502.522	90
502.739	85
502.956	89
503.172	83
503.389	91
503.606	98
503.823	109
504.04	75
504.256	97
504.473	74
504.69	103
504.907	100
505.123	89
505.34	82
505.557	96
505.773	97
505.99	85
506.207	102
506.423	87
506.64	91
506.856	77
507.073	76
507.289	88
507.506	92
507.722	114
507.939	114
508.155	93
508.372	95
508.588	96
508.805	106
509.021	93
509.238	101
509.454	100
509.67	94
509.887	97
510.103	137
510.319	178
510.536	582
510.752	1734
510.968	495
511.184	138
511.401	102
511.617	84
511.833	90
512.049	111
512.265	90
512.481	83
512.698	103
512.914	108
513.13	87
513.346	94
513.562	107
513.778	102
513.994	96
514.21	93
514.426	107
514.642	113
514.858	110
515.074	146
515.29	345
515.506	1049
515.721	371
515.937	134
516.153	103
516.369	89
516.585	81
516.801	84
517.016	93
517.232	110
517.448	80
517.664	96
517.879	91
518.095	99
518.311	91
518.527	91
518.742	87
518.958	95
519.173	82
519.389	83
519.605	101
519.82	97
520.036	90
520.251	93
520.467	100
520.682	98
520.898	114
521.113	119
521.329	120
521.544	172
521.76	419
521.975	1730
522.19	970
522.406	239
522.621	111
522.836	90
523.052	103
523.267	95
523.482	98
523.698	97
523.913	113
524.128	93
524.343	89
524.559	85
524.774	100
524.989	90
525.204	108
525.419	93
525.634	82
525.849	91
526.064	92
526.28	89
526.495	102
526.71	94
526.925	95
527.14	92
527.355	87
527.57	95
527.785	93
527.999	93
528.214	92
528.429	100
528.644	100
528.859	95
529.074	94
529.289	109
529.503	159
529.718	109
529.933	74
530.148	95
530.363	99
530.577	79
530.792	95
531.007	108
531.221	92
531.436	87
531.651	102
531.865	86
532.08	84
532.295	102
532.509	111
532.724	116
532.938	99
533.153	87
533.367	81
533.582	93
533.796	103
534.011	93
534.225	107
534.44	90
534.654	93
534.868	97
535.083	84
535.297	93
535.511	94
535.726	100
535.94	99
536.154	85
536.369	93
536.583	79
536.797	85
537.011	95
537.225	69
537.44	89
537.654	90
537.868	87
538.082	95
538.296	81
538.51	98
538.724	92
538.938	87
539.153	78
539.367	100
539.581	100
539.795	103
540.009	94
540.222	83
540.436	98
540.65	86
540.864	104
541.078	95
541.292	95
541.506	101
541.72	74
541.934	74
542.147	88
542.361	92
542.575	84
542.789	97
543.002	77
543.216	93
543.43	105
543.644	90
543.857	107
544.071	85
544.285	84
544.498	102
544.712	115
544.925	84
545.139	84
545.352	78
545.566	101
545.779	88
545.993	86
546.206	88
546.42	83
546.633	83
546.847	102
547.06	94
547.274	94
547.487	102
547.7	78
547.914	84
548.127	90
548.34	87
548.554	95
548.767	84
548.98	89
549.193	80
549.407	79
549.62	85
549.833	90
550.046	89
550.259	98
550.473	66
550.686	99
550.899	90
551.112	90
551.325	102
551.538	90
551.751	100
551.964	83
552.177	78
552.39	91
552.603	101
552.816	93
553.029	94
553.242	90
553.455	99
553.667	97
553.88	97
554.093	88
554.306	98
554.519	94
554.732	87
554.944	97
555.157	93
555.37	97
555.583	93
555.795	85
556.008	90
556.221	98
556.433	85
556.646	83
556.859	92
557.071	83
557.284	85
557.496	94
557.709	97
557.921	70
558.134	86
558.346	90
558.559	87
558.771	91
558.984	93
559.196	82
559.409	92
559.621	98
559.833	93
560.046	88
560.258	96
560.47	103
560.683	101
560.895	91
561.107	92
561.32	91
561.532	98
561.744	95
561.956	90
562.168	82
562.381	92
562.593	98
562.805	87
563.017	92
563.229	97
563.441	101
563.653	89
563.865	99
564.077	94
564.289	81
564.501	97
564.713	100
564.925	87
565.137	95
565.349	89
565.561	82
565.773	91
565.985	87
566.197	83
566.408	97
566.62	95
566.832	89
567.044	98
567.255	92
567.467	79
567.679	104
567.891	90
568.102	84
568.314	96
568.526	88
568.737	105
568.949	92
569.161	97
569.372	92
569.584	88
569.795	106
570.007	113
570.218	204
570.43	120
570.641	93
570.853	98
571.064	91
571.276	84
571.487	83
571.698	89
571.91	94
572.121	93
572.333	97
572.544	78
572.755	88
572.966	98
573.178	90
573.389	67
573.6	87
573.811	88
574.023	90
574.234	94
574.445	93
574.656	97
574.867	77
575.078	88
575.289	93
575.501	97
575.712	72
575.923	80
576.134	89
576.345	86
576.556	95
576.767	90
576.978	95
577.188	91
577.399	101
577.61	95
577.821	102
578.032	99
578.243	221
578.454	583
578.665	197
578.875	97
579.086	96
579.297	100
579.508	86
579.718	89
579.929	89
580.14	93
580.35	87
580.561	81
580.772	81
580.982	84
581.193	108
581.403	87
581.614	104
581.825	90
582.035	91
582.246	86
582.456	87
582.667	96
582.877	99
583.087	98
583.298	85
583.508	98
583.719	105
583.929	87
584.139	77
584.35	92
584.56	83
