Data from Uncirc_1981_H10_HRD10591_00051.txt Node
Date: Wed Jan 03 12:33:18 EST 2024
User: Yrep
Spectrometer: HR+D1059
Trigger mode: 1
Integration Time (sec): 1.000000E-1
Scans to average: 1
Electric dark correction enabled: true
Nonlinearity correction enabled: false
Boxcar width: 0
XAxis mode: Wavelengths
Number of Pixels in Spectrum: 2048
>>>>>Begin Spectral Data<<<<<
223.165	-9.75
223.4	-9.75
223.635	-9.75
223.869	-25.75
224.104	-13.75
224.338	-26.75
224.573	-17.75
224.808	-14.75
225.042	-10.75
225.277	1.25
225.511	-6.75
225.746	-3.75
225.98	10.25
226.215	18.25
226.449	8.25
226.683	29.25
226.918	32.25
227.152	30.25
227.387	45.25
227.621	45.25
227.856	35.25
228.09	48.25
228.324	54.25
228.559	51.25
228.793	54.25
229.027	52.25
229.262	65.25
229.496	71.25
229.73	74.25
229.964	72.25
230.199	69.25
230.433	64.25
230.667	83.25
230.901	71.25
231.136	80.25
231.37	80.25
231.604	100.25
231.838	89.25
232.072	75.25
232.306	82.25
232.541	77.25
232.775	70.25
233.009	75.25
233.243	76.25
233.477	86.25
233.711	86.25
233.945	86.25
234.179	83.25
234.413	98.25
234.647	71.25
234.881	88.25
235.115	84.25
235.349	83.25
235.583	88.25
235.817	86.25
236.051	87.25
236.285	90.25
236.519	72.25
236.753	75.25
236.987	82.25
237.221	63.25
237.455	77.25
237.689	71.25
237.922	81.25
238.156	62.25
238.39	82.25
238.624	80.25
238.858	82.25
239.091	83.25
239.325	80.25
239.559	70.25
239.793	77.25
240.027	80.25
240.26	80.25
240.494	92.25
240.728	78.25
240.961	85.25
241.195	78.25
241.429	84.25
241.662	93.25
241.896	98.25
242.13	79.25
242.363	77.25
242.597	74.25
242.83	87.25
243.064	73.25
243.298	76.25
243.531	84.25
243.765	70.25
243.998	66.25
244.232	73.25
244.465	74.25
244.699	92.25
244.932	76.25
245.166	85.25
245.399	73.25
245.633	70.25
245.866	76.25
246.099	72.25
246.333	77.25
246.566	86.25
246.8	74.25
247.033	73.25
247.266	84.25
247.5	79.25
247.733	73.25
247.966	85.25
248.2	86.25
248.433	79.25
248.666	86.25
248.899	83.25
249.133	83.25
249.366	99.25
249.599	111.25
249.832	87.25
250.066	74.25
250.299	91.25
250.532	81.25
250.765	79.25
250.998	84.25
251.231	78.25
251.465	82.25
251.698	70.25
251.931	88.25
252.164	86.25
252.397	79.25
252.63	99.25
252.863	89.25
253.096	67.25
253.329	88.25
253.562	78.25
253.795	85.25
254.028	86.25
254.261	91.25
254.494	92.25
254.727	94.25
254.96	77.25
255.193	70.25
255.426	84.25
255.659	73.25
255.892	85.25
256.124	93.25
256.357	92.25
256.59	105.25
256.823	89.25
257.056	74.25
257.289	78.25
257.521	84.25
257.754	82.25
257.987	80.25
258.22	91.25
258.452	79.25
258.685	99.25
258.918	90.25
259.151	98.25
259.383	101.25
259.616	87.25
259.849	88.25
260.081	89.25
260.314	79.25
260.547	98.25
260.779	86.25
261.012	86.25
261.244	87.25
261.477	84.25
261.71	92.25
261.942	109.25
262.175	114.25
262.407	83.25
262.64	75.25
262.872	93.25
263.105	72.25
263.337	97.25
263.57	90.25
263.802	88.25
264.035	83.25
264.267	87.25
264.499	74.25
264.732	106.25
264.964	99.25
265.197	84.25
265.429	81.25
265.661	75.25
265.894	76.25
266.126	95.25
266.358	86.25
266.591	75.25
266.823	93.25
267.055	75.25
267.287	94.25
267.52	88.25
267.752	98.25
267.984	84.25
268.216	101.25
268.448	85.25
268.681	82.25
268.913	90.25
269.145	91.25
269.377	84.25
269.609	94.25
269.841	86.25
270.073	88.25
270.306	85.25
270.538	93.25
270.77	97.25
271.002	88.25
271.234	95.25
271.466	95.25
271.698	83.25
271.93	85.25
272.162	75.25
272.394	94.25
272.626	83.25
272.858	84.25
273.09	86.25
273.322	88.25
273.553	91.25
273.785	78.25
274.017	84.25
274.249	89.25
274.481	83.25
274.713	91.25
274.945	82.25
275.176	93.25
275.408	84.25
275.64	95.25
275.872	88.25
276.104	89.25
276.335	94.25
276.567	95.25
276.799	101.25
277.031	91.25
277.262	85.25
277.494	92.25
277.726	102.25
277.957	73.25
278.189	99.25
278.421	72.25
278.652	82.25
278.884	76.25
279.115	82.25
279.347	87.25
279.579	88.25
279.81	80.25
280.042	82.25
280.273	77.25
280.505	99.25
280.736	83.25
280.968	92.25
281.199	96.25
281.431	90.25
281.662	94.25
281.894	91.25
282.125	83.25
282.356	98.25
282.588	120.25
282.819	116.25
283.051	88.25
283.282	80.25
283.513	77.25
283.745	82.25
283.976	94.25
284.207	87.25
284.439	79.25
284.67	91.25
284.901	95.25
285.132	92.25
285.364	80.25
285.595	86.25
285.826	93.25
286.057	89.25
286.288	82.25
286.52	87.25
286.751	102.25
286.982	98.25
287.213	88.25
287.444	86.25
287.675	77.25
287.906	88.25
288.138	76.25
288.369	86.25
288.6	88.25
288.831	91.25
289.062	78.25
289.293	84.25
289.524	89.25
289.755	102.25
289.986	84.25
290.217	83.25
290.448	80.25
290.679	88.25
290.91	92.25
291.141	73.25
291.371	78.25
291.602	78.25
291.833	100.25
292.064	90.25
292.295	92.25
292.526	90.25
292.757	91.25
292.987	92.25
293.218	75.25
293.449	92.25
293.68	86.25
293.91	86.25
294.141	92.25
294.372	90.25
294.603	90.25
294.833	89.25
295.064	91.25
295.295	93.25
295.525	93.25
295.756	103.25
295.987	105.25
296.217	126.25
296.448	115.25
296.679	92.25
296.909	86.25
297.14	84.25
297.37	97.25
297.601	80.25
297.831	98.25
298.062	87.25
298.292	90.25
298.523	90.25
298.753	85.25
298.984	93.25
299.214	91.25
299.445	100.25
299.675	93.25
299.905	105.25
300.136	96.25
300.366	94.25
300.597	95.25
300.827	75.25
301.057	96.25
301.288	91.25
301.518	93.25
301.748	97.25
301.979	115.25
302.209	81.25
302.439	96.25
302.669	84.25
302.9	88.25
303.13	93.25
303.36	98.25
303.59	100.25
303.82	113.25
304.051	95.25
304.281	95.25
304.511	92.25
304.741	98.25
304.971	96.25
305.201	93.25
305.431	95.25
305.661	97.25
305.891	82.25
306.121	96.25
306.352	98.25
306.582	88.25
306.812	95.25
307.042	97.25
307.272	108.25
307.502	81.25
307.731	82.25
307.961	109.25
308.191	82.25
308.421	92.25
308.651	84.25
308.881	96.25
309.111	84.25
309.341	94.25
309.571	102.25
309.8	93.25
310.03	93.25
310.26	94.25
310.49	101.25
310.72	95.25
310.949	98.25
311.179	84.25
311.409	98.25
311.639	88.25
311.868	104.25
312.098	100.25
312.328	98.25
312.557	102.25
312.787	85.25
313.017	93.25
313.246	101.25
313.476	90.25
313.706	94.25
313.935	103.25
314.165	104.25
314.394	77.25
314.624	90.25
314.853	96.25
315.083	107.25
315.312	105.25
315.542	91.25
315.771	93.25
316.001	108.25
316.23	86.25
316.46	102.25
316.689	89.25
316.919	98.25
317.148	98.25
317.377	96.25
317.607	110.25
317.836	90.25
318.065	92.25
318.295	103.25
318.524	86.25
318.753	104.25
318.983	94.25
319.212	97.25
319.441	90.25
319.67	101.25
319.9	96.25
320.129	88.25
320.358	97.25
320.587	103.25
320.816	103.25
321.046	87.25
321.275	106.25
321.504	97.25
321.733	84.25
321.962	105.25
322.191	103.25
322.42	98.25
322.649	100.25
322.878	105.25
323.108	103.25
323.337	113.25
323.566	132.25
323.795	133.25
324.024	184.25
324.253	338.25
324.482	725.25
324.71	1464.25
324.939	1971.25
325.168	695.25
325.397	220.25
325.626	129.25
325.855	111.25
326.084	120.25
326.313	126.25
326.542	137.25
326.77	219.25
326.999	402.25
327.228	826.25
327.457	1566.25
327.686	1242.25
327.914	338.25
328.143	180.25
328.372	140.25
328.6	118.25
328.829	106.25
329.058	123.25
329.287	124.25
329.515	94.25
329.744	111.25
329.972	128.25
330.201	106.25
330.43	114.25
330.658	109.25
330.887	127.25
331.115	111.25
331.344	99.25
331.572	107.25
331.801	111.25
332.03	93.25
332.258	100.25
332.486	96.25
332.715	94.25
332.943	101.25
333.172	108.25
333.4	95.25
333.629	93.25
333.857	115.25
334.085	116.25
334.314	114.25
334.542	127.25
334.771	116.25
334.999	96.25
335.227	98.25
335.455	95.25
335.684	103.25
335.912	101.25
336.14	108.25
336.369	92.25
336.597	93.25
336.825	98.25
337.053	89.25
337.281	101.25
337.51	94.25
337.738	84.25
337.966	94.25
338.194	108.25
338.422	94.25
338.65	103.25
338.878	95.25
339.106	93.25
339.334	103.25
339.562	79.25
339.79	95.25
340.018	105.25
340.246	101.25
340.474	86.25
340.702	87.25
340.93	89.25
341.158	95.25
341.386	82.25
341.614	101.25
341.842	92.25
342.07	102.25
342.298	103.25
342.526	100.25
342.754	104.25
342.981	87.25
343.209	80.25
343.437	96.25
343.665	83.25
343.893	106.25
344.12	104.25
344.348	102.25
344.576	99.25
344.804	98.25
345.031	101.25
345.259	102.25
345.487	95.25
345.714	99.25
345.942	95.25
346.17	87.25
346.397	84.25
346.625	101.25
346.853	101.25
347.08	93.25
347.308	97.25
347.535	89.25
347.763	88.25
347.99	116.25
348.218	96.25
348.445	91.25
348.673	107.25
348.9	104.25
349.128	99.25
349.355	84.25
349.583	103.25
349.81	94.25
350.037	95.25
350.265	95.25
350.492	87.25
350.72	100.25
350.947	89.25
351.174	117.25
351.402	94.25
351.629	92.25
351.856	103.25
352.083	111.25
352.311	110.25
352.538	102.25
352.765	111.25
352.992	108.25
353.22	107.25
353.447	106.25
353.674	103.25
353.901	110.25
354.128	103.25
354.355	111.25
354.583	100.25
354.81	106.25
355.037	111.25
355.264	100.25
355.491	86.25
355.718	98.25
355.945	101.25
356.172	103.25
356.399	97.25
356.626	103.25
356.853	104.25
357.08	97.25
357.307	84.25
357.534	98.25
357.761	88.25
357.988	94.25
358.215	107.25
358.441	99.25
358.668	95.25
358.895	98.25
359.122	95.25
359.349	93.25
359.576	99.25
359.802	84.25
360.029	100.25
360.256	109.25
360.483	99.25
360.709	80.25
360.936	102.25
361.163	84.25
361.39	83.25
361.616	80.25
361.843	87.25
362.07	92.25
362.296	88.25
362.523	87.25
362.749	86.25
362.976	90.25
363.203	101.25
363.429	93.25
363.656	99.25
363.882	88.25
364.109	93.25
364.335	94.25
364.562	83.25
364.788	97.25
365.015	97.25
365.241	95.25
365.468	103.25
365.694	100.25
365.92	96.25
366.147	88.25
366.373	99.25
366.599	99.25
366.826	88.25
367.052	87.25
367.278	73.25
367.505	86.25
367.731	93.25
367.957	84.25
368.184	92.25
368.41	96.25
368.636	87.25
368.862	110.25
369.089	109.25
369.315	87.25
369.541	95.25
369.767	90.25
369.993	105.25
370.219	93.25
370.445	84.25
370.672	88.25
370.898	92.25
371.124	94.25
371.35	97.25
371.576	92.25
371.802	86.25
372.028	84.25
372.254	85.25
372.48	92.25
372.706	96.25
372.932	107.25
373.158	82.25
373.384	93.25
373.61	95.25
373.835	91.25
374.061	95.25
374.287	89.25
374.513	99.25
374.739	90.25
374.965	96.25
375.191	94.25
375.416	92.25
375.642	95.25
375.868	86.25
376.094	90.25
376.319	103.25
376.545	88.25
376.771	89.25
376.997	94.25
377.222	96.25
377.448	101.25
377.674	96.25
377.899	97.25
378.125	86.25
378.35	84.25
378.576	108.25
378.802	81.25
379.027	84.25
379.253	92.25
379.478	91.25
379.704	80.25
379.929	98.25
380.155	102.25
380.38	88.25
380.606	99.25
380.831	91.25
381.057	84.25
381.282	104.25
381.507	100.25
381.733	100.25
381.958	109.25
382.184	99.25
382.409	106.25
382.634	98.25
382.86	113.25
383.085	86.25
383.31	100.25
383.535	100.25
383.761	95.25
383.986	85.25
384.211	106.25
384.436	96.25
384.662	95.25
384.887	113.25
385.112	97.25
385.337	104.25
385.562	89.25
385.787	110.25
386.013	111.25
386.238	116.25
386.463	107.25
386.688	116.25
386.913	115.25
387.138	101.25
387.363	99.25
387.588	111.25
387.813	96.25
388.038	102.25
388.263	116.25
388.488	121.25
388.713	104.25
388.938	88.25
389.163	90.25
389.387	112.25
389.612	105.25
389.837	116.25
390.062	92.25
390.287	92.25
390.512	99.25
390.736	92.25
390.961	90.25
391.186	93.25
391.411	90.25
391.636	90.25
391.86	93.25
392.085	85.25
392.31	82.25
392.534	80.25
392.759	81.25
392.984	79.25
393.208	97.25
393.433	94.25
393.658	102.25
393.882	78.25
394.107	88.25
394.331	67.25
394.556	80.25
394.78	91.25
395.005	92.25
395.229	86.25
395.454	93.25
395.678	98.25
395.903	83.25
396.127	90.25
396.352	98.25
396.576	82.25
396.801	85.25
397.025	87.25
397.249	74.25
397.474	93.25
397.698	94.25
397.922	83.25
398.147	74.25
398.371	98.25
398.595	95.25
398.82	82.25
399.044	84.25
399.268	92.25
399.492	75.25
399.717	103.25
399.941	85.25
400.165	90.25
400.389	94.25
400.613	85.25
400.837	79.25
401.062	88.25
401.286	89.25
401.51	85.25
401.734	98.25
401.958	103.25
402.182	116.25
402.406	122.25
402.63	106.25
402.854	91.25
403.078	85.25
403.302	93.25
403.526	90.25
403.75	82.25
403.974	75.25
404.198	90.25
404.422	84.25
404.645	73.25
404.869	78.25
405.093	91.25
405.317	96.25
405.541	105.25
405.765	100.25
405.988	111.25
406.212	134.25
406.436	165.25
406.66	127.25
406.883	76.25
407.107	98.25
407.331	94.25
407.555	91.25
407.778	90.25
408.002	92.25
408.226	91.25
408.449	86.25
408.673	93.25
408.896	99.25
409.12	102.25
409.344	92.25
409.567	85.25
409.791	107.25
410.014	94.25
410.238	89.25
410.461	93.25
410.685	112.25
410.908	101.25
411.132	109.25
411.355	103.25
411.578	95.25
411.802	76.25
412.025	91.25
412.249	91.25
412.472	100.25
412.695	87.25
412.919	92.25
413.142	65.25
413.365	88.25
413.589	86.25
413.812	92.25
414.035	91.25
414.258	90.25
414.482	92.25
414.705	91.25
414.928	86.25
415.151	92.25
415.374	95.25
415.597	94.25
415.821	93.25
416.044	93.25
416.267	102.25
416.49	101.25
416.713	77.25
416.936	91.25
417.159	90.25
417.382	90.25
417.605	76.25
417.828	83.25
418.051	88.25
418.274	88.25
418.497	90.25
418.72	76.25
418.943	85.25
419.166	84.25
419.389	80.25
419.611	93.25
419.834	93.25
420.057	93.25
420.28	112.25
420.503	83.25
420.726	85.25
420.948	104.25
421.171	103.25
421.394	97.25
421.617	103.25
421.839	104.25
422.062	90.25
422.285	74.25
422.507	79.25
422.73	84.25
422.953	94.25
423.175	96.25
423.398	104.25
423.621	104.25
423.843	86.25
424.066	88.25
424.288	100.25
424.511	110.25
424.733	94.25
424.956	120.25
425.178	87.25
425.401	92.25
425.623	93.25
425.846	101.25
426.068	95.25
426.291	102.25
426.513	86.25
426.735	93.25
426.958	97.25
427.18	108.25
427.402	121.25
427.625	149.25
427.847	122.25
428.069	104.25
428.292	99.25
428.514	91.25
428.736	83.25
428.958	91.25
429.181	86.25
429.403	89.25
429.625	79.25
429.847	90.25
430.069	98.25
430.292	86.25
430.514	67.25
430.736	94.25
430.958	96.25
431.18	90.25
431.402	87.25
431.624	99.25
431.846	86.25
432.068	92.25
432.29	101.25
432.512	94.25
432.734	70.25
432.956	90.25
433.178	100.25
433.4	77.25
433.622	95.25
433.844	101.25
434.066	90.25
434.287	91.25
434.509	91.25
434.731	91.25
434.953	78.25
435.175	88.25
435.397	102.25
435.618	92.25
435.84	95.25
436.062	117.25
436.284	115.25
436.505	95.25
436.727	102.25
436.949	82.25
437.17	76.25
437.392	84.25
437.614	84.25
437.835	98.25
438.057	102.25
438.278	99.25
438.5	94.25
438.721	116.25
438.943	111.25
439.165	94.25
439.386	87.25
439.608	95.25
439.829	92.25
440.05	111.25
440.272	127.25
440.493	103.25
440.715	85.25
440.936	85.25
441.158	93.25
441.379	83.25
441.6	77.25
441.822	87.25
442.043	92.25
442.264	103.25
442.486	101.25
442.707	83.25
442.928	98.25
443.149	122.25
443.371	104.25
443.592	102.25
443.813	112.25
444.034	82.25
444.255	94.25
444.476	93.25
444.698	100.25
444.919	95.25
445.14	147.25
445.361	107.25
445.582	100.25
445.803	132.25
446.024	111.25
446.245	121.25
446.466	113.25
446.687	70.25
446.908	89.25
447.129	104.25
447.35	85.25
447.571	87.25
447.792	79.25
448.013	83.25
448.234	110.25
448.455	98.25
448.675	101.25
448.896	119.25
449.117	110.25
449.338	96.25
449.559	130.25
449.779	128.25
450	85.25
450.221	96.25
450.442	80.25
450.662	90.25
450.883	104.25
451.104	101.25
451.324	94.25
451.545	84.25
451.766	79.25
451.986	72.25
452.207	86.25
452.428	90.25
452.648	86.25
452.869	110.25
453.089	103.25
453.31	104.25
453.53	98.25
453.751	92.25
453.971	94.25
454.192	91.25
454.412	77.25
454.633	102.25
454.853	83.25
455.073	92.25
455.294	90.25
455.514	105.25
455.734	95.25
455.955	77.25
456.175	90.25
456.395	78.25
456.616	83.25
456.836	82.25
457.056	91.25
457.276	78.25
457.497	90.25
457.717	88.25
457.937	96.25
458.157	89.25
458.377	82.25
458.598	86.25
458.818	120.25
459.038	133.25
459.258	99.25
459.478	91.25
459.698	102.25
459.918	79.25
460.138	89.25
460.358	88.25
460.578	78.25
460.798	90.25
461.018	95.25
461.238	77.25
461.458	93.25
461.678	85.25
461.898	81.25
462.118	88.25
462.338	90.25
462.558	88.25
462.777	89.25
462.997	87.25
463.217	85.25
463.437	88.25
463.657	94.25
463.876	90.25
464.096	100.25
464.316	102.25
464.536	92.25
464.755	99.25
464.975	101.25
465.195	129.25
465.414	121.25
465.634	111.25
465.854	79.25
466.073	90.25
466.293	90.25
466.512	102.25
466.732	92.25
466.951	90.25
467.171	93.25
467.391	91.25
467.61	93.25
467.829	93.25
468.049	111.25
468.268	99.25
468.488	108.25
468.707	99.25
468.927	95.25
469.146	84.25
469.365	90.25
469.585	75.25
469.804	100.25
470.023	89.25
470.243	90.25
470.462	84.25
470.681	100.25
470.901	82.25
471.12	93.25
471.339	79.25
471.558	90.25
471.777	89.25
471.997	94.25
472.216	109.25
472.435	131.25
472.654	100.25
472.873	89.25
473.092	75.25
473.311	78.25
473.53	86.25
473.749	84.25
473.968	117.25
474.187	103.25
474.406	86.25
474.625	88.25
474.844	77.25
475.063	100.25
475.282	87.25
475.501	90.25
475.72	83.25
475.939	92.25
476.158	84.25
476.377	83.25
476.596	88.25
476.814	88.25
477.033	88.25
477.252	90.25
477.471	95.25
477.69	95.25
477.908	87.25
478.127	83.25
478.346	102.25
478.564	94.25
478.783	98.25
479.002	98.25
479.22	79.25
479.439	85.25
479.658	90.25
479.876	98.25
480.095	95.25
480.313	96.25
480.532	92.25
480.751	72.25
480.969	90.25
481.188	170.25
481.406	120.25
481.624	98.25
481.843	94.25
482.061	86.25
482.28	97.25
482.498	82.25
482.717	90.25
482.935	98.25
483.153	88.25
483.372	98.25
483.59	101.25
483.808	101.25
484.027	94.25
484.245	92.25
484.463	91.25
484.681	94.25
484.9	85.25
485.118	101.25
485.336	88.25
485.554	92.25
485.772	113.25
485.99	105.25
486.209	103.25
486.427	104.25
486.645	112.25
486.863	103.25
487.081	110.25
487.299	109.25
487.517	87.25
487.735	103.25
487.953	96.25
488.171	103.25
488.389	90.25
488.607	94.25
488.825	86.25
489.043	96.25
489.261	97.25
489.479	93.25
489.696	86.25
489.914	94.25
490.132	111.25
490.35	93.25
490.568	86.25
490.786	88.25
491.003	98.25
491.221	93.25
491.439	99.25
491.657	88.25
491.874	84.25
492.092	89.25
492.31	94.25
492.527	91.25
492.745	82.25
492.963	92.25
493.18	90.25
493.398	104.25
493.615	92.25
493.833	100.25
494.05	92.25
494.268	99.25
494.485	92.25
494.703	96.25
494.92	82.25
495.138	100.25
495.355	106.25
495.573	99.25
495.79	92.25
496.008	102.25
496.225	94.25
496.442	77.25
496.66	96.25
496.877	85.25
497.094	104.25
497.312	88.25
497.529	93.25
497.746	88.25
497.963	82.25
498.181	93.25
498.398	100.25
498.615	105.25
498.832	96.25
499.049	96.25
499.267	99.25
499.484	96.25
499.701	90.25
499.918	92.25
500.135	102.25
500.352	95.25
500.569	94.25
500.786	106.25
501.003	102.25
501.22	99.25
501.437	90.25
501.654	113.25
501.871	98.25
502.088	96.25
502.305	98.25
502.522	99.25
502.739	88.25
502.956	78.25
503.172	99.25
503.389	97.25
503.606	103.25
503.823	98.25
504.04	109.25
504.256	84.25
504.473	83.25
504.69	83.25
504.907	87.25
505.123	98.25
505.34	79.25
505.557	88.25
505.773	107.25
505.99	98.25
506.207	77.25
506.423	86.25
506.64	85.25
506.856	84.25
507.073	93.25
507.289	96.25
507.506	93.25
507.722	99.25
507.939	99.25
508.155	91.25
508.372	92.25
508.588	95.25
508.805	88.25
509.021	82.25
509.238	93.25
509.454	89.25
509.67	90.25
509.887	98.25
510.103	123.25
510.319	170.25
510.536	550.25
510.752	1561.25
510.968	450.25
511.184	143.25
511.401	107.25
511.617	91.25
511.833	95.25
512.049	69.25
512.265	91.25
512.481	103.25
512.698	87.25
512.914	94.25
513.13	102.25
513.346	106.25
513.562	86.25
513.778	103.25
513.994	98.25
514.21	99.25
514.426	125.25
514.642	116.25
514.858	109.25
515.074	146.25
515.29	299.25
