Data from Uncirc_1981_H10_HRD10591_00003.txt Node
Date: Wed Jan 03 12:33:08 EST 2024
User: Yrep
Spectrometer: HR+D1059
Trigger mode: 1
Integration Time (sec): 1.000000E-1
Scans to average: 1
Electric dark correction enabled: true
Nonlinearity correction enabled: false
Boxcar width: 0
XAxis mode: Wavelengths
Number of Pixels in Spectrum: 2048
>>>>>Begin Spectral Data<<<<<
223.165	-14.62
223.4	-14.62
223.635	-14.62
223.869	-20.62
224.104	-25.62
224.338	-11.62
224.573	-10.62
224.808	-14.62
225.042	-14.62
225.277	-4.62
225.511	-4.62
225.746	7.38
225.98	14.38
226.215	7.38
226.449	10.38
226.683	8.38
226.918	24.38
227.152	49.38
227.387	34.38
227.621	43.38
227.856	44.38
228.09	47.38
228.324	34.38
228.559	53.38
228.793	55.38
229.027	59.38
229.262	63.38
229.496	76.38
229.73	70.38
229.964	83.38
230.199	65.38
230.433	67.38
230.667	78.38
230.901	77.38
231.136	71.38
231.37	85.38
231.604	81.38
231.838	80.38
232.072	86.38
232.306	80.38
232.541	75.38
232.775	67.38
233.009	94.38
233.243	82.38
233.477	84.38
233.711	80.38
233.945	76.38
234.179	69.38
234.413	75.38
234.647	71.38
234.881	82.38
235.115	61.38
235.349	71.38
235.583	71.38
235.817	86.38
236.051	83.38
236.285	83.38
236.519	65.38
236.753	67.38
236.987	82.38
237.221	92.38
237.455	82.38
237.689	68.38
237.922	68.38
238.156	80.38
238.39	83.38
238.624	78.38
238.858	86.38
239.091	67.38
239.325	68.38
239.559	68.38
239.793	61.38
240.027	76.38
240.26	81.38
240.494	73.38
240.728	76.38
240.961	86.38
241.195	81.38
241.429	71.38
241.662	79.38
241.896	83.38
242.13	63.38
242.363	81.38
242.597	74.38
242.83	76.38
243.064	66.38
243.298	63.38
243.531	82.38
243.765	81.38
243.998	79.38
244.232	72.38
244.465	69.38
244.699	79.38
244.932	85.38
245.166	82.38
245.399	81.38
245.633	72.38
245.866	92.38
246.099	79.38
246.333	77.38
246.566	84.38
246.8	87.38
247.033	81.38
247.266	67.38
247.5	83.38
247.733	72.38
247.966	81.38
248.2	86.38
248.433	91.38
248.666	79.38
248.899	66.38
249.133	77.38
249.366	81.38
249.599	81.38
249.832	89.38
250.066	81.38
250.299	76.38
250.532	72.38
250.765	62.38
250.998	74.38
251.231	90.38
251.465	74.38
251.698	83.38
251.931	91.38
252.164	75.38
252.397	65.38
252.63	76.38
252.863	67.38
253.096	60.38
253.329	79.38
253.562	89.38
253.795	80.38
254.028	91.38
254.261	83.38
254.494	68.38
254.727	71.38
254.96	76.38
255.193	79.38
255.426	68.38
255.659	69.38
255.892	70.38
256.124	68.38
256.357	90.38
256.59	87.38
256.823	75.38
257.056	91.38
257.289	76.38
257.521	79.38
257.754	74.38
257.987	72.38
258.22	86.38
258.452	70.38
258.685	81.38
258.918	82.38
259.151	70.38
259.383	85.38
259.616	73.38
259.849	68.38
260.081	67.38
260.314	83.38
260.547	90.38
260.779	90.38
261.012	68.38
261.244	63.38
261.477	85.38
261.71	90.38
261.942	83.38
262.175	93.38
262.407	83.38
262.64	89.38
262.872	83.38
263.105	71.38
263.337	84.38
263.57	86.38
263.802	92.38
264.035	60.38
264.267	88.38
264.499	87.38
264.732	84.38
264.964	88.38
265.197	81.38
265.429	77.38
265.661	92.38
265.894	83.38
266.126	84.38
266.358	74.38
266.591	90.38
266.823	75.38
267.055	81.38
267.287	86.38
267.52	70.38
267.752	67.38
267.984	79.38
268.216	84.38
268.448	85.38
268.681	74.38
268.913	91.38
269.145	97.38
269.377	73.38
269.609	76.38
269.841	85.38
270.073	81.38
270.306	76.38
270.538	99.38
270.77	87.38
271.002	83.38
271.234	62.38
271.466	72.38
271.698	71.38
271.93	80.38
272.162	75.38
272.394	91.38
272.626	91.38
272.858	79.38
273.09	87.38
273.322	87.38
273.553	80.38
273.785	92.38
274.017	76.38
274.249	77.38
274.481	86.38
274.713	83.38
274.945	84.38
275.176	76.38
275.408	89.38
275.64	89.38
275.872	90.38
276.104	85.38
276.335	84.38
276.567	75.38
276.799	90.38
277.031	91.38
277.262	70.38
277.494	80.38
277.726	74.38
277.957	73.38
278.189	79.38
278.421	88.38
278.652	84.38
278.884	92.38
279.115	90.38
279.347	97.38
279.579	74.38
279.81	91.38
280.042	95.38
280.273	86.38
280.505	99.38
280.736	87.38
280.968	92.38
281.199	94.38
281.431	88.38
281.662	87.38
281.894	96.38
282.125	79.38
282.356	92.38
282.588	102.38
282.819	97.38
283.051	87.38
283.282	72.38
283.513	89.38
283.745	79.38
283.976	69.38
284.207	87.38
284.439	100.38
284.67	85.38
284.901	88.38
285.132	93.38
285.364	87.38
285.595	98.38
285.826	76.38
286.057	88.38
286.288	87.38
286.52	84.38
286.751	90.38
286.982	87.38
287.213	75.38
287.444	87.38
287.675	80.38
287.906	79.38
288.138	83.38
288.369	87.38
288.6	96.38
288.831	93.38
289.062	91.38
289.293	97.38
289.524	81.38
289.755	79.38
289.986	66.38
290.217	86.38
290.448	77.38
290.679	71.38
290.91	79.38
291.141	99.38
291.371	97.38
291.602	92.38
291.833	89.38
292.064	82.38
292.295	82.38
292.526	105.38
292.757	92.38
292.987	87.38
293.218	86.38
293.449	67.38
293.68	85.38
293.91	68.38
294.141	90.38
294.372	85.38
294.603	80.38
294.833	70.38
295.064	91.38
295.295	87.38
295.525	80.38
295.756	84.38
295.987	117.38
296.217	100.38
296.448	91.38
296.679	95.38
296.909	99.38
297.14	93.38
297.37	91.38
297.601	95.38
297.831	77.38
298.062	80.38
298.292	91.38
298.523	81.38
298.753	94.38
298.984	96.38
299.214	96.38
299.445	88.38
299.675	80.38
299.905	91.38
300.136	83.38
300.366	82.38
300.597	87.38
300.827	95.38
301.057	84.38
301.288	91.38
301.518	87.38
301.748	81.38
301.979	92.38
302.209	95.38
302.439	106.38
302.669	84.38
302.9	90.38
303.13	97.38
303.36	85.38
303.59	103.38
303.82	83.38
304.051	82.38
304.281	97.38
304.511	82.38
304.741	69.38
304.971	92.38
305.201	98.38
305.431	57.38
305.661	90.38
305.891	79.38
306.121	83.38
306.352	84.38
306.582	96.38
306.812	81.38
307.042	102.38
307.272	85.38
307.502	75.38
307.731	96.38
307.961	88.38
308.191	98.38
308.421	86.38
308.651	78.38
308.881	84.38
309.111	92.38
309.341	88.38
309.571	90.38
309.8	80.38
310.03	97.38
310.26	85.38
310.49	86.38
310.72	81.38
310.949	91.38
311.179	81.38
311.409	98.38
311.639	91.38
311.868	95.38
312.098	93.38
312.328	81.38
312.557	90.38
312.787	91.38
313.017	90.38
313.246	76.38
313.476	95.38
313.706	103.38
313.935	87.38
314.165	99.38
314.394	77.38
314.624	92.38
314.853	81.38
315.083	92.38
315.312	93.38
315.542	89.38
315.771	81.38
316.001	83.38
316.23	84.38
316.46	88.38
316.689	92.38
316.919	85.38
317.148	87.38
317.377	81.38
317.607	89.38
317.836	75.38
318.065	94.38
318.295	89.38
318.524	74.38
318.753	83.38
318.983	87.38
319.212	83.38
319.441	88.38
319.67	90.38
319.9	84.38
320.129	89.38
320.358	91.38
320.587	90.38
320.816	76.38
321.046	81.38
321.275	86.38
321.504	99.38
321.733	107.38
321.962	90.38
322.191	91.38
322.42	87.38
322.649	103.38
322.878	101.38
323.108	110.38
323.337	117.38
323.566	96.38
323.795	122.38
324.024	172.38
324.253	250.38
324.482	512.38
324.71	1019.38
324.939	1287.38
325.168	486.38
325.397	179.38
325.626	117.38
325.855	113.38
326.084	107.38
326.313	96.38
326.542	113.38
326.77	153.38
326.999	301.38
327.228	609.38
327.457	1051.38
327.686	823.38
327.914	247.38
328.143	139.38
328.372	118.38
328.6	97.38
328.829	111.38
329.058	98.38
329.287	118.38
329.515	96.38
329.744	82.38
329.972	103.38
330.201	102.38
330.43	83.38
330.658	118.38
330.887	97.38
331.115	106.38
331.344	88.38
331.572	101.38
331.801	91.38
332.03	94.38
332.258	76.38
332.486	105.38
332.715	86.38
332.943	79.38
333.172	95.38
333.4	92.38
333.629	93.38
333.857	99.38
334.085	109.38
334.314	96.38
334.542	100.38
334.771	95.38
334.999	85.38
335.227	95.38
335.455	103.38
335.684	84.38
335.912	93.38
336.14	91.38
336.369	90.38
336.597	90.38
336.825	86.38
337.053	91.38
337.281	93.38
337.51	92.38
337.738	91.38
337.966	76.38
338.194	87.38
338.422	99.38
338.65	90.38
338.878	81.38
339.106	86.38
339.334	95.38
339.562	95.38
339.79	90.38
340.018	96.38
340.246	90.38
340.474	81.38
340.702	87.38
340.93	62.38
341.158	79.38
341.386	95.38
341.614	85.38
341.842	84.38
342.07	95.38
342.298	95.38
342.526	88.38
342.754	89.38
342.981	97.38
343.209	97.38
343.437	87.38
343.665	84.38
343.893	94.38
344.12	96.38
344.348	97.38
344.576	91.38
344.804	88.38
345.031	88.38
345.259	88.38
345.487	91.38
345.714	76.38
345.942	92.38
346.17	85.38
346.397	92.38
346.625	82.38
346.853	95.38
347.08	85.38
347.308	83.38
347.535	88.38
347.763	88.38
347.99	101.38
348.218	99.38
348.445	103.38
348.673	96.38
348.9	92.38
349.128	85.38
349.355	87.38
349.583	91.38
349.81	74.38
350.037	88.38
350.265	99.38
350.492	99.38
350.72	92.38
350.947	94.38
351.174	99.38
351.402	104.38
351.629	90.38
351.856	100.38
352.083	112.38
352.311	105.38
352.538	102.38
352.765	91.38
352.992	105.38
353.22	98.38
353.447	97.38
353.674	112.38
353.901	104.38
354.128	86.38
354.355	100.38
354.583	99.38
354.81	107.38
355.037	94.38
355.264	97.38
355.491	101.38
355.718	105.38
355.945	100.38
356.172	103.38
356.399	97.38
356.626	93.38
356.853	89.38
357.08	98.38
357.307	106.38
357.534	95.38
357.761	113.38
357.988	102.38
358.215	105.38
358.441	95.38
358.668	112.38
358.895	102.38
359.122	107.38
359.349	97.38
359.576	93.38
359.802	87.38
360.029	100.38
360.256	98.38
360.483	93.38
360.709	69.38
360.936	75.38
361.163	89.38
361.39	98.38
361.616	87.38
361.843	86.38
362.07	83.38
362.296	93.38
362.523	83.38
362.749	85.38
362.976	67.38
363.203	68.38
363.429	75.38
363.656	82.38
363.882	83.38
364.109	87.38
364.335	73.38
364.562	87.38
364.788	84.38
365.015	80.38
365.241	77.38
365.468	88.38
365.694	96.38
365.92	92.38
366.147	104.38
366.373	84.38
366.599	93.38
366.826	72.38
367.052	88.38
367.278	95.38
367.505	91.38
367.731	90.38
367.957	78.38
368.184	89.38
368.41	90.38
368.636	103.38
368.862	83.38
369.089	87.38
369.315	89.38
369.541	85.38
369.767	90.38
369.993	86.38
370.219	88.38
370.445	85.38
370.672	98.38
370.898	63.38
371.124	99.38
371.35	90.38
371.576	94.38
371.802	89.38
372.028	94.38
372.254	93.38
372.48	81.38
372.706	77.38
372.932	81.38
373.158	90.38
373.384	102.38
373.61	99.38
373.835	89.38
374.061	86.38
374.287	97.38
374.513	81.38
374.739	96.38
374.965	103.38
375.191	112.38
375.416	84.38
375.642	98.38
375.868	98.38
376.094	96.38
376.319	93.38
376.545	100.38
376.771	92.38
376.997	88.38
377.222	95.38
377.448	97.38
377.674	104.38
377.899	111.38
378.125	87.38
378.35	87.38
378.576	105.38
378.802	96.38
379.027	96.38
379.253	119.38
379.478	106.38
379.704	98.38
379.929	101.38
380.155	112.38
380.38	124.38
380.606	110.38
380.831	115.38
381.057	111.38
381.282	118.38
381.507	120.38
381.733	110.38
381.958	112.38
382.184	136.38
382.409	113.38
382.634	120.38
382.86	132.38
383.085	126.38
383.31	118.38
383.535	128.38
383.761	133.38
383.986	123.38
384.211	123.38
384.436	113.38
384.662	138.38
384.887	161.38
385.112	165.38
385.337	165.38
385.562	149.38
385.787	146.38
386.013	155.38
386.238	162.38
386.463	148.38
386.688	138.38
386.913	132.38
387.138	173.38
387.363	161.38
387.588	138.38
387.813	134.38
388.038	156.38
388.263	177.38
388.488	179.38
388.713	98.38
388.938	93.38
389.163	99.38
389.387	87.38
389.612	88.38
389.837	100.38
390.062	113.38
390.287	105.38
390.512	92.38
390.736	100.38
390.961	91.38
391.186	95.38
391.411	102.38
391.636	103.38
391.86	80.38
392.085	85.38
392.31	76.38
392.534	89.38
392.759	87.38
392.984	84.38
393.208	79.38
393.433	84.38
393.658	79.38
393.882	72.38
394.107	85.38
394.331	86.38
394.556	85.38
394.78	86.38
395.005	90.38
395.229	92.38
395.454	68.38
395.678	91.38
395.903	74.38
396.127	91.38
396.352	88.38
396.576	83.38
396.801	75.38
397.025	87.38
397.249	80.38
397.474	98.38
397.698	84.38
397.922	96.38
398.147	91.38
398.371	77.38
398.595	85.38
398.82	87.38
399.044	77.38
399.268	76.38
399.492	79.38
399.717	85.38
399.941	86.38
400.165	93.38
400.389	90.38
400.613	76.38
400.837	91.38
401.062	108.38
401.286	103.38
401.51	90.38
401.734	79.38
401.958	86.38
402.182	101.38
402.406	110.38
402.63	85.38
402.854	89.38
403.078	74.38
403.302	82.38
403.526	83.38
403.75	92.38
403.974	87.38
404.198	93.38
404.422	90.38
404.645	82.38
404.869	91.38
405.093	90.38
405.317	67.38
405.541	94.38
405.765	90.38
405.988	114.38
406.212	110.38
406.436	138.38
406.66	104.38
406.883	89.38
407.107	91.38
407.331	89.38
407.555	92.38
407.778	94.38
408.002	89.38
408.226	88.38
408.449	89.38
408.673	88.38
408.896	84.38
409.12	82.38
409.344	87.38
409.567	96.38
409.791	98.38
410.014	97.38
410.238	81.38
410.461	82.38
410.685	105.38
410.908	97.38
411.132	95.38
411.355	89.38
411.578	108.38
411.802	97.38
412.025	92.38
412.249	104.38
412.472	92.38
412.695	104.38
412.919	87.38
413.142	88.38
413.365	86.38
413.589	92.38
413.812	88.38
414.035	98.38
414.258	105.38
414.482	107.38
414.705	81.38
414.928	100.38
415.151	99.38
415.374	108.38
415.597	88.38
415.821	91.38
416.044	98.38
416.267	89.38
416.49	101.38
416.713	102.38
416.936	87.38
417.159	75.38
417.382	82.38
417.605	98.38
417.828	99.38
418.051	93.38
418.274	98.38
418.497	80.38
418.72	91.38
418.943	98.38
419.166	93.38
419.389	100.38
419.611	100.38
419.834	95.38
420.057	91.38
420.28	90.38
420.503	74.38
420.726	84.38
420.948	85.38
421.171	89.38
421.394	99.38
421.617	76.38
421.839	99.38
422.062	80.38
422.285	94.38
422.507	95.38
422.73	94.38
422.953	87.38
423.175	76.38
423.398	97.38
423.621	79.38
423.843	88.38
424.066	86.38
424.288	94.38
424.511	97.38
424.733	103.38
424.956	95.38
425.178	95.38
425.401	89.38
425.623	100.38
425.846	82.38
426.068	77.38
426.291	92.38
426.513	77.38
426.735	91.38
426.958	92.38
427.18	101.38
427.402	115.38
427.625	110.38
427.847	85.38
428.069	102.38
428.292	95.38
428.514	92.38
428.736	102.38
428.958	96.38
429.181	79.38
429.403	99.38
429.625	91.38
429.847	76.38
430.069	85.38
430.292	90.38
430.514	87.38
430.736	92.38
430.958	90.38
431.18	84.38
431.402	85.38
431.624	88.38
431.846	83.38
432.068	85.38
432.29	98.38
432.512	92.38
432.734	89.38
432.956	92.38
433.178	94.38
433.4	84.38
433.622	87.38
433.844	87.38
434.066	80.38
434.287	79.38
434.509	83.38
434.731	87.38
434.953	83.38
435.175	107.38
435.397	103.38
435.618	108.38
435.84	84.38
436.062	100.38
436.284	102.38
436.505	100.38
436.727	100.38
436.949	91.38
437.17	85.38
437.392	90.38
437.614	76.38
437.835	83.38
438.057	78.38
438.278	93.38
438.5	91.38
438.721	101.38
438.943	87.38
439.165	92.38
439.386	99.38
439.608	94.38
439.829	79.38
440.05	101.38
440.272	108.38
440.493	90.38
440.715	87.38
440.936	97.38
441.158	90.38
441.379	80.38
441.6	95.38
441.822	87.38
442.043	87.38
442.264	91.38
442.486	91.38
442.707	87.38
442.928	95.38
443.149	91.38
443.371	102.38
443.592	96.38
443.813	84.38
444.034	85.38
444.255	94.38
444.476	88.38
444.698	87.38
444.919	83.38
445.14	115.38
445.361	117.38
445.582	100.38
445.803	95.38
446.024	98.38
446.245	109.38
446.466	97.38
446.687	89.38
446.908	90.38
447.129	91.38
447.35	87.38
447.571	94.38
447.792	92.38
448.013	71.38
448.234	98.38
448.455	104.38
448.675	103.38
448.896	96.38
449.117	92.38
449.338	100.38
449.559	110.38
449.779	106.38
450	83.38
450.221	82.38
450.442	83.38
450.662	90.38
450.883	79.38
451.104	96.38
451.324	97.38
451.545	75.38
451.766	87.38
451.986	78.38
452.207	80.38
452.428	69.38
452.648	104.38
452.869	99.38
453.089	90.38
453.31	84.38
453.53	96.38
453.751	75.38
453.971	92.38
454.192	85.38
454.412	82.38
454.633	93.38
454.853	92.38
455.073	94.38
455.294	77.38
455.514	72.38
455.734	82.38
455.955	83.38
456.175	90.38
456.395	76.38
456.616	78.38
456.836	87.38
457.056	86.38
457.276	86.38
457.497	82.38
457.717	85.38
457.937	80.38
458.157	85.38
458.377	82.38
458.598	92.38
458.818	101.38
459.038	90.38
459.258	98.38
459.478	87.38
459.698	77.38
459.918	75.38
460.138	83.38
460.358	96.38
460.578	86.38
460.798	81.38
461.018	88.38
461.238	98.38
461.458	81.38
461.678	92.38
461.898	92.38
462.118	89.38
462.338	70.38
462.558	81.38
462.777	75.38
462.997	99.38
463.217	82.38
463.437	71.38
463.657	93.38
463.876	90.38
464.096	89.38
464.316	77.38
464.536	97.38
464.755	93.38
464.975	83.38
465.195	113.38
465.414	109.38
465.634	71.38
465.854	106.38
466.073	92.38
466.293	73.38
466.512	74.38
466.732	93.38
466.951	87.38
467.171	97.38
467.391	81.38
467.61	83.38
467.829	80.38
468.049	87.38
468.268	92.38
468.488	95.38
468.707	75.38
468.927	74.38
469.146	87.38
469.365	78.38
469.585	88.38
469.804	83.38
470.023	89.38
470.243	87.38
470.462	92.38
470.681	82.38
470.901	66.38
471.12	74.38
471.339	77.38
471.558	87.38
471.777	84.38
471.997	88.38
472.216	97.38
472.435	110.38
472.654	92.38
472.873	89.38
473.092	88.38
473.311	84.38
473.53	83.38
473.749	92.38
473.968	73.38
474.187	79.38
474.406	88.38
474.625	79.38
474.844	85.38
475.063	75.38
475.282	77.38
475.501	86.38
475.72	110.38
475.939	96.38
476.158	80.38
476.377	87.38
476.596	88.38
476.814	80.38
477.033	85.38
477.252	92.38
477.471	85.38
477.69	84.38
477.908	71.38
478.127	86.38
478.346	108.38
478.564	89.38
478.783	81.38
479.002	75.38
479.22	95.38
479.439	76.38
479.658	85.38
479.876	93.38
480.095	85.38
480.313	93.38
480.532	86.38
480.751	70.38
480.969	98.38
481.188	137.38
481.406	109.38
481.624	99.38
481.843	87.38
482.061	86.38
482.28	89.38
482.498	77.38
482.717	92.38
482.935	71.38
483.153	83.38
483.372	92.38
483.59	91.38
483.808	86.38
484.027	89.38
484.245	78.38
484.463	74.38
484.681	100.38
484.9	100.38
485.118	88.38
485.336	98.38
485.554	107.38
485.772	100.38
485.99	96.38
486.209	106.38
486.427	99.38
486.645	113.38
486.863	98.38
487.081	111.38
487.299	107.38
487.517	85.38
487.735	86.38
487.953	86.38
488.171	104.38
488.389	108.38
488.607	96.38
488.825	89.38
489.043	82.38
489.261	87.38
489.479	90.38
489.696	98.38
489.914	99.38
490.132	85.38
490.35	95.38
490.568	98.38
490.786	75.38
491.003	100.38
491.221	85.38
491.439	89.38
491.657	101.38
491.874	85.38
492.092	89.38
492.31	90.38
492.527	90.38
492.745	92.38
492.963	99.38
493.18	102.38
493.398	91.38
493.615	99.38
493.833	91.38
494.05	92.38
494.268	76.38
494.485	93.38
494.703	86.38
494.92	86.38
495.138	96.38
495.355	101.38
495.573	80.38
495.79	85.38
496.008	83.38
496.225	91.38
496.442	90.38
496.66	83.38
496.877	96.38
497.094	102.38
497.312	81.38
497.529	85.38
497.746	91.38
497.963	88.38
498.181	91.38
498.398	83.38
498.615	94.38
498.832	87.38
499.049	90.38
499.267	96.38
499.484	73.38
499.701	83.38
499.918	83.38
500.135	97.38
500.352	92.38
500.569	100.38
500.786	76.38
501.003	91.38
501.22	99.38
501.437	88.38
501.654	93.38
501.871	81.38
502.088	85.38
502.305	104.38
502.522	101.38
502.739	74.38
502.956	94.38
503.172	76.38
503.389	104.38
503.606	94.38
503.823	84.38
504.04	95.38
504.256	92.38
504.473	76.38
504.69	93.38
504.907	105.38
505.123	90.38
505.34	84.38
505.557	91.38
505.773	99.38
505.99	101.38
506.207	87.38
506.423	80.38
506.64	99.38
506.856	98.38
507.073	92.38
507.289	82.38
507.506	86.38
507.722	97.38
507.939	111.38
508.155	82.38
508.372	84.38
508.588	90.38
508.805	97.38
509.021	96.38
509.238	90.38
509.454	84.38
509.67	81.38
509.887	92.38
510.103	105.38
510.319	129.38
510.536	330.38
510.752	894.38
510.968	278.38
511.184	101.38
511.401	95.38
511.617	92.38
511.833	74.38
512.049	87.38
512.265	101.38
512.481	87.38
512.698	87.38
512.914	80.38
513.13	85.38
513.346	99.38
513.562	79.38
513.778	86.38
513.994	97.38
514.21	98.38
514.426	99.38
514.642	112.38
514.858	94.38
515.074	107.38
515.29	225.38
515.506	495.38
515.721	219.38
515.937	107.38
516.153	88.38
516.369	82.38
516.585	80.38
516.801	86.38
517.016	100.38
