Data from Uncirc_1981_H10_HRD10591_00064.txt Node
Date: Wed Jan 03 12:33:20 EST 2024
User: Yrep
Spectrometer: HR+D1059
Trigger mode: 1
Integration Time (sec): 1.000000E-1
Scans to average: 1
Electric dark correction enabled: true
Nonlinearity correction enabled: false
Boxcar width: 0
XAxis mode: Wavelengths
Number of Pixels in Spectrum: 2048
>>>>>Begin Spectral Data<<<<<
223.165	-20.44
223.4	-20.44
223.635	-20.44
223.869	-34.44
224.104	-19.44
224.338	-14.44
224.573	1.56
224.808	-10.44
225.042	-8.44
225.277	-7.44
225.511	-8.44
225.746	0.56
225.98	3.56
226.215	12.56
226.449	21.56
226.683	25.56
226.918	26.56
227.152	31.56
227.387	21.56
227.621	40.56
227.856	50.56
228.09	50.56
228.324	41.56
228.559	59.56
228.793	48.56
229.027	71.56
229.262	71.56
229.496	73.56
229.73	94.56
229.964	80.56
230.199	67.56
230.433	79.56
230.667	67.56
230.901	86.56
231.136	90.56
231.37	75.56
231.604	94.56
231.838	90.56
232.072	96.56
232.306	88.56
232.541	91.56
232.775	88.56
233.009	74.56
233.243	71.56
233.477	82.56
233.711	88.56
233.945	84.56
234.179	79.56
234.413	95.56
234.647	90.56
234.881	84.56
235.115	69.56
235.349	64.56
235.583	79.56
235.817	96.56
236.051	82.56
236.285	77.56
236.519	82.56
236.753	70.56
236.987	77.56
237.221	75.56
237.455	82.56
237.689	80.56
237.922	71.56
238.156	68.56
238.39	74.56
238.624	84.56
238.858	86.56
239.091	72.56
239.325	64.56
239.559	73.56
239.793	90.56
240.027	98.56
240.26	95.56
240.494	80.56
240.728	87.56
240.961	63.56
241.195	78.56
241.429	79.56
241.662	60.56
241.896	62.56
242.13	82.56
242.363	76.56
242.597	72.56
242.83	89.56
243.064	77.56
243.298	68.56
243.531	90.56
243.765	90.56
243.998	83.56
244.232	90.56
244.465	81.56
244.699	75.56
244.932	69.56
245.166	82.56
245.399	63.56
245.633	74.56
245.866	85.56
246.099	82.56
246.333	74.56
246.566	92.56
246.8	76.56
247.033	78.56
247.266	79.56
247.5	76.56
247.733	87.56
247.966	76.56
248.2	82.56
248.433	80.56
248.666	72.56
248.899	86.56
249.133	70.56
249.366	103.56
249.599	99.56
249.832	85.56
250.066	90.56
250.299	82.56
250.532	83.56
250.765	77.56
250.998	76.56
251.231	82.56
251.465	91.56
251.698	83.56
251.931	63.56
252.164	86.56
252.397	83.56
252.63	76.56
252.863	101.56
253.096	92.56
253.329	80.56
253.562	71.56
253.795	83.56
254.028	77.56
254.261	79.56
254.494	93.56
254.727	94.56
254.96	84.56
255.193	74.56
255.426	87.56
255.659	87.56
255.892	91.56
256.124	93.56
256.357	66.56
256.59	78.56
256.823	71.56
257.056	94.56
257.289	85.56
257.521	88.56
257.754	67.56
257.987	89.56
258.22	74.56
258.452	88.56
258.685	84.56
258.918	93.56
259.151	81.56
259.383	87.56
259.616	80.56
259.849	79.56
260.081	82.56
260.314	90.56
260.547	81.56
260.779	75.56
261.012	87.56
261.244	92.56
261.477	91.56
261.71	90.56
261.942	82.56
262.175	107.56
262.407	85.56
262.64	87.56
262.872	97.56
263.105	84.56
263.337	84.56
263.57	100.56
263.802	79.56
264.035	87.56
264.267	89.56
264.499	90.56
264.732	78.56
264.964	92.56
265.197	91.56
265.429	85.56
265.661	84.56
265.894	76.56
266.126	87.56
266.358	91.56
266.591	82.56
266.823	100.56
267.055	78.56
267.287	89.56
267.52	96.56
267.752	99.56
267.984	84.56
268.216	95.56
268.448	101.56
268.681	98.56
268.913	86.56
269.145	101.56
269.377	94.56
269.609	91.56
269.841	89.56
270.073	96.56
270.306	92.56
270.538	86.56
270.77	90.56
271.002	78.56
271.234	76.56
271.466	92.56
271.698	84.56
271.93	76.56
272.162	82.56
272.394	82.56
272.626	84.56
272.858	93.56
273.09	81.56
273.322	98.56
273.553	79.56
273.785	93.56
274.017	82.56
274.249	89.56
274.481	77.56
274.713	80.56
274.945	74.56
275.176	74.56
275.408	95.56
275.64	100.56
275.872	86.56
276.104	86.56
276.335	87.56
276.567	93.56
276.799	100.56
277.031	95.56
277.262	74.56
277.494	94.56
277.726	89.56
277.957	89.56
278.189	84.56
278.421	84.56
278.652	87.56
278.884	84.56
279.115	94.56
279.347	94.56
279.579	85.56
279.81	87.56
280.042	83.56
280.273	88.56
280.505	95.56
280.736	74.56
280.968	72.56
281.199	86.56
281.431	93.56
281.662	78.56
281.894	103.56
282.125	75.56
282.356	93.56
282.588	115.56
282.819	114.56
283.051	101.56
283.282	98.56
283.513	90.56
283.745	102.56
283.976	76.56
284.207	84.56
284.439	79.56
284.67	90.56
284.901	87.56
285.132	82.56
285.364	95.56
285.595	92.56
285.826	88.56
286.057	91.56
286.288	89.56
286.52	80.56
286.751	90.56
286.982	88.56
287.213	91.56
287.444	72.56
287.675	101.56
287.906	85.56
288.138	88.56
288.369	97.56
288.6	84.56
288.831	92.56
289.062	92.56
289.293	104.56
289.524	84.56
289.755	88.56
289.986	83.56
290.217	81.56
290.448	96.56
290.679	93.56
290.91	83.56
291.141	88.56
291.371	88.56
291.602	88.56
291.833	79.56
292.064	84.56
292.295	86.56
292.526	91.56
292.757	89.56
292.987	87.56
293.218	90.56
293.449	90.56
293.68	82.56
293.91	93.56
294.141	92.56
294.372	95.56
294.603	96.56
294.833	103.56
295.064	92.56
295.295	77.56
295.525	97.56
295.756	98.56
295.987	105.56
296.217	112.56
296.448	108.56
296.679	84.56
296.909	98.56
297.14	98.56
297.37	80.56
297.601	92.56
297.831	89.56
298.062	96.56
298.292	89.56
298.523	86.56
298.753	80.56
298.984	87.56
299.214	96.56
299.445	93.56
299.675	102.56
299.905	97.56
300.136	77.56
300.366	99.56
300.597	86.56
300.827	95.56
301.057	94.56
301.288	94.56
301.518	83.56
301.748	87.56
301.979	116.56
302.209	107.56
302.439	89.56
302.669	98.56
302.9	96.56
303.13	88.56
303.36	82.56
303.59	102.56
303.82	107.56
304.051	92.56
304.281	107.56
304.511	107.56
304.741	77.56
304.971	95.56
305.201	78.56
305.431	82.56
305.661	105.56
305.891	87.56
306.121	91.56
306.352	97.56
306.582	101.56
306.812	75.56
307.042	93.56
307.272	102.56
307.502	101.56
307.731	87.56
307.961	92.56
308.191	87.56
308.421	96.56
308.651	106.56
308.881	93.56
309.111	89.56
309.341	100.56
309.571	95.56
309.8	107.56
310.03	102.56
310.26	96.56
310.49	90.56
310.72	96.56
310.949	105.56
311.179	90.56
311.409	91.56
311.639	95.56
311.868	84.56
312.098	85.56
312.328	104.56
312.557	106.56
312.787	102.56
313.017	100.56
313.246	98.56
313.476	96.56
313.706	84.56
313.935	83.56
314.165	101.56
314.394	94.56
314.624	92.56
314.853	84.56
315.083	86.56
315.312	97.56
315.542	94.56
315.771	97.56
316.001	98.56
316.23	97.56
316.46	88.56
316.689	90.56
316.919	101.56
317.148	95.56
317.377	99.56
317.607	102.56
317.836	90.56
318.065	100.56
318.295	86.56
318.524	92.56
318.753	92.56
318.983	93.56
319.212	92.56
319.441	88.56
319.67	96.56
319.9	93.56
320.129	88.56
320.358	92.56
320.587	90.56
320.816	93.56
321.046	104.56
321.275	100.56
321.504	101.56
321.733	100.56
321.962	91.56
322.191	103.56
322.42	111.56
322.649	119.56
322.878	117.56
323.108	105.56
323.337	112.56
323.566	130.56
323.795	137.56
324.024	195.56
324.253	363.56
324.482	747.56
324.71	1519.56
324.939	2043.56
325.168	749.56
325.397	227.56
325.626	149.56
325.855	129.56
326.084	130.56
326.313	120.56
326.542	152.56
326.77	214.56
326.999	421.56
327.228	869.56
327.457	1613.56
327.686	1286.56
327.914	332.56
328.143	171.56
328.372	133.56
328.6	112.56
328.829	101.56
329.058	111.56
329.287	122.56
329.515	98.56
329.744	103.56
329.972	114.56
330.201	120.56
330.43	128.56
330.658	123.56
330.887	135.56
331.115	106.56
331.344	98.56
331.572	87.56
331.801	98.56
332.03	100.56
332.258	100.56
332.486	101.56
332.715	84.56
332.943	112.56
333.172	78.56
333.4	92.56
333.629	98.56
333.857	104.56
334.085	100.56
334.314	127.56
334.542	120.56
334.771	110.56
334.999	99.56
335.227	84.56
335.455	90.56
335.684	91.56
335.912	87.56
336.14	91.56
336.369	90.56
336.597	107.56
336.825	100.56
337.053	95.56
337.281	97.56
337.51	94.56
337.738	96.56
337.966	89.56
338.194	91.56
338.422	97.56
338.65	95.56
338.878	98.56
339.106	90.56
339.334	103.56
339.562	102.56
339.79	106.56
340.018	88.56
340.246	91.56
340.474	97.56
340.702	93.56
340.93	100.56
341.158	91.56
341.386	95.56
341.614	95.56
341.842	99.56
342.07	103.56
342.298	103.56
342.526	95.56
342.754	90.56
342.981	98.56
343.209	86.56
343.437	90.56
343.665	105.56
343.893	91.56
344.12	86.56
344.348	86.56
344.576	103.56
344.804	95.56
345.031	91.56
345.259	111.56
345.487	89.56
345.714	93.56
345.942	101.56
346.17	105.56
346.397	96.56
346.625	90.56
346.853	92.56
347.08	79.56
347.308	89.56
347.535	87.56
347.763	99.56
347.99	102.56
348.218	104.56
348.445	91.56
348.673	95.56
348.9	101.56
349.128	101.56
349.355	86.56
349.583	98.56
349.81	104.56
350.037	103.56
350.265	82.56
350.492	104.56
350.72	89.56
350.947	104.56
351.174	96.56
351.402	120.56
351.629	101.56
351.856	102.56
352.083	106.56
352.311	90.56
352.538	94.56
352.765	104.56
352.992	114.56
353.22	116.56
353.447	105.56
353.674	105.56
353.901	105.56
354.128	97.56
354.355	103.56
354.583	91.56
354.81	98.56
355.037	106.56
355.264	108.56
355.491	93.56
355.718	102.56
355.945	94.56
356.172	103.56
356.399	107.56
356.626	112.56
356.853	99.56
357.08	96.56
357.307	93.56
357.534	93.56
357.761	112.56
357.988	89.56
358.215	98.56
358.441	89.56
358.668	98.56
358.895	82.56
359.122	89.56
359.349	102.56
359.576	94.56
359.802	87.56
360.029	107.56
360.256	102.56
360.483	92.56
360.709	98.56
360.936	76.56
361.163	92.56
361.39	83.56
361.616	82.56
361.843	102.56
362.07	86.56
362.296	98.56
362.523	83.56
362.749	98.56
362.976	82.56
363.203	115.56
363.429	87.56
363.656	88.56
363.882	81.56
364.109	109.56
364.335	101.56
364.562	98.56
364.788	98.56
365.015	93.56
365.241	114.56
365.468	95.56
365.694	109.56
365.92	95.56
366.147	93.56
366.373	94.56
366.599	84.56
366.826	92.56
367.052	89.56
367.278	84.56
367.505	78.56
367.731	83.56
367.957	99.56
368.184	85.56
368.41	106.56
368.636	95.56
368.862	96.56
369.089	105.56
369.315	92.56
369.541	79.56
369.767	85.56
369.993	97.56
370.219	88.56
370.445	83.56
370.672	86.56
370.898	96.56
371.124	76.56
371.35	99.56
371.576	89.56
371.802	99.56
372.028	82.56
372.254	96.56
372.48	92.56
372.706	77.56
372.932	95.56
373.158	89.56
373.384	98.56
373.61	98.56
373.835	100.56
374.061	101.56
374.287	82.56
374.513	88.56
374.739	96.56
374.965	85.56
375.191	92.56
375.416	98.56
375.642	98.56
375.868	103.56
376.094	102.56
376.319	91.56
376.545	88.56
376.771	94.56
376.997	79.56
377.222	79.56
377.448	91.56
377.674	82.56
377.899	90.56
378.125	97.56
378.35	103.56
378.576	100.56
378.802	94.56
379.027	94.56
379.253	102.56
379.478	85.56
379.704	89.56
379.929	99.56
380.155	89.56
380.38	98.56
380.606	99.56
380.831	100.56
381.057	111.56
381.282	84.56
381.507	82.56
381.733	102.56
381.958	109.56
382.184	117.56
382.409	104.56
382.634	110.56
382.86	81.56
383.085	88.56
383.31	112.56
383.535	99.56
383.761	114.56
383.986	113.56
384.211	93.56
384.436	94.56
384.662	91.56
384.887	111.56
385.112	113.56
385.337	110.56
385.562	98.56
385.787	101.56
386.013	123.56
386.238	122.56
386.463	104.56
386.688	102.56
386.913	109.56
387.138	114.56
387.363	105.56
387.588	93.56
387.813	106.56
388.038	109.56
388.263	116.56
388.488	106.56
388.713	102.56
388.938	92.56
389.163	98.56
389.387	77.56
389.612	96.56
389.837	101.56
390.062	97.56
390.287	99.56
390.512	101.56
390.736	91.56
390.961	84.56
391.186	87.56
391.411	86.56
391.636	98.56
391.86	96.56
392.085	79.56
392.31	77.56
392.534	80.56
392.759	76.56
392.984	82.56
393.208	84.56
393.433	96.56
393.658	92.56
393.882	101.56
394.107	83.56
394.331	85.56
394.556	88.56
394.78	75.56
395.005	99.56
395.229	85.56
395.454	92.56
395.678	92.56
395.903	104.56
396.127	93.56
396.352	80.56
396.576	74.56
396.801	90.56
397.025	79.56
397.249	82.56
397.474	90.56
397.698	79.56
397.922	94.56
398.147	99.56
398.371	71.56
398.595	93.56
398.82	90.56
399.044	69.56
399.268	86.56
399.492	80.56
399.717	105.56
399.941	79.56
400.165	93.56
400.389	88.56
400.613	100.56
400.837	76.56
401.062	98.56
401.286	92.56
401.51	90.56
401.734	88.56
401.958	101.56
402.182	105.56
402.406	127.56
402.63	108.56
402.854	74.56
403.078	80.56
403.302	106.56
403.526	82.56
403.75	79.56
403.974	94.56
404.198	86.56
404.422	79.56
404.645	94.56
404.869	91.56
405.093	88.56
405.317	84.56
405.541	99.56
405.765	105.56
405.988	106.56
406.212	137.56
406.436	185.56
406.66	131.56
406.883	105.56
407.107	87.56
407.331	82.56
407.555	94.56
407.778	112.56
408.002	84.56
408.226	86.56
408.449	82.56
408.673	93.56
408.896	91.56
409.12	93.56
409.344	98.56
409.567	92.56
409.791	88.56
410.014	98.56
410.238	96.56
410.461	101.56
410.685	104.56
410.908	88.56
411.132	101.56
411.355	104.56
411.578	99.56
411.802	95.56
412.025	108.56
412.249	84.56
412.472	98.56
412.695	99.56
412.919	96.56
413.142	86.56
413.365	101.56
413.589	84.56
413.812	92.56
414.035	98.56
414.258	79.56
414.482	88.56
414.705	88.56
414.928	103.56
415.151	87.56
415.374	105.56
415.597	93.56
415.821	96.56
416.044	86.56
416.267	98.56
416.49	92.56
416.713	82.56
416.936	83.56
417.159	102.56
417.382	95.56
417.605	91.56
417.828	89.56
418.051	91.56
418.274	77.56
418.497	82.56
418.72	99.56
418.943	87.56
419.166	96.56
419.389	87.56
419.611	98.56
419.834	89.56
420.057	99.56
420.28	98.56
420.503	89.56
420.726	82.56
420.948	109.56
421.171	106.56
421.394	85.56
421.617	76.56
421.839	86.56
422.062	79.56
422.285	86.56
422.507	110.56
422.73	102.56
422.953	88.56
423.175	100.56
423.398	80.56
423.621	91.56
423.843	86.56
424.066	96.56
424.288	97.56
424.511	104.56
424.733	87.56
424.956	102.56
425.178	83.56
425.401	96.56
425.623	111.56
425.846	100.56
426.068	95.56
426.291	92.56
426.513	83.56
426.735	104.56
426.958	84.56
427.18	90.56
427.402	116.56
427.625	142.56
427.847	122.56
428.069	107.56
428.292	82.56
428.514	92.56
428.736	86.56
428.958	77.56
429.181	90.56
429.403	73.56
429.625	97.56
429.847	100.56
430.069	102.56
430.292	79.56
430.514	85.56
430.736	66.56
430.958	88.56
431.18	105.56
431.402	97.56
431.624	92.56
431.846	100.56
432.068	92.56
432.29	79.56
432.512	94.56
432.734	79.56
432.956	102.56
433.178	100.56
433.4	99.56
433.622	90.56
433.844	98.56
434.066	90.56
434.287	89.56
434.509	83.56
434.731	88.56
434.953	94.56
435.175	79.56
435.397	92.56
435.618	102.56
435.84	88.56
436.062	130.56
436.284	102.56
436.505	94.56
436.727	118.56
436.949	88.56
437.17	87.56
437.392	91.56
437.614	95.56
437.835	91.56
438.057	101.56
438.278	106.56
438.5	112.56
438.721	134.56
438.943	102.56
439.165	73.56
439.386	88.56
439.608	84.56
439.829	95.56
440.05	110.56
440.272	128.56
440.493	102.56
440.715	93.56
440.936	104.56
441.158	109.56
441.379	94.56
441.6	74.56
441.822	94.56
442.043	79.56
442.264	94.56
442.486	105.56
442.707	96.56
442.928	98.56
443.149	116.56
443.371	118.56
443.592	116.56
443.813	98.56
444.034	101.56
444.255	101.56
444.476	88.56
444.698	99.56
444.919	85.56
445.14	137.56
445.361	112.56
445.582	108.56
445.803	123.56
446.024	122.56
446.245	107.56
446.466	106.56
446.687	93.56
446.908	74.56
447.129	93.56
447.35	83.56
447.571	95.56
447.792	88.56
448.013	86.56
448.234	94.56
448.455	103.56
448.675	104.56
448.896	101.56
449.117	110.56
449.338	103.56
449.559	122.56
449.779	127.56
450	76.56
450.221	73.56
450.442	84.56
450.662	89.56
450.883	92.56
451.104	104.56
451.324	101.56
451.545	86.56
451.766	74.56
451.986	104.56
452.207	92.56
452.428	85.56
452.648	88.56
452.869	85.56
453.089	111.56
453.31	107.56
453.53	86.56
453.751	93.56
453.971	99.56
454.192	95.56
454.412	92.56
454.633	107.56
454.853	84.56
455.073	83.56
455.294	99.56
455.514	98.56
455.734	90.56
455.955	92.56
456.175	103.56
456.395	86.56
456.616	79.56
456.836	99.56
457.056	84.56
457.276	87.56
457.497	88.56
457.717	84.56
457.937	104.56
458.157	93.56
458.377	102.56
458.598	99.56
458.818	121.56
459.038	133.56
459.258	107.56
459.478	98.56
459.698	91.56
459.918	103.56
460.138	83.56
460.358	84.56
460.578	86.56
460.798	77.56
461.018	92.56
461.238	84.56
461.458	100.56
461.678	80.56
461.898	94.56
462.118	74.56
462.338	94.56
462.558	84.56
462.777	85.56
462.997	85.56
463.217	88.56
463.437	87.56
463.657	91.56
463.876	88.56
464.096	76.56
464.316	101.56
464.536	82.56
464.755	93.56
464.975	117.56
465.195	137.56
465.414	116.56
465.634	101.56
465.854	76.56
466.073	89.56
466.293	84.56
466.512	94.56
466.732	101.56
466.951	79.56
467.171	92.56
467.391	102.56
467.61	71.56
467.829	90.56
468.049	78.56
468.268	73.56
468.488	79.56
468.707	97.56
468.927	96.56
469.146	81.56
469.365	78.56
469.585	90.56
469.804	86.56
470.023	99.56
470.243	90.56
470.462	89.56
470.681	97.56
470.901	77.56
471.12	94.56
471.339	86.56
471.558	78.56
471.777	71.56
471.997	88.56
472.216	101.56
472.435	126.56
472.654	87.56
472.873	90.56
473.092	91.56
473.311	85.56
473.53	91.56
473.749	84.56
473.968	81.56
474.187	98.56
474.406	100.56
474.625	96.56
474.844	87.56
475.063	89.56
475.282	94.56
475.501	93.56
475.72	83.56
475.939	89.56
476.158	80.56
476.377	88.56
476.596	86.56
476.814	87.56
477.033	92.56
477.252	77.56
477.471	90.56
477.69	94.56
477.908	84.56
478.127	87.56
478.346	96.56
478.564	92.56
478.783	93.56
479.002	82.56
479.22	94.56
479.439	92.56
479.658	95.56
479.876	99.56
480.095	79.56
480.313	91.56
480.532	93.56
480.751	97.56
480.969	90.56
481.188	165.56
481.406	132.56
481.624	96.56
481.843	93.56
482.061	79.56
482.28	101.56
482.498	84.56
482.717	87.56
482.935	82.56
483.153	97.56
483.372	93.56
483.59	100.56
483.808	101.56
484.027	115.56
484.245	101.56
484.463	91.56
484.681	89.56
484.9	91.56
485.118	77.56
485.336	92.56
485.554	111.56
485.772	100.56
485.99	116.56
486.209	100.56
486.427	93.56
486.645	103.56
486.863	116.56
487.081	108.56
487.299	101.56
487.517	103.56
487.735	97.56
487.953	106.56
488.171	95.56
488.389	109.56
488.607	91.56
488.825	78.56
489.043	87.56
489.261	87.56
489.479	94.56
489.696	82.56
489.914	84.56
490.132	96.56
490.35	90.56
490.568	90.56
490.786	82.56
491.003	93.56
491.221	93.56
491.439	96.56
491.657	91.56
491.874	84.56
492.092	89.56
492.31	91.56
492.527	87.56
492.745	88.56
492.963	101.56
493.18	91.56
493.398	100.56
493.615	104.56
493.833	107.56
494.05	95.56
494.268	101.56
494.485	87.56
494.703	87.56
494.92	84.56
495.138	107.56
495.355	109.56
495.573	101.56
495.79	100.56
496.008	86.56
496.225	104.56
496.442	86.56
496.66	87.56
496.877	99.56
497.094	87.56
497.312	88.56
497.529	89.56
497.746	100.56
497.963	78.56
498.181	101.56
498.398	97.56
498.615	100.56
498.832	99.56
499.049	98.56
499.267	102.56
499.484	117.56
499.701	74.56
499.918	99.56
500.135	80.56
500.352	84.56
500.569	93.56
500.786	101.56
501.003	90.56
501.22	99.56
501.437	97.56
501.654	101.56
501.871	102.56
502.088	89.56
502.305	94.56
502.522	82.56
502.739	98.56
502.956	71.56
503.172	86.56
503.389	84.56
503.606	98.56
503.823	86.56
504.04	112.56
504.256	95.56
504.473	95.56
504.69	81.56
504.907	105.56
505.123	82.56
505.34	98.56
505.557	97.56
505.773	96.56
505.99	85.56
506.207	85.56
506.423	83.56
506.64	76.56
506.856	101.56
507.073	94.56
507.289	98.56
507.506	106.56
507.722	92.56
507.939	96.56
508.155	93.56
508.372	93.56
508.588	85.56
508.805	91.56
509.021	104.56
509.238	102.56
509.454	95.56
509.67	99.56
509.887	102.56
510.103	120.56
510.319	184.56
510.536	583.56
510.752	1688.56
510.968	474.56
511.184	128.56
511.401	106.56
511.617	99.56
511.833	80.56
512.049	86.56
512.265	91.56
512.481	93.56
512.698	93.56
512.914	77.56
513.13	92.56
513.346	95.56
513.562	93.56
513.778	103.56
513.994	97.56
514.21	109.56
514.426	105.56
514.642	104.56
514.858	120.56
515.074	129.56
515.29	334.56
