Data from Uncirc_1981_H10_HRD10591_00010.txt Node
Date: Wed Jan 03 12:33:10 EST 2024
User: Yrep
Spectrometer: HR+D1059
Trigger mode: 1
Integration Time (sec): 1.000000E-1
Scans to average: 1
Electric dark correction enabled: true
Nonlinearity correction enabled: false
Boxcar width: 0
XAxis mode: Wavelengths
Number of Pixels in Spectrum: 2048
>>>>>Begin Spectral Data<<<<<
223.165	-22.31
223.4	-22.31
223.635	-22.31
223.869	-27.31
224.104	-9.31
224.338	-21.31
224.573	-31.31
224.808	-6.31
225.042	-10.31
225.277	0.69
225.511	4.69
225.746	8.69
225.98	5.69
226.215	3.69
226.449	11.69
226.683	24.69
226.918	29.69
227.152	38.69
227.387	24.69
227.621	28.69
227.856	44.69
228.09	49.69
228.324	40.69
228.559	50.69
228.793	69.69
229.027	56.69
229.262	62.69
229.496	77.69
229.73	70.69
229.964	73.69
230.199	72.69
230.433	61.69
230.667	84.69
230.901	66.69
231.136	82.69
231.37	76.69
231.604	82.69
231.838	82.69
232.072	73.69
232.306	82.69
232.541	69.69
232.775	92.69
233.009	72.69
233.243	66.69
233.477	81.69
233.711	62.69
233.945	83.69
234.179	93.69
234.413	84.69
234.647	81.69
234.881	75.69
235.115	78.69
235.349	67.69
235.583	86.69
235.817	75.69
236.051	74.69
236.285	74.69
236.519	70.69
236.753	77.69
236.987	85.69
237.221	77.69
237.455	84.69
237.689	83.69
237.922	85.69
238.156	74.69
238.39	77.69
238.624	80.69
238.858	71.69
239.091	72.69
239.325	80.69
239.559	58.69
239.793	81.69
240.027	77.69
240.26	81.69
240.494	76.69
240.728	68.69
240.961	75.69
241.195	73.69
241.429	76.69
241.662	74.69
241.896	90.69
242.13	78.69
242.363	85.69
242.597	79.69
242.83	85.69
243.064	85.69
243.298	76.69
243.531	78.69
243.765	73.69
243.998	60.69
244.232	81.69
244.465	82.69
244.699	74.69
244.932	89.69
245.166	85.69
245.399	88.69
245.633	82.69
245.866	70.69
246.099	81.69
246.333	70.69
246.566	82.69
246.8	82.69
247.033	83.69
247.266	68.69
247.5	81.69
247.733	76.69
247.966	89.69
248.2	84.69
248.433	90.69
248.666	72.69
248.899	81.69
249.133	85.69
249.366	79.69
249.599	98.69
249.832	92.69
250.066	78.69
250.299	94.69
250.532	81.69
250.765	74.69
250.998	82.69
251.231	74.69
251.465	64.69
251.698	68.69
251.931	75.69
252.164	80.69
252.397	70.69
252.63	82.69
252.863	71.69
253.096	82.69
253.329	83.69
253.562	69.69
253.795	74.69
254.028	77.69
254.261	73.69
254.494	81.69
254.727	88.69
254.96	69.69
255.193	84.69
255.426	85.69
255.659	78.69
255.892	74.69
256.124	72.69
256.357	85.69
256.59	82.69
256.823	81.69
257.056	80.69
257.289	84.69
257.521	74.69
257.754	70.69
257.987	84.69
258.22	88.69
258.452	77.69
258.685	75.69
258.918	75.69
259.151	87.69
259.383	72.69
259.616	77.69
259.849	73.69
260.081	80.69
260.314	89.69
260.547	73.69
260.779	87.69
261.012	84.69
261.244	68.69
261.477	84.69
261.71	85.69
261.942	100.69
262.175	86.69
262.407	81.69
262.64	83.69
262.872	74.69
263.105	82.69
263.337	97.69
263.57	90.69
263.802	92.69
264.035	80.69
264.267	93.69
264.499	66.69
264.732	78.69
264.964	71.69
265.197	76.69
265.429	74.69
265.661	83.69
265.894	72.69
266.126	82.69
266.358	77.69
266.591	89.69
266.823	94.69
267.055	93.69
267.287	94.69
267.52	84.69
267.752	72.69
267.984	84.69
268.216	85.69
268.448	58.69
268.681	84.69
268.913	86.69
269.145	103.69
269.377	73.69
269.609	77.69
269.841	71.69
270.073	78.69
270.306	93.69
270.538	78.69
270.77	82.69
271.002	84.69
271.234	87.69
271.466	102.69
271.698	90.69
271.93	86.69
272.162	78.69
272.394	81.69
272.626	91.69
272.858	88.69
273.09	83.69
273.322	101.69
273.553	74.69
273.785	72.69
274.017	64.69
274.249	78.69
274.481	76.69
274.713	82.69
274.945	92.69
275.176	88.69
275.408	76.69
275.64	83.69
275.872	72.69
276.104	92.69
276.335	75.69
276.567	93.69
276.799	84.69
277.031	77.69
277.262	88.69
277.494	98.69
277.726	94.69
277.957	91.69
278.189	84.69
278.421	71.69
278.652	70.69
278.884	78.69
279.115	77.69
279.347	78.69
279.579	80.69
279.81	77.69
280.042	74.69
280.273	89.69
280.505	73.69
280.736	92.69
280.968	76.69
281.199	89.69
281.431	104.69
281.662	80.69
281.894	86.69
282.125	90.69
282.356	89.69
282.588	103.69
282.819	104.69
283.051	93.69
283.282	72.69
283.513	81.69
283.745	82.69
283.976	88.69
284.207	89.69
284.439	90.69
284.67	73.69
284.901	88.69
285.132	95.69
285.364	73.69
285.595	91.69
285.826	82.69
286.057	76.69
286.288	83.69
286.52	84.69
286.751	67.69
286.982	93.69
287.213	73.69
287.444	82.69
287.675	93.69
287.906	85.69
288.138	75.69
288.369	86.69
288.6	76.69
288.831	90.69
289.062	92.69
289.293	76.69
289.524	85.69
289.755	78.69
289.986	77.69
290.217	71.69
290.448	85.69
290.679	86.69
290.91	102.69
291.141	92.69
291.371	85.69
291.602	87.69
291.833	77.69
292.064	78.69
292.295	69.69
292.526	71.69
292.757	106.69
292.987	87.69
293.218	103.69
293.449	88.69
293.68	75.69
293.91	73.69
294.141	97.69
294.372	78.69
294.603	90.69
294.833	107.69
295.064	71.69
295.295	89.69
295.525	110.69
295.756	100.69
295.987	94.69
296.217	93.69
296.448	96.69
296.679	90.69
296.909	84.69
297.14	92.69
297.37	84.69
297.601	82.69
297.831	75.69
298.062	68.69
298.292	90.69
298.523	90.69
298.753	97.69
298.984	88.69
299.214	85.69
299.445	84.69
299.675	89.69
299.905	82.69
300.136	109.69
300.366	76.69
300.597	81.69
300.827	91.69
301.057	81.69
301.288	100.69
301.518	99.69
301.748	89.69
301.979	94.69
302.209	82.69
302.439	88.69
302.669	82.69
302.9	90.69
303.13	100.69
303.36	77.69
303.59	94.69
303.82	96.69
304.051	83.69
304.281	107.69
304.511	91.69
304.741	88.69
304.971	86.69
305.201	89.69
305.431	85.69
305.661	100.69
305.891	82.69
306.121	97.69
306.352	102.69
306.582	84.69
306.812	78.69
307.042	89.69
307.272	82.69
307.502	87.69
307.731	91.69
307.961	95.69
308.191	82.69
308.421	99.69
308.651	91.69
308.881	83.69
309.111	90.69
309.341	100.69
309.571	83.69
309.8	85.69
310.03	90.69
310.26	106.69
310.49	89.69
310.72	90.69
310.949	87.69
311.179	101.69
311.409	84.69
311.639	88.69
311.868	96.69
312.098	87.69
312.328	89.69
312.557	96.69
312.787	90.69
313.017	75.69
313.246	95.69
313.476	104.69
313.706	93.69
313.935	82.69
314.165	91.69
314.394	101.69
314.624	73.69
314.853	108.69
315.083	86.69
315.312	80.69
315.542	89.69
315.771	94.69
316.001	86.69
316.23	81.69
316.46	84.69
316.689	80.69
316.919	78.69
317.148	85.69
317.377	104.69
317.607	90.69
317.836	93.69
318.065	76.69
318.295	88.69
318.524	74.69
318.753	79.69
318.983	77.69
319.212	94.69
319.441	92.69
319.67	91.69
319.9	93.69
320.129	91.69
320.358	82.69
320.587	74.69
320.816	88.69
321.046	91.69
321.275	100.69
321.504	90.69
321.733	81.69
321.962	85.69
322.191	89.69
322.42	100.69
322.649	94.69
322.878	91.69
323.108	105.69
323.337	110.69
323.566	113.69
323.795	125.69
324.024	178.69
324.253	274.69
324.482	572.69
324.71	1136.69
324.939	1472.69
325.168	554.69
325.397	183.69
325.626	125.69
325.855	113.69
326.084	105.69
326.313	102.69
326.542	131.69
326.77	172.69
326.999	344.69
327.228	689.69
327.457	1233.69
327.686	976.69
327.914	285.69
328.143	151.69
328.372	114.69
328.6	106.69
328.829	95.69
329.058	95.69
329.287	101.69
329.515	87.69
329.744	77.69
329.972	85.69
330.201	93.69
330.43	112.69
330.658	105.69
330.887	120.69
331.115	95.69
331.344	92.69
331.572	94.69
331.801	94.69
332.03	99.69
332.258	92.69
332.486	86.69
332.715	78.69
332.943	82.69
333.172	97.69
333.4	106.69
333.629	97.69
333.857	90.69
334.085	87.69
334.314	107.69
334.542	109.69
334.771	106.69
334.999	99.69
335.227	91.69
335.455	90.69
335.684	101.69
335.912	96.69
336.14	97.69
336.369	78.69
336.597	92.69
336.825	74.69
337.053	89.69
337.281	97.69
337.51	81.69
337.738	86.69
337.966	90.69
338.194	94.69
338.422	99.69
338.65	97.69
338.878	91.69
339.106	89.69
339.334	105.69
339.562	75.69
339.79	86.69
340.018	89.69
340.246	91.69
340.474	93.69
340.702	68.69
340.93	90.69
341.158	87.69
341.386	94.69
341.614	83.69
341.842	92.69
342.07	84.69
342.298	91.69
342.526	101.69
342.754	73.69
342.981	83.69
343.209	96.69
343.437	96.69
343.665	88.69
343.893	97.69
344.12	98.69
344.348	91.69
344.576	81.69
344.804	84.69
345.031	80.69
345.259	88.69
345.487	92.69
345.714	84.69
345.942	98.69
346.17	100.69
346.397	98.69
346.625	95.69
346.853	95.69
347.08	95.69
347.308	93.69
347.535	96.69
347.763	99.69
347.99	103.69
348.218	85.69
348.445	94.69
348.673	83.69
348.9	80.69
349.128	83.69
349.355	92.69
349.583	90.69
349.81	98.69
350.037	100.69
350.265	98.69
350.492	84.69
350.72	101.69
350.947	83.69
351.174	96.69
351.402	104.69
351.629	106.69
351.856	90.69
352.083	100.69
352.311	110.69
352.538	95.69
352.765	104.69
352.992	99.69
353.22	108.69
353.447	88.69
353.674	97.69
353.901	93.69
354.128	109.69
354.355	89.69
354.583	105.69
354.81	98.69
355.037	80.69
355.264	88.69
355.491	99.69
355.718	86.69
355.945	101.69
356.172	85.69
356.399	93.69
356.626	101.69
356.853	89.69
357.08	105.69
357.307	92.69
357.534	80.69
357.761	91.69
357.988	107.69
358.215	92.69
358.441	101.69
358.668	106.69
358.895	91.69
359.122	84.69
359.349	97.69
359.576	102.69
359.802	112.69
360.029	94.69
360.256	108.69
360.483	90.69
360.709	91.69
360.936	96.69
361.163	91.69
361.39	103.69
361.616	87.69
361.843	92.69
362.07	100.69
362.296	89.69
362.523	77.69
362.749	111.69
362.976	80.69
363.203	86.69
363.429	74.69
363.656	95.69
363.882	88.69
364.109	93.69
364.335	90.69
364.562	95.69
364.788	96.69
365.015	73.69
365.241	103.69
365.468	97.69
365.694	89.69
365.92	101.69
366.147	90.69
366.373	92.69
366.599	84.69
366.826	87.69
367.052	75.69
367.278	90.69
367.505	100.69
367.731	85.69
367.957	92.69
368.184	78.69
368.41	98.69
368.636	90.69
368.862	92.69
369.089	88.69
369.315	81.69
369.541	85.69
369.767	84.69
369.993	77.69
370.219	95.69
370.445	101.69
370.672	84.69
370.898	93.69
371.124	92.69
371.35	72.69
371.576	96.69
371.802	87.69
372.028	93.69
372.254	100.69
372.48	90.69
372.706	92.69
372.932	83.69
373.158	91.69
373.384	90.69
373.61	77.69
373.835	82.69
374.061	92.69
374.287	82.69
374.513	85.69
374.739	102.69
374.965	95.69
375.191	108.69
375.416	84.69
375.642	82.69
375.868	85.69
376.094	74.69
376.319	109.69
376.545	94.69
376.771	105.69
376.997	102.69
377.222	104.69
377.448	94.69
377.674	102.69
377.899	85.69
378.125	88.69
378.35	98.69
378.576	104.69
378.802	108.69
379.027	106.69
379.253	93.69
379.478	100.69
379.704	96.69
379.929	112.69
380.155	91.69
380.38	104.69
380.606	100.69
380.831	97.69
381.057	110.69
381.282	108.69
381.507	109.69
381.733	107.69
381.958	111.69
382.184	106.69
382.409	105.69
382.634	106.69
382.86	109.69
383.085	108.69
383.31	103.69
383.535	101.69
383.761	113.69
383.986	114.69
384.211	112.69
384.436	118.69
384.662	122.69
384.887	125.69
385.112	144.69
385.337	130.69
385.562	119.69
385.787	130.69
386.013	136.69
386.238	126.69
386.463	122.69
386.688	136.69
386.913	120.69
387.138	134.69
387.363	130.69
387.588	111.69
387.813	125.69
388.038	129.69
388.263	153.69
388.488	141.69
388.713	101.69
388.938	90.69
389.163	111.69
389.387	109.69
389.612	84.69
389.837	99.69
390.062	84.69
390.287	86.69
390.512	94.69
390.736	90.69
390.961	94.69
391.186	87.69
391.411	83.69
391.636	109.69
391.86	107.69
392.085	77.69
392.31	84.69
392.534	88.69
392.759	91.69
392.984	85.69
393.208	73.69
393.433	87.69
393.658	91.69
393.882	88.69
394.107	85.69
394.331	68.69
394.556	88.69
394.78	92.69
395.005	84.69
395.229	86.69
395.454	93.69
395.678	85.69
395.903	81.69
396.127	91.69
396.352	99.69
396.576	87.69
396.801	89.69
397.025	89.69
397.249	92.69
397.474	79.69
397.698	94.69
397.922	92.69
398.147	91.69
398.371	76.69
398.595	84.69
398.82	78.69
399.044	74.69
399.268	81.69
399.492	77.69
399.717	94.69
399.941	81.69
400.165	93.69
400.389	91.69
400.613	91.69
400.837	80.69
401.062	82.69
401.286	92.69
401.51	75.69
401.734	97.69
401.958	105.69
402.182	83.69
402.406	105.69
402.63	98.69
402.854	95.69
403.078	75.69
403.302	93.69
403.526	86.69
403.75	82.69
403.974	91.69
404.198	85.69
404.422	84.69
404.645	81.69
404.869	80.69
405.093	100.69
405.317	84.69
405.541	99.69
405.765	97.69
405.988	90.69
406.212	100.69
406.436	131.69
406.66	105.69
406.883	97.69
407.107	89.69
407.331	92.69
407.555	80.69
407.778	108.69
408.002	84.69
408.226	104.69
408.449	95.69
408.673	98.69
408.896	97.69
409.12	87.69
409.344	98.69
409.567	94.69
409.791	89.69
410.014	88.69
410.238	109.69
410.461	90.69
410.685	78.69
410.908	90.69
411.132	109.69
411.355	90.69
411.578	92.69
411.802	87.69
412.025	82.69
412.249	79.69
412.472	91.69
412.695	83.69
412.919	85.69
413.142	98.69
413.365	93.69
413.589	93.69
413.812	78.69
414.035	96.69
414.258	98.69
414.482	84.69
414.705	93.69
414.928	98.69
415.151	108.69
415.374	80.69
415.597	84.69
415.821	103.69
416.044	96.69
416.267	102.69
416.49	97.69
416.713	86.69
416.936	103.69
417.159	93.69
417.382	74.69
417.605	87.69
417.828	98.69
418.051	80.69
418.274	90.69
418.497	92.69
418.72	88.69
418.943	92.69
419.166	81.69
419.389	75.69
419.611	82.69
419.834	92.69
420.057	76.69
420.28	86.69
420.503	93.69
420.726	82.69
420.948	89.69
421.171	91.69
421.394	76.69
421.617	84.69
421.839	85.69
422.062	83.69
422.285	98.69
422.507	112.69
422.73	96.69
422.953	90.69
423.175	85.69
423.398	93.69
423.621	106.69
423.843	91.69
424.066	94.69
424.288	81.69
424.511	92.69
424.733	82.69
424.956	96.69
425.178	91.69
425.401	85.69
425.623	91.69
425.846	81.69
426.068	98.69
426.291	84.69
426.513	80.69
426.735	86.69
426.958	95.69
427.18	105.69
427.402	110.69
427.625	128.69
427.847	100.69
428.069	112.69
428.292	103.69
428.514	89.69
428.736	85.69
428.958	88.69
429.181	93.69
429.403	84.69
429.625	82.69
429.847	92.69
430.069	98.69
430.292	87.69
430.514	83.69
430.736	85.69
430.958	84.69
431.18	86.69
431.402	78.69
431.624	85.69
431.846	94.69
432.068	93.69
432.29	88.69
432.512	86.69
432.734	86.69
432.956	90.69
433.178	90.69
433.4	99.69
433.622	86.69
433.844	84.69
434.066	84.69
434.287	84.69
434.509	94.69
434.731	78.69
434.953	96.69
435.175	96.69
435.397	92.69
435.618	90.69
435.84	90.69
436.062	107.69
436.284	92.69
436.505	103.69
436.727	100.69
436.949	97.69
437.17	87.69
437.392	78.69
437.614	92.69
437.835	96.69
438.057	90.69
438.278	105.69
438.5	91.69
438.721	99.69
438.943	102.69
439.165	83.69
439.386	76.69
439.608	92.69
439.829	100.69
440.05	97.69
440.272	116.69
440.493	84.69
440.715	80.69
440.936	73.69
441.158	86.69
441.379	82.69
441.6	88.69
441.822	98.69
442.043	91.69
442.264	102.69
442.486	89.69
442.707	100.69
442.928	78.69
443.149	98.69
443.371	97.69
443.592	98.69
443.813	80.69
444.034	93.69
444.255	101.69
444.476	90.69
444.698	77.69
444.919	93.69
445.14	131.69
445.361	121.69
445.582	101.69
445.803	111.69
446.024	119.69
446.245	108.69
446.466	96.69
446.687	82.69
446.908	90.69
447.129	97.69
447.35	92.69
447.571	88.69
447.792	99.69
448.013	87.69
448.234	97.69
448.455	109.69
448.675	105.69
448.896	107.69
449.117	91.69
449.338	100.69
449.559	101.69
449.779	120.69
450	90.69
450.221	85.69
450.442	92.69
450.662	90.69
450.883	89.69
451.104	81.69
451.324	101.69
451.545	80.69
451.766	85.69
451.986	84.69
452.207	92.69
452.428	85.69
452.648	97.69
452.869	88.69
453.089	85.69
453.31	111.69
453.53	92.69
453.751	88.69
453.971	87.69
454.192	95.69
454.412	84.69
454.633	85.69
454.853	91.69
455.073	70.69
455.294	90.69
455.514	86.69
455.734	88.69
455.955	92.69
456.175	88.69
456.395	96.69
456.616	91.69
456.836	85.69
457.056	91.69
457.276	86.69
457.497	84.69
457.717	81.69
457.937	84.69
458.157	89.69
458.377	89.69
458.598	82.69
458.818	101.69
459.038	104.69
459.258	103.69
459.478	92.69
459.698	87.69
459.918	78.69
460.138	95.69
460.358	88.69
460.578	80.69
460.798	89.69
461.018	83.69
461.238	80.69
461.458	86.69
461.678	81.69
461.898	86.69
462.118	92.69
462.338	89.69
462.558	93.69
462.777	92.69
462.997	94.69
463.217	91.69
463.437	89.69
463.657	86.69
463.876	82.69
464.096	74.69
464.316	75.69
464.536	90.69
464.755	98.69
464.975	92.69
465.195	126.69
465.414	121.69
465.634	94.69
465.854	84.69
466.073	85.69
466.293	76.69
466.512	91.69
466.732	97.69
466.951	78.69
467.171	77.69
467.391	84.69
467.61	80.69
467.829	93.69
468.049	97.69
468.268	88.69
468.488	82.69
468.707	100.69
468.927	90.69
469.146	78.69
469.365	82.69
469.585	92.69
469.804	92.69
470.023	92.69
470.243	91.69
470.462	74.69
470.681	92.69
470.901	90.69
471.12	81.69
471.339	98.69
471.558	76.69
471.777	84.69
471.997	95.69
472.216	97.69
472.435	117.69
472.654	97.69
472.873	92.69
473.092	80.69
473.311	94.69
473.53	84.69
473.749	91.69
473.968	88.69
474.187	99.69
474.406	80.69
474.625	85.69
474.844	83.69
475.063	86.69
475.282	84.69
475.501	80.69
475.72	86.69
475.939	94.69
476.158	81.69
476.377	83.69
476.596	89.69
476.814	78.69
477.033	87.69
477.252	88.69
477.471	68.69
477.69	89.69
477.908	82.69
478.127	82.69
478.346	101.69
478.564	82.69
478.783	89.69
479.002	83.69
479.22	96.69
479.439	96.69
479.658	80.69
479.876	85.69
480.095	79.69
480.313	85.69
480.532	76.69
480.751	71.69
480.969	103.69
481.188	140.69
481.406	120.69
481.624	95.69
481.843	86.69
482.061	104.69
482.28	82.69
482.498	79.69
482.717	88.69
482.935	82.69
483.153	82.69
483.372	78.69
483.59	87.69
483.808	88.69
484.027	94.69
484.245	92.69
484.463	88.69
484.681	93.69
484.9	99.69
485.118	97.69
485.336	88.69
485.554	90.69
485.772	104.69
485.99	101.69
486.209	110.69
486.427	106.69
486.645	116.69
486.863	102.69
487.081	94.69
487.299	85.69
487.517	90.69
487.735	100.69
487.953	92.69
488.171	94.69
488.389	100.69
488.607	96.69
488.825	83.69
489.043	86.69
489.261	90.69
489.479	93.69
489.696	94.69
489.914	96.69
490.132	98.69
490.35	94.69
490.568	98.69
490.786	86.69
491.003	90.69
491.221	83.69
491.439	85.69
491.657	95.69
491.874	102.69
492.092	96.69
492.31	93.69
492.527	82.69
492.745	91.69
492.963	87.69
493.18	97.69
493.398	96.69
493.615	87.69
493.833	111.69
494.05	92.69
494.268	88.69
494.485	89.69
494.703	85.69
494.92	90.69
495.138	89.69
495.355	90.69
495.573	94.69
495.79	91.69
496.008	87.69
496.225	93.69
496.442	96.69
496.66	89.69
496.877	78.69
497.094	94.69
497.312	102.69
497.529	106.69
497.746	90.69
497.963	93.69
498.181	99.69
498.398	93.69
498.615	100.69
498.832	98.69
499.049	102.69
499.267	97.69
499.484	88.69
499.701	96.69
499.918	92.69
500.135	74.69
500.352	78.69
500.569	87.69
500.786	82.69
501.003	78.69
501.22	91.69
501.437	83.69
501.654	84.69
501.871	108.69
502.088	105.69
502.305	106.69
502.522	88.69
502.739	93.69
502.956	84.69
503.172	83.69
503.389	108.69
503.606	102.69
503.823	93.69
504.04	82.69
504.256	80.69
504.473	87.69
504.69	85.69
504.907	95.69
505.123	88.69
505.34	83.69
505.557	79.69
505.773	98.69
505.99	82.69
506.207	86.69
506.423	89.69
506.64	81.69
506.856	94.69
507.073	93.69
507.289	100.69
507.506	101.69
507.722	94.69
507.939	97.69
508.155	91.69
508.372	89.69
508.588	92.69
508.805	98.69
509.021	90.69
509.238	74.69
509.454	94.69
509.67	88.69
509.887	99.69
510.103	98.69
510.319	149.69
510.536	388.69
510.752	1056.69
510.968	326.69
511.184	109.69
511.401	84.69
511.617	97.69
511.833	76.69
512.049	95.69
512.265	92.69
512.481	93.69
512.698	115.69
512.914	98.69
513.13	102.69
513.346	89.69
513.562	101.69
513.778	92.69
513.994	102.69
514.21	110.69
514.426	97.69
514.642	93.69
514.858	105.69
515.074	119.69
515.29	237.69
515.506	644.69
515.721	260.69
515.937	99.69
516.153	89.69
516.369	91.69
516.585	102.69
516.801	99.69
