Data from Uncirc_1981_H10_HRD10591_00024.txt Node
Date: Wed Jan 03 12:33:12 EST 2024
User: Yrep
Spectrometer: HR+D1059
Trigger mode: 1
Integration Time (sec): 1.000000E-1
Scans to average: 1
Electric dark correction enabled: true
Nonlinearity correction enabled: false
Boxcar width: 0
XAxis mode: Wavelengths
Number of Pixels in Spectrum: 2048
>>>>>Begin Spectral Data<<<<<
223.165	-15.38
223.4	-15.38
223.635	-15.38
223.869	-32.38
224.104	-17.38
224.338	-24.38
224.573	-15.38
224.808	-7.38
225.042	2.62
225.277	-8.38
225.511	-7.38
225.746	8.62
225.98	8.62
226.215	7.62
226.449	15.62
226.683	23.62
226.918	34.62
227.152	26.62
227.387	42.62
227.621	40.62
227.856	52.62
228.09	49.62
228.324	55.62
228.559	44.62
228.793	70.62
229.027	66.62
229.262	60.62
229.496	71.62
229.73	83.62
229.964	81.62
230.199	79.62
230.433	71.62
230.667	81.62
230.901	72.62
231.136	84.62
231.37	71.62
231.604	78.62
231.838	82.62
232.072	66.62
232.306	84.62
232.541	82.62
232.775	73.62
233.009	73.62
233.243	78.62
233.477	82.62
233.711	74.62
233.945	85.62
234.179	74.62
234.413	86.62
234.647	78.62
234.881	84.62
235.115	88.62
235.349	73.62
235.583	88.62
235.817	65.62
236.051	83.62
236.285	62.62
236.519	84.62
236.753	78.62
236.987	78.62
237.221	74.62
237.455	70.62
237.689	74.62
237.922	74.62
238.156	69.62
238.39	91.62
238.624	70.62
238.858	71.62
239.091	79.62
239.325	64.62
239.559	69.62
239.793	70.62
240.027	82.62
240.26	86.62
240.494	78.62
240.728	66.62
240.961	63.62
241.195	60.62
241.429	66.62
241.662	65.62
241.896	69.62
242.13	67.62
242.363	71.62
242.597	63.62
242.83	72.62
243.064	61.62
243.298	62.62
243.531	81.62
243.765	71.62
243.998	92.62
244.232	84.62
244.465	80.62
244.699	72.62
244.932	88.62
245.166	74.62
245.399	73.62
245.633	70.62
245.866	73.62
246.099	74.62
246.333	78.62
246.566	78.62
246.8	70.62
247.033	78.62
247.266	74.62
247.5	82.62
247.733	81.62
247.966	80.62
248.2	74.62
248.433	79.62
248.666	70.62
248.899	76.62
249.133	67.62
249.366	91.62
249.599	87.62
249.832	79.62
250.066	97.62
250.299	71.62
250.532	85.62
250.765	71.62
250.998	86.62
251.231	72.62
251.465	84.62
251.698	78.62
251.931	74.62
252.164	80.62
252.397	80.62
252.63	67.62
252.863	82.62
253.096	85.62
253.329	81.62
253.562	81.62
253.795	71.62
254.028	75.62
254.261	79.62
254.494	65.62
254.727	79.62
254.96	75.62
255.193	73.62
255.426	91.62
255.659	67.62
255.892	73.62
256.124	88.62
256.357	86.62
256.59	77.62
256.823	78.62
257.056	79.62
257.289	73.62
257.521	86.62
257.754	78.62
257.987	91.62
258.22	82.62
258.452	62.62
258.685	55.62
258.918	72.62
259.151	75.62
259.383	68.62
259.616	79.62
259.849	80.62
260.081	74.62
260.314	77.62
260.547	74.62
260.779	71.62
261.012	92.62
261.244	79.62
261.477	92.62
261.71	85.62
261.942	89.62
262.175	94.62
262.407	84.62
262.64	74.62
262.872	70.62
263.105	73.62
263.337	84.62
263.57	82.62
263.802	76.62
264.035	88.62
264.267	80.62
264.499	85.62
264.732	73.62
264.964	89.62
265.197	82.62
265.429	90.62
265.661	67.62
265.894	84.62
266.126	94.62
266.358	76.62
266.591	83.62
266.823	86.62
267.055	77.62
267.287	74.62
267.52	76.62
267.752	75.62
267.984	84.62
268.216	88.62
268.448	80.62
268.681	84.62
268.913	79.62
269.145	90.62
269.377	93.62
269.609	78.62
269.841	90.62
270.073	75.62
270.306	86.62
270.538	78.62
270.77	75.62
271.002	70.62
271.234	80.62
271.466	88.62
271.698	60.62
271.93	78.62
272.162	83.62
272.394	84.62
272.626	88.62
272.858	76.62
273.09	86.62
273.322	81.62
273.553	89.62
273.785	99.62
274.017	84.62
274.249	75.62
274.481	80.62
274.713	87.62
274.945	81.62
275.176	86.62
275.408	74.62
275.64	65.62
275.872	80.62
276.104	83.62
276.335	78.62
276.567	81.62
276.799	76.62
277.031	76.62
277.262	79.62
277.494	86.62
277.726	88.62
277.957	90.62
278.189	97.62
278.421	84.62
278.652	78.62
278.884	83.62
279.115	69.62
279.347	96.62
279.579	85.62
279.81	83.62
280.042	84.62
280.273	92.62
280.505	80.62
280.736	82.62
280.968	84.62
281.199	79.62
281.431	68.62
281.662	83.62
281.894	74.62
282.125	78.62
282.356	100.62
282.588	119.62
282.819	102.62
283.051	87.62
283.282	78.62
283.513	97.62
283.745	90.62
283.976	80.62
284.207	93.62
284.439	80.62
284.67	87.62
284.901	83.62
285.132	70.62
285.364	64.62
285.595	71.62
285.826	73.62
286.057	83.62
286.288	83.62
286.52	79.62
286.751	78.62
286.982	95.62
287.213	76.62
287.444	96.62
287.675	69.62
287.906	84.62
288.138	84.62
288.369	76.62
288.6	74.62
288.831	88.62
289.062	84.62
289.293	83.62
289.524	70.62
289.755	95.62
289.986	90.62
290.217	77.62
290.448	96.62
290.679	88.62
290.91	94.62
291.141	87.62
291.371	99.62
291.602	90.62
291.833	83.62
292.064	90.62
292.295	81.62
292.526	76.62
292.757	91.62
292.987	96.62
293.218	88.62
293.449	83.62
293.68	95.62
293.91	88.62
294.141	91.62
294.372	87.62
294.603	83.62
294.833	93.62
295.064	104.62
295.295	80.62
295.525	75.62
295.756	96.62
295.987	105.62
296.217	94.62
296.448	86.62
296.679	76.62
296.909	94.62
297.14	96.62
297.37	82.62
297.601	81.62
297.831	74.62
298.062	76.62
298.292	85.62
298.523	90.62
298.753	84.62
298.984	83.62
299.214	86.62
299.445	71.62
299.675	83.62
299.905	84.62
300.136	90.62
300.366	80.62
300.597	87.62
300.827	90.62
301.057	78.62
301.288	92.62
301.518	74.62
301.748	104.62
301.979	86.62
302.209	90.62
302.439	89.62
302.669	89.62
302.9	95.62
303.13	81.62
303.36	97.62
303.59	81.62
303.82	94.62
304.051	86.62
304.281	94.62
304.511	100.62
304.741	79.62
304.971	78.62
305.201	88.62
305.431	80.62
305.661	83.62
305.891	90.62
306.121	96.62
306.352	101.62
306.582	100.62
306.812	77.62
307.042	88.62
307.272	105.62
307.502	94.62
307.731	86.62
307.961	88.62
308.191	72.62
308.421	88.62
308.651	75.62
308.881	82.62
309.111	95.62
309.341	98.62
309.571	99.62
309.8	91.62
310.03	83.62
310.26	81.62
310.49	94.62
310.72	89.62
310.949	94.62
311.179	84.62
311.409	88.62
311.639	85.62
311.868	67.62
312.098	86.62
312.328	101.62
312.557	96.62
312.787	100.62
313.017	83.62
313.246	82.62
313.476	90.62
313.706	86.62
313.935	76.62
314.165	84.62
314.394	82.62
314.624	87.62
314.853	94.62
315.083	83.62
315.312	86.62
315.542	93.62
315.771	85.62
316.001	70.62
316.23	78.62
316.46	89.62
316.689	87.62
316.919	102.62
317.148	83.62
317.377	91.62
317.607	101.62
317.836	82.62
318.065	88.62
318.295	87.62
318.524	84.62
318.753	90.62
318.983	78.62
319.212	92.62
319.441	86.62
319.67	96.62
319.9	97.62
320.129	85.62
320.358	90.62
320.587	84.62
320.816	94.62
321.046	85.62
321.275	104.62
321.504	91.62
321.733	93.62
321.962	100.62
322.191	89.62
322.42	91.62
322.649	100.62
322.878	107.62
323.108	90.62
323.337	123.62
323.566	114.62
323.795	127.62
324.024	158.62
324.253	290.62
324.482	598.62
324.71	1184.62
324.939	1558.62
325.168	593.62
325.397	185.62
325.626	131.62
325.855	115.62
326.084	118.62
326.313	107.62
326.542	130.62
326.77	185.62
326.999	337.62
327.228	730.62
327.457	1284.62
327.686	1006.62
327.914	272.62
328.143	141.62
328.372	124.62
328.6	96.62
328.829	97.62
329.058	114.62
329.287	103.62
329.515	111.62
329.744	91.62
329.972	96.62
330.201	96.62
330.43	107.62
330.658	111.62
330.887	96.62
331.115	105.62
331.344	81.62
331.572	83.62
331.801	95.62
332.03	104.62
332.258	94.62
332.486	91.62
332.715	80.62
332.943	92.62
333.172	82.62
333.4	83.62
333.629	99.62
333.857	97.62
334.085	95.62
334.314	99.62
334.542	108.62
334.771	111.62
334.999	94.62
335.227	93.62
335.455	90.62
335.684	94.62
335.912	99.62
336.14	96.62
336.369	108.62
336.597	97.62
336.825	90.62
337.053	80.62
337.281	87.62
337.51	98.62
337.738	90.62
337.966	79.62
338.194	78.62
338.422	94.62
338.65	80.62
338.878	80.62
339.106	81.62
339.334	86.62
339.562	83.62
339.79	87.62
340.018	82.62
340.246	108.62
340.474	87.62
340.702	87.62
340.93	88.62
341.158	101.62
341.386	88.62
341.614	79.62
341.842	96.62
342.07	95.62
342.298	86.62
342.526	73.62
342.754	97.62
342.981	103.62
343.209	96.62
343.437	96.62
343.665	88.62
343.893	75.62
344.12	86.62
344.348	78.62
344.576	90.62
344.804	76.62
345.031	84.62
345.259	99.62
345.487	98.62
345.714	101.62
345.942	87.62
346.17	85.62
346.397	98.62
346.625	96.62
346.853	75.62
347.08	84.62
347.308	92.62
347.535	82.62
347.763	94.62
347.99	98.62
348.218	74.62
348.445	70.62
348.673	102.62
348.9	105.62
349.128	82.62
349.355	83.62
349.583	83.62
349.81	95.62
350.037	94.62
350.265	107.62
350.492	75.62
350.72	87.62
350.947	106.62
351.174	96.62
351.402	102.62
351.629	94.62
351.856	102.62
352.083	86.62
352.311	105.62
352.538	100.62
352.765	101.62
352.992	112.62
353.22	100.62
353.447	90.62
353.674	103.62
353.901	84.62
354.128	106.62
354.355	98.62
354.583	101.62
354.81	103.62
355.037	96.62
355.264	90.62
355.491	99.62
355.718	112.62
355.945	100.62
356.172	104.62
356.399	103.62
356.626	92.62
356.853	82.62
357.08	75.62
357.307	94.62
357.534	97.62
357.761	87.62
357.988	88.62
358.215	91.62
358.441	80.62
358.668	107.62
358.895	85.62
359.122	98.62
359.349	80.62
359.576	85.62
359.802	82.62
360.029	102.62
360.256	82.62
360.483	95.62
360.709	87.62
360.936	92.62
361.163	92.62
361.39	90.62
361.616	86.62
361.843	82.62
362.07	88.62
362.296	94.62
362.523	75.62
362.749	89.62
362.976	89.62
363.203	83.62
363.429	96.62
363.656	91.62
363.882	94.62
364.109	88.62
364.335	73.62
364.562	91.62
364.788	80.62
365.015	87.62
365.241	89.62
365.468	84.62
365.694	92.62
365.92	94.62
366.147	80.62
366.373	71.62
366.599	75.62
366.826	92.62
367.052	86.62
367.278	89.62
367.505	83.62
367.731	98.62
367.957	96.62
368.184	95.62
368.41	80.62
368.636	96.62
368.862	99.62
369.089	96.62
369.315	85.62
369.541	94.62
369.767	88.62
369.993	82.62
370.219	90.62
370.445	81.62
370.672	86.62
370.898	81.62
371.124	85.62
371.35	86.62
371.576	91.62
371.802	97.62
372.028	85.62
372.254	90.62
372.48	89.62
372.706	86.62
372.932	96.62
373.158	99.62
373.384	82.62
373.61	83.62
373.835	96.62
374.061	75.62
374.287	82.62
374.513	89.62
374.739	81.62
374.965	96.62
375.191	85.62
375.416	99.62
375.642	100.62
375.868	85.62
376.094	85.62
376.319	108.62
376.545	99.62
376.771	92.62
376.997	91.62
377.222	102.62
377.448	88.62
377.674	102.62
377.899	95.62
378.125	86.62
378.35	86.62
378.576	84.62
378.802	94.62
379.027	80.62
379.253	89.62
379.478	88.62
379.704	102.62
379.929	98.62
380.155	90.62
380.38	100.62
380.606	87.62
380.831	99.62
381.057	105.62
381.282	108.62
381.507	105.62
381.733	104.62
381.958	98.62
382.184	79.62
382.409	93.62
382.634	113.62
382.86	104.62
383.085	121.62
383.31	92.62
383.535	103.62
383.761	118.62
383.986	111.62
384.211	101.62
384.436	99.62
384.662	98.62
384.887	114.62
385.112	122.62
385.337	114.62
385.562	116.62
385.787	115.62
386.013	104.62
386.238	105.62
386.463	108.62
386.688	122.62
386.913	108.62
387.138	116.62
387.363	117.62
387.588	97.62
387.813	105.62
388.038	98.62
388.263	133.62
388.488	108.62
388.713	100.62
388.938	94.62
389.163	94.62
389.387	98.62
389.612	111.62
389.837	82.62
390.062	85.62
390.287	83.62
390.512	88.62
390.736	98.62
390.961	103.62
391.186	96.62
391.411	86.62
391.636	93.62
391.86	72.62
392.085	83.62
392.31	79.62
392.534	96.62
392.759	85.62
392.984	82.62
393.208	88.62
393.433	78.62
393.658	93.62
393.882	90.62
394.107	76.62
394.331	73.62
394.556	80.62
394.78	98.62
395.005	95.62
395.229	82.62
395.454	80.62
395.678	75.62
395.903	78.62
396.127	86.62
396.352	81.62
396.576	80.62
396.801	83.62
397.025	86.62
397.249	80.62
397.474	88.62
397.698	75.62
397.922	94.62
398.147	89.62
398.371	82.62
398.595	91.62
398.82	95.62
399.044	79.62
399.268	82.62
399.492	88.62
399.717	87.62
399.941	95.62
400.165	82.62
400.389	90.62
400.613	75.62
400.837	74.62
401.062	76.62
401.286	78.62
401.51	79.62
401.734	97.62
401.958	88.62
402.182	98.62
402.406	128.62
402.63	104.62
402.854	92.62
403.078	90.62
403.302	88.62
403.526	102.62
403.75	85.62
403.974	82.62
404.198	99.62
404.422	91.62
404.645	71.62
404.869	84.62
405.093	88.62
405.317	88.62
405.541	97.62
405.765	80.62
405.988	105.62
406.212	148.62
406.436	141.62
406.66	127.62
406.883	99.62
407.107	97.62
407.331	83.62
407.555	97.62
407.778	80.62
408.002	81.62
408.226	100.62
408.449	86.62
408.673	99.62
408.896	80.62
409.12	95.62
409.344	96.62
409.567	72.62
409.791	97.62
410.014	96.62
410.238	92.62
410.461	99.62
410.685	106.62
410.908	94.62
411.132	97.62
411.355	97.62
411.578	87.62
411.802	93.62
412.025	94.62
412.249	79.62
412.472	88.62
412.695	96.62
412.919	96.62
413.142	97.62
413.365	83.62
413.589	104.62
413.812	80.62
414.035	90.62
414.258	86.62
414.482	88.62
414.705	88.62
414.928	85.62
415.151	100.62
415.374	91.62
415.597	106.62
415.821	85.62
416.044	78.62
416.267	87.62
416.49	91.62
416.713	89.62
416.936	102.62
417.159	83.62
417.382	82.62
417.605	80.62
417.828	89.62
418.051	85.62
418.274	87.62
418.497	98.62
418.72	76.62
418.943	83.62
419.166	91.62
419.389	82.62
419.611	86.62
419.834	92.62
420.057	80.62
420.28	73.62
420.503	82.62
420.726	92.62
420.948	88.62
421.171	84.62
421.394	83.62
421.617	83.62
421.839	104.62
422.062	76.62
422.285	87.62
422.507	99.62
422.73	81.62
422.953	95.62
423.175	88.62
423.398	86.62
423.621	95.62
423.843	82.62
424.066	83.62
424.288	85.62
424.511	92.62
424.733	80.62
424.956	87.62
425.178	91.62
425.401	89.62
425.623	94.62
425.846	92.62
426.068	80.62
426.291	102.62
426.513	87.62
426.735	80.62
426.958	84.62
427.18	94.62
427.402	110.62
427.625	108.62
427.847	112.62
428.069	117.62
428.292	79.62
428.514	91.62
428.736	80.62
428.958	91.62
429.181	104.62
429.403	93.62
429.625	96.62
429.847	79.62
430.069	83.62
430.292	85.62
430.514	86.62
430.736	92.62
430.958	84.62
431.18	82.62
431.402	76.62
431.624	78.62
431.846	80.62
432.068	90.62
432.29	93.62
432.512	88.62
432.734	91.62
432.956	94.62
433.178	106.62
433.4	89.62
433.622	78.62
433.844	78.62
434.066	92.62
434.287	89.62
434.509	78.62
434.731	86.62
434.953	72.62
435.175	84.62
435.397	86.62
435.618	96.62
435.84	109.62
436.062	105.62
436.284	97.62
436.505	80.62
436.727	91.62
436.949	99.62
437.17	93.62
437.392	76.62
437.614	86.62
437.835	87.62
438.057	89.62
438.278	100.62
438.5	93.62
438.721	108.62
438.943	95.62
439.165	81.62
439.386	84.62
439.608	77.62
439.829	91.62
440.05	104.62
440.272	103.62
440.493	83.62
440.715	85.62
440.936	82.62
441.158	82.62
441.379	84.62
441.6	78.62
441.822	84.62
442.043	94.62
442.264	92.62
442.486	83.62
442.707	94.62
442.928	87.62
443.149	101.62
443.371	107.62
443.592	89.62
443.813	85.62
444.034	88.62
444.255	92.62
444.476	86.62
444.698	80.62
444.919	79.62
445.14	132.62
445.361	120.62
445.582	100.62
445.803	109.62
446.024	107.62
446.245	116.62
446.466	100.62
446.687	89.62
446.908	81.62
447.129	90.62
447.35	84.62
447.571	86.62
447.792	79.62
448.013	84.62
448.234	96.62
448.455	100.62
448.675	103.62
448.896	111.62
449.117	96.62
449.338	97.62
449.559	108.62
449.779	104.62
450	103.62
450.221	99.62
450.442	90.62
450.662	95.62
450.883	103.62
451.104	100.62
451.324	95.62
451.545	91.62
451.766	85.62
451.986	86.62
452.207	82.62
452.428	78.62
452.648	93.62
452.869	98.62
453.089	89.62
453.31	98.62
453.53	87.62
453.751	87.62
453.971	90.62
454.192	97.62
454.412	73.62
454.633	85.62
454.853	78.62
455.073	75.62
455.294	93.62
455.514	85.62
455.734	91.62
455.955	84.62
456.175	82.62
456.395	80.62
456.616	76.62
456.836	92.62
457.056	82.62
457.276	91.62
457.497	81.62
457.717	75.62
457.937	85.62
458.157	86.62
458.377	74.62
458.598	98.62
458.818	108.62
459.038	107.62
459.258	90.62
459.478	76.62
459.698	84.62
459.918	75.62
460.138	90.62
460.358	75.62
460.578	70.62
460.798	91.62
461.018	88.62
461.238	93.62
461.458	92.62
461.678	79.62
461.898	71.62
462.118	90.62
462.338	73.62
462.558	63.62
462.777	96.62
462.997	83.62
463.217	91.62
463.437	87.62
463.657	87.62
463.876	91.62
464.096	87.62
464.316	73.62
464.536	90.62
464.755	93.62
464.975	105.62
465.195	110.62
465.414	128.62
465.634	82.62
465.854	79.62
466.073	71.62
466.293	87.62
466.512	91.62
466.732	83.62
466.951	88.62
467.171	83.62
467.391	91.62
467.61	87.62
467.829	102.62
468.049	82.62
468.268	102.62
468.488	96.62
468.707	79.62
468.927	87.62
469.146	72.62
469.365	79.62
469.585	82.62
469.804	90.62
470.023	92.62
470.243	90.62
470.462	99.62
470.681	100.62
470.901	84.62
471.12	94.62
471.339	99.62
471.558	70.62
471.777	97.62
471.997	86.62
472.216	84.62
472.435	106.62
472.654	78.62
472.873	75.62
473.092	86.62
473.311	72.62
473.53	78.62
473.749	92.62
473.968	92.62
474.187	92.62
474.406	86.62
474.625	79.62
474.844	86.62
475.063	78.62
475.282	95.62
475.501	89.62
475.72	92.62
475.939	92.62
476.158	106.62
476.377	75.62
476.596	82.62
476.814	78.62
477.033	75.62
477.252	80.62
477.471	76.62
477.69	65.62
477.908	86.62
478.127	98.62
478.346	94.62
478.564	90.62
478.783	87.62
479.002	71.62
479.22	96.62
479.439	87.62
479.658	100.62
479.876	98.62
480.095	82.62
480.313	62.62
480.532	87.62
480.751	94.62
480.969	110.62
481.188	155.62
481.406	132.62
481.624	82.62
481.843	89.62
482.061	90.62
482.28	88.62
482.498	93.62
482.717	96.62
482.935	90.62
483.153	88.62
483.372	82.62
483.59	90.62
483.808	78.62
484.027	84.62
484.245	85.62
484.463	83.62
484.681	98.62
484.9	83.62
485.118	105.62
485.336	75.62
485.554	105.62
485.772	92.62
485.99	92.62
486.209	115.62
486.427	103.62
486.645	107.62
486.863	89.62
487.081	87.62
487.299	84.62
487.517	94.62
487.735	87.62
487.953	95.62
488.171	86.62
488.389	104.62
488.607	82.62
488.825	88.62
489.043	83.62
489.261	79.62
489.479	88.62
489.696	85.62
489.914	82.62
490.132	96.62
490.35	74.62
490.568	76.62
490.786	84.62
491.003	90.62
491.221	83.62
491.439	80.62
491.657	95.62
491.874	91.62
492.092	76.62
492.31	80.62
492.527	90.62
492.745	90.62
492.963	79.62
493.18	88.62
493.398	89.62
493.615	84.62
493.833	97.62
494.05	113.62
494.268	87.62
494.485	90.62
494.703	82.62
494.92	87.62
495.138	90.62
495.355	89.62
495.573	89.62
495.79	87.62
496.008	85.62
496.225	91.62
496.442	104.62
496.66	100.62
496.877	88.62
497.094	98.62
497.312	93.62
497.529	77.62
497.746	91.62
497.963	88.62
498.181	85.62
498.398	93.62
498.615	97.62
498.832	95.62
499.049	87.62
499.267	81.62
499.484	80.62
499.701	80.62
499.918	81.62
500.135	98.62
500.352	91.62
500.569	92.62
500.786	89.62
501.003	93.62
501.22	90.62
501.437	88.62
501.654	90.62
501.871	84.62
502.088	92.62
502.305	97.62
502.522	91.62
502.739	86.62
502.956	85.62
503.172	89.62
503.389	83.62
503.606	81.62
503.823	102.62
504.04	82.62
504.256	92.62
504.473	90.62
504.69	88.62
504.907	90.62
505.123	97.62
505.34	88.62
505.557	75.62
505.773	78.62
505.99	100.62
506.207	91.62
506.423	88.62
506.64	107.62
506.856	80.62
507.073	95.62
507.289	81.62
507.506	103.62
507.722	112.62
507.939	103.62
508.155	95.62
508.372	91.62
508.588	90.62
508.805	89.62
509.021	94.62
509.238	95.62
509.454	83.62
509.67	99.62
509.887	112.62
510.103	98.62
510.319	169.62
510.536	459.62
510.752	1252.62
510.968	377.62
511.184	122.62
511.401	100.62
511.617	98.62
511.833	94.62
512.049	102.62
512.265	93.62
512.481	101.62
512.698	99.62
512.914	92.62
513.13	88.62
513.346	98.62
513.562	105.62
513.778	91.62
513.994	94.62
514.21	104.62
514.426	104.62
514.642	106.62
514.858	114.62
515.074	127.62
515.29	270.62
515.506	740.62
515.721	300.62
515.937	114.62
516.153	102.62
516.369	80.62
516.585	88.62
516.801	92.62
517.016	93.62
517.232	101.62
