Data from Uncirc_1981_H10_HRD10591_00030.txt Node
Date: Wed Jan 03 12:33:14 EST 2024
User: Yrep
Spectrometer: HR+D1059
Trigger mode: 1
Integration Time (sec): 1.000000E-1
Scans to average: 1
Electric dark correction enabled: true
Nonlinearity correction enabled: false
Boxcar width: 0
XAxis mode: Wavelengths
Number of Pixels in Spectrum: 2048
>>>>>Begin Spectral Data<<<<<
223.165	-10.88
223.4	-10.88
223.635	-10.88
223.869	-10.88
224.104	-23.88
224.338	-18.88
224.573	-21.88
224.808	-10.88
225.042	-16.88
225.277	-13.88
225.511	-5.88
225.746	11.12
225.98	-1.88
226.215	17.12
226.449	25.12
226.683	19.12
226.918	29.12
227.152	34.12
227.387	35.12
227.621	36.12
227.856	39.12
228.09	45.12
228.324	41.12
228.559	59.12
228.793	73.12
229.027	55.12
229.262	57.12
229.496	74.12
229.73	76.12
229.964	85.12
230.199	74.12
230.433	60.12
230.667	80.12
230.901	86.12
231.136	80.12
231.37	90.12
231.604	79.12
231.838	82.12
232.072	70.12
232.306	98.12
232.541	82.12
232.775	72.12
233.009	88.12
233.243	63.12
233.477	83.12
233.711	68.12
233.945	88.12
234.179	79.12
234.413	68.12
234.647	72.12
234.881	82.12
235.115	87.12
235.349	81.12
235.583	86.12
235.817	78.12
236.051	73.12
236.285	67.12
236.519	76.12
236.753	79.12
236.987	82.12
237.221	76.12
237.455	72.12
237.689	85.12
237.922	83.12
238.156	69.12
238.39	89.12
238.624	71.12
238.858	76.12
239.091	72.12
239.325	80.12
239.559	72.12
239.793	76.12
240.027	88.12
240.26	75.12
240.494	87.12
240.728	83.12
240.961	74.12
241.195	79.12
241.429	72.12
241.662	83.12
241.896	73.12
242.13	79.12
242.363	65.12
242.597	70.12
242.83	65.12
243.064	79.12
243.298	71.12
243.531	76.12
243.765	85.12
243.998	79.12
244.232	73.12
244.465	90.12
244.699	83.12
244.932	67.12
245.166	79.12
245.399	80.12
245.633	93.12
245.866	70.12
246.099	75.12
246.333	75.12
246.566	89.12
246.8	69.12
247.033	79.12
247.266	78.12
247.5	74.12
247.733	77.12
247.966	88.12
248.2	85.12
248.433	76.12
248.666	67.12
248.899	65.12
249.133	75.12
249.366	80.12
249.599	89.12
249.832	82.12
250.066	77.12
250.299	76.12
250.532	81.12
250.765	91.12
250.998	82.12
251.231	80.12
251.465	86.12
251.698	72.12
251.931	65.12
252.164	75.12
252.397	76.12
252.63	85.12
252.863	65.12
253.096	75.12
253.329	85.12
253.562	98.12
253.795	87.12
254.028	74.12
254.261	81.12
254.494	82.12
254.727	77.12
254.96	67.12
255.193	87.12
255.426	72.12
255.659	77.12
255.892	88.12
256.124	76.12
256.357	75.12
256.59	91.12
256.823	72.12
257.056	85.12
257.289	81.12
257.521	82.12
257.754	94.12
257.987	79.12
258.22	91.12
258.452	84.12
258.685	69.12
258.918	91.12
259.151	63.12
259.383	76.12
259.616	83.12
259.849	79.12
260.081	77.12
260.314	61.12
260.547	93.12
260.779	91.12
261.012	82.12
261.244	75.12
261.477	90.12
261.71	91.12
261.942	103.12
262.175	90.12
262.407	81.12
262.64	85.12
262.872	82.12
263.105	91.12
263.337	91.12
263.57	88.12
263.802	82.12
264.035	91.12
264.267	73.12
264.499	80.12
264.732	73.12
264.964	85.12
265.197	84.12
265.429	80.12
265.661	103.12
265.894	82.12
266.126	83.12
266.358	78.12
266.591	77.12
266.823	79.12
267.055	69.12
267.287	81.12
267.52	79.12
267.752	76.12
267.984	77.12
268.216	88.12
268.448	83.12
268.681	89.12
268.913	81.12
269.145	87.12
269.377	92.12
269.609	84.12
269.841	80.12
270.073	100.12
270.306	93.12
270.538	79.12
270.77	88.12
271.002	82.12
271.234	72.12
271.466	71.12
271.698	93.12
271.93	87.12
272.162	85.12
272.394	84.12
272.626	101.12
272.858	80.12
273.09	90.12
273.322	97.12
273.553	91.12
273.785	94.12
274.017	107.12
274.249	76.12
274.481	72.12
274.713	83.12
274.945	91.12
275.176	87.12
275.408	91.12
275.64	87.12
275.872	83.12
276.104	91.12
276.335	91.12
276.567	81.12
276.799	80.12
277.031	90.12
277.262	85.12
277.494	87.12
277.726	87.12
277.957	82.12
278.189	74.12
278.421	82.12
278.652	74.12
278.884	76.12
279.115	88.12
279.347	85.12
279.579	72.12
279.81	90.12
280.042	87.12
280.273	72.12
280.505	98.12
280.736	92.12
280.968	87.12
281.199	75.12
281.431	77.12
281.662	84.12
281.894	78.12
282.125	79.12
282.356	87.12
282.588	111.12
282.819	96.12
283.051	84.12
283.282	88.12
283.513	88.12
283.745	90.12
283.976	99.12
284.207	81.12
284.439	86.12
284.67	76.12
284.901	84.12
285.132	89.12
285.364	87.12
285.595	99.12
285.826	83.12
286.057	91.12
286.288	88.12
286.52	87.12
286.751	92.12
286.982	95.12
287.213	87.12
287.444	92.12
287.675	90.12
287.906	76.12
288.138	89.12
288.369	97.12
288.6	92.12
288.831	92.12
289.062	87.12
289.293	86.12
289.524	81.12
289.755	92.12
289.986	84.12
290.217	82.12
290.448	92.12
290.679	73.12
290.91	88.12
291.141	77.12
291.371	95.12
291.602	74.12
291.833	76.12
292.064	86.12
292.295	76.12
292.526	75.12
292.757	80.12
292.987	82.12
293.218	77.12
293.449	94.12
293.68	83.12
293.91	90.12
294.141	86.12
294.372	86.12
294.603	92.12
294.833	95.12
295.064	96.12
295.295	91.12
295.525	94.12
295.756	98.12
295.987	98.12
296.217	114.12
296.448	116.12
296.679	102.12
296.909	92.12
297.14	88.12
297.37	86.12
297.601	76.12
297.831	97.12
298.062	96.12
298.292	87.12
298.523	94.12
298.753	87.12
298.984	105.12
299.214	79.12
299.445	91.12
299.675	86.12
299.905	84.12
300.136	85.12
300.366	84.12
300.597	102.12
300.827	92.12
301.057	104.12
301.288	81.12
301.518	93.12
301.748	87.12
301.979	99.12
302.209	89.12
302.439	80.12
302.669	82.12
302.9	83.12
303.13	93.12
303.36	92.12
303.59	108.12
303.82	95.12
304.051	80.12
304.281	105.12
304.511	87.12
304.741	85.12
304.971	96.12
305.201	85.12
305.431	85.12
305.661	85.12
305.891	91.12
306.121	88.12
306.352	95.12
306.582	88.12
306.812	95.12
307.042	99.12
307.272	88.12
307.502	89.12
307.731	89.12
307.961	90.12
308.191	72.12
308.421	97.12
308.651	83.12
308.881	92.12
309.111	92.12
309.341	94.12
309.571	89.12
309.8	104.12
310.03	92.12
310.26	91.12
310.49	88.12
310.72	102.12
310.949	101.12
311.179	95.12
311.409	92.12
311.639	92.12
311.868	102.12
312.098	80.12
312.328	73.12
312.557	100.12
312.787	103.12
313.017	81.12
313.246	93.12
313.476	89.12
313.706	85.12
313.935	97.12
314.165	99.12
314.394	86.12
314.624	101.12
314.853	85.12
315.083	89.12
315.312	100.12
315.542	86.12
315.771	85.12
316.001	87.12
316.23	92.12
316.46	84.12
316.689	86.12
316.919	91.12
317.148	81.12
317.377	105.12
317.607	102.12
317.836	97.12
318.065	94.12
318.295	82.12
318.524	84.12
318.753	92.12
318.983	98.12
319.212	103.12
319.441	91.12
319.67	107.12
319.9	98.12
320.129	84.12
320.358	91.12
320.587	77.12
320.816	97.12
321.046	98.12
321.275	83.12
321.504	98.12
321.733	98.12
321.962	91.12
322.191	88.12
322.42	107.12
322.649	99.12
322.878	106.12
323.108	109.12
323.337	121.12
323.566	111.12
323.795	119.12
324.024	175.12
324.253	300.12
324.482	636.12
324.71	1317.12
324.939	1739.12
325.168	615.12
325.397	196.12
325.626	119.12
325.855	127.12
326.084	120.12
326.313	128.12
326.542	131.12
326.77	196.12
326.999	376.12
327.228	770.12
327.457	1369.12
327.686	1084.12
327.914	297.12
328.143	164.12
328.372	134.12
328.6	109.12
328.829	101.12
329.058	115.12
329.287	103.12
329.515	92.12
329.744	93.12
329.972	96.12
330.201	108.12
330.43	111.12
330.658	114.12
330.887	121.12
331.115	112.12
331.344	89.12
331.572	105.12
331.801	79.12
332.03	89.12
332.258	84.12
332.486	97.12
332.715	83.12
332.943	107.12
333.172	104.12
333.4	89.12
333.629	107.12
333.857	103.12
334.085	107.12
334.314	106.12
334.542	101.12
334.771	109.12
334.999	91.12
335.227	97.12
335.455	97.12
335.684	96.12
335.912	95.12
336.14	97.12
336.369	98.12
336.597	92.12
336.825	108.12
337.053	98.12
337.281	87.12
337.51	75.12
337.738	85.12
337.966	91.12
338.194	80.12
338.422	99.12
338.65	77.12
338.878	88.12
339.106	91.12
339.334	91.12
339.562	83.12
339.79	92.12
340.018	100.12
340.246	92.12
340.474	97.12
340.702	91.12
340.93	93.12
341.158	93.12
341.386	89.12
341.614	91.12
341.842	94.12
342.07	90.12
342.298	81.12
342.526	81.12
342.754	94.12
342.981	98.12
343.209	84.12
343.437	102.12
343.665	84.12
343.893	87.12
344.12	90.12
344.348	86.12
344.576	87.12
344.804	92.12
345.031	94.12
345.259	99.12
345.487	96.12
345.714	108.12
345.942	97.12
346.17	96.12
346.397	88.12
346.625	91.12
346.853	88.12
347.08	83.12
347.308	83.12
347.535	90.12
347.763	100.12
347.99	100.12
348.218	96.12
348.445	100.12
348.673	90.12
348.9	90.12
349.128	87.12
349.355	89.12
349.583	97.12
349.81	106.12
350.037	82.12
350.265	104.12
350.492	97.12
350.72	108.12
350.947	87.12
351.174	106.12
351.402	99.12
351.629	97.12
351.856	110.12
352.083	111.12
352.311	99.12
352.538	100.12
352.765	110.12
352.992	120.12
353.22	104.12
353.447	102.12
353.674	104.12
353.901	107.12
354.128	100.12
354.355	76.12
354.583	89.12
354.81	86.12
355.037	100.12
355.264	85.12
355.491	105.12
355.718	87.12
355.945	105.12
356.172	106.12
356.399	87.12
356.626	93.12
356.853	88.12
357.08	93.12
357.307	92.12
357.534	108.12
357.761	109.12
357.988	99.12
358.215	102.12
358.441	94.12
358.668	92.12
358.895	90.12
359.122	96.12
359.349	86.12
359.576	93.12
359.802	98.12
360.029	92.12
360.256	86.12
360.483	87.12
360.709	90.12
360.936	98.12
361.163	88.12
361.39	86.12
361.616	91.12
361.843	71.12
362.07	88.12
362.296	85.12
362.523	82.12
362.749	93.12
362.976	100.12
363.203	91.12
363.429	81.12
363.656	95.12
363.882	79.12
364.109	76.12
364.335	85.12
364.562	99.12
364.788	85.12
365.015	79.12
365.241	88.12
365.468	103.12
365.694	104.12
365.92	95.12
366.147	101.12
366.373	75.12
366.599	75.12
366.826	84.12
367.052	83.12
367.278	82.12
367.505	97.12
367.731	77.12
367.957	90.12
368.184	101.12
368.41	76.12
368.636	94.12
368.862	107.12
369.089	91.12
369.315	90.12
369.541	98.12
369.767	76.12
369.993	98.12
370.219	91.12
370.445	87.12
370.672	103.12
370.898	86.12
371.124	81.12
371.35	89.12
371.576	100.12
371.802	76.12
372.028	101.12
372.254	76.12
372.48	76.12
372.706	92.12
372.932	83.12
373.158	98.12
373.384	88.12
373.61	99.12
373.835	85.12
374.061	92.12
374.287	91.12
374.513	93.12
374.739	77.12
374.965	81.12
375.191	84.12
375.416	92.12
375.642	105.12
375.868	96.12
376.094	93.12
376.319	70.12
376.545	90.12
376.771	95.12
376.997	83.12
377.222	90.12
377.448	85.12
377.674	81.12
377.899	89.12
378.125	92.12
378.35	83.12
378.576	90.12
378.802	92.12
379.027	79.12
379.253	92.12
379.478	99.12
379.704	93.12
379.929	99.12
380.155	99.12
380.38	89.12
380.606	95.12
380.831	95.12
381.057	93.12
381.282	96.12
381.507	104.12
381.733	103.12
381.958	85.12
382.184	84.12
382.409	100.12
382.634	101.12
382.86	107.12
383.085	98.12
383.31	96.12
383.535	88.12
383.761	116.12
383.986	83.12
384.211	96.12
384.436	113.12
384.662	100.12
384.887	100.12
385.112	102.12
385.337	111.12
385.562	113.12
385.787	109.12
386.013	112.12
386.238	106.12
386.463	105.12
386.688	111.12
386.913	111.12
387.138	117.12
387.363	102.12
387.588	109.12
387.813	105.12
388.038	105.12
388.263	114.12
388.488	107.12
388.713	100.12
388.938	97.12
389.163	100.12
389.387	95.12
389.612	86.12
389.837	102.12
390.062	93.12
390.287	84.12
390.512	89.12
390.736	91.12
390.961	82.12
391.186	98.12
391.411	90.12
391.636	88.12
391.86	72.12
392.085	89.12
392.31	73.12
392.534	88.12
392.759	81.12
392.984	101.12
393.208	102.12
393.433	97.12
393.658	105.12
393.882	79.12
394.107	79.12
394.331	69.12
394.556	84.12
394.78	73.12
395.005	100.12
395.229	95.12
395.454	81.12
395.678	77.12
395.903	84.12
396.127	95.12
396.352	89.12
396.576	90.12
396.801	89.12
397.025	93.12
397.249	79.12
397.474	90.12
397.698	84.12
397.922	92.12
398.147	85.12
398.371	86.12
398.595	89.12
398.82	88.12
399.044	83.12
399.268	85.12
399.492	87.12
399.717	92.12
399.941	87.12
400.165	84.12
400.389	86.12
400.613	73.12
400.837	96.12
401.062	71.12
401.286	97.12
401.51	99.12
401.734	94.12
401.958	93.12
402.182	110.12
402.406	125.12
402.63	95.12
402.854	76.12
403.078	84.12
403.302	86.12
403.526	83.12
403.75	92.12
403.974	79.12
404.198	81.12
404.422	88.12
404.645	91.12
404.869	82.12
405.093	83.12
405.317	100.12
405.541	100.12
405.765	91.12
405.988	85.12
406.212	129.12
406.436	152.12
406.66	101.12
406.883	79.12
407.107	94.12
407.331	85.12
407.555	88.12
407.778	96.12
408.002	84.12
408.226	75.12
408.449	80.12
408.673	87.12
408.896	97.12
409.12	85.12
409.344	80.12
409.567	94.12
409.791	92.12
410.014	89.12
410.238	104.12
410.461	90.12
410.685	79.12
410.908	91.12
411.132	114.12
411.355	87.12
411.578	120.12
411.802	96.12
412.025	93.12
412.249	84.12
412.472	86.12
412.695	95.12
412.919	95.12
413.142	91.12
413.365	86.12
413.589	92.12
413.812	86.12
414.035	93.12
414.258	88.12
414.482	90.12
414.705	88.12
414.928	91.12
415.151	99.12
415.374	107.12
415.597	98.12
415.821	82.12
416.044	90.12
416.267	101.12
416.49	103.12
416.713	95.12
416.936	76.12
417.159	81.12
417.382	82.12
417.605	104.12
417.828	85.12
418.051	79.12
418.274	84.12
418.497	92.12
418.72	86.12
418.943	79.12
419.166	91.12
419.389	86.12
419.611	73.12
419.834	83.12
420.057	89.12
420.28	91.12
420.503	82.12
420.726	83.12
420.948	101.12
421.171	94.12
421.394	87.12
421.617	82.12
421.839	97.12
422.062	96.12
422.285	99.12
422.507	115.12
422.73	102.12
422.953	75.12
423.175	88.12
423.398	79.12
423.621	68.12
423.843	98.12
424.066	80.12
424.288	95.12
424.511	90.12
424.733	99.12
424.956	89.12
425.178	93.12
425.401	99.12
425.623	95.12
425.846	81.12
426.068	90.12
426.291	87.12
426.513	75.12
426.735	84.12
426.958	79.12
427.18	93.12
427.402	112.12
427.625	118.12
427.847	109.12
428.069	72.12
428.292	88.12
428.514	75.12
428.736	85.12
428.958	86.12
429.181	84.12
429.403	82.12
429.625	73.12
429.847	92.12
430.069	86.12
430.292	97.12
430.514	78.12
430.736	75.12
430.958	75.12
431.18	80.12
431.402	81.12
431.624	68.12
431.846	71.12
432.068	87.12
432.29	79.12
432.512	75.12
432.734	72.12
432.956	88.12
433.178	91.12
433.4	100.12
433.622	92.12
433.844	84.12
434.066	69.12
434.287	91.12
434.509	95.12
434.731	75.12
434.953	79.12
435.175	85.12
435.397	84.12
435.618	93.12
435.84	96.12
436.062	91.12
436.284	106.12
436.505	89.12
436.727	78.12
436.949	98.12
437.17	89.12
437.392	73.12
437.614	79.12
437.835	85.12
438.057	99.12
438.278	88.12
438.5	100.12
438.721	108.12
438.943	95.12
439.165	83.12
439.386	84.12
439.608	87.12
439.829	94.12
440.05	103.12
440.272	130.12
440.493	103.12
440.715	68.12
440.936	81.12
441.158	77.12
441.379	97.12
441.6	84.12
441.822	100.12
442.043	96.12
442.264	91.12
442.486	96.12
442.707	95.12
442.928	98.12
443.149	100.12
443.371	101.12
443.592	88.12
443.813	109.12
444.034	99.12
444.255	82.12
444.476	79.12
444.698	91.12
444.919	95.12
445.14	130.12
445.361	106.12
445.582	84.12
445.803	107.12
446.024	98.12
446.245	113.12
446.466	98.12
446.687	98.12
446.908	83.12
447.129	86.12
447.35	72.12
447.571	70.12
447.792	88.12
448.013	81.12
448.234	99.12
448.455	91.12
448.675	87.12
448.896	114.12
449.117	99.12
449.338	88.12
449.559	88.12
449.779	91.12
450	100.12
450.221	89.12
450.442	91.12
450.662	87.12
450.883	95.12
451.104	87.12
451.324	92.12
451.545	81.12
451.766	84.12
451.986	80.12
452.207	84.12
452.428	84.12
452.648	85.12
452.869	96.12
453.089	98.12
453.31	92.12
453.53	83.12
453.751	90.12
453.971	84.12
454.192	99.12
454.412	88.12
454.633	87.12
454.853	91.12
455.073	74.12
455.294	79.12
455.514	75.12
455.734	87.12
455.955	75.12
456.175	88.12
456.395	78.12
456.616	87.12
456.836	86.12
457.056	87.12
457.276	79.12
457.497	63.12
457.717	69.12
457.937	76.12
458.157	83.12
458.377	87.12
458.598	91.12
458.818	107.12
459.038	122.12
459.258	93.12
459.478	85.12
459.698	82.12
459.918	94.12
460.138	77.12
460.358	81.12
460.578	80.12
460.798	80.12
461.018	85.12
461.238	72.12
461.458	77.12
461.678	87.12
461.898	93.12
462.118	99.12
462.338	88.12
462.558	83.12
462.777	68.12
462.997	83.12
463.217	83.12
463.437	84.12
463.657	71.12
463.876	85.12
464.096	79.12
464.316	72.12
464.536	93.12
464.755	87.12
464.975	96.12
465.195	117.12
465.414	115.12
465.634	99.12
465.854	84.12
466.073	90.12
466.293	89.12
466.512	92.12
466.732	84.12
466.951	79.12
467.171	87.12
467.391	85.12
467.61	86.12
467.829	95.12
468.049	89.12
468.268	84.12
468.488	92.12
468.707	85.12
468.927	82.12
469.146	76.12
469.365	84.12
469.585	91.12
469.804	74.12
470.023	93.12
470.243	92.12
470.462	86.12
470.681	91.12
470.901	79.12
471.12	69.12
471.339	67.12
471.558	93.12
471.777	86.12
471.997	90.12
472.216	103.12
472.435	99.12
472.654	93.12
472.873	82.12
473.092	75.12
473.311	91.12
473.53	89.12
473.749	82.12
473.968	79.12
474.187	80.12
474.406	70.12
474.625	98.12
474.844	83.12
475.063	82.12
475.282	80.12
475.501	96.12
475.72	101.12
475.939	75.12
476.158	84.12
476.377	73.12
476.596	79.12
476.814	83.12
477.033	91.12
477.252	79.12
477.471	79.12
477.69	89.12
477.908	92.12
478.127	89.12
478.346	92.12
478.564	99.12
478.783	85.12
479.002	77.12
479.22	73.12
479.439	85.12
479.658	89.12
479.876	80.12
480.095	73.12
480.313	91.12
480.532	85.12
480.751	88.12
480.969	101.12
481.188	145.12
481.406	117.12
481.624	102.12
481.843	91.12
482.061	86.12
482.28	80.12
482.498	80.12
482.717	82.12
482.935	86.12
483.153	89.12
483.372	85.12
483.59	94.12
483.808	85.12
484.027	96.12
484.245	95.12
484.463	87.12
484.681	71.12
484.9	100.12
485.118	107.12
485.336	94.12
485.554	113.12
485.772	112.12
485.99	118.12
486.209	98.12
486.427	108.12
486.645	103.12
486.863	112.12
487.081	82.12
487.299	96.12
487.517	99.12
487.735	91.12
487.953	105.12
488.171	72.12
488.389	83.12
488.607	91.12
488.825	95.12
489.043	77.12
489.261	100.12
489.479	85.12
489.696	92.12
489.914	88.12
490.132	91.12
490.35	82.12
490.568	92.12
490.786	83.12
491.003	79.12
491.221	94.12
491.439	100.12
491.657	97.12
491.874	92.12
492.092	83.12
492.31	90.12
492.527	81.12
492.745	83.12
492.963	93.12
493.18	82.12
493.398	88.12
493.615	84.12
493.833	88.12
494.05	80.12
494.268	91.12
494.485	93.12
494.703	92.12
494.92	86.12
495.138	100.12
495.355	97.12
495.573	87.12
495.79	88.12
496.008	80.12
496.225	92.12
496.442	95.12
496.66	93.12
496.877	84.12
497.094	101.12
497.312	77.12
497.529	81.12
497.746	99.12
497.963	90.12
498.181	89.12
498.398	98.12
498.615	107.12
498.832	96.12
499.049	100.12
499.267	99.12
499.484	87.12
499.701	66.12
499.918	79.12
500.135	98.12
500.352	88.12
500.569	90.12
500.786	97.12
501.003	82.12
501.22	72.12
501.437	86.12
501.654	92.12
501.871	92.12
502.088	79.12
502.305	85.12
502.522	97.12
502.739	83.12
502.956	100.12
503.172	86.12
503.389	89.12
503.606	105.12
503.823	93.12
504.04	87.12
504.256	96.12
504.473	89.12
504.69	102.12
504.907	106.12
505.123	90.12
505.34	86.12
505.557	93.12
505.773	90.12
505.99	83.12
506.207	95.12
506.423	90.12
506.64	82.12
506.856	92.12
507.073	82.12
507.289	85.12
507.506	92.12
507.722	106.12
507.939	98.12
508.155	95.12
508.372	90.12
508.588	81.12
508.805	86.12
509.021	91.12
509.238	90.12
509.454	95.12
509.67	94.12
509.887	101.12
510.103	117.12
510.319	161.12
510.536	517.12
510.752	1380.12
510.968	416.12
511.184	120.12
511.401	91.12
511.617	93.12
511.833	87.12
512.049	100.12
512.265	93.12
512.481	86.12
512.698	96.12
512.914	89.12
513.13	86.12
513.346	93.12
513.562	95.12
513.778	98.12
513.994	72.12
514.21	90.12
514.426	98.12
514.642	110.12
514.858	108.12
515.074	131.12
515.29	281.12
515.506	808.12
515.721	310.12
515.937	111.12
516.153	107.12
516.369	99.12
516.585	94.12
516.801	78.12
