Data from Uncirc_1981_H10_HRD10591_00060.txt Node
Date: Wed Jan 03 12:33:20 EST 2024
User: Yrep
Spectrometer: HR+D1059
Trigger mode: 1
Integration Time (sec): 1.000000E-1
Scans to average: 1
Electric dark correction enabled: true
Nonlinearity correction enabled: false
Boxcar width: 0
XAxis mode: Wavelengths
Number of Pixels in Spectrum: 2048
>>>>>Begin Spectral Data<<<<<
223.165	-9.38
223.4	-9.38
223.635	-9.38
223.869	-36.38
224.104	-16.38
224.338	-16.38
224.573	-20.38
224.808	-3.38
225.042	2.62
225.277	-12.38
225.511	-9.38
225.746	-2.38
225.98	12.62
226.215	11.62
226.449	24.62
226.683	26.62
226.918	22.62
227.152	25.62
227.387	37.62
227.621	48.62
227.856	30.62
228.09	48.62
228.324	50.62
228.559	47.62
228.793	68.62
229.027	59.62
229.262	72.62
229.496	78.62
229.73	84.62
229.964	91.62
230.199	82.62
230.433	80.62
230.667	81.62
230.901	83.62
231.136	89.62
231.37	85.62
231.604	87.62
231.838	81.62
232.072	80.62
232.306	69.62
232.541	87.62
232.775	75.62
233.009	77.62
233.243	87.62
233.477	88.62
233.711	84.62
233.945	78.62
234.179	72.62
234.413	79.62
234.647	68.62
234.881	74.62
235.115	75.62
235.349	89.62
235.583	68.62
235.817	84.62
236.051	75.62
236.285	84.62
236.519	90.62
236.753	90.62
236.987	86.62
237.221	74.62
237.455	92.62
237.689	88.62
237.922	69.62
238.156	56.62
238.39	86.62
238.624	88.62
238.858	81.62
239.091	86.62
239.325	76.62
239.559	62.62
239.793	72.62
240.027	88.62
240.26	73.62
240.494	71.62
240.728	73.62
240.961	65.62
241.195	79.62
241.429	85.62
241.662	66.62
241.896	73.62
242.13	72.62
242.363	61.62
242.597	67.62
242.83	81.62
243.064	80.62
243.298	81.62
243.531	74.62
243.765	88.62
243.998	60.62
244.232	78.62
244.465	76.62
244.699	89.62
244.932	76.62
245.166	76.62
245.399	78.62
245.633	69.62
245.866	88.62
246.099	76.62
246.333	69.62
246.566	86.62
246.8	85.62
247.033	77.62
247.266	77.62
247.5	85.62
247.733	95.62
247.966	83.62
248.2	87.62
248.433	75.62
248.666	58.62
248.899	82.62
249.133	66.62
249.366	89.62
249.599	77.62
249.832	90.62
250.066	78.62
250.299	84.62
250.532	76.62
250.765	74.62
250.998	72.62
251.231	81.62
251.465	92.62
251.698	88.62
251.931	76.62
252.164	84.62
252.397	75.62
252.63	82.62
252.863	84.62
253.096	77.62
253.329	84.62
253.562	82.62
253.795	77.62
254.028	74.62
254.261	91.62
254.494	77.62
254.727	92.62
254.96	81.62
255.193	72.62
255.426	86.62
255.659	90.62
255.892	83.62
256.124	75.62
256.357	95.62
256.59	73.62
256.823	75.62
257.056	74.62
257.289	78.62
257.521	73.62
257.754	81.62
257.987	84.62
258.22	85.62
258.452	90.62
258.685	78.62
258.918	90.62
259.151	73.62
259.383	71.62
259.616	73.62
259.849	66.62
260.081	89.62
260.314	83.62
260.547	80.62
260.779	94.62
261.012	80.62
261.244	75.62
261.477	90.62
261.71	89.62
261.942	102.62
262.175	110.62
262.407	91.62
262.64	77.62
262.872	104.62
263.105	89.62
263.337	96.62
263.57	81.62
263.802	77.62
264.035	73.62
264.267	82.62
264.499	69.62
264.732	84.62
264.964	80.62
265.197	89.62
265.429	73.62
265.661	71.62
265.894	76.62
266.126	95.62
266.358	78.62
266.591	78.62
266.823	76.62
267.055	66.62
267.287	76.62
267.52	81.62
267.752	82.62
267.984	72.62
268.216	82.62
268.448	76.62
268.681	75.62
268.913	84.62
269.145	87.62
269.377	83.62
269.609	93.62
269.841	76.62
270.073	80.62
270.306	84.62
270.538	87.62
270.77	70.62
271.002	97.62
271.234	76.62
271.466	66.62
271.698	85.62
271.93	72.62
272.162	82.62
272.394	82.62
272.626	88.62
272.858	81.62
273.09	87.62
273.322	77.62
273.553	71.62
273.785	89.62
274.017	71.62
274.249	98.62
274.481	84.62
274.713	97.62
274.945	86.62
275.176	86.62
275.408	85.62
275.64	89.62
275.872	69.62
276.104	81.62
276.335	89.62
276.567	77.62
276.799	90.62
277.031	96.62
277.262	101.62
277.494	80.62
277.726	78.62
277.957	74.62
278.189	80.62
278.421	98.62
278.652	89.62
278.884	81.62
279.115	80.62
279.347	89.62
279.579	85.62
279.81	83.62
280.042	89.62
280.273	91.62
280.505	98.62
280.736	96.62
280.968	94.62
281.199	86.62
281.431	71.62
281.662	91.62
281.894	82.62
282.125	100.62
282.356	103.62
282.588	114.62
282.819	93.62
283.051	91.62
283.282	91.62
283.513	80.62
283.745	87.62
283.976	79.62
284.207	83.62
284.439	86.62
284.67	76.62
284.901	73.62
285.132	72.62
285.364	92.62
285.595	72.62
285.826	84.62
286.057	96.62
286.288	85.62
286.52	80.62
286.751	85.62
286.982	81.62
287.213	77.62
287.444	80.62
287.675	75.62
287.906	88.62
288.138	79.62
288.369	88.62
288.6	93.62
288.831	76.62
289.062	87.62
289.293	91.62
289.524	88.62
289.755	85.62
289.986	87.62
290.217	91.62
290.448	96.62
290.679	88.62
290.91	90.62
291.141	85.62
291.371	100.62
291.602	78.62
291.833	92.62
292.064	98.62
292.295	85.62
292.526	94.62
292.757	85.62
292.987	95.62
293.218	82.62
293.449	103.62
293.68	88.62
293.91	83.62
294.141	88.62
294.372	90.62
294.603	84.62
294.833	82.62
295.064	93.62
295.295	88.62
295.525	88.62
295.756	77.62
295.987	93.62
296.217	116.62
296.448	118.62
296.679	88.62
296.909	88.62
297.14	96.62
297.37	91.62
297.601	90.62
297.831	82.62
298.062	109.62
298.292	89.62
298.523	89.62
298.753	86.62
298.984	91.62
299.214	107.62
299.445	95.62
299.675	91.62
299.905	79.62
300.136	80.62
300.366	86.62
300.597	94.62
300.827	89.62
301.057	103.62
301.288	91.62
301.518	83.62
301.748	84.62
301.979	107.62
302.209	87.62
302.439	73.62
302.669	83.62
302.9	92.62
303.13	82.62
303.36	99.62
303.59	93.62
303.82	104.62
304.051	84.62
304.281	81.62
304.511	88.62
304.741	89.62
304.971	79.62
305.201	80.62
305.431	95.62
305.661	84.62
305.891	84.62
306.121	101.62
306.352	102.62
306.582	102.62
306.812	102.62
307.042	73.62
307.272	92.62
307.502	98.62
307.731	92.62
307.961	85.62
308.191	91.62
308.421	77.62
308.651	87.62
308.881	100.62
309.111	109.62
309.341	101.62
309.571	103.62
309.8	88.62
310.03	80.62
310.26	93.62
310.49	100.62
310.72	100.62
310.949	105.62
311.179	88.62
311.409	88.62
311.639	98.62
311.868	97.62
312.098	99.62
312.328	88.62
312.557	99.62
312.787	101.62
313.017	89.62
313.246	92.62
313.476	74.62
313.706	76.62
313.935	98.62
314.165	101.62
314.394	99.62
314.624	98.62
314.853	104.62
315.083	100.62
315.312	90.62
315.542	95.62
315.771	93.62
316.001	84.62
316.23	92.62
316.46	93.62
316.689	86.62
316.919	94.62
317.148	99.62
317.377	94.62
317.607	108.62
317.836	88.62
318.065	87.62
318.295	90.62
318.524	86.62
318.753	92.62
318.983	91.62
319.212	104.62
319.441	107.62
319.67	104.62
319.9	83.62
320.129	89.62
320.358	90.62
320.587	92.62
320.816	96.62
321.046	90.62
321.275	96.62
321.504	96.62
321.733	90.62
321.962	94.62
322.191	100.62
322.42	105.62
322.649	99.62
322.878	123.62
323.108	117.62
323.337	118.62
323.566	130.62
323.795	141.62
324.024	192.62
324.253	385.62
324.482	825.62
324.71	1764.62
324.939	2369.62
325.168	850.62
325.397	233.62
325.626	159.62
325.855	121.62
326.084	132.62
326.313	124.62
326.542	138.62
326.77	231.62
326.999	470.62
327.228	987.62
327.457	1831.62
327.686	1449.62
327.914	382.62
328.143	187.62
328.372	140.62
328.6	123.62
328.829	107.62
329.058	127.62
329.287	121.62
329.515	125.62
329.744	109.62
329.972	94.62
330.201	117.62
330.43	114.62
330.658	110.62
330.887	142.62
331.115	117.62
331.344	106.62
331.572	91.62
331.801	114.62
332.03	94.62
332.258	92.62
332.486	73.62
332.715	83.62
332.943	98.62
333.172	110.62
333.4	110.62
333.629	110.62
333.857	133.62
334.085	96.62
334.314	103.62
334.542	110.62
334.771	126.62
334.999	112.62
335.227	89.62
335.455	86.62
335.684	107.62
335.912	96.62
336.14	86.62
336.369	86.62
336.597	93.62
336.825	99.62
337.053	82.62
337.281	82.62
337.51	102.62
337.738	91.62
337.966	84.62
338.194	89.62
338.422	105.62
338.65	90.62
338.878	86.62
339.106	94.62
339.334	96.62
339.562	109.62
339.79	88.62
340.018	95.62
340.246	94.62
340.474	89.62
340.702	90.62
340.93	99.62
341.158	76.62
341.386	86.62
341.614	104.62
341.842	87.62
342.07	93.62
342.298	97.62
342.526	77.62
342.754	85.62
342.981	88.62
343.209	77.62
343.437	100.62
343.665	85.62
343.893	80.62
344.12	89.62
344.348	91.62
344.576	96.62
344.804	93.62
345.031	94.62
345.259	95.62
345.487	82.62
345.714	98.62
345.942	82.62
346.17	103.62
346.397	93.62
346.625	87.62
346.853	114.62
347.08	105.62
347.308	92.62
347.535	95.62
347.763	101.62
347.99	104.62
348.218	100.62
348.445	95.62
348.673	89.62
348.9	94.62
349.128	100.62
349.355	80.62
349.583	105.62
349.81	99.62
350.037	84.62
350.265	96.62
350.492	91.62
350.72	90.62
350.947	105.62
351.174	93.62
351.402	103.62
351.629	102.62
351.856	97.62
352.083	94.62
352.311	110.62
352.538	109.62
352.765	113.62
352.992	99.62
353.22	108.62
353.447	98.62
353.674	101.62
353.901	90.62
354.128	92.62
354.355	95.62
354.583	91.62
354.81	92.62
355.037	101.62
355.264	90.62
355.491	84.62
355.718	91.62
355.945	102.62
356.172	102.62
356.399	85.62
356.626	97.62
356.853	92.62
357.08	93.62
357.307	98.62
357.534	100.62
357.761	87.62
357.988	91.62
358.215	96.62
358.441	80.62
358.668	94.62
358.895	92.62
359.122	84.62
359.349	91.62
359.576	84.62
359.802	103.62
360.029	108.62
360.256	109.62
360.483	96.62
360.709	94.62
360.936	97.62
361.163	99.62
361.39	91.62
361.616	91.62
361.843	89.62
362.07	92.62
362.296	90.62
362.523	89.62
362.749	92.62
362.976	77.62
363.203	95.62
363.429	97.62
363.656	106.62
363.882	94.62
364.109	84.62
364.335	84.62
364.562	93.62
364.788	90.62
365.015	81.62
365.241	104.62
365.468	111.62
365.694	101.62
365.92	87.62
366.147	90.62
366.373	98.62
366.599	95.62
366.826	74.62
367.052	88.62
367.278	89.62
367.505	84.62
367.731	94.62
367.957	94.62
368.184	91.62
368.41	87.62
368.636	103.62
368.862	121.62
369.089	105.62
369.315	97.62
369.541	91.62
369.767	95.62
369.993	91.62
370.219	88.62
370.445	84.62
370.672	86.62
370.898	90.62
371.124	100.62
371.35	103.62
371.576	80.62
371.802	88.62
372.028	96.62
372.254	82.62
372.48	79.62
372.706	83.62
372.932	78.62
373.158	90.62
373.384	93.62
373.61	90.62
373.835	97.62
374.061	91.62
374.287	93.62
374.513	90.62
374.739	82.62
374.965	84.62
375.191	86.62
375.416	81.62
375.642	86.62
375.868	115.62
376.094	72.62
376.319	94.62
376.545	96.62
376.771	90.62
376.997	91.62
377.222	86.62
377.448	97.62
377.674	89.62
377.899	90.62
378.125	101.62
378.35	96.62
378.576	113.62
378.802	91.62
379.027	96.62
379.253	96.62
379.478	80.62
379.704	88.62
379.929	88.62
380.155	94.62
380.38	99.62
380.606	98.62
380.831	96.62
381.057	105.62
381.282	97.62
381.507	97.62
381.733	105.62
381.958	106.62
382.184	92.62
382.409	91.62
382.634	110.62
382.86	104.62
383.085	93.62
383.31	96.62
383.535	103.62
383.761	101.62
383.986	106.62
384.211	78.62
384.436	96.62
384.662	96.62
384.887	100.62
385.112	98.62
385.337	108.62
385.562	110.62
385.787	84.62
386.013	101.62
386.238	118.62
386.463	107.62
386.688	114.62
386.913	103.62
387.138	104.62
387.363	117.62
387.588	100.62
387.813	102.62
388.038	107.62
388.263	108.62
388.488	102.62
388.713	103.62
388.938	91.62
389.163	89.62
389.387	104.62
389.612	78.62
389.837	96.62
390.062	103.62
390.287	91.62
390.512	101.62
390.736	75.62
390.961	84.62
391.186	90.62
391.411	87.62
391.636	88.62
391.86	88.62
392.085	80.62
392.31	91.62
392.534	83.62
392.759	85.62
392.984	81.62
393.208	91.62
393.433	87.62
393.658	93.62
393.882	86.62
394.107	63.62
394.331	89.62
394.556	92.62
394.78	91.62
395.005	91.62
395.229	84.62
395.454	86.62
395.678	83.62
395.903	81.62
396.127	91.62
396.352	100.62
396.576	94.62
396.801	76.62
397.025	77.62
397.249	81.62
397.474	90.62
397.698	92.62
397.922	101.62
398.147	87.62
398.371	89.62
398.595	90.62
398.82	96.62
399.044	82.62
399.268	80.62
399.492	91.62
399.717	88.62
399.941	82.62
400.165	85.62
400.389	81.62
400.613	70.62
400.837	88.62
401.062	90.62
401.286	78.62
401.51	98.62
401.734	96.62
401.958	101.62
402.182	114.62
402.406	140.62
402.63	107.62
402.854	80.62
403.078	84.62
403.302	94.62
403.526	85.62
403.75	98.62
403.974	93.62
404.198	98.62
404.422	94.62
404.645	88.62
404.869	90.62
405.093	87.62
405.317	92.62
405.541	100.62
405.765	102.62
405.988	106.62
406.212	143.62
406.436	194.62
406.66	140.62
406.883	95.62
407.107	78.62
407.331	88.62
407.555	103.62
407.778	106.62
408.002	88.62
408.226	91.62
408.449	88.62
408.673	88.62
408.896	88.62
409.12	90.62
409.344	94.62
409.567	84.62
409.791	97.62
410.014	95.62
410.238	93.62
410.461	91.62
410.685	93.62
410.908	101.62
411.132	102.62
411.355	110.62
411.578	86.62
411.802	80.62
412.025	74.62
412.249	75.62
412.472	102.62
412.695	100.62
412.919	86.62
413.142	88.62
413.365	92.62
413.589	78.62
413.812	82.62
414.035	98.62
414.258	97.62
414.482	75.62
414.705	80.62
414.928	82.62
415.151	99.62
415.374	95.62
415.597	99.62
415.821	86.62
416.044	82.62
416.267	89.62
416.49	86.62
416.713	100.62
416.936	81.62
417.159	100.62
417.382	75.62
417.605	87.62
417.828	80.62
418.051	85.62
418.274	82.62
418.497	85.62
418.72	82.62
418.943	94.62
419.166	87.62
419.389	100.62
419.611	98.62
419.834	91.62
420.057	95.62
420.28	93.62
420.503	96.62
420.726	74.62
420.948	87.62
421.171	101.62
421.394	93.62
421.617	92.62
421.839	105.62
422.062	97.62
422.285	100.62
422.507	103.62
422.73	88.62
422.953	96.62
423.175	85.62
423.398	93.62
423.621	96.62
423.843	70.62
424.066	84.62
424.288	77.62
424.511	95.62
424.733	107.62
424.956	108.62
425.178	101.62
425.401	117.62
425.623	101.62
425.846	93.62
426.068	86.62
426.291	97.62
426.513	80.62
426.735	84.62
426.958	85.62
427.18	108.62
427.402	155.62
427.625	169.62
427.847	124.62
428.069	104.62
428.292	81.62
428.514	84.62
428.736	89.62
428.958	88.62
429.181	82.62
429.403	94.62
429.625	98.62
429.847	89.62
430.069	98.62
430.292	85.62
430.514	94.62
430.736	88.62
430.958	88.62
431.18	92.62
431.402	93.62
431.624	84.62
431.846	84.62
432.068	87.62
432.29	77.62
432.512	75.62
432.734	85.62
432.956	84.62
433.178	87.62
433.4	96.62
433.622	93.62
433.844	88.62
434.066	100.62
434.287	84.62
434.509	83.62
434.731	92.62
434.953	77.62
435.175	94.62
435.397	97.62
435.618	90.62
435.84	104.62
436.062	138.62
436.284	118.62
436.505	108.62
436.727	119.62
436.949	121.62
437.17	84.62
437.392	77.62
437.614	81.62
437.835	91.62
438.057	113.62
438.278	103.62
438.5	105.62
438.721	134.62
438.943	101.62
439.165	104.62
439.386	84.62
439.608	87.62
439.829	99.62
440.05	125.62
440.272	138.62
440.493	108.62
440.715	104.62
440.936	83.62
441.158	96.62
441.379	89.62
441.6	102.62
441.822	82.62
442.043	98.62
442.264	124.62
442.486	105.62
442.707	91.62
442.928	114.62
443.149	126.62
443.371	126.62
443.592	99.62
443.813	114.62
444.034	104.62
444.255	110.62
444.476	81.62
444.698	88.62
444.919	86.62
445.14	137.62
445.361	126.62
445.582	122.62
445.803	137.62
446.024	150.62
446.245	147.62
446.466	107.62
446.687	103.62
446.908	78.62
447.129	93.62
447.35	92.62
447.571	90.62
447.792	79.62
448.013	77.62
448.234	103.62
448.455	112.62
448.675	116.62
448.896	125.62
449.117	93.62
449.338	103.62
449.559	136.62
449.779	120.62
450	92.62
450.221	94.62
450.442	109.62
450.662	85.62
450.883	108.62
451.104	115.62
451.324	84.62
451.545	96.62
451.766	95.62
451.986	87.62
452.207	87.62
452.428	90.62
452.648	103.62
452.869	103.62
453.089	103.62
453.31	100.62
453.53	97.62
453.751	91.62
453.971	93.62
454.192	110.62
454.412	104.62
454.633	95.62
454.853	96.62
455.073	85.62
455.294	93.62
455.514	101.62
455.734	107.62
455.955	85.62
456.175	84.62
456.395	93.62
456.616	89.62
456.836	86.62
457.056	93.62
457.276	81.62
457.497	70.62
457.717	82.62
457.937	77.62
458.157	84.62
458.377	99.62
458.598	100.62
458.818	134.62
459.038	151.62
459.258	113.62
459.478	86.62
459.698	94.62
459.918	85.62
460.138	86.62
460.358	93.62
460.578	88.62
460.798	94.62
461.018	90.62
461.238	93.62
461.458	77.62
461.678	91.62
461.898	87.62
462.118	82.62
462.338	76.62
462.558	77.62
462.777	89.62
462.997	82.62
463.217	89.62
463.437	68.62
463.657	96.62
463.876	103.62
464.096	89.62
464.316	95.62
464.536	82.62
464.755	105.62
464.975	110.62
465.195	145.62
465.414	144.62
465.634	103.62
465.854	92.62
466.073	82.62
466.293	90.62
466.512	76.62
466.732	87.62
466.951	87.62
467.171	107.62
467.391	100.62
467.61	109.62
467.829	86.62
468.049	92.62
468.268	104.62
468.488	87.62
468.707	88.62
468.927	94.62
469.146	97.62
469.365	81.62
469.585	84.62
469.804	86.62
470.023	91.62
470.243	96.62
470.462	109.62
470.681	102.62
470.901	80.62
471.12	76.62
471.339	102.62
471.558	77.62
471.777	77.62
471.997	89.62
472.216	105.62
472.435	130.62
472.654	103.62
472.873	90.62
473.092	69.62
473.311	84.62
473.53	83.62
473.749	84.62
473.968	100.62
474.187	117.62
474.406	98.62
474.625	75.62
474.844	90.62
475.063	93.62
475.282	84.62
475.501	84.62
475.72	90.62
475.939	82.62
476.158	91.62
476.377	87.62
476.596	77.62
476.814	88.62
477.033	87.62
477.252	91.62
477.471	99.62
477.69	83.62
477.908	102.62
478.127	77.62
478.346	87.62
478.564	95.62
478.783	98.62
479.002	91.62
479.22	80.62
479.439	109.62
479.658	92.62
479.876	100.62
480.095	82.62
480.313	79.62
480.532	101.62
480.751	98.62
480.969	98.62
481.188	174.62
481.406	135.62
481.624	90.62
481.843	85.62
482.061	81.62
482.28	94.62
482.498	107.62
482.717	99.62
482.935	93.62
483.153	90.62
483.372	90.62
483.59	100.62
483.808	91.62
484.027	102.62
484.245	68.62
484.463	83.62
484.681	96.62
484.9	94.62
485.118	117.62
485.336	93.62
485.554	88.62
485.772	91.62
485.99	97.62
486.209	114.62
486.427	105.62
486.645	98.62
486.863	97.62
487.081	101.62
487.299	95.62
487.517	96.62
487.735	107.62
487.953	93.62
488.171	102.62
488.389	93.62
488.607	96.62
488.825	100.62
489.043	88.62
489.261	85.62
489.479	90.62
489.696	77.62
489.914	87.62
490.132	100.62
490.35	89.62
490.568	96.62
490.786	92.62
491.003	86.62
491.221	92.62
491.439	102.62
491.657	92.62
491.874	83.62
492.092	88.62
492.31	96.62
492.527	81.62
492.745	103.62
492.963	81.62
493.18	93.62
493.398	97.62
493.615	104.62
493.833	97.62
494.05	102.62
494.268	84.62
494.485	95.62
494.703	100.62
494.92	96.62
495.138	82.62
495.355	85.62
495.573	94.62
495.79	92.62
496.008	84.62
496.225	91.62
496.442	83.62
496.66	84.62
496.877	89.62
497.094	98.62
497.312	80.62
497.529	93.62
497.746	78.62
497.963	86.62
498.181	106.62
498.398	86.62
498.615	109.62
498.832	102.62
499.049	98.62
499.267	88.62
499.484	76.62
499.701	95.62
499.918	80.62
500.135	83.62
500.352	78.62
500.569	84.62
500.786	94.62
501.003	83.62
501.22	100.62
501.437	96.62
501.654	100.62
501.871	85.62
502.088	93.62
502.305	76.62
502.522	93.62
502.739	89.62
502.956	106.62
503.172	88.62
503.389	102.62
503.606	91.62
503.823	80.62
504.04	90.62
504.256	104.62
504.473	89.62
504.69	96.62
504.907	80.62
505.123	93.62
505.34	107.62
505.557	89.62
505.773	80.62
505.99	91.62
506.207	91.62
506.423	93.62
506.64	96.62
506.856	90.62
507.073	98.62
507.289	91.62
507.506	96.62
507.722	101.62
507.939	103.62
508.155	92.62
508.372	82.62
508.588	94.62
508.805	82.62
509.021	100.62
509.238	100.62
509.454	96.62
509.67	94.62
509.887	115.62
510.103	113.62
510.319	186.62
510.536	583.62
510.752	1854.62
510.968	498.62
511.184	131.62
511.401	96.62
511.617	88.62
511.833	97.62
512.049	92.62
512.265	87.62
512.481	96.62
512.698	81.62
512.914	94.62
513.13	97.62
513.346	73.62
513.562	96.62
513.778	100.62
513.994	108.62
514.21	84.62
514.426	123.62
514.642	125.62
514.858	110.62
515.074	152.62
515.29	365.62
515.506	1196.62
515.721	442.62
