Data from Uncirc_1981_H10_HRD10591_00036.txt Node
Date: Wed Jan 03 12:33:15 EST 2024
User: Yrep
Spectrometer: HR+D1059
Trigger mode: 1
Integration Time (sec): 1.000000E-1
Scans to average: 1
Electric dark correction enabled: true
Nonlinearity correction enabled: false
Boxcar width: 0
XAxis mode: Wavelengths
Number of Pixels in Spectrum: 2048
>>>>>Begin Spectral Data<<<<<
223.165	-10.88
223.4	-10.88
223.635	-10.88
223.869	-18.88
224.104	-16.88
224.338	-12.88
224.573	-30.88
224.808	-15.88
225.042	-17.88
225.277	-3.88
225.511	4.12
225.746	3.12
225.98	5.12
226.215	14.12
226.449	14.12
226.683	26.12
226.918	29.12
227.152	32.12
227.387	43.12
227.621	35.12
227.856	40.12
228.09	45.12
228.324	58.12
228.559	57.12
228.793	51.12
229.027	63.12
229.262	64.12
229.496	79.12
229.73	82.12
229.964	83.12
230.199	85.12
230.433	68.12
230.667	86.12
230.901	94.12
231.136	87.12
231.37	83.12
231.604	89.12
231.838	85.12
232.072	102.12
232.306	91.12
232.541	76.12
232.775	77.12
233.009	75.12
233.243	99.12
233.477	75.12
233.711	73.12
233.945	91.12
234.179	92.12
234.413	84.12
234.647	71.12
234.881	77.12
235.115	91.12
235.349	86.12
235.583	87.12
235.817	79.12
236.051	74.12
236.285	79.12
236.519	79.12
236.753	86.12
236.987	78.12
237.221	89.12
237.455	86.12
237.689	74.12
237.922	80.12
238.156	71.12
238.39	65.12
238.624	70.12
238.858	64.12
239.091	66.12
239.325	80.12
239.559	74.12
239.793	74.12
240.027	76.12
240.26	86.12
240.494	79.12
240.728	90.12
240.961	80.12
241.195	85.12
241.429	87.12
241.662	87.12
241.896	91.12
242.13	77.12
242.363	69.12
242.597	73.12
242.83	88.12
243.064	85.12
243.298	80.12
243.531	81.12
243.765	64.12
243.998	78.12
244.232	70.12
244.465	83.12
244.699	85.12
244.932	81.12
245.166	81.12
245.399	76.12
245.633	92.12
245.866	80.12
246.099	85.12
246.333	97.12
246.566	89.12
246.8	94.12
247.033	80.12
247.266	69.12
247.5	82.12
247.733	77.12
247.966	68.12
248.2	91.12
248.433	95.12
248.666	89.12
248.899	73.12
249.133	92.12
249.366	81.12
249.599	81.12
249.832	101.12
250.066	79.12
250.299	83.12
250.532	69.12
250.765	81.12
250.998	85.12
251.231	89.12
251.465	76.12
251.698	96.12
251.931	72.12
252.164	90.12
252.397	94.12
252.63	74.12
252.863	99.12
253.096	72.12
253.329	78.12
253.562	80.12
253.795	83.12
254.028	81.12
254.261	86.12
254.494	83.12
254.727	85.12
254.96	70.12
255.193	84.12
255.426	90.12
255.659	72.12
255.892	87.12
256.124	75.12
256.357	88.12
256.59	91.12
256.823	85.12
257.056	76.12
257.289	95.12
257.521	97.12
257.754	88.12
257.987	84.12
258.22	87.12
258.452	90.12
258.685	87.12
258.918	95.12
259.151	96.12
259.383	84.12
259.616	85.12
259.849	80.12
260.081	91.12
260.314	95.12
260.547	82.12
260.779	83.12
261.012	85.12
261.244	75.12
261.477	88.12
261.71	78.12
261.942	98.12
262.175	95.12
262.407	78.12
262.64	97.12
262.872	85.12
263.105	74.12
263.337	93.12
263.57	84.12
263.802	100.12
264.035	92.12
264.267	94.12
264.499	87.12
264.732	100.12
264.964	78.12
265.197	87.12
265.429	97.12
265.661	88.12
265.894	92.12
266.126	94.12
266.358	96.12
266.591	79.12
266.823	93.12
267.055	84.12
267.287	76.12
267.52	94.12
267.752	95.12
267.984	103.12
268.216	86.12
268.448	85.12
268.681	99.12
268.913	87.12
269.145	99.12
269.377	73.12
269.609	73.12
269.841	87.12
270.073	81.12
270.306	88.12
270.538	93.12
270.77	78.12
271.002	87.12
271.234	91.12
271.466	91.12
271.698	75.12
271.93	84.12
272.162	87.12
272.394	86.12
272.626	80.12
272.858	87.12
273.09	71.12
273.322	82.12
273.553	99.12
273.785	101.12
274.017	90.12
274.249	83.12
274.481	89.12
274.713	88.12
274.945	92.12
275.176	93.12
275.408	84.12
275.64	94.12
275.872	88.12
276.104	78.12
276.335	84.12
276.567	86.12
276.799	99.12
277.031	91.12
277.262	83.12
277.494	91.12
277.726	90.12
277.957	84.12
278.189	99.12
278.421	103.12
278.652	84.12
278.884	89.12
279.115	95.12
279.347	109.12
279.579	74.12
279.81	88.12
280.042	93.12
280.273	86.12
280.505	85.12
280.736	90.12
280.968	113.12
281.199	91.12
281.431	85.12
281.662	94.12
281.894	93.12
282.125	91.12
282.356	91.12
282.588	96.12
282.819	105.12
283.051	87.12
283.282	91.12
283.513	95.12
283.745	79.12
283.976	87.12
284.207	85.12
284.439	101.12
284.67	99.12
284.901	91.12
285.132	94.12
285.364	87.12
285.595	97.12
285.826	77.12
286.057	105.12
286.288	86.12
286.52	87.12
286.751	94.12
286.982	96.12
287.213	84.12
287.444	89.12
287.675	83.12
287.906	84.12
288.138	90.12
288.369	92.12
288.6	90.12
288.831	92.12
289.062	108.12
289.293	86.12
289.524	78.12
289.755	88.12
289.986	103.12
290.217	82.12
290.448	100.12
290.679	90.12
290.91	94.12
291.141	92.12
291.371	103.12
291.602	93.12
291.833	87.12
292.064	85.12
292.295	88.12
292.526	81.12
292.757	76.12
292.987	95.12
293.218	88.12
293.449	107.12
293.68	96.12
293.91	87.12
294.141	88.12
294.372	90.12
294.603	103.12
294.833	103.12
295.064	84.12
295.295	89.12
295.525	100.12
295.756	106.12
295.987	105.12
296.217	113.12
296.448	95.12
296.679	87.12
296.909	85.12
297.14	94.12
297.37	109.12
297.601	87.12
297.831	99.12
298.062	84.12
298.292	87.12
298.523	85.12
298.753	90.12
298.984	78.12
299.214	104.12
299.445	99.12
299.675	94.12
299.905	91.12
300.136	95.12
300.366	86.12
300.597	85.12
300.827	101.12
301.057	92.12
301.288	107.12
301.518	105.12
301.748	83.12
301.979	91.12
302.209	100.12
302.439	83.12
302.669	94.12
302.9	87.12
303.13	95.12
303.36	93.12
303.59	97.12
303.82	98.12
304.051	87.12
304.281	86.12
304.511	83.12
304.741	91.12
304.971	87.12
305.201	89.12
305.431	88.12
305.661	92.12
305.891	86.12
306.121	90.12
306.352	99.12
306.582	76.12
306.812	85.12
307.042	94.12
307.272	92.12
307.502	101.12
307.731	99.12
307.961	86.12
308.191	92.12
308.421	79.12
308.651	88.12
308.881	88.12
309.111	108.12
309.341	101.12
309.571	88.12
309.8	95.12
310.03	99.12
310.26	97.12
310.49	99.12
310.72	98.12
310.949	98.12
311.179	108.12
311.409	102.12
311.639	99.12
311.868	85.12
312.098	83.12
312.328	95.12
312.557	98.12
312.787	92.12
313.017	99.12
313.246	97.12
313.476	109.12
313.706	95.12
313.935	91.12
314.165	101.12
314.394	101.12
314.624	77.12
314.853	90.12
315.083	96.12
315.312	87.12
315.542	90.12
315.771	96.12
316.001	74.12
316.23	89.12
316.46	103.12
316.689	102.12
316.919	89.12
317.148	93.12
317.377	95.12
317.607	97.12
317.836	94.12
318.065	99.12
318.295	92.12
318.524	91.12
318.753	76.12
318.983	92.12
319.212	108.12
319.441	96.12
319.67	99.12
319.9	98.12
320.129	78.12
320.358	82.12
320.587	101.12
320.816	102.12
321.046	106.12
321.275	91.12
321.504	107.12
321.733	88.12
321.962	99.12
322.191	102.12
322.42	102.12
322.649	97.12
322.878	103.12
323.108	109.12
323.337	107.12
323.566	118.12
323.795	129.12
324.024	175.12
324.253	285.12
324.482	641.12
324.71	1254.12
324.939	1608.12
325.168	596.12
325.397	193.12
325.626	136.12
325.855	103.12
326.084	107.12
326.313	121.12
326.542	132.12
326.77	202.12
326.999	364.12
327.228	730.12
327.457	1307.12
327.686	1032.12
327.914	283.12
328.143	143.12
328.372	117.12
328.6	118.12
328.829	117.12
329.058	124.12
329.287	114.12
329.515	98.12
329.744	94.12
329.972	99.12
330.201	110.12
330.43	108.12
330.658	113.12
330.887	112.12
331.115	113.12
331.344	116.12
331.572	93.12
331.801	112.12
332.03	105.12
332.258	106.12
332.486	85.12
332.715	85.12
332.943	100.12
333.172	108.12
333.4	98.12
333.629	111.12
333.857	108.12
334.085	112.12
334.314	97.12
334.542	112.12
334.771	114.12
334.999	89.12
335.227	87.12
335.455	108.12
335.684	120.12
335.912	94.12
336.14	111.12
336.369	113.12
336.597	90.12
336.825	86.12
337.053	96.12
337.281	103.12
337.51	109.12
337.738	101.12
337.966	101.12
338.194	97.12
338.422	80.12
338.65	88.12
338.878	94.12
339.106	80.12
339.334	89.12
339.562	91.12
339.79	104.12
340.018	108.12
340.246	98.12
340.474	98.12
340.702	110.12
340.93	94.12
341.158	100.12
341.386	93.12
341.614	97.12
341.842	94.12
342.07	93.12
342.298	87.12
342.526	101.12
342.754	105.12
342.981	96.12
343.209	88.12
343.437	102.12
343.665	76.12
343.893	87.12
344.12	83.12
344.348	90.12
344.576	91.12
344.804	107.12
345.031	81.12
345.259	107.12
345.487	89.12
345.714	87.12
345.942	93.12
346.17	87.12
346.397	92.12
346.625	95.12
346.853	99.12
347.08	97.12
347.308	105.12
347.535	90.12
347.763	85.12
347.99	93.12
348.218	116.12
348.445	93.12
348.673	93.12
348.9	88.12
349.128	108.12
349.355	102.12
349.583	98.12
349.81	77.12
350.037	93.12
350.265	87.12
350.492	89.12
350.72	100.12
350.947	89.12
351.174	101.12
351.402	104.12
351.629	115.12
351.856	99.12
352.083	97.12
352.311	99.12
352.538	109.12
352.765	115.12
352.992	112.12
353.22	110.12
353.447	100.12
353.674	104.12
353.901	104.12
354.128	86.12
354.355	92.12
354.583	99.12
354.81	97.12
355.037	104.12
355.264	106.12
355.491	96.12
355.718	111.12
355.945	95.12
356.172	103.12
356.399	100.12
356.626	106.12
356.853	86.12
357.08	99.12
357.307	98.12
357.534	100.12
357.761	81.12
357.988	93.12
358.215	88.12
358.441	111.12
358.668	94.12
358.895	84.12
359.122	113.12
359.349	102.12
359.576	87.12
359.802	87.12
360.029	93.12
360.256	92.12
360.483	81.12
360.709	89.12
360.936	93.12
361.163	94.12
361.39	86.12
361.616	85.12
361.843	90.12
362.07	79.12
362.296	89.12
362.523	81.12
362.749	87.12
362.976	84.12
363.203	100.12
363.429	90.12
363.656	99.12
363.882	90.12
364.109	92.12
364.335	87.12
364.562	97.12
364.788	97.12
365.015	77.12
365.241	93.12
365.468	109.12
365.694	105.12
365.92	113.12
366.147	87.12
366.373	92.12
366.599	85.12
366.826	87.12
367.052	85.12
367.278	92.12
367.505	100.12
367.731	86.12
367.957	100.12
368.184	90.12
368.41	105.12
368.636	98.12
368.862	108.12
369.089	96.12
369.315	95.12
369.541	89.12
369.767	86.12
369.993	92.12
370.219	108.12
370.445	87.12
370.672	87.12
370.898	70.12
371.124	77.12
371.35	86.12
371.576	92.12
371.802	103.12
372.028	91.12
372.254	101.12
372.48	83.12
372.706	81.12
372.932	83.12
373.158	95.12
373.384	115.12
373.61	99.12
373.835	90.12
374.061	91.12
374.287	89.12
374.513	91.12
374.739	86.12
374.965	97.12
375.191	97.12
375.416	85.12
375.642	96.12
375.868	100.12
376.094	97.12
376.319	101.12
376.545	83.12
376.771	85.12
376.997	96.12
377.222	100.12
377.448	89.12
377.674	88.12
377.899	87.12
378.125	85.12
378.35	93.12
378.576	87.12
378.802	86.12
379.027	94.12
379.253	97.12
379.478	91.12
379.704	98.12
379.929	106.12
380.155	108.12
380.38	101.12
380.606	98.12
380.831	87.12
381.057	106.12
381.282	106.12
381.507	109.12
381.733	109.12
381.958	103.12
382.184	110.12
382.409	98.12
382.634	94.12
382.86	111.12
383.085	98.12
383.31	119.12
383.535	109.12
383.761	114.12
383.986	108.12
384.211	97.12
384.436	113.12
384.662	112.12
384.887	100.12
385.112	109.12
385.337	99.12
385.562	110.12
385.787	112.12
386.013	113.12
386.238	121.12
386.463	117.12
386.688	107.12
386.913	110.12
387.138	124.12
387.363	113.12
387.588	97.12
387.813	119.12
388.038	125.12
388.263	124.12
388.488	118.12
388.713	101.12
388.938	104.12
389.163	95.12
389.387	81.12
389.612	93.12
389.837	95.12
390.062	91.12
390.287	90.12
390.512	99.12
390.736	95.12
390.961	89.12
391.186	100.12
391.411	89.12
391.636	95.12
391.86	95.12
392.085	81.12
392.31	81.12
392.534	86.12
392.759	99.12
392.984	86.12
393.208	100.12
393.433	88.12
393.658	93.12
393.882	82.12
394.107	101.12
394.331	101.12
394.556	88.12
394.78	89.12
395.005	89.12
395.229	91.12
395.454	96.12
395.678	95.12
395.903	96.12
396.127	91.12
396.352	83.12
396.576	92.12
396.801	92.12
397.025	89.12
397.249	85.12
397.474	78.12
397.698	89.12
397.922	83.12
398.147	78.12
398.371	102.12
398.595	97.12
398.82	83.12
399.044	90.12
399.268	105.12
399.492	94.12
399.717	84.12
399.941	83.12
400.165	94.12
400.389	86.12
400.613	95.12
400.837	73.12
401.062	90.12
401.286	88.12
401.51	96.12
401.734	97.12
401.958	94.12
402.182	118.12
402.406	124.12
402.63	104.12
402.854	104.12
403.078	93.12
403.302	89.12
403.526	87.12
403.75	97.12
403.974	96.12
404.198	87.12
404.422	85.12
404.645	89.12
404.869	95.12
405.093	100.12
405.317	100.12
405.541	80.12
405.765	105.12
405.988	105.12
406.212	126.12
406.436	160.12
406.66	109.12
406.883	91.12
407.107	73.12
407.331	104.12
407.555	109.12
407.778	84.12
408.002	86.12
408.226	83.12
408.449	94.12
408.673	97.12
408.896	107.12
409.12	97.12
409.344	87.12
409.567	119.12
409.791	84.12
410.014	95.12
410.238	93.12
410.461	105.12
410.685	93.12
410.908	93.12
411.132	101.12
411.355	98.12
411.578	92.12
411.802	99.12
412.025	93.12
412.249	87.12
412.472	87.12
412.695	107.12
412.919	77.12
413.142	91.12
413.365	92.12
413.589	100.12
413.812	83.12
414.035	103.12
414.258	103.12
414.482	87.12
414.705	105.12
414.928	92.12
415.151	96.12
415.374	92.12
415.597	105.12
415.821	99.12
416.044	97.12
416.267	100.12
416.49	89.12
416.713	85.12
416.936	90.12
417.159	80.12
417.382	74.12
417.605	87.12
417.828	89.12
418.051	93.12
418.274	91.12
418.497	99.12
418.72	84.12
418.943	92.12
419.166	94.12
419.389	99.12
419.611	104.12
419.834	87.12
420.057	79.12
420.28	102.12
420.503	86.12
420.726	92.12
420.948	102.12
421.171	95.12
421.394	91.12
421.617	77.12
421.839	100.12
422.062	78.12
422.285	97.12
422.507	99.12
422.73	84.12
422.953	91.12
423.175	83.12
423.398	101.12
423.621	91.12
423.843	92.12
424.066	93.12
424.288	89.12
424.511	88.12
424.733	89.12
424.956	104.12
425.178	97.12
425.401	89.12
425.623	85.12
425.846	95.12
426.068	84.12
426.291	100.12
426.513	87.12
426.735	86.12
426.958	85.12
427.18	100.12
427.402	116.12
427.625	119.12
427.847	114.12
428.069	107.12
428.292	98.12
428.514	89.12
428.736	84.12
428.958	71.12
429.181	97.12
429.403	96.12
429.625	102.12
429.847	99.12
430.069	113.12
430.292	89.12
430.514	91.12
430.736	89.12
430.958	89.12
431.18	99.12
431.402	99.12
431.624	100.12
431.846	86.12
432.068	87.12
432.29	86.12
432.512	95.12
432.734	83.12
432.956	69.12
433.178	106.12
433.4	101.12
433.622	88.12
433.844	101.12
434.066	92.12
434.287	93.12
434.509	86.12
434.731	108.12
434.953	91.12
435.175	91.12
435.397	89.12
435.618	91.12
435.84	102.12
436.062	105.12
436.284	88.12
436.505	87.12
436.727	108.12
436.949	90.12
437.17	102.12
437.392	96.12
437.614	94.12
437.835	97.12
438.057	91.12
438.278	96.12
438.5	101.12
438.721	123.12
438.943	88.12
439.165	103.12
439.386	85.12
439.608	84.12
439.829	81.12
440.05	123.12
440.272	116.12
440.493	87.12
440.715	99.12
440.936	79.12
441.158	95.12
441.379	97.12
441.6	86.12
441.822	79.12
442.043	92.12
442.264	88.12
442.486	94.12
442.707	98.12
442.928	95.12
443.149	116.12
443.371	104.12
443.592	99.12
443.813	99.12
444.034	102.12
444.255	65.12
444.476	75.12
444.698	91.12
444.919	83.12
445.14	127.12
445.361	112.12
445.582	110.12
445.803	123.12
446.024	113.12
446.245	113.12
446.466	121.12
446.687	85.12
446.908	85.12
447.129	99.12
447.35	94.12
447.571	90.12
447.792	101.12
448.013	100.12
448.234	98.12
448.455	83.12
448.675	104.12
448.896	88.12
449.117	107.12
449.338	101.12
449.559	102.12
449.779	118.12
450	108.12
450.221	94.12
450.442	87.12
450.662	85.12
450.883	85.12
451.104	109.12
451.324	95.12
451.545	89.12
451.766	91.12
451.986	83.12
452.207	84.12
452.428	93.12
452.648	89.12
452.869	109.12
453.089	95.12
453.31	95.12
453.53	98.12
453.751	83.12
453.971	95.12
454.192	103.12
454.412	113.12
454.633	92.12
454.853	85.12
455.073	79.12
455.294	85.12
455.514	103.12
455.734	84.12
455.955	93.12
456.175	74.12
456.395	81.12
456.616	87.12
456.836	87.12
457.056	105.12
457.276	84.12
457.497	93.12
457.717	95.12
457.937	84.12
458.157	100.12
458.377	97.12
458.598	101.12
458.818	115.12
459.038	120.12
459.258	114.12
459.478	95.12
459.698	79.12
459.918	95.12
460.138	63.12
460.358	91.12
460.578	95.12
460.798	79.12
461.018	81.12
461.238	95.12
461.458	87.12
461.678	95.12
461.898	84.12
462.118	99.12
462.338	85.12
462.558	89.12
462.777	78.12
462.997	75.12
463.217	87.12
463.437	95.12
463.657	84.12
463.876	96.12
464.096	94.12
464.316	91.12
464.536	94.12
464.755	96.12
464.975	99.12
465.195	120.12
465.414	117.12
465.634	88.12
465.854	80.12
466.073	83.12
466.293	103.12
466.512	78.12
466.732	92.12
466.951	83.12
467.171	102.12
467.391	92.12
467.61	85.12
467.829	86.12
468.049	91.12
468.268	85.12
468.488	88.12
468.707	79.12
468.927	83.12
469.146	88.12
469.365	79.12
469.585	95.12
469.804	86.12
470.023	81.12
470.243	99.12
470.462	91.12
470.681	118.12
470.901	95.12
471.12	92.12
471.339	83.12
471.558	87.12
471.777	80.12
471.997	91.12
472.216	91.12
472.435	119.12
472.654	103.12
472.873	89.12
473.092	90.12
473.311	89.12
473.53	90.12
473.749	90.12
473.968	91.12
474.187	104.12
474.406	99.12
474.625	104.12
474.844	73.12
475.063	94.12
475.282	85.12
475.501	99.12
475.72	99.12
475.939	88.12
476.158	85.12
476.377	89.12
476.596	95.12
476.814	84.12
477.033	100.12
477.252	90.12
477.471	88.12
477.69	99.12
477.908	93.12
478.127	92.12
478.346	77.12
478.564	95.12
478.783	85.12
479.002	81.12
479.22	104.12
479.439	102.12
479.658	95.12
479.876	95.12
480.095	97.12
480.313	91.12
480.532	102.12
480.751	95.12
480.969	116.12
481.188	142.12
481.406	106.12
481.624	97.12
481.843	106.12
482.061	94.12
482.28	85.12
482.498	104.12
482.717	97.12
482.935	95.12
483.153	79.12
483.372	85.12
483.59	86.12
483.808	98.12
484.027	104.12
484.245	85.12
484.463	90.12
484.681	101.12
484.9	93.12
485.118	93.12
485.336	93.12
485.554	94.12
485.772	95.12
485.99	105.12
486.209	102.12
486.427	102.12
486.645	110.12
486.863	106.12
487.081	102.12
487.299	104.12
487.517	92.12
487.735	93.12
487.953	104.12
488.171	87.12
488.389	103.12
488.607	89.12
488.825	92.12
489.043	96.12
489.261	120.12
489.479	93.12
489.696	77.12
489.914	96.12
490.132	102.12
490.35	102.12
490.568	94.12
490.786	91.12
491.003	90.12
491.221	87.12
491.439	84.12
491.657	102.12
491.874	90.12
492.092	90.12
492.31	104.12
492.527	92.12
492.745	97.12
492.963	111.12
493.18	103.12
493.398	93.12
493.615	107.12
493.833	106.12
494.05	92.12
494.268	87.12
494.485	87.12
494.703	95.12
494.92	94.12
495.138	111.12
495.355	99.12
495.573	96.12
495.79	93.12
496.008	100.12
496.225	106.12
496.442	89.12
496.66	78.12
496.877	112.12
497.094	93.12
497.312	100.12
497.529	99.12
497.746	103.12
497.963	90.12
498.181	94.12
498.398	103.12
498.615	95.12
498.832	106.12
499.049	97.12
499.267	92.12
499.484	108.12
499.701	91.12
499.918	78.12
500.135	92.12
500.352	105.12
500.569	87.12
500.786	91.12
501.003	96.12
501.22	89.12
501.437	99.12
501.654	101.12
501.871	90.12
502.088	89.12
502.305	95.12
502.522	97.12
502.739	89.12
502.956	82.12
503.172	102.12
503.389	108.12
503.606	88.12
503.823	97.12
504.04	81.12
504.256	95.12
504.473	92.12
504.69	82.12
504.907	120.12
505.123	85.12
505.34	101.12
505.557	93.12
505.773	91.12
505.99	96.12
506.207	103.12
506.423	85.12
506.64	109.12
506.856	102.12
507.073	101.12
507.289	85.12
507.506	99.12
507.722	99.12
507.939	74.12
508.155	74.12
508.372	94.12
508.588	104.12
508.805	106.12
509.021	79.12
509.238	110.12
509.454	87.12
509.67	104.12
509.887	96.12
510.103	118.12
510.319	166.12
510.536	488.12
510.752	1442.12
510.968	430.12
511.184	127.12
511.401	115.12
511.617	97.12
511.833	89.12
512.049	88.12
512.265	84.12
512.481	92.12
512.698	84.12
512.914	93.12
513.13	90.12
513.346	104.12
513.562	91.12
513.778	103.12
513.994	107.12
514.21	108.12
514.426	111.12
514.642	113.12
514.858	115.12
515.074	119.12
