Data from Uncirc_1981_H10_HRD10591_00034.txt Node
Date: Wed Jan 03 12:33:14 EST 2024
User: Yrep
Spectrometer: HR+D1059
Trigger mode: 1
Integration Time (sec): 1.000000E-1
Scans to average: 1
Electric dark correction enabled: true
Nonlinearity correction enabled: false
Boxcar width: 0
XAxis mode: Wavelengths
Number of Pixels in Spectrum: 2048
>>>>>Begin Spectral Data<<<<<
223.165	-19.19
223.4	-19.19
223.635	-19.19
223.869	-16.19
224.104	-15.19
224.338	-0.19
224.573	-18.19
224.808	-18.19
225.042	-1.19
225.277	-9.19
225.511	6.81
225.746	-7.19
225.98	3.81
226.215	28.81
226.449	9.81
226.683	6.81
226.918	15.81
227.152	32.81
227.387	38.81
227.621	33.81
227.856	50.81
228.09	44.81
228.324	54.81
228.559	57.81
228.793	74.81
229.027	56.81
229.262	67.81
229.496	69.81
229.73	88.81
229.964	75.81
230.199	75.81
230.433	72.81
230.667	70.81
230.901	72.81
231.136	75.81
231.37	83.81
231.604	74.81
231.838	91.81
232.072	72.81
232.306	79.81
232.541	67.81
232.775	82.81
233.009	87.81
233.243	71.81
233.477	68.81
233.711	79.81
233.945	87.81
234.179	80.81
234.413	82.81
234.647	72.81
234.881	80.81
235.115	82.81
235.349	87.81
235.583	73.81
235.817	70.81
236.051	88.81
236.285	76.81
236.519	84.81
236.753	76.81
236.987	54.81
237.221	65.81
237.455	78.81
237.689	67.81
237.922	71.81
238.156	75.81
238.39	81.81
238.624	59.81
238.858	68.81
239.091	63.81
239.325	75.81
239.559	68.81
239.793	88.81
240.027	72.81
240.26	71.81
240.494	88.81
240.728	75.81
240.961	77.81
241.195	75.81
241.429	90.81
241.662	69.81
241.896	73.81
242.13	51.81
242.363	74.81
242.597	80.81
242.83	71.81
243.064	64.81
243.298	75.81
243.531	78.81
243.765	66.81
243.998	76.81
244.232	83.81
244.465	81.81
244.699	82.81
244.932	69.81
245.166	74.81
245.399	79.81
245.633	66.81
245.866	72.81
246.099	63.81
246.333	78.81
246.566	75.81
246.8	78.81
247.033	84.81
247.266	61.81
247.5	72.81
247.733	98.81
247.966	80.81
248.2	82.81
248.433	73.81
248.666	73.81
248.899	75.81
249.133	78.81
249.366	100.81
249.599	90.81
249.832	80.81
250.066	59.81
250.299	75.81
250.532	73.81
250.765	78.81
250.998	75.81
251.231	76.81
251.465	79.81
251.698	78.81
251.931	74.81
252.164	75.81
252.397	79.81
252.63	71.81
252.863	84.81
253.096	73.81
253.329	66.81
253.562	81.81
253.795	95.81
254.028	89.81
254.261	98.81
254.494	75.81
254.727	89.81
254.96	58.81
255.193	88.81
255.426	89.81
255.659	84.81
255.892	84.81
256.124	102.81
256.357	82.81
256.59	87.81
256.823	88.81
257.056	72.81
257.289	84.81
257.521	83.81
257.754	81.81
257.987	82.81
258.22	83.81
258.452	69.81
258.685	84.81
258.918	87.81
259.151	74.81
259.383	84.81
259.616	78.81
259.849	78.81
260.081	72.81
260.314	88.81
260.547	76.81
260.779	79.81
261.012	84.81
261.244	82.81
261.477	88.81
261.71	84.81
261.942	94.81
262.175	90.81
262.407	91.81
262.64	74.81
262.872	93.81
263.105	80.81
263.337	68.81
263.57	94.81
263.802	94.81
264.035	64.81
264.267	78.81
264.499	92.81
264.732	81.81
264.964	82.81
265.197	88.81
265.429	78.81
265.661	68.81
265.894	77.81
266.126	82.81
266.358	88.81
266.591	78.81
266.823	72.81
267.055	93.81
267.287	81.81
267.52	75.81
267.752	81.81
267.984	70.81
268.216	75.81
268.448	72.81
268.681	75.81
268.913	79.81
269.145	87.81
269.377	75.81
269.609	71.81
269.841	78.81
270.073	78.81
270.306	92.81
270.538	73.81
270.77	86.81
271.002	67.81
271.234	86.81
271.466	75.81
271.698	93.81
271.93	84.81
272.162	80.81
272.394	83.81
272.626	87.81
272.858	83.81
273.09	105.81
273.322	83.81
273.553	81.81
273.785	80.81
274.017	86.81
274.249	78.81
274.481	79.81
274.713	91.81
274.945	91.81
275.176	85.81
275.408	79.81
275.64	71.81
275.872	79.81
276.104	90.81
276.335	71.81
276.567	84.81
276.799	89.81
277.031	90.81
277.262	83.81
277.494	81.81
277.726	84.81
277.957	76.81
278.189	71.81
278.421	87.81
278.652	66.81
278.884	98.81
279.115	89.81
279.347	92.81
279.579	85.81
279.81	89.81
280.042	89.81
280.273	82.81
280.505	89.81
280.736	88.81
280.968	81.81
281.199	83.81
281.431	79.81
281.662	80.81
281.894	94.81
282.125	89.81
282.356	107.81
282.588	111.81
282.819	108.81
283.051	103.81
283.282	86.81
283.513	96.81
283.745	90.81
283.976	82.81
284.207	82.81
284.439	80.81
284.67	102.81
284.901	78.81
285.132	76.81
285.364	81.81
285.595	86.81
285.826	84.81
286.057	98.81
286.288	91.81
286.52	86.81
286.751	93.81
286.982	82.81
287.213	79.81
287.444	69.81
287.675	92.81
287.906	75.81
288.138	80.81
288.369	89.81
288.6	90.81
288.831	89.81
289.062	100.81
289.293	92.81
289.524	96.81
289.755	97.81
289.986	90.81
290.217	90.81
290.448	82.81
290.679	80.81
290.91	85.81
291.141	76.81
291.371	82.81
291.602	83.81
291.833	82.81
292.064	97.81
292.295	84.81
292.526	82.81
292.757	83.81
292.987	84.81
293.218	87.81
293.449	88.81
293.68	84.81
293.91	73.81
294.141	84.81
294.372	76.81
294.603	96.81
294.833	76.81
295.064	85.81
295.295	86.81
295.525	92.81
295.756	90.81
295.987	94.81
296.217	107.81
296.448	100.81
296.679	96.81
296.909	95.81
297.14	93.81
297.37	77.81
297.601	90.81
297.831	97.81
298.062	96.81
298.292	92.81
298.523	84.81
298.753	85.81
298.984	92.81
299.214	82.81
299.445	91.81
299.675	102.81
299.905	90.81
300.136	76.81
300.366	79.81
300.597	84.81
300.827	94.81
301.057	96.81
301.288	99.81
301.518	89.81
301.748	94.81
301.979	98.81
302.209	78.81
302.439	78.81
302.669	91.81
302.9	91.81
303.13	86.81
303.36	97.81
303.59	95.81
303.82	86.81
304.051	92.81
304.281	85.81
304.511	86.81
304.741	92.81
304.971	90.81
305.201	97.81
305.431	99.81
305.661	92.81
305.891	92.81
306.121	73.81
306.352	89.81
306.582	100.81
306.812	89.81
307.042	94.81
307.272	91.81
307.502	88.81
307.731	84.81
307.961	85.81
308.191	80.81
308.421	100.81
308.651	91.81
308.881	90.81
309.111	89.81
309.341	89.81
309.571	91.81
309.8	93.81
310.03	94.81
310.26	96.81
310.49	91.81
310.72	94.81
310.949	112.81
311.179	108.81
311.409	96.81
311.639	93.81
311.868	100.81
312.098	87.81
312.328	104.81
312.557	83.81
312.787	102.81
313.017	99.81
313.246	90.81
313.476	98.81
313.706	99.81
313.935	94.81
314.165	99.81
314.394	94.81
314.624	78.81
314.853	92.81
315.083	95.81
315.312	88.81
315.542	85.81
315.771	79.81
316.001	86.81
316.23	98.81
316.46	76.81
316.689	82.81
316.919	94.81
317.148	82.81
317.377	97.81
317.607	84.81
317.836	84.81
318.065	94.81
318.295	80.81
318.524	85.81
318.753	84.81
318.983	83.81
319.212	99.81
319.441	98.81
319.67	108.81
319.9	86.81
320.129	87.81
320.358	96.81
320.587	81.81
320.816	97.81
321.046	101.81
321.275	104.81
321.504	71.81
321.733	100.81
321.962	88.81
322.191	93.81
322.42	80.81
322.649	111.81
322.878	110.81
323.108	109.81
323.337	99.81
323.566	125.81
323.795	160.81
324.024	192.81
324.253	387.81
324.482	811.81
324.71	1670.81
324.939	2318.81
325.168	810.81
325.397	245.81
325.626	139.81
325.855	113.81
326.084	120.81
326.313	123.81
326.542	142.81
326.77	210.81
326.999	454.81
327.228	947.81
327.457	1755.81
327.686	1396.81
327.914	366.81
328.143	181.81
328.372	127.81
328.6	120.81
328.829	120.81
329.058	116.81
329.287	105.81
329.515	122.81
329.744	104.81
329.972	111.81
330.201	111.81
330.43	109.81
330.658	103.81
330.887	116.81
331.115	112.81
331.344	102.81
331.572	99.81
331.801	103.81
332.03	99.81
332.258	105.81
332.486	82.81
332.715	91.81
332.943	99.81
333.172	97.81
333.4	82.81
333.629	107.81
333.857	99.81
334.085	106.81
334.314	105.81
334.542	116.81
334.771	101.81
334.999	92.81
335.227	88.81
335.455	99.81
335.684	101.81
335.912	104.81
336.14	103.81
336.369	98.81
336.597	90.81
336.825	100.81
337.053	94.81
337.281	95.81
337.51	87.81
337.738	96.81
337.966	80.81
338.194	88.81
338.422	92.81
338.65	98.81
338.878	74.81
339.106	82.81
339.334	96.81
339.562	86.81
339.79	94.81
340.018	96.81
340.246	83.81
340.474	92.81
340.702	88.81
340.93	96.81
341.158	89.81
341.386	104.81
341.614	90.81
341.842	79.81
342.07	73.81
342.298	91.81
342.526	90.81
342.754	82.81
342.981	91.81
343.209	91.81
343.437	106.81
343.665	84.81
343.893	79.81
344.12	90.81
344.348	102.81
344.576	92.81
344.804	91.81
345.031	89.81
345.259	96.81
345.487	95.81
345.714	90.81
345.942	94.81
346.17	93.81
346.397	95.81
346.625	91.81
346.853	96.81
347.08	86.81
347.308	106.81
347.535	104.81
347.763	87.81
347.99	98.81
348.218	90.81
348.445	101.81
348.673	94.81
348.9	97.81
349.128	94.81
349.355	104.81
349.583	104.81
349.81	83.81
350.037	107.81
350.265	86.81
350.492	75.81
350.72	88.81
350.947	100.81
351.174	87.81
351.402	94.81
351.629	108.81
351.856	86.81
352.083	91.81
352.311	105.81
352.538	95.81
352.765	106.81
352.992	114.81
353.22	89.81
353.447	97.81
353.674	108.81
353.901	85.81
354.128	94.81
354.355	88.81
354.583	75.81
354.81	93.81
355.037	89.81
355.264	90.81
355.491	95.81
355.718	84.81
355.945	82.81
356.172	93.81
356.399	95.81
356.626	115.81
356.853	94.81
357.08	107.81
357.307	88.81
357.534	83.81
357.761	76.81
357.988	94.81
358.215	97.81
358.441	75.81
358.668	97.81
358.895	90.81
359.122	85.81
359.349	90.81
359.576	82.81
359.802	94.81
360.029	105.81
360.256	99.81
360.483	99.81
360.709	86.81
360.936	102.81
361.163	91.81
361.39	106.81
361.616	93.81
361.843	83.81
362.07	101.81
362.296	99.81
362.523	99.81
362.749	86.81
362.976	92.81
363.203	84.81
363.429	88.81
363.656	91.81
363.882	102.81
364.109	85.81
364.335	92.81
364.562	80.81
364.788	81.81
365.015	92.81
365.241	95.81
365.468	97.81
365.694	101.81
365.92	102.81
366.147	96.81
366.373	91.81
366.599	89.81
366.826	90.81
367.052	84.81
367.278	90.81
367.505	94.81
367.731	98.81
367.957	96.81
368.184	86.81
368.41	89.81
368.636	111.81
368.862	106.81
369.089	102.81
369.315	79.81
369.541	75.81
369.767	91.81
369.993	97.81
370.219	100.81
370.445	82.81
370.672	75.81
370.898	81.81
371.124	87.81
371.35	99.81
371.576	84.81
371.802	84.81
372.028	85.81
372.254	89.81
372.48	79.81
372.706	78.81
372.932	84.81
373.158	87.81
373.384	89.81
373.61	90.81
373.835	87.81
374.061	88.81
374.287	100.81
374.513	75.81
374.739	83.81
374.965	76.81
375.191	95.81
375.416	107.81
375.642	99.81
375.868	99.81
376.094	91.81
376.319	76.81
376.545	75.81
376.771	75.81
376.997	76.81
377.222	94.81
377.448	100.81
377.674	67.81
377.899	90.81
378.125	90.81
378.35	81.81
378.576	86.81
378.802	88.81
379.027	105.81
379.253	94.81
379.478	87.81
379.704	90.81
379.929	96.81
380.155	92.81
380.38	80.81
380.606	83.81
380.831	93.81
381.057	96.81
381.282	100.81
381.507	96.81
381.733	87.81
381.958	94.81
382.184	106.81
382.409	96.81
382.634	101.81
382.86	97.81
383.085	88.81
383.31	98.81
383.535	98.81
383.761	92.81
383.986	86.81
384.211	97.81
384.436	91.81
384.662	119.81
384.887	99.81
385.112	110.81
385.337	104.81
385.562	91.81
385.787	119.81
386.013	115.81
386.238	106.81
386.463	119.81
386.688	114.81
386.913	118.81
387.138	106.81
387.363	90.81
387.588	90.81
387.813	109.81
388.038	97.81
388.263	121.81
388.488	112.81
388.713	97.81
388.938	102.81
389.163	94.81
389.387	92.81
389.612	100.81
389.837	84.81
390.062	94.81
390.287	85.81
390.512	91.81
390.736	87.81
390.961	82.81
391.186	95.81
391.411	84.81
391.636	92.81
391.86	76.81
392.085	70.81
392.31	86.81
392.534	94.81
392.759	94.81
392.984	86.81
393.208	67.81
393.433	75.81
393.658	88.81
393.882	87.81
394.107	75.81
394.331	76.81
394.556	88.81
394.78	103.81
395.005	80.81
395.229	80.81
395.454	90.81
395.678	83.81
395.903	87.81
396.127	89.81
396.352	97.81
396.576	81.81
396.801	103.81
397.025	88.81
397.249	101.81
397.474	93.81
397.698	84.81
397.922	89.81
398.147	84.81
398.371	79.81
398.595	88.81
398.82	94.81
399.044	82.81
399.268	86.81
399.492	76.81
399.717	90.81
399.941	99.81
400.165	87.81
400.389	95.81
400.613	82.81
400.837	82.81
401.062	71.81
401.286	86.81
401.51	95.81
401.734	79.81
401.958	92.81
402.182	119.81
402.406	134.81
402.63	101.81
402.854	85.81
403.078	85.81
403.302	90.81
403.526	95.81
403.75	91.81
403.974	87.81
404.198	86.81
404.422	97.81
404.645	78.81
404.869	80.81
405.093	91.81
405.317	82.81
405.541	92.81
405.765	81.81
405.988	101.81
406.212	137.81
406.436	180.81
406.66	132.81
406.883	82.81
407.107	85.81
407.331	99.81
407.555	89.81
407.778	87.81
408.002	90.81
408.226	94.81
408.449	68.81
408.673	85.81
408.896	86.81
409.12	83.81
409.344	85.81
409.567	74.81
409.791	96.81
410.014	78.81
410.238	93.81
410.461	89.81
410.685	80.81
410.908	103.81
411.132	96.81
411.355	92.81
411.578	96.81
411.802	91.81
412.025	91.81
412.249	92.81
412.472	98.81
412.695	87.81
412.919	84.81
413.142	83.81
413.365	70.81
413.589	82.81
413.812	83.81
414.035	86.81
414.258	89.81
414.482	91.81
414.705	91.81
414.928	92.81
415.151	114.81
415.374	87.81
415.597	86.81
415.821	86.81
416.044	90.81
416.267	79.81
416.49	78.81
416.713	94.81
416.936	82.81
417.159	79.81
417.382	83.81
417.605	91.81
417.828	82.81
418.051	83.81
418.274	106.81
418.497	80.81
418.72	92.81
418.943	83.81
419.166	87.81
419.389	85.81
419.611	85.81
419.834	86.81
420.057	99.81
420.28	92.81
420.503	82.81
420.726	83.81
420.948	78.81
421.171	92.81
421.394	83.81
421.617	91.81
421.839	82.81
422.062	94.81
422.285	92.81
422.507	85.81
422.73	94.81
422.953	87.81
423.175	90.81
423.398	79.81
423.621	92.81
423.843	82.81
424.066	83.81
424.288	88.81
424.511	75.81
424.733	92.81
424.956	105.81
425.178	83.81
425.401	95.81
425.623	94.81
425.846	91.81
426.068	84.81
426.291	81.81
426.513	91.81
426.735	90.81
426.958	98.81
427.18	92.81
427.402	119.81
427.625	139.81
427.847	129.81
428.069	102.81
428.292	91.81
428.514	101.81
428.736	94.81
428.958	98.81
429.181	85.81
429.403	75.81
429.625	88.81
429.847	84.81
430.069	109.81
430.292	85.81
430.514	80.81
430.736	96.81
430.958	97.81
431.18	80.81
431.402	85.81
431.624	71.81
431.846	70.81
432.068	74.81
432.29	76.81
432.512	84.81
432.734	74.81
432.956	89.81
433.178	91.81
433.4	92.81
433.622	98.81
433.844	75.81
434.066	89.81
434.287	96.81
434.509	67.81
434.731	87.81
434.953	72.81
435.175	72.81
435.397	98.81
435.618	98.81
435.84	109.81
436.062	113.81
436.284	121.81
436.505	118.81
436.727	108.81
436.949	87.81
437.17	87.81
437.392	79.81
437.614	86.81
437.835	109.81
438.057	99.81
438.278	104.81
438.5	105.81
438.721	122.81
438.943	97.81
439.165	85.81
439.386	97.81
439.608	79.81
439.829	107.81
440.05	117.81
440.272	132.81
440.493	95.81
440.715	81.81
440.936	81.81
441.158	90.81
441.379	91.81
441.6	101.81
441.822	80.81
442.043	82.81
442.264	101.81
442.486	82.81
442.707	81.81
442.928	89.81
443.149	120.81
443.371	102.81
443.592	104.81
443.813	101.81
444.034	115.81
444.255	95.81
444.476	91.81
444.698	100.81
444.919	70.81
445.14	126.81
445.361	104.81
445.582	119.81
445.803	134.81
446.024	144.81
446.245	137.81
446.466	105.81
446.687	78.81
446.908	94.81
447.129	94.81
447.35	98.81
447.571	84.81
447.792	94.81
448.013	103.81
448.234	85.81
448.455	91.81
448.675	112.81
448.896	117.81
449.117	104.81
449.338	92.81
449.559	103.81
449.779	126.81
450	80.81
450.221	86.81
450.442	83.81
450.662	98.81
450.883	102.81
451.104	114.81
451.324	80.81
451.545	93.81
451.766	95.81
451.986	82.81
452.207	83.81
452.428	84.81
452.648	90.81
452.869	74.81
453.089	103.81
453.31	98.81
453.53	89.81
453.751	89.81
453.971	98.81
454.192	99.81
454.412	92.81
454.633	89.81
454.853	91.81
455.073	74.81
455.294	89.81
455.514	92.81
455.734	91.81
455.955	97.81
456.175	80.81
456.395	82.81
456.616	93.81
456.836	93.81
457.056	81.81
457.276	70.81
457.497	70.81
457.717	104.81
457.937	77.81
458.157	87.81
458.377	87.81
458.598	108.81
458.818	118.81
459.038	135.81
459.258	102.81
459.478	91.81
459.698	81.81
459.918	82.81
460.138	72.81
460.358	78.81
460.578	82.81
460.798	86.81
461.018	75.81
461.238	84.81
461.458	83.81
461.678	83.81
461.898	76.81
462.118	89.81
462.338	94.81
462.558	83.81
462.777	92.81
462.997	82.81
463.217	93.81
463.437	83.81
463.657	82.81
463.876	89.81
464.096	74.81
464.316	91.81
464.536	96.81
464.755	91.81
464.975	103.81
465.195	135.81
465.414	135.81
465.634	83.81
465.854	87.81
466.073	91.81
466.293	78.81
466.512	65.81
466.732	83.81
466.951	82.81
467.171	90.81
467.391	87.81
467.61	106.81
467.829	87.81
468.049	85.81
468.268	91.81
468.488	104.81
468.707	75.81
468.927	76.81
469.146	81.81
469.365	85.81
469.585	74.81
469.804	86.81
470.023	84.81
470.243	90.81
470.462	82.81
470.681	84.81
470.901	79.81
471.12	84.81
471.339	100.81
471.558	84.81
471.777	86.81
471.997	88.81
472.216	103.81
472.435	121.81
472.654	75.81
472.873	82.81
473.092	88.81
473.311	96.81
473.53	69.81
473.749	93.81
473.968	96.81
474.187	91.81
474.406	103.81
474.625	92.81
474.844	85.81
475.063	84.81
475.282	90.81
475.501	69.81
475.72	86.81
475.939	104.81
476.158	71.81
476.377	80.81
476.596	79.81
476.814	85.81
477.033	91.81
477.252	76.81
477.471	82.81
477.69	76.81
477.908	84.81
478.127	84.81
478.346	91.81
478.564	91.81
478.783	89.81
479.002	75.81
479.22	88.81
479.439	99.81
479.658	80.81
479.876	96.81
480.095	92.81
480.313	82.81
480.532	80.81
480.751	69.81
480.969	99.81
481.188	174.81
481.406	133.81
481.624	87.81
481.843	80.81
482.061	90.81
482.28	74.81
482.498	90.81
482.717	84.81
482.935	86.81
483.153	91.81
483.372	100.81
483.59	90.81
483.808	80.81
484.027	90.81
484.245	95.81
484.463	84.81
484.681	88.81
484.9	89.81
485.118	98.81
485.336	101.81
485.554	86.81
485.772	94.81
485.99	94.81
486.209	97.81
486.427	99.81
486.645	101.81
486.863	106.81
487.081	94.81
487.299	89.81
487.517	84.81
487.735	91.81
487.953	82.81
488.171	91.81
488.389	90.81
488.607	95.81
488.825	91.81
489.043	80.81
489.261	90.81
489.479	89.81
489.696	89.81
489.914	84.81
490.132	94.81
490.35	76.81
490.568	82.81
490.786	88.81
491.003	96.81
491.221	73.81
491.439	96.81
491.657	92.81
491.874	94.81
492.092	86.81
492.31	87.81
492.527	93.81
492.745	89.81
492.963	87.81
493.18	98.81
493.398	101.81
493.615	98.81
493.833	101.81
494.05	74.81
494.268	91.81
494.485	82.81
494.703	86.81
494.92	73.81
495.138	91.81
495.355	83.81
495.573	91.81
495.79	79.81
496.008	82.81
496.225	90.81
496.442	91.81
496.66	102.81
496.877	104.81
497.094	99.81
497.312	82.81
497.529	76.81
497.746	97.81
497.963	83.81
498.181	94.81
498.398	90.81
498.615	95.81
498.832	108.81
499.049	86.81
499.267	90.81
499.484	92.81
499.701	82.81
499.918	82.81
500.135	82.81
500.352	98.81
500.569	104.81
500.786	89.81
501.003	87.81
501.22	89.81
501.437	86.81
501.654	101.81
501.871	86.81
502.088	90.81
502.305	90.81
502.522	91.81
502.739	99.81
502.956	97.81
503.172	87.81
503.389	97.81
503.606	101.81
503.823	80.81
504.04	80.81
504.256	97.81
504.473	86.81
504.69	92.81
504.907	94.81
505.123	80.81
505.34	80.81
505.557	83.81
505.773	99.81
505.99	83.81
506.207	93.81
506.423	74.81
506.64	82.81
506.856	89.81
507.073	82.81
507.289	89.81
507.506	101.81
507.722	95.81
507.939	94.81
508.155	83.81
508.372	84.81
508.588	103.81
508.805	98.81
509.021	100.81
509.238	89.81
509.454	93.81
509.67	87.81
509.887	94.81
510.103	116.81
510.319	191.81
510.536	626.81
510.752	1820.81
510.968	504.81
511.184	132.81
511.401	100.81
511.617	80.81
511.833	99.81
512.049	85.81
512.265	87.81
512.481	102.81
512.698	100.81
512.914	72.81
513.13	80.81
513.346	92.81
513.562	95.81
513.778	102.81
513.994	104.81
514.21	86.81
514.426	105.81
514.642	120.81
514.858	104.81
515.074	148.81
515.29	359.81
515.506	1105.81
515.721	418.81
515.937	140.81
516.153	104.81
516.369	101.81
516.585	89.81
516.801	95.81
