Data from Uncirc_1981_H10_HRD10591_00045.txt Node
Date: Wed Jan 03 12:33:17 EST 2024
User: Yrep
Spectrometer: HR+D1059
Trigger mode: 1
Integration Time (sec): 1.000000E-1
Scans to average: 1
Electric dark correction enabled: true
Nonlinearity correction enabled: false
Boxcar width: 0
XAxis mode: Wavelengths
Number of Pixels in Spectrum: 2048
>>>>>Begin Spectral Data<<<<<
223.165	-8.25
223.4	-8.25
223.635	-8.25
223.869	-11.25
224.104	-18.25
224.338	-17.25
224.573	-18.25
224.808	-8.25
225.042	-7.25
225.277	-19.25
225.511	-6.25
225.746	13.75
225.98	6.75
226.215	6.75
226.449	10.75
226.683	18.75
226.918	30.75
227.152	26.75
227.387	23.75
227.621	49.75
227.856	41.75
228.09	36.75
228.324	39.75
228.559	53.75
228.793	59.75
229.027	56.75
229.262	68.75
229.496	70.75
229.73	68.75
229.964	68.75
230.199	73.75
230.433	78.75
230.667	71.75
230.901	65.75
231.136	73.75
231.37	72.75
231.604	71.75
231.838	87.75
232.072	75.75
232.306	59.75
232.541	75.75
232.775	79.75
233.009	81.75
233.243	82.75
233.477	76.75
233.711	76.75
233.945	66.75
234.179	84.75
234.413	82.75
234.647	64.75
234.881	86.75
235.115	90.75
235.349	66.75
235.583	78.75
235.817	85.75
236.051	73.75
236.285	76.75
236.519	76.75
236.753	70.75
236.987	81.75
237.221	78.75
237.455	83.75
237.689	83.75
237.922	79.75
238.156	70.75
238.39	63.75
238.624	68.75
238.858	77.75
239.091	74.75
239.325	85.75
239.559	80.75
239.793	84.75
240.027	69.75
240.26	81.75
240.494	66.75
240.728	81.75
240.961	74.75
241.195	103.75
241.429	75.75
241.662	75.75
241.896	84.75
242.13	63.75
242.363	80.75
242.597	72.75
242.83	77.75
243.064	68.75
243.298	72.75
243.531	89.75
243.765	74.75
243.998	79.75
244.232	82.75
244.465	62.75
244.699	68.75
244.932	77.75
245.166	81.75
245.399	71.75
245.633	79.75
245.866	72.75
246.099	85.75
246.333	74.75
246.566	66.75
246.8	75.75
247.033	73.75
247.266	66.75
247.5	77.75
247.733	93.75
247.966	73.75
248.2	76.75
248.433	85.75
248.666	80.75
248.899	77.75
249.133	77.75
249.366	89.75
249.599	111.75
249.832	77.75
250.066	71.75
250.299	82.75
250.532	77.75
250.765	95.75
250.998	74.75
251.231	76.75
251.465	70.75
251.698	70.75
251.931	89.75
252.164	75.75
252.397	77.75
252.63	92.75
252.863	68.75
253.096	83.75
253.329	89.75
253.562	90.75
253.795	81.75
254.028	80.75
254.261	83.75
254.494	84.75
254.727	79.75
254.96	72.75
255.193	67.75
255.426	72.75
255.659	75.75
255.892	76.75
256.124	89.75
256.357	77.75
256.59	66.75
256.823	83.75
257.056	72.75
257.289	71.75
257.521	85.75
257.754	83.75
257.987	73.75
258.22	84.75
258.452	71.75
258.685	76.75
258.918	81.75
259.151	65.75
259.383	82.75
259.616	91.75
259.849	90.75
260.081	87.75
260.314	75.75
260.547	80.75
260.779	81.75
261.012	76.75
261.244	83.75
261.477	87.75
261.71	98.75
261.942	81.75
262.175	85.75
262.407	85.75
262.64	75.75
262.872	81.75
263.105	82.75
263.337	75.75
263.57	78.75
263.802	72.75
264.035	78.75
264.267	87.75
264.499	89.75
264.732	84.75
264.964	70.75
265.197	83.75
265.429	74.75
265.661	76.75
265.894	76.75
266.126	59.75
266.358	78.75
266.591	87.75
266.823	89.75
267.055	71.75
267.287	73.75
267.52	90.75
267.752	92.75
267.984	96.75
268.216	79.75
268.448	82.75
268.681	90.75
268.913	85.75
269.145	85.75
269.377	73.75
269.609	75.75
269.841	82.75
270.073	74.75
270.306	87.75
270.538	88.75
270.77	74.75
271.002	86.75
271.234	75.75
271.466	87.75
271.698	85.75
271.93	79.75
272.162	91.75
272.394	90.75
272.626	101.75
272.858	87.75
273.09	84.75
273.322	76.75
273.553	78.75
273.785	75.75
274.017	77.75
274.249	93.75
274.481	80.75
274.713	85.75
274.945	79.75
275.176	103.75
275.408	87.75
275.64	88.75
275.872	80.75
276.104	80.75
276.335	89.75
276.567	81.75
276.799	96.75
277.031	96.75
277.262	90.75
277.494	77.75
277.726	79.75
277.957	71.75
278.189	84.75
278.421	91.75
278.652	88.75
278.884	74.75
279.115	95.75
279.347	85.75
279.579	81.75
279.81	81.75
280.042	98.75
280.273	95.75
280.505	78.75
280.736	102.75
280.968	92.75
281.199	83.75
281.431	94.75
281.662	81.75
281.894	72.75
282.125	80.75
282.356	99.75
282.588	119.75
282.819	108.75
283.051	85.75
283.282	83.75
283.513	80.75
283.745	68.75
283.976	84.75
284.207	81.75
284.439	82.75
284.67	70.75
284.901	97.75
285.132	93.75
285.364	77.75
285.595	89.75
285.826	85.75
286.057	93.75
286.288	72.75
286.52	88.75
286.751	82.75
286.982	87.75
287.213	79.75
287.444	81.75
287.675	83.75
287.906	84.75
288.138	80.75
288.369	75.75
288.6	81.75
288.831	96.75
289.062	89.75
289.293	93.75
289.524	91.75
289.755	74.75
289.986	73.75
290.217	92.75
290.448	87.75
290.679	101.75
290.91	93.75
291.141	84.75
291.371	81.75
291.602	83.75
291.833	72.75
292.064	97.75
292.295	87.75
292.526	98.75
292.757	82.75
292.987	94.75
293.218	85.75
293.449	100.75
293.68	89.75
293.91	93.75
294.141	89.75
294.372	87.75
294.603	87.75
294.833	79.75
295.064	79.75
295.295	84.75
295.525	82.75
295.756	96.75
295.987	107.75
296.217	117.75
296.448	119.75
296.679	91.75
296.909	102.75
297.14	93.75
297.37	91.75
297.601	97.75
297.831	91.75
298.062	87.75
298.292	88.75
298.523	99.75
298.753	87.75
298.984	97.75
299.214	93.75
299.445	90.75
299.675	87.75
299.905	82.75
300.136	91.75
300.366	82.75
300.597	85.75
300.827	92.75
301.057	90.75
301.288	98.75
301.518	92.75
301.748	82.75
301.979	95.75
302.209	78.75
302.439	95.75
302.669	83.75
302.9	99.75
303.13	88.75
303.36	101.75
303.59	98.75
303.82	99.75
304.051	82.75
304.281	89.75
304.511	95.75
304.741	81.75
304.971	89.75
305.201	82.75
305.431	88.75
305.661	102.75
305.891	98.75
306.121	91.75
306.352	93.75
306.582	101.75
306.812	87.75
307.042	88.75
307.272	92.75
307.502	101.75
307.731	96.75
307.961	92.75
308.191	72.75
308.421	87.75
308.651	91.75
308.881	90.75
309.111	99.75
309.341	91.75
309.571	92.75
309.8	91.75
310.03	92.75
310.26	79.75
310.49	81.75
310.72	105.75
310.949	98.75
311.179	98.75
311.409	97.75
311.639	85.75
311.868	100.75
312.098	89.75
312.328	102.75
312.557	91.75
312.787	94.75
313.017	91.75
313.246	82.75
313.476	87.75
313.706	85.75
313.935	76.75
314.165	83.75
314.394	107.75
314.624	88.75
314.853	103.75
315.083	92.75
315.312	82.75
315.542	87.75
315.771	105.75
316.001	87.75
316.23	90.75
316.46	88.75
316.689	94.75
316.919	89.75
317.148	102.75
317.377	100.75
317.607	98.75
317.836	74.75
318.065	88.75
318.295	87.75
318.524	84.75
318.753	92.75
318.983	88.75
319.212	94.75
319.441	108.75
319.67	97.75
319.9	81.75
320.129	81.75
320.358	98.75
320.587	93.75
320.816	91.75
321.046	101.75
321.275	106.75
321.504	103.75
321.733	105.75
321.962	90.75
322.191	94.75
322.42	90.75
322.649	95.75
322.878	110.75
323.108	105.75
323.337	108.75
323.566	118.75
323.795	136.75
324.024	177.75
324.253	321.75
324.482	704.75
324.71	1457.75
324.939	1938.75
325.168	686.75
325.397	230.75
325.626	143.75
325.855	115.75
326.084	100.75
326.313	117.75
326.542	155.75
326.77	212.75
326.999	388.75
327.228	843.75
327.457	1565.75
327.686	1232.75
327.914	331.75
328.143	171.75
328.372	137.75
328.6	106.75
328.829	119.75
329.058	122.75
329.287	110.75
329.515	97.75
329.744	104.75
329.972	101.75
330.201	118.75
330.43	109.75
330.658	95.75
330.887	112.75
331.115	115.75
331.344	88.75
331.572	107.75
331.801	108.75
332.03	91.75
332.258	97.75
332.486	95.75
332.715	90.75
332.943	93.75
333.172	83.75
333.4	97.75
333.629	99.75
333.857	106.75
334.085	117.75
334.314	118.75
334.542	108.75
334.771	114.75
334.999	103.75
335.227	67.75
335.455	85.75
335.684	115.75
335.912	90.75
336.14	105.75
336.369	90.75
336.597	109.75
336.825	88.75
337.053	81.75
337.281	86.75
337.51	101.75
337.738	82.75
337.966	87.75
338.194	99.75
338.422	85.75
338.65	95.75
338.878	87.75
339.106	75.75
339.334	88.75
339.562	98.75
339.79	85.75
340.018	96.75
340.246	79.75
340.474	98.75
340.702	97.75
340.93	91.75
341.158	96.75
341.386	92.75
341.614	98.75
341.842	90.75
342.07	109.75
342.298	89.75
342.526	102.75
342.754	89.75
342.981	101.75
343.209	81.75
343.437	95.75
343.665	88.75
343.893	91.75
344.12	98.75
344.348	85.75
344.576	92.75
344.804	90.75
345.031	96.75
345.259	76.75
345.487	89.75
345.714	97.75
345.942	90.75
346.17	99.75
346.397	83.75
346.625	79.75
346.853	95.75
347.08	96.75
347.308	95.75
347.535	81.75
347.763	105.75
347.99	93.75
348.218	99.75
348.445	90.75
348.673	89.75
348.9	94.75
349.128	99.75
349.355	80.75
349.583	75.75
349.81	90.75
350.037	76.75
350.265	82.75
350.492	100.75
350.72	96.75
350.947	99.75
351.174	100.75
351.402	116.75
351.629	89.75
351.856	95.75
352.083	96.75
352.311	97.75
352.538	91.75
352.765	87.75
352.992	97.75
353.22	110.75
353.447	109.75
353.674	107.75
353.901	104.75
354.128	95.75
354.355	106.75
354.583	99.75
354.81	85.75
355.037	91.75
355.264	91.75
355.491	95.75
355.718	96.75
355.945	93.75
356.172	94.75
356.399	89.75
356.626	81.75
356.853	92.75
357.08	99.75
357.307	90.75
357.534	98.75
357.761	93.75
357.988	98.75
358.215	97.75
358.441	90.75
358.668	90.75
358.895	88.75
359.122	93.75
359.349	83.75
359.576	73.75
359.802	86.75
360.029	85.75
360.256	99.75
360.483	96.75
360.709	86.75
360.936	92.75
361.163	101.75
361.39	88.75
361.616	93.75
361.843	84.75
362.07	83.75
362.296	85.75
362.523	92.75
362.749	109.75
362.976	73.75
363.203	87.75
363.429	99.75
363.656	91.75
363.882	93.75
364.109	87.75
364.335	90.75
364.562	82.75
364.788	91.75
365.015	87.75
365.241	98.75
365.468	100.75
365.694	85.75
365.92	91.75
366.147	87.75
366.373	69.75
366.599	81.75
366.826	83.75
367.052	98.75
367.278	91.75
367.505	86.75
367.731	90.75
367.957	71.75
368.184	85.75
368.41	89.75
368.636	104.75
368.862	95.75
369.089	87.75
369.315	93.75
369.541	95.75
369.767	81.75
369.993	87.75
370.219	90.75
370.445	90.75
370.672	83.75
370.898	86.75
371.124	85.75
371.35	88.75
371.576	69.75
371.802	74.75
372.028	88.75
372.254	92.75
372.48	76.75
372.706	98.75
372.932	92.75
373.158	91.75
373.384	98.75
373.61	86.75
373.835	82.75
374.061	83.75
374.287	91.75
374.513	83.75
374.739	75.75
374.965	77.75
375.191	83.75
375.416	89.75
375.642	97.75
375.868	109.75
376.094	102.75
376.319	85.75
376.545	87.75
376.771	75.75
376.997	89.75
377.222	98.75
377.448	85.75
377.674	87.75
377.899	102.75
378.125	91.75
378.35	87.75
378.576	98.75
378.802	87.75
379.027	85.75
379.253	108.75
379.478	116.75
379.704	89.75
379.929	89.75
380.155	90.75
380.38	96.75
380.606	100.75
380.831	100.75
381.057	99.75
381.282	96.75
381.507	89.75
381.733	92.75
381.958	91.75
382.184	96.75
382.409	92.75
382.634	95.75
382.86	103.75
383.085	83.75
383.31	104.75
383.535	108.75
383.761	99.75
383.986	88.75
384.211	102.75
384.436	91.75
384.662	97.75
384.887	91.75
385.112	107.75
385.337	105.75
385.562	87.75
385.787	117.75
386.013	107.75
386.238	105.75
386.463	90.75
386.688	117.75
386.913	89.75
387.138	98.75
387.363	92.75
387.588	105.75
387.813	103.75
388.038	102.75
388.263	105.75
388.488	108.75
388.713	107.75
388.938	94.75
389.163	84.75
389.387	92.75
389.612	78.75
389.837	86.75
390.062	92.75
390.287	87.75
390.512	90.75
390.736	108.75
390.961	92.75
391.186	84.75
391.411	83.75
391.636	89.75
391.86	84.75
392.085	96.75
392.31	74.75
392.534	84.75
392.759	75.75
392.984	77.75
393.208	102.75
393.433	86.75
393.658	69.75
393.882	89.75
394.107	99.75
394.331	100.75
394.556	86.75
394.78	83.75
395.005	87.75
395.229	96.75
395.454	99.75
395.678	89.75
395.903	79.75
396.127	86.75
396.352	77.75
396.576	76.75
396.801	91.75
397.025	83.75
397.249	72.75
397.474	95.75
397.698	89.75
397.922	81.75
398.147	95.75
398.371	84.75
398.595	79.75
398.82	83.75
399.044	85.75
399.268	97.75
399.492	86.75
399.717	97.75
399.941	81.75
400.165	100.75
400.389	85.75
400.613	92.75
400.837	88.75
401.062	84.75
401.286	88.75
401.51	82.75
401.734	82.75
401.958	92.75
402.182	104.75
402.406	114.75
402.63	114.75
402.854	83.75
403.078	79.75
403.302	68.75
403.526	88.75
403.75	85.75
403.974	85.75
404.198	75.75
404.422	78.75
404.645	96.75
404.869	106.75
405.093	77.75
405.317	97.75
405.541	89.75
405.765	105.75
405.988	95.75
406.212	134.75
406.436	172.75
406.66	116.75
406.883	91.75
407.107	83.75
407.331	87.75
407.555	95.75
407.778	100.75
408.002	72.75
408.226	74.75
408.449	78.75
408.673	89.75
408.896	89.75
409.12	100.75
409.344	90.75
409.567	92.75
409.791	84.75
410.014	89.75
410.238	91.75
410.461	78.75
410.685	104.75
410.908	93.75
411.132	95.75
411.355	80.75
411.578	80.75
411.802	92.75
412.025	82.75
412.249	99.75
412.472	97.75
412.695	88.75
412.919	81.75
413.142	91.75
413.365	82.75
413.589	83.75
413.812	89.75
414.035	103.75
414.258	73.75
414.482	90.75
414.705	83.75
414.928	88.75
415.151	81.75
415.374	101.75
415.597	95.75
415.821	94.75
416.044	92.75
416.267	93.75
416.49	89.75
416.713	82.75
416.936	81.75
417.159	78.75
417.382	80.75
417.605	72.75
417.828	99.75
418.051	100.75
418.274	92.75
418.497	74.75
418.72	95.75
418.943	85.75
419.166	76.75
419.389	80.75
419.611	90.75
419.834	83.75
420.057	97.75
420.28	92.75
420.503	87.75
420.726	84.75
420.948	106.75
421.171	88.75
421.394	88.75
421.617	83.75
421.839	87.75
422.062	94.75
422.285	101.75
422.507	91.75
422.73	96.75
422.953	79.75
423.175	96.75
423.398	90.75
423.621	88.75
423.843	89.75
424.066	92.75
424.288	80.75
424.511	99.75
424.733	94.75
424.956	97.75
425.178	87.75
425.401	90.75
425.623	82.75
425.846	104.75
426.068	93.75
426.291	87.75
426.513	88.75
426.735	94.75
426.958	85.75
427.18	83.75
427.402	121.75
427.625	118.75
427.847	113.75
428.069	109.75
428.292	67.75
428.514	93.75
428.736	76.75
428.958	69.75
429.181	99.75
429.403	89.75
429.625	98.75
429.847	86.75
430.069	79.75
430.292	84.75
430.514	71.75
430.736	81.75
430.958	90.75
431.18	81.75
431.402	75.75
431.624	71.75
431.846	89.75
432.068	94.75
432.29	87.75
432.512	98.75
432.734	87.75
432.956	81.75
433.178	79.75
433.4	91.75
433.622	76.75
433.844	89.75
434.066	85.75
434.287	79.75
434.509	93.75
434.731	92.75
434.953	98.75
435.175	90.75
435.397	86.75
435.618	90.75
435.84	93.75
436.062	104.75
436.284	108.75
436.505	96.75
436.727	92.75
436.949	96.75
437.17	97.75
437.392	84.75
437.614	87.75
437.835	82.75
438.057	102.75
438.278	95.75
438.5	111.75
438.721	117.75
438.943	92.75
439.165	83.75
439.386	87.75
439.608	89.75
439.829	95.75
440.05	119.75
440.272	122.75
440.493	92.75
440.715	94.75
440.936	94.75
441.158	96.75
441.379	83.75
441.6	95.75
441.822	95.75
442.043	90.75
442.264	99.75
442.486	89.75
442.707	87.75
442.928	91.75
443.149	125.75
443.371	122.75
443.592	85.75
443.813	92.75
444.034	87.75
444.255	96.75
444.476	84.75
444.698	96.75
444.919	90.75
445.14	122.75
445.361	126.75
445.582	91.75
445.803	131.75
446.024	114.75
446.245	106.75
446.466	100.75
446.687	94.75
446.908	87.75
447.129	93.75
447.35	86.75
447.571	77.75
447.792	83.75
448.013	84.75
448.234	93.75
448.455	97.75
448.675	98.75
448.896	92.75
449.117	88.75
449.338	115.75
449.559	115.75
449.779	122.75
450	94.75
450.221	98.75
450.442	98.75
450.662	95.75
450.883	86.75
451.104	102.75
451.324	93.75
451.545	62.75
451.766	86.75
451.986	81.75
452.207	67.75
452.428	87.75
452.648	97.75
452.869	97.75
453.089	97.75
453.31	89.75
453.53	91.75
453.751	77.75
453.971	83.75
454.192	95.75
454.412	92.75
454.633	87.75
454.853	86.75
455.073	81.75
455.294	82.75
455.514	95.75
455.734	95.75
455.955	76.75
456.175	81.75
456.395	100.75
456.616	71.75
456.836	83.75
457.056	89.75
457.276	69.75
457.497	85.75
457.717	95.75
457.937	83.75
458.157	85.75
458.377	66.75
458.598	113.75
458.818	120.75
459.038	125.75
459.258	96.75
459.478	75.75
459.698	87.75
459.918	91.75
460.138	85.75
460.358	61.75
460.578	81.75
460.798	99.75
461.018	94.75
461.238	95.75
461.458	84.75
461.678	82.75
461.898	86.75
462.118	92.75
462.338	84.75
462.558	75.75
462.777	80.75
462.997	87.75
463.217	82.75
463.437	81.75
463.657	89.75
463.876	82.75
464.096	89.75
464.316	87.75
464.536	92.75
464.755	81.75
464.975	93.75
465.195	133.75
465.414	125.75
465.634	79.75
465.854	67.75
466.073	89.75
466.293	91.75
466.512	76.75
466.732	90.75
466.951	96.75
467.171	92.75
467.391	100.75
467.61	85.75
467.829	89.75
468.049	98.75
468.268	88.75
468.488	87.75
468.707	88.75
468.927	93.75
469.146	91.75
469.365	84.75
469.585	73.75
469.804	101.75
470.023	86.75
470.243	90.75
470.462	85.75
470.681	109.75
470.901	80.75
471.12	85.75
471.339	99.75
471.558	74.75
471.777	95.75
471.997	80.75
472.216	96.75
472.435	117.75
472.654	85.75
472.873	77.75
473.092	95.75
473.311	67.75
473.53	88.75
473.749	92.75
473.968	96.75
474.187	94.75
474.406	94.75
474.625	80.75
474.844	91.75
475.063	84.75
475.282	87.75
475.501	88.75
475.72	100.75
475.939	83.75
476.158	83.75
476.377	89.75
476.596	80.75
476.814	68.75
477.033	81.75
477.252	87.75
477.471	89.75
477.69	83.75
477.908	77.75
478.127	83.75
478.346	83.75
478.564	79.75
478.783	90.75
479.002	76.75
479.22	86.75
479.439	92.75
479.658	79.75
479.876	88.75
480.095	83.75
480.313	81.75
480.532	93.75
480.751	94.75
480.969	103.75
481.188	170.75
481.406	126.75
481.624	102.75
481.843	90.75
482.061	96.75
482.28	96.75
482.498	83.75
482.717	90.75
482.935	90.75
483.153	93.75
483.372	84.75
483.59	93.75
483.808	93.75
484.027	95.75
484.245	85.75
484.463	87.75
484.681	86.75
484.9	87.75
485.118	85.75
485.336	79.75
485.554	90.75
485.772	105.75
485.99	99.75
486.209	104.75
486.427	99.75
486.645	112.75
486.863	101.75
487.081	115.75
487.299	97.75
487.517	87.75
487.735	92.75
487.953	96.75
488.171	97.75
488.389	102.75
488.607	92.75
488.825	89.75
489.043	81.75
489.261	96.75
489.479	97.75
489.696	95.75
489.914	81.75
490.132	80.75
490.35	96.75
490.568	99.75
490.786	105.75
491.003	91.75
491.221	86.75
491.439	95.75
491.657	104.75
491.874	99.75
492.092	83.75
492.31	81.75
492.527	80.75
492.745	98.75
492.963	113.75
493.18	96.75
493.398	86.75
493.615	100.75
493.833	99.75
494.05	89.75
494.268	90.75
494.485	91.75
494.703	86.75
494.92	95.75
495.138	85.75
495.355	86.75
495.573	89.75
495.79	81.75
496.008	99.75
496.225	81.75
496.442	74.75
496.66	87.75
496.877	93.75
497.094	96.75
497.312	78.75
497.529	82.75
497.746	88.75
497.963	78.75
498.181	84.75
498.398	105.75
498.615	90.75
498.832	98.75
499.049	95.75
499.267	83.75
499.484	96.75
499.701	95.75
499.918	108.75
500.135	87.75
500.352	79.75
500.569	91.75
500.786	82.75
501.003	92.75
501.22	91.75
501.437	96.75
501.654	97.75
501.871	80.75
502.088	83.75
502.305	90.75
502.522	81.75
502.739	84.75
502.956	90.75
503.172	74.75
503.389	84.75
503.606	91.75
503.823	104.75
504.04	89.75
504.256	95.75
504.473	90.75
504.69	74.75
504.907	100.75
505.123	91.75
505.34	81.75
505.557	88.75
505.773	90.75
505.99	69.75
506.207	89.75
506.423	89.75
506.64	95.75
506.856	90.75
507.073	86.75
507.289	84.75
507.506	102.75
507.722	112.75
507.939	83.75
508.155	86.75
508.372	97.75
508.588	84.75
508.805	91.75
509.021	88.75
509.238	94.75
509.454	97.75
509.67	90.75
509.887	101.75
510.103	107.75
510.319	164.75
510.536	553.75
510.752	1603.75
510.968	453.75
511.184	133.75
511.401	100.75
511.617	92.75
511.833	93.75
512.049	99.75
512.265	98.75
512.481	95.75
512.698	97.75
512.914	87.75
513.13	90.75
513.346	82.75
513.562	98.75
513.778	89.75
513.994	91.75
514.21	100.75
514.426	110.75
514.642	119.75
514.858	94.75
515.074	120.75
515.29	316.75
515.506	945.75
515.721	347.75
515.937	124.75
516.153	103.75
516.369	92.75
516.585	76.75
516.801	100.75
517.016	97.75
517.232	88.75
