Data from Uncirc_1981_H10_HRD10591_00086.txt Node
Date: Wed Jan 03 12:33:25 EST 2024
User: Yrep
Spectrometer: HR+D1059
Trigger mode: 1
Integration Time (sec): 1.000000E-1
Scans to average: 1
Electric dark correction enabled: true
Nonlinearity correction enabled: false
Boxcar width: 0
XAxis mode: Wavelengths
Number of Pixels in Spectrum: 2048
>>>>>Begin Spectral Data<<<<<
223.165	-19.31
223.4	-19.31
223.635	-19.31
223.869	-19.31
224.104	-14.31
224.338	-8.31
224.573	-24.31
224.808	-8.31
225.042	-18.31
225.277	-16.31
225.511	7.69
225.746	-5.31
225.98	5.69
226.215	25.69
226.449	18.69
226.683	26.69
226.918	31.69
227.152	17.69
227.387	28.69
227.621	47.69
227.856	42.69
228.09	54.69
228.324	51.69
228.559	56.69
228.793	49.69
229.027	50.69
229.262	68.69
229.496	75.69
229.73	78.69
229.964	86.69
230.199	73.69
230.433	74.69
230.667	76.69
230.901	80.69
231.136	86.69
231.37	70.69
231.604	84.69
231.838	72.69
232.072	73.69
232.306	82.69
232.541	82.69
232.775	67.69
233.009	68.69
233.243	77.69
233.477	85.69
233.711	78.69
233.945	83.69
234.179	74.69
234.413	64.69
234.647	81.69
234.881	78.69
235.115	72.69
235.349	62.69
235.583	89.69
235.817	75.69
236.051	74.69
236.285	67.69
236.519	83.69
236.753	72.69
236.987	66.69
237.221	85.69
237.455	74.69
237.689	75.69
237.922	81.69
238.156	65.69
238.39	68.69
238.624	81.69
238.858	74.69
239.091	82.69
239.325	74.69
239.559	83.69
239.793	72.69
240.027	72.69
240.26	78.69
240.494	82.69
240.728	63.69
240.961	62.69
241.195	83.69
241.429	69.69
241.662	76.69
241.896	77.69
242.13	70.69
242.363	82.69
242.597	59.69
242.83	78.69
243.064	74.69
243.298	80.69
243.531	69.69
243.765	67.69
243.998	70.69
244.232	71.69
244.465	74.69
244.699	74.69
244.932	72.69
245.166	78.69
245.399	79.69
245.633	79.69
245.866	81.69
246.099	79.69
246.333	85.69
246.566	88.69
246.8	83.69
247.033	72.69
247.266	77.69
247.5	78.69
247.733	76.69
247.966	77.69
248.2	80.69
248.433	70.69
248.666	72.69
248.899	88.69
249.133	91.69
249.366	92.69
249.599	86.69
249.832	84.69
250.066	84.69
250.299	64.69
250.532	85.69
250.765	80.69
250.998	81.69
251.231	70.69
251.465	75.69
251.698	74.69
251.931	74.69
252.164	70.69
252.397	68.69
252.63	82.69
252.863	86.69
253.096	71.69
253.329	72.69
253.562	81.69
253.795	69.69
254.028	65.69
254.261	68.69
254.494	71.69
254.727	90.69
254.96	80.69
255.193	86.69
255.426	79.69
255.659	68.69
255.892	82.69
256.124	64.69
256.357	90.69
256.59	85.69
256.823	81.69
257.056	82.69
257.289	87.69
257.521	80.69
257.754	65.69
257.987	73.69
258.22	75.69
258.452	78.69
258.685	82.69
258.918	73.69
259.151	64.69
259.383	73.69
259.616	80.69
259.849	86.69
260.081	87.69
260.314	91.69
260.547	73.69
260.779	70.69
261.012	78.69
261.244	100.69
261.477	95.69
261.71	99.69
261.942	101.69
262.175	93.69
262.407	68.69
262.64	70.69
262.872	87.69
263.105	82.69
263.337	93.69
263.57	81.69
263.802	88.69
264.035	79.69
264.267	92.69
264.499	82.69
264.732	89.69
264.964	82.69
265.197	85.69
265.429	90.69
265.661	101.69
265.894	95.69
266.126	98.69
266.358	88.69
266.591	75.69
266.823	90.69
267.055	78.69
267.287	81.69
267.52	90.69
267.752	86.69
267.984	80.69
268.216	85.69
268.448	90.69
268.681	79.69
268.913	67.69
269.145	82.69
269.377	93.69
269.609	75.69
269.841	66.69
270.073	79.69
270.306	75.69
270.538	88.69
270.77	78.69
271.002	96.69
271.234	87.69
271.466	75.69
271.698	89.69
271.93	72.69
272.162	83.69
272.394	91.69
272.626	81.69
272.858	78.69
273.09	88.69
273.322	85.69
273.553	95.69
273.785	79.69
274.017	82.69
274.249	81.69
274.481	86.69
274.713	79.69
274.945	82.69
275.176	88.69
275.408	89.69
275.64	75.69
275.872	81.69
276.104	90.69
276.335	90.69
276.567	88.69
276.799	92.69
277.031	92.69
277.262	94.69
277.494	86.69
277.726	82.69
277.957	79.69
278.189	81.69
278.421	79.69
278.652	66.69
278.884	74.69
279.115	82.69
279.347	98.69
279.579	82.69
279.81	67.69
280.042	94.69
280.273	82.69
280.505	85.69
280.736	84.69
280.968	87.69
281.199	87.69
281.431	81.69
281.662	92.69
281.894	86.69
282.125	96.69
282.356	105.69
282.588	139.69
282.819	106.69
283.051	86.69
283.282	73.69
283.513	88.69
283.745	86.69
283.976	75.69
284.207	94.69
284.439	90.69
284.67	95.69
284.901	76.69
285.132	84.69
285.364	86.69
285.595	88.69
285.826	78.69
286.057	84.69
286.288	81.69
286.52	88.69
286.751	77.69
286.982	81.69
287.213	88.69
287.444	91.69
287.675	83.69
287.906	78.69
288.138	89.69
288.369	98.69
288.6	92.69
288.831	67.69
289.062	85.69
289.293	87.69
289.524	85.69
289.755	75.69
289.986	78.69
290.217	82.69
290.448	85.69
290.679	111.69
290.91	84.69
291.141	90.69
291.371	90.69
291.602	78.69
291.833	83.69
292.064	86.69
292.295	75.69
292.526	84.69
292.757	73.69
292.987	78.69
293.218	90.69
293.449	88.69
293.68	71.69
293.91	83.69
294.141	95.69
294.372	92.69
294.603	79.69
294.833	88.69
295.064	88.69
295.295	87.69
295.525	97.69
295.756	92.69
295.987	119.69
296.217	122.69
296.448	124.69
296.679	88.69
296.909	95.69
297.14	97.69
297.37	91.69
297.601	69.69
297.831	92.69
298.062	82.69
298.292	84.69
298.523	95.69
298.753	95.69
298.984	84.69
299.214	93.69
299.445	84.69
299.675	90.69
299.905	87.69
300.136	88.69
300.366	87.69
300.597	96.69
300.827	87.69
301.057	95.69
301.288	95.69
301.518	92.69
301.748	83.69
301.979	93.69
302.209	87.69
302.439	97.69
302.669	90.69
302.9	94.69
303.13	82.69
303.36	90.69
303.59	103.69
303.82	105.69
304.051	95.69
304.281	92.69
304.511	85.69
304.741	88.69
304.971	84.69
305.201	87.69
305.431	82.69
305.661	97.69
305.891	78.69
306.121	102.69
306.352	101.69
306.582	94.69
306.812	106.69
307.042	92.69
307.272	89.69
307.502	92.69
307.731	98.69
307.961	85.69
308.191	91.69
308.421	84.69
308.651	91.69
308.881	87.69
309.111	106.69
309.341	100.69
309.571	90.69
309.8	85.69
310.03	94.69
310.26	97.69
310.49	104.69
310.72	85.69
310.949	103.69
311.179	86.69
311.409	90.69
311.639	86.69
311.868	89.69
312.098	83.69
312.328	103.69
312.557	105.69
312.787	105.69
313.017	99.69
313.246	80.69
313.476	82.69
313.706	93.69
313.935	94.69
314.165	91.69
314.394	91.69
314.624	97.69
314.853	98.69
315.083	86.69
315.312	85.69
315.542	71.69
315.771	102.69
316.001	84.69
316.23	93.69
316.46	85.69
316.689	90.69
316.919	70.69
317.148	87.69
317.377	94.69
317.607	94.69
317.836	75.69
318.065	82.69
318.295	94.69
318.524	100.69
318.753	94.69
318.983	100.69
319.212	90.69
319.441	111.69
319.67	94.69
319.9	86.69
320.129	92.69
320.358	94.69
320.587	98.69
320.816	89.69
321.046	102.69
321.275	104.69
321.504	88.69
321.733	88.69
321.962	96.69
322.191	95.69
322.42	104.69
322.649	99.69
322.878	97.69
323.108	108.69
323.337	123.69
323.566	135.69
323.795	149.69
324.024	217.69
324.253	382.69
324.482	835.69
324.71	1736.69
324.939	2348.69
325.168	838.69
325.397	251.69
325.626	143.69
325.855	138.69
326.084	131.69
326.313	120.69
326.542	144.69
326.77	218.69
326.999	459.69
327.228	980.69
327.457	1825.69
327.686	1452.69
327.914	361.69
328.143	172.69
328.372	142.69
328.6	133.69
328.829	108.69
329.058	118.69
329.287	107.69
329.515	107.69
329.744	116.69
329.972	113.69
330.201	118.69
330.43	121.69
330.658	123.69
330.887	137.69
331.115	111.69
331.344	93.69
331.572	90.69
331.801	109.69
332.03	104.69
332.258	98.69
332.486	101.69
332.715	94.69
332.943	83.69
333.172	90.69
333.4	94.69
333.629	100.69
333.857	114.69
334.085	101.69
334.314	123.69
334.542	128.69
334.771	138.69
334.999	95.69
335.227	98.69
335.455	90.69
335.684	88.69
335.912	98.69
336.14	93.69
336.369	103.69
336.597	97.69
336.825	106.69
337.053	90.69
337.281	97.69
337.51	101.69
337.738	92.69
337.966	87.69
338.194	80.69
338.422	92.69
338.65	86.69
338.878	86.69
339.106	89.69
339.334	88.69
339.562	84.69
339.79	94.69
340.018	91.69
340.246	78.69
340.474	71.69
340.702	78.69
340.93	103.69
341.158	96.69
341.386	91.69
341.614	98.69
341.842	101.69
342.07	100.69
342.298	79.69
342.526	105.69
342.754	99.69
342.981	90.69
343.209	75.69
343.437	102.69
343.665	86.69
343.893	88.69
344.12	90.69
344.348	80.69
344.576	83.69
344.804	92.69
345.031	110.69
345.259	101.69
345.487	98.69
345.714	98.69
345.942	88.69
346.17	86.69
346.397	94.69
346.625	93.69
346.853	80.69
347.08	86.69
347.308	89.69
347.535	99.69
347.763	88.69
347.99	94.69
348.218	121.69
348.445	92.69
348.673	85.69
348.9	106.69
349.128	79.69
349.355	92.69
349.583	94.69
349.81	82.69
350.037	71.69
350.265	88.69
350.492	88.69
350.72	93.69
350.947	103.69
351.174	103.69
351.402	111.69
351.629	94.69
351.856	79.69
352.083	89.69
352.311	108.69
352.538	111.69
352.765	106.69
352.992	104.69
353.22	107.69
353.447	98.69
353.674	95.69
353.901	108.69
354.128	93.69
354.355	96.69
354.583	106.69
354.81	90.69
355.037	94.69
355.264	99.69
355.491	84.69
355.718	84.69
355.945	99.69
356.172	94.69
356.399	90.69
356.626	89.69
356.853	96.69
357.08	86.69
357.307	78.69
357.534	91.69
357.761	102.69
357.988	92.69
358.215	95.69
358.441	99.69
358.668	95.69
358.895	81.69
359.122	94.69
359.349	90.69
359.576	89.69
359.802	113.69
360.029	100.69
360.256	103.69
360.483	97.69
360.709	98.69
360.936	81.69
361.163	85.69
361.39	90.69
361.616	80.69
361.843	97.69
362.07	92.69
362.296	89.69
362.523	94.69
362.749	96.69
362.976	85.69
363.203	90.69
363.429	99.69
363.656	88.69
363.882	81.69
364.109	80.69
364.335	97.69
364.562	84.69
364.788	94.69
365.015	94.69
365.241	83.69
365.468	95.69
365.694	111.69
365.92	93.69
366.147	94.69
366.373	98.69
366.599	95.69
366.826	84.69
367.052	91.69
367.278	92.69
367.505	87.69
367.731	102.69
367.957	73.69
368.184	94.69
368.41	93.69
368.636	112.69
368.862	108.69
369.089	103.69
369.315	99.69
369.541	95.69
369.767	90.69
369.993	98.69
370.219	100.69
370.445	84.69
370.672	92.69
370.898	103.69
371.124	79.69
371.35	86.69
371.576	95.69
371.802	81.69
372.028	81.69
372.254	97.69
372.48	91.69
372.706	83.69
372.932	78.69
373.158	90.69
373.384	91.69
373.61	84.69
373.835	97.69
374.061	82.69
374.287	83.69
374.513	86.69
374.739	82.69
374.965	82.69
375.191	90.69
375.416	97.69
375.642	82.69
375.868	91.69
376.094	81.69
376.319	78.69
376.545	82.69
376.771	92.69
376.997	98.69
377.222	98.69
377.448	90.69
377.674	79.69
377.899	73.69
378.125	87.69
378.35	93.69
378.576	107.69
378.802	96.69
379.027	86.69
379.253	87.69
379.478	102.69
379.704	89.69
379.929	95.69
380.155	86.69
380.38	76.69
380.606	79.69
380.831	97.69
381.057	87.69
381.282	76.69
381.507	83.69
381.733	88.69
381.958	104.69
382.184	91.69
382.409	103.69
382.634	109.69
382.86	105.69
383.085	91.69
383.31	101.69
383.535	108.69
383.761	104.69
383.986	90.69
384.211	108.69
384.436	93.69
384.662	108.69
384.887	102.69
385.112	95.69
385.337	88.69
385.562	83.69
385.787	107.69
386.013	110.69
386.238	108.69
386.463	115.69
386.688	100.69
386.913	95.69
387.138	104.69
387.363	113.69
387.588	98.69
387.813	90.69
388.038	90.69
388.263	104.69
388.488	104.69
388.713	91.69
388.938	114.69
389.163	95.69
389.387	90.69
389.612	94.69
389.837	87.69
390.062	74.69
390.287	86.69
390.512	89.69
390.736	82.69
390.961	99.69
391.186	90.69
391.411	93.69
391.636	90.69
391.86	80.69
392.085	80.69
392.31	87.69
392.534	66.69
392.759	99.69
392.984	75.69
393.208	75.69
393.433	103.69
393.658	78.69
393.882	93.69
394.107	75.69
394.331	73.69
394.556	90.69
394.78	86.69
395.005	94.69
395.229	90.69
395.454	84.69
395.678	87.69
395.903	78.69
396.127	98.69
396.352	86.69
396.576	80.69
396.801	83.69
397.025	90.69
397.249	72.69
397.474	93.69
397.698	86.69
397.922	82.69
398.147	80.69
398.371	78.69
398.595	97.69
398.82	88.69
399.044	75.69
399.268	91.69
399.492	83.69
399.717	78.69
399.941	81.69
400.165	87.69
400.389	86.69
400.613	88.69
400.837	82.69
401.062	72.69
401.286	84.69
401.51	88.69
401.734	98.69
401.958	95.69
402.182	108.69
402.406	138.69
402.63	115.69
402.854	80.69
403.078	95.69
403.302	79.69
403.526	80.69
403.75	90.69
403.974	81.69
404.198	78.69
404.422	89.69
404.645	89.69
404.869	87.69
405.093	90.69
405.317	93.69
405.541	96.69
405.765	103.69
405.988	108.69
406.212	156.69
406.436	207.69
406.66	122.69
406.883	98.69
407.107	96.69
407.331	96.69
407.555	102.69
407.778	107.69
408.002	88.69
408.226	92.69
408.449	97.69
408.673	82.69
408.896	81.69
409.12	97.69
409.344	91.69
409.567	85.69
409.791	95.69
410.014	80.69
410.238	92.69
410.461	90.69
410.685	81.69
410.908	102.69
411.132	106.69
411.355	111.69
411.578	96.69
411.802	102.69
412.025	82.69
412.249	90.69
412.472	87.69
412.695	94.69
412.919	87.69
413.142	86.69
413.365	81.69
413.589	70.69
413.812	89.69
414.035	98.69
414.258	98.69
414.482	83.69
414.705	89.69
414.928	90.69
415.151	85.69
415.374	73.69
415.597	81.69
415.821	92.69
416.044	79.69
416.267	91.69
416.49	81.69
416.713	88.69
416.936	89.69
417.159	91.69
417.382	81.69
417.605	84.69
417.828	97.69
418.051	92.69
418.274	92.69
418.497	85.69
418.72	70.69
418.943	95.69
419.166	85.69
419.389	88.69
419.611	90.69
419.834	83.69
420.057	76.69
420.28	92.69
420.503	80.69
420.726	95.69
420.948	79.69
421.171	87.69
421.394	99.69
421.617	79.69
421.839	90.69
422.062	94.69
422.285	91.69
422.507	87.69
422.73	97.69
422.953	98.69
423.175	87.69
423.398	80.69
423.621	81.69
423.843	73.69
424.066	82.69
424.288	78.69
424.511	94.69
424.733	98.69
424.956	99.69
425.178	92.69
425.401	108.69
425.623	94.69
425.846	108.69
426.068	87.69
426.291	78.69
426.513	80.69
426.735	85.69
426.958	85.69
427.18	111.69
427.402	131.69
427.625	155.69
427.847	127.69
428.069	126.69
428.292	94.69
428.514	88.69
428.736	99.69
428.958	91.69
429.181	93.69
429.403	81.69
429.625	86.69
429.847	80.69
430.069	98.69
430.292	86.69
430.514	90.69
430.736	86.69
430.958	76.69
431.18	72.69
431.402	90.69
431.624	84.69
431.846	92.69
432.068	82.69
432.29	94.69
432.512	89.69
432.734	95.69
432.956	99.69
433.178	88.69
433.4	112.69
433.622	96.69
433.844	74.69
434.066	82.69
434.287	80.69
434.509	86.69
434.731	89.69
434.953	90.69
435.175	81.69
435.397	86.69
435.618	88.69
435.84	92.69
436.062	131.69
436.284	115.69
436.505	100.69
436.727	102.69
436.949	70.69
437.17	80.69
437.392	86.69
437.614	84.69
437.835	105.69
438.057	112.69
438.278	119.69
438.5	106.69
438.721	122.69
438.943	106.69
439.165	87.69
439.386	84.69
439.608	96.69
439.829	103.69
440.05	132.69
440.272	136.69
440.493	93.69
440.715	84.69
440.936	82.69
441.158	89.69
441.379	78.69
441.6	91.69
441.822	100.69
442.043	92.69
442.264	94.69
442.486	116.69
442.707	93.69
442.928	104.69
443.149	112.69
443.371	116.69
443.592	106.69
443.813	98.69
444.034	96.69
444.255	97.69
444.476	88.69
444.698	82.69
444.919	104.69
445.14	143.69
445.361	118.69
445.582	103.69
445.803	130.69
446.024	148.69
446.245	131.69
446.466	112.69
446.687	106.69
446.908	87.69
447.129	96.69
447.35	86.69
447.571	100.69
447.792	92.69
448.013	78.69
448.234	115.69
448.455	94.69
448.675	108.69
448.896	128.69
449.117	91.69
449.338	93.69
449.559	128.69
449.779	113.69
450	95.69
450.221	80.69
450.442	89.69
450.662	96.69
450.883	106.69
451.104	102.69
451.324	84.69
451.545	86.69
451.766	94.69
451.986	62.69
452.207	98.69
452.428	88.69
452.648	104.69
452.869	89.69
453.089	106.69
453.31	112.69
453.53	105.69
453.751	78.69
453.971	103.69
454.192	132.69
454.412	88.69
454.633	80.69
454.853	71.69
455.073	86.69
455.294	78.69
455.514	82.69
455.734	89.69
455.955	86.69
456.175	78.69
456.395	72.69
456.616	74.69
456.836	90.69
457.056	86.69
457.276	83.69
457.497	87.69
457.717	85.69
457.937	75.69
458.157	89.69
458.377	78.69
458.598	92.69
458.818	143.69
459.038	142.69
459.258	121.69
459.478	92.69
459.698	76.69
459.918	81.69
460.138	90.69
460.358	87.69
460.578	90.69
460.798	88.69
461.018	95.69
461.238	74.69
461.458	82.69
461.678	88.69
461.898	75.69
462.118	82.69
462.338	82.69
462.558	92.69
462.777	80.69
462.997	99.69
463.217	90.69
463.437	86.69
463.657	89.69
463.876	68.69
464.096	84.69
464.316	74.69
464.536	92.69
464.755	99.69
464.975	106.69
465.195	157.69
465.414	140.69
465.634	99.69
465.854	86.69
466.073	87.69
466.293	84.69
466.512	74.69
466.732	88.69
466.951	84.69
467.171	82.69
467.391	99.69
467.61	102.69
467.829	86.69
468.049	91.69
468.268	106.69
468.488	82.69
468.707	88.69
468.927	83.69
469.146	86.69
469.365	85.69
469.585	83.69
469.804	90.69
470.023	86.69
470.243	88.69
470.462	103.69
470.681	107.69
470.901	89.69
471.12	90.69
471.339	88.69
471.558	73.69
471.777	92.69
471.997	83.69
472.216	108.69
472.435	136.69
472.654	94.69
472.873	75.69
473.092	86.69
473.311	89.69
473.53	80.69
473.749	98.69
473.968	87.69
474.187	94.69
474.406	91.69
474.625	86.69
474.844	74.69
475.063	73.69
475.282	88.69
475.501	87.69
475.72	88.69
475.939	81.69
476.158	85.69
476.377	82.69
476.596	90.69
476.814	85.69
477.033	79.69
477.252	93.69
477.471	85.69
477.69	75.69
477.908	79.69
478.127	85.69
478.346	90.69
478.564	96.69
478.783	100.69
479.002	76.69
479.22	84.69
479.439	82.69
479.658	101.69
479.876	106.69
480.095	81.69
480.313	88.69
480.532	84.69
480.751	96.69
480.969	104.69
481.188	201.69
481.406	145.69
481.624	99.69
481.843	84.69
482.061	86.69
482.28	73.69
482.498	87.69
482.717	95.69
482.935	104.69
483.153	84.69
483.372	89.69
483.59	80.69
483.808	81.69
484.027	83.69
484.245	79.69
484.463	94.69
484.681	100.69
484.9	82.69
485.118	102.69
485.336	84.69
485.554	96.69
485.772	93.69
485.99	86.69
486.209	107.69
486.427	96.69
486.645	112.69
486.863	107.69
487.081	98.69
487.299	91.69
487.517	90.69
487.735	92.69
487.953	80.69
488.171	102.69
488.389	88.69
488.607	99.69
488.825	92.69
489.043	89.69
489.261	84.69
489.479	90.69
489.696	86.69
489.914	70.69
490.132	99.69
490.35	87.69
490.568	95.69
490.786	91.69
491.003	94.69
491.221	96.69
491.439	87.69
491.657	73.69
491.874	96.69
492.092	81.69
492.31	91.69
492.527	84.69
492.745	85.69
492.963	92.69
493.18	96.69
493.398	97.69
493.615	85.69
493.833	86.69
494.05	103.69
494.268	87.69
494.485	83.69
494.703	82.69
494.92	88.69
495.138	92.69
495.355	94.69
495.573	92.69
495.79	91.69
496.008	100.69
496.225	87.69
496.442	89.69
496.66	93.69
496.877	89.69
497.094	88.69
497.312	81.69
497.529	83.69
497.746	92.69
497.963	87.69
498.181	93.69
498.398	105.69
498.615	109.69
498.832	98.69
499.049	92.69
499.267	95.69
499.484	88.69
499.701	90.69
499.918	85.69
500.135	87.69
500.352	104.69
500.569	91.69
500.786	93.69
501.003	90.69
501.22	91.69
501.437	83.69
501.654	102.69
501.871	94.69
502.088	95.69
502.305	87.69
502.522	98.69
502.739	79.69
502.956	89.69
503.172	88.69
503.389	96.69
503.606	103.69
503.823	93.69
504.04	109.69
504.256	94.69
504.473	85.69
504.69	82.69
504.907	95.69
505.123	81.69
505.34	88.69
505.557	86.69
505.773	86.69
505.99	83.69
506.207	89.69
506.423	89.69
506.64	97.69
506.856	98.69
507.073	90.69
507.289	90.69
507.506	97.69
507.722	120.69
507.939	103.69
508.155	115.69
508.372	89.69
508.588	76.69
508.805	91.69
509.021	91.69
509.238	91.69
509.454	94.69
509.67	104.69
509.887	107.69
510.103	112.69
510.319	187.69
510.536	685.69
510.752	2161.69
510.968	580.69
511.184	156.69
511.401	98.69
511.617	98.69
511.833	103.69
512.049	104.69
512.265	90.69
512.481	86.69
512.698	74.69
512.914	78.69
513.13	86.69
513.346	86.69
513.562	106.69
513.778	84.69
513.994	84.69
514.21	92.69
514.426	112.69
514.642	119.69
514.858	108.69
515.074	149.69
515.29	413.69
515.506	1322.69
515.721	474.69
515.937	137.69
516.153	88.69
516.369	95.69
516.585	79.69
