Data from Uncirc_1981_H10_HRD10591_00074.txt Node
Date: Wed Jan 03 12:33:22 EST 2024
User: Yrep
Spectrometer: HR+D1059
Trigger mode: 1
Integration Time (sec): 1.000000E-1
Scans to average: 1
Electric dark correction enabled: true
Nonlinearity correction enabled: false
Boxcar width: 0
XAxis mode: Wavelengths
Number of Pixels in Spectrum: 2048
>>>>>Begin Spectral Data<<<<<
223.165	-20
223.4	-20
223.635	-20
223.869	-23
224.104	-29
224.338	-9
224.573	-7
224.808	-17
225.042	1
225.277	-3
225.511	-5
225.746	8
225.98	2
226.215	15
226.449	12
226.683	14
226.918	38
227.152	23
227.387	38
227.621	36
227.856	31
228.09	34
228.324	50
228.559	51
228.793	72
229.027	79
229.262	76
229.496	73
229.73	85
229.964	76
230.199	67
230.433	74
230.667	77
230.901	78
231.136	79
231.37	82
231.604	75
231.838	86
232.072	81
232.306	84
232.541	84
232.775	86
233.009	85
233.243	83
233.477	91
233.711	77
233.945	82
234.179	87
234.413	87
234.647	84
234.881	71
235.115	90
235.349	90
235.583	77
235.817	82
236.051	87
236.285	73
236.519	84
236.753	79
236.987	89
237.221	98
237.455	77
237.689	83
237.922	73
238.156	72
238.39	74
238.624	82
238.858	85
239.091	79
239.325	74
239.559	78
239.793	74
240.027	84
240.26	77
240.494	82
240.728	80
240.961	99
241.195	77
241.429	82
241.662	84
241.896	82
242.13	86
242.363	73
242.597	84
242.83	84
243.064	72
243.298	76
243.531	72
243.765	91
243.998	72
244.232	85
244.465	96
244.699	71
244.932	82
245.166	82
245.399	77
245.633	73
245.866	84
246.099	75
246.333	77
246.566	89
246.8	82
247.033	82
247.266	86
247.5	78
247.733	98
247.966	79
248.2	96
248.433	95
248.666	81
248.899	74
249.133	83
249.366	99
249.599	82
249.832	77
250.066	76
250.299	74
250.532	74
250.765	75
250.998	75
251.231	85
251.465	89
251.698	78
251.931	88
252.164	92
252.397	58
252.63	65
252.863	94
253.096	86
253.329	83
253.562	87
253.795	63
254.028	88
254.261	78
254.494	79
254.727	77
254.96	75
255.193	66
255.426	79
255.659	71
255.892	95
256.124	70
256.357	76
256.59	86
256.823	79
257.056	84
257.289	86
257.521	88
257.754	81
257.987	83
258.22	73
258.452	91
258.685	90
258.918	84
259.151	88
259.383	75
259.616	86
259.849	95
260.081	84
260.314	79
260.547	98
260.779	75
261.012	82
261.244	88
261.477	88
261.71	89
261.942	93
262.175	110
262.407	80
262.64	95
262.872	92
263.105	92
263.337	85
263.57	86
263.802	79
264.035	93
264.267	83
264.499	79
264.732	90
264.964	82
265.197	85
265.429	86
265.661	77
265.894	75
266.126	71
266.358	87
266.591	76
266.823	98
267.055	87
267.287	77
267.52	95
267.752	83
267.984	87
268.216	93
268.448	71
268.681	98
268.913	98
269.145	86
269.377	74
269.609	70
269.841	92
270.073	95
270.306	90
270.538	87
270.77	84
271.002	87
271.234	99
271.466	93
271.698	77
271.93	82
272.162	88
272.394	101
272.626	74
272.858	89
273.09	83
273.322	95
273.553	87
273.785	91
274.017	83
274.249	76
274.481	90
274.713	85
274.945	96
275.176	92
275.408	85
275.64	86
275.872	85
276.104	80
276.335	93
276.567	91
276.799	97
277.031	97
277.262	98
277.494	91
277.726	80
277.957	86
278.189	86
278.421	104
278.652	105
278.884	100
279.115	76
279.347	79
279.579	93
279.81	85
280.042	86
280.273	97
280.505	88
280.736	78
280.968	86
281.199	94
281.431	67
281.662	90
281.894	97
282.125	84
282.356	102
282.588	107
282.819	91
283.051	93
283.282	75
283.513	79
283.745	99
283.976	88
284.207	93
284.439	73
284.67	82
284.901	87
285.132	90
285.364	87
285.595	91
285.826	79
286.057	67
286.288	76
286.52	93
286.751	93
286.982	85
287.213	93
287.444	83
287.675	91
287.906	86
288.138	89
288.369	89
288.6	96
288.831	84
289.062	96
289.293	100
289.524	92
289.755	90
289.986	77
290.217	88
290.448	75
290.679	75
290.91	91
291.141	74
291.371	79
291.602	96
291.833	88
292.064	100
292.295	90
292.526	75
292.757	90
292.987	97
293.218	92
293.449	85
293.68	81
293.91	89
294.141	98
294.372	92
294.603	97
294.833	92
295.064	101
295.295	97
295.525	97
295.756	76
295.987	104
296.217	117
296.448	99
296.679	89
296.909	103
297.14	108
297.37	90
297.601	87
297.831	84
298.062	91
298.292	93
298.523	89
298.753	87
298.984	91
299.214	91
299.445	95
299.675	83
299.905	90
300.136	87
300.366	96
300.597	90
300.827	88
301.057	89
301.288	100
301.518	86
301.748	78
301.979	116
302.209	108
302.439	75
302.669	87
302.9	94
303.13	84
303.36	92
303.59	96
303.82	113
304.051	90
304.281	96
304.511	99
304.741	98
304.971	92
305.201	102
305.431	89
305.661	88
305.891	97
306.121	100
306.352	87
306.582	88
306.812	95
307.042	69
307.272	66
307.502	86
307.731	87
307.961	69
308.191	90
308.421	88
308.651	80
308.881	100
309.111	112
309.341	106
309.571	99
309.8	92
310.03	90
310.26	92
310.49	96
310.72	97
310.949	94
311.179	90
311.409	88
311.639	90
311.868	93
312.098	104
312.328	89
312.557	99
312.787	111
313.017	106
313.246	107
313.476	96
313.706	91
313.935	84
314.165	107
314.394	91
314.624	98
314.853	87
315.083	80
315.312	93
315.542	79
315.771	90
316.001	98
316.23	75
316.46	81
316.689	87
316.919	106
317.148	112
317.377	109
317.607	86
317.836	89
318.065	99
318.295	85
318.524	86
318.753	85
318.983	94
319.212	99
319.441	103
319.67	109
319.9	96
320.129	92
320.358	89
320.587	90
320.816	93
321.046	96
321.275	86
321.504	98
321.733	86
321.962	91
322.191	108
322.42	89
322.649	98
322.878	118
323.108	115
323.337	105
323.566	118
323.795	123
324.024	185
324.253	332
324.482	671
324.71	1406
324.939	1792
325.168	668
325.397	215
325.626	141
325.855	111
326.084	123
326.313	122
326.542	145
326.77	200
326.999	406
327.228	842
327.457	1484
327.686	1161
327.914	324
328.143	172
328.372	139
328.6	118
328.829	110
329.058	114
329.287	108
329.515	115
329.744	112
329.972	96
330.201	114
330.43	119
330.658	119
330.887	123
331.115	120
331.344	116
331.572	103
331.801	95
332.03	101
332.258	103
332.486	101
332.715	88
332.943	95
333.172	93
333.4	105
333.629	86
333.857	101
334.085	113
334.314	111
334.542	116
334.771	119
334.999	105
335.227	95
335.455	82
335.684	95
335.912	104
336.14	99
336.369	97
336.597	105
336.825	80
337.053	101
337.281	103
337.51	92
337.738	96
337.966	95
338.194	106
338.422	89
338.65	85
338.878	88
339.106	96
339.334	105
339.562	75
339.79	99
340.018	93
340.246	86
340.474	89
340.702	93
340.93	94
341.158	92
341.386	99
341.614	86
341.842	86
342.07	88
342.298	77
342.526	97
342.754	100
342.981	95
343.209	91
343.437	110
343.665	94
343.893	89
344.12	90
344.348	100
344.576	79
344.804	95
345.031	103
345.259	98
345.487	91
345.714	98
345.942	96
346.17	88
346.397	84
346.625	86
346.853	90
347.08	95
347.308	88
347.535	104
347.763	110
347.99	90
348.218	110
348.445	115
348.673	80
348.9	91
349.128	88
349.355	110
349.583	92
349.81	106
350.037	94
350.265	104
350.492	95
350.72	97
350.947	104
351.174	98
351.402	98
351.629	98
351.856	102
352.083	99
352.311	90
352.538	122
352.765	92
352.992	105
353.22	103
353.447	104
353.674	105
353.901	97
354.128	101
354.355	92
354.583	108
354.81	106
355.037	98
355.264	91
355.491	100
355.718	91
355.945	91
356.172	94
356.399	105
356.626	114
356.853	80
357.08	92
357.307	107
357.534	109
357.761	86
357.988	107
358.215	113
358.441	91
358.668	86
358.895	107
359.122	92
359.349	96
359.576	94
359.802	98
360.029	97
360.256	101
360.483	91
360.709	95
360.936	88
361.163	88
361.39	90
361.616	92
361.843	91
362.07	84
362.296	84
362.523	101
362.749	93
362.976	79
363.203	106
363.429	85
363.656	87
363.882	90
364.109	95
364.335	82
364.562	92
364.788	82
365.015	84
365.241	95
365.468	100
365.694	101
365.92	104
366.147	86
366.373	77
366.599	85
366.826	83
367.052	92
367.278	97
367.505	93
367.731	99
367.957	86
368.184	101
368.41	94
368.636	101
368.862	119
369.089	99
369.315	94
369.541	102
369.767	89
369.993	107
370.219	95
370.445	89
370.672	80
370.898	76
371.124	88
371.35	90
371.576	91
371.802	99
372.028	84
372.254	100
372.48	89
372.706	89
372.932	91
373.158	92
373.384	91
373.61	95
373.835	88
374.061	74
374.287	101
374.513	100
374.739	77
374.965	94
375.191	91
375.416	100
375.642	104
375.868	86
376.094	87
376.319	92
376.545	75
376.771	78
376.997	98
377.222	78
377.448	99
377.674	96
377.899	102
378.125	94
378.35	93
378.576	105
378.802	102
379.027	98
379.253	86
379.478	102
379.704	100
379.929	99
380.155	96
380.38	103
380.606	103
380.831	92
381.057	94
381.282	94
381.507	96
381.733	99
381.958	106
382.184	101
382.409	93
382.634	110
382.86	107
383.085	96
383.31	95
383.535	87
383.761	98
383.986	98
384.211	100
384.436	107
384.662	105
384.887	106
385.112	101
385.337	92
385.562	101
385.787	101
386.013	112
386.238	104
386.463	116
386.688	114
386.913	94
387.138	96
387.363	106
387.588	115
387.813	113
388.038	91
388.263	108
388.488	102
388.713	108
388.938	97
389.163	120
389.387	113
389.612	85
389.837	101
390.062	92
390.287	94
390.512	95
390.736	108
390.961	87
391.186	91
391.411	100
391.636	95
391.86	86
392.085	83
392.31	83
392.534	80
392.759	94
392.984	79
393.208	80
393.433	89
393.658	90
393.882	75
394.107	100
394.331	88
394.556	86
394.78	94
395.005	85
395.229	78
395.454	91
395.678	79
395.903	91
396.127	99
396.352	86
396.576	61
396.801	98
397.025	85
397.249	87
397.474	105
397.698	111
397.922	92
398.147	90
398.371	91
398.595	88
398.82	83
399.044	90
399.268	94
399.492	96
399.717	85
399.941	84
400.165	93
400.389	85
400.613	83
400.837	76
401.062	90
401.286	100
401.51	97
401.734	96
401.958	107
402.182	106
402.406	134
402.63	103
402.854	88
403.078	90
403.302	77
403.526	87
403.75	91
403.974	88
404.198	108
404.422	88
404.645	72
404.869	81
405.093	98
405.317	108
405.541	112
405.765	99
405.988	102
406.212	134
406.436	171
406.66	112
406.883	108
407.107	117
407.331	80
407.555	87
407.778	88
408.002	101
408.226	91
408.449	94
408.673	90
408.896	99
409.12	108
409.344	91
409.567	98
409.791	84
410.014	87
410.238	92
410.461	96
410.685	102
410.908	100
411.132	103
411.355	93
411.578	83
411.802	82
412.025	93
412.249	87
412.472	86
412.695	88
412.919	97
413.142	103
413.365	83
413.589	87
413.812	99
414.035	89
414.258	79
414.482	86
414.705	90
414.928	93
415.151	86
415.374	92
415.597	91
415.821	93
416.044	94
416.267	84
416.49	90
416.713	93
416.936	89
417.159	112
417.382	89
417.605	92
417.828	101
418.051	86
418.274	92
418.497	88
418.72	86
418.943	96
419.166	109
419.389	86
419.611	91
419.834	74
420.057	98
420.28	101
420.503	84
420.726	93
420.948	93
421.171	97
421.394	87
421.617	91
421.839	106
422.062	76
422.285	92
422.507	106
422.73	94
422.953	96
423.175	102
423.398	86
423.621	94
423.843	92
424.066	82
424.288	76
424.511	86
424.733	96
424.956	98
425.178	109
425.401	95
425.623	109
425.846	93
426.068	95
426.291	83
426.513	86
426.735	93
426.958	84
427.18	95
427.402	118
427.625	131
427.847	127
428.069	108
428.292	90
428.514	90
428.736	90
428.958	89
429.181	75
429.403	99
429.625	74
429.847	76
430.069	91
430.292	86
430.514	82
430.736	88
430.958	86
431.18	95
431.402	89
431.624	76
431.846	74
432.068	92
432.29	83
432.512	83
432.734	95
432.956	92
433.178	92
433.4	95
433.622	79
433.844	93
434.066	90
434.287	92
434.509	93
434.731	87
434.953	90
435.175	91
435.397	86
435.618	79
435.84	96
436.062	106
436.284	100
436.505	108
436.727	102
436.949	98
437.17	79
437.392	90
437.614	93
437.835	87
438.057	103
438.278	102
438.5	101
438.721	110
438.943	105
439.165	93
439.386	102
439.608	97
439.829	81
440.05	114
440.272	132
440.493	92
440.715	85
440.936	96
441.158	85
441.379	94
441.6	74
441.822	94
442.043	90
442.264	106
442.486	102
442.707	89
442.928	91
443.149	115
443.371	104
443.592	85
443.813	113
444.034	108
444.255	102
444.476	87
444.698	80
444.919	87
445.14	148
445.361	126
445.582	121
445.803	122
446.024	106
446.245	122
446.466	94
446.687	85
446.908	87
447.129	88
447.35	96
447.571	94
447.792	77
448.013	91
448.234	94
448.455	93
448.675	108
448.896	100
449.117	101
449.338	88
449.559	108
449.779	111
450	92
450.221	91
450.442	83
450.662	96
450.883	99
451.104	108
451.324	86
451.545	82
451.766	75
451.986	88
452.207	90
452.428	75
452.648	95
452.869	109
453.089	127
453.31	106
453.53	83
453.751	74
453.971	96
454.192	98
454.412	73
454.633	90
454.853	80
455.073	82
455.294	85
455.514	96
455.734	88
455.955	88
456.175	85
456.395	96
456.616	85
456.836	101
457.056	88
457.276	101
457.497	80
457.717	84
457.937	91
458.157	82
458.377	84
458.598	101
458.818	137
459.038	131
459.258	102
459.478	77
459.698	84
459.918	86
460.138	89
460.358	89
460.578	82
460.798	81
461.018	90
461.238	74
461.458	103
461.678	85
461.898	86
462.118	85
462.338	98
462.558	71
462.777	82
462.997	89
463.217	99
463.437	89
463.657	91
463.876	92
464.096	93
464.316	98
464.536	92
464.755	89
464.975	97
465.195	121
465.414	124
465.634	76
465.854	86
466.073	77
466.293	80
466.512	83
466.732	100
466.951	85
467.171	85
467.391	86
467.61	106
467.829	89
468.049	101
468.268	104
468.488	95
468.707	85
468.927	75
469.146	79
469.365	88
469.585	108
469.804	98
470.023	108
470.243	93
470.462	91
470.681	98
470.901	86
471.12	93
471.339	77
471.558	80
471.777	102
471.997	102
472.216	111
472.435	139
472.654	97
472.873	98
473.092	75
473.311	96
473.53	92
473.749	89
473.968	92
474.187	108
474.406	92
474.625	84
474.844	78
475.063	88
475.282	86
475.501	87
475.72	89
475.939	83
476.158	93
476.377	98
476.596	86
476.814	90
477.033	87
477.252	103
477.471	87
477.69	87
477.908	99
478.127	95
478.346	87
478.564	98
478.783	108
479.002	92
479.22	98
479.439	101
479.658	104
479.876	109
480.095	83
480.313	103
480.532	87
480.751	91
480.969	111
481.188	149
481.406	120
481.624	104
481.843	69
482.061	87
482.28	88
482.498	93
482.717	100
482.935	97
483.153	86
483.372	94
483.59	94
483.808	76
484.027	98
484.245	84
484.463	80
484.681	96
484.9	102
485.118	97
485.336	96
485.554	95
485.772	91
485.99	107
486.209	117
486.427	108
486.645	118
486.863	112
487.081	86
487.299	90
487.517	93
487.735	85
487.953	94
488.171	91
488.389	84
488.607	112
488.825	88
489.043	95
489.261	105
489.479	93
489.696	90
489.914	76
490.132	87
490.35	98
490.568	95
490.786	91
491.003	94
491.221	89
491.439	96
491.657	96
491.874	102
492.092	91
492.31	93
492.527	90
492.745	92
492.963	91
493.18	89
493.398	103
493.615	91
493.833	90
494.05	86
494.268	83
494.485	85
494.703	96
494.92	98
495.138	101
495.355	94
495.573	92
495.79	103
496.008	89
496.225	90
496.442	84
496.66	90
496.877	93
497.094	99
497.312	95
497.529	93
497.746	87
497.963	83
498.181	70
498.398	92
498.615	104
498.832	85
499.049	94
499.267	103
499.484	98
499.701	91
499.918	79
500.135	85
500.352	92
500.569	88
500.786	102
501.003	89
501.22	94
501.437	98
501.654	93
501.871	92
502.088	92
502.305	104
502.522	86
502.739	107
502.956	91
503.172	104
503.389	87
503.606	100
503.823	88
504.04	112
504.256	95
504.473	85
504.69	85
504.907	100
505.123	94
505.34	83
505.557	106
505.773	92
505.99	94
506.207	99
506.423	77
506.64	97
506.856	95
507.073	94
507.289	114
507.506	86
507.722	104
507.939	96
508.155	79
508.372	95
508.588	91
508.805	108
509.021	75
509.238	104
509.454	96
509.67	98
509.887	106
510.103	128
510.319	179
510.536	564
510.752	1617
510.968	464
511.184	143
511.401	116
511.617	111
511.833	92
512.049	98
512.265	90
512.481	98
512.698	97
512.914	96
513.13	89
513.346	88
513.562	88
513.778	89
513.994	103
514.21	96
514.426	109
514.642	120
514.858	115
515.074	130
515.29	318
515.506	931
515.721	362
515.937	137
516.153	107
516.369	97
516.585	104
516.801	100
517.016	80
517.232	86
517.448	90
517.664	90
517.879	86
518.095	82
518.311	90
518.527	100
518.742	89
518.958	85
519.173	85
519.389	92
519.605	93
519.82	88
520.036	86
520.251	110
520.467	104
520.682	107
520.898	98
521.113	102
521.329	124
521.544	167
521.76	395
521.975	1553
522.19	938
522.406	223
522.621	108
522.836	103
523.052	91
523.267	85
523.482	95
523.698	99
523.913	119
524.128	100
524.343	96
524.559	88
524.774	98
524.989	90
525.204	87
525.419	100
525.634	92
525.849	111
526.064	91
526.28	92
526.495	99
526.71	93
526.925	93
527.14	88
527.355	88
527.57	83
527.785	89
527.999	90
528.214	104
528.429	90
528.644	88
528.859	89
529.074	86
529.289	107
529.503	132
529.718	107
529.933	94
530.148	97
530.363	107
530.577	98
530.792	97
531.007	98
531.221	98
531.436	93
531.651	96
531.865	94
532.08	95
532.295	92
532.509	91
532.724	95
532.938	100
533.153	97
533.367	90
533.582	94
533.796	102
534.011	92
534.225	98
534.44	95
534.654	95
534.868	88
535.083	98
535.297	96
535.511	110
535.726	90
535.94	102
536.154	98
536.369	86
536.583	87
536.797	87
537.011	104
537.225	101
537.44	94
537.654	79
537.868	79
538.082	91
538.296	86
538.51	78
538.724	72
538.938	92
539.153	101
539.367	108
539.581	104
539.795	94
540.009	95
540.222	83
540.436	94
540.65	96
540.864	90
541.078	99
541.292	102
541.506	88
541.72	102
541.934	94
542.147	82
542.361	93
542.575	91
542.789	92
543.002	82
543.216	102
543.43	92
543.644	89
543.857	83
544.071	98
544.285	95
544.498	91
544.712	85
544.925	94
545.139	89
545.352	92
545.566	82
545.779	96
545.993	96
546.206	84
546.42	88
546.633	91
546.847	94
547.06	96
547.274	71
547.487	88
547.7	82
547.914	90
548.127	104
548.34	85
548.554	86
548.767	87
548.98	94
549.193	93
549.407	92
549.62	96
549.833	84
550.046	76
550.259	90
550.473	92
550.686	97
550.899	96
551.112	92
551.325	95
551.538	77
551.751	86
551.964	78
552.177	85
552.39	90
552.603	116
552.816	101
553.029	92
553.242	99
553.455	100
553.667	105
553.88	95
554.093	86
554.306	111
554.519	105
554.732	93
554.944	90
555.157	106
555.37	96
555.583	89
555.795	86
556.008	96
556.221	87
556.433	100
556.646	96
556.859	79
557.071	100
557.284	86
557.496	88
557.709	85
557.921	80
558.134	87
558.346	87
558.559	82
558.771	86
558.984	88
559.196	98
559.409	88
559.621	88
559.833	94
560.046	92
560.258	91
560.47	85
560.683	85
560.895	94
561.107	84
561.32	94
561.532	93
561.744	102
561.956	100
562.168	95
562.381	94
562.593	86
562.805	99
563.017	99
563.229	84
563.441	103
563.653	93
563.865	82
564.077	91
564.289	100
564.501	87
564.713	78
564.925	101
565.137	103
565.349	108
565.561	91
565.773	86
565.985	99
566.197	94
566.408	79
566.62	90
566.832	95
567.044	96
567.255	93
567.467	100
567.679	93
567.891	93
568.102	99
568.314	71
568.526	82
568.737	86
568.949	87
569.161	84
569.372	98
569.584	80
569.795	99
570.007	106
570.218	192
570.43	126
570.641	94
570.853	100
571.064	90
571.276	87
571.487	99
571.698	95
571.91	86
572.121	87
572.333	95
572.544	89
572.755	92
572.966	86
573.178	94
573.389	88
573.6	93
573.811	95
574.023	78
574.234	80
574.445	86
574.656	85
574.867	79
575.078	87
575.289	101
575.501	104
575.712	82
575.923	72
576.134	96
576.345	93
576.556	82
576.767	94
576.978	92
577.188	80
577.399	89
577.61	88
577.821	98
578.032	78
578.243	219
578.454	534
578.665	170
578.875	97
579.086	87
579.297	104
579.508	99
579.718	99
579.929	92
580.14	97
580.35	76
580.561	93
580.772	90
580.982	82
581.193	82
581.403	94
581.614	87
581.825	96
582.035	77
582.246	94
582.456	77
582.667	88
582.877	90
583.087	85
583.298	92
583.508	73
583.719	86
583.929	101
584.139	95
584.35	71
