Data from Uncirc_1981_H10_HRD10591_00097.txt Node
Date: Wed Jan 03 12:33:27 EST 2024
User: Yrep
Spectrometer: HR+D1059
Trigger mode: 1
Integration Time (sec): 1.000000E-1
Scans to average: 1
Electric dark correction enabled: true
Nonlinearity correction enabled: false
Boxcar width: 0
XAxis mode: Wavelengths
Number of Pixels in Spectrum: 2048
>>>>>Begin Spectral Data<<<<<
223.165	-15.25
223.4	-15.25
223.635	-15.25
223.869	-10.25
224.104	-32.25
224.338	-22.25
224.573	-12.25
224.808	-22.25
225.042	-5.25
225.277	-2.25
225.511	-0.25
225.746	-1.25
225.98	8.75
226.215	13.75
226.449	7.75
226.683	20.75
226.918	33.75
227.152	38.75
227.387	35.75
227.621	39.75
227.856	55.75
228.09	52.75
228.324	42.75
228.559	56.75
228.793	61.75
229.027	66.75
229.262	75.75
229.496	78.75
229.73	83.75
229.964	84.75
230.199	85.75
230.433	82.75
230.667	85.75
230.901	101.75
231.136	75.75
231.37	70.75
231.604	82.75
231.838	83.75
232.072	79.75
232.306	74.75
232.541	83.75
232.775	83.75
233.009	55.75
233.243	74.75
233.477	79.75
233.711	66.75
233.945	76.75
234.179	75.75
234.413	66.75
234.647	84.75
234.881	68.75
235.115	75.75
235.349	88.75
235.583	68.75
235.817	73.75
236.051	86.75
236.285	77.75
236.519	69.75
236.753	75.75
236.987	88.75
237.221	91.75
237.455	84.75
237.689	85.75
237.922	75.75
238.156	71.75
238.39	72.75
238.624	68.75
238.858	83.75
239.091	76.75
239.325	68.75
239.559	85.75
239.793	94.75
240.027	89.75
240.26	71.75
240.494	90.75
240.728	66.75
240.961	67.75
241.195	82.75
241.429	71.75
241.662	79.75
241.896	96.75
242.13	72.75
242.363	79.75
242.597	79.75
242.83	71.75
243.064	63.75
243.298	62.75
243.531	80.75
243.765	75.75
243.998	72.75
244.232	64.75
244.465	90.75
244.699	93.75
244.932	78.75
245.166	71.75
245.399	86.75
245.633	76.75
245.866	88.75
246.099	74.75
246.333	77.75
246.566	70.75
246.8	76.75
247.033	82.75
247.266	90.75
247.5	71.75
247.733	73.75
247.966	85.75
248.2	85.75
248.433	86.75
248.666	95.75
248.899	75.75
249.133	81.75
249.366	96.75
249.599	94.75
249.832	78.75
250.066	72.75
250.299	79.75
250.532	85.75
250.765	84.75
250.998	80.75
251.231	78.75
251.465	71.75
251.698	73.75
251.931	67.75
252.164	89.75
252.397	77.75
252.63	94.75
252.863	80.75
253.096	86.75
253.329	66.75
253.562	84.75
253.795	77.75
254.028	90.75
254.261	89.75
254.494	74.75
254.727	82.75
254.96	88.75
255.193	91.75
255.426	79.75
255.659	72.75
255.892	78.75
256.124	91.75
256.357	74.75
256.59	99.75
256.823	97.75
257.056	90.75
257.289	84.75
257.521	81.75
257.754	75.75
257.987	85.75
258.22	72.75
258.452	96.75
258.685	92.75
258.918	98.75
259.151	80.75
259.383	72.75
259.616	88.75
259.849	83.75
260.081	79.75
260.314	91.75
260.547	94.75
260.779	86.75
261.012	76.75
261.244	75.75
261.477	95.75
261.71	109.75
261.942	99.75
262.175	106.75
262.407	86.75
262.64	91.75
262.872	80.75
263.105	71.75
263.337	83.75
263.57	98.75
263.802	76.75
264.035	80.75
264.267	87.75
264.499	75.75
264.732	70.75
264.964	92.75
265.197	77.75
265.429	78.75
265.661	79.75
265.894	88.75
266.126	89.75
266.358	78.75
266.591	102.75
266.823	88.75
267.055	82.75
267.287	74.75
267.52	76.75
267.752	75.75
267.984	78.75
268.216	78.75
268.448	96.75
268.681	77.75
268.913	79.75
269.145	91.75
269.377	86.75
269.609	82.75
269.841	85.75
270.073	76.75
270.306	69.75
270.538	82.75
270.77	93.75
271.002	100.75
271.234	94.75
271.466	85.75
271.698	85.75
271.93	83.75
272.162	87.75
272.394	87.75
272.626	79.75
272.858	102.75
273.09	91.75
273.322	98.75
273.553	72.75
273.785	111.75
274.017	102.75
274.249	84.75
274.481	83.75
274.713	87.75
274.945	83.75
275.176	83.75
275.408	84.75
275.64	84.75
275.872	75.75
276.104	88.75
276.335	102.75
276.567	105.75
276.799	118.75
277.031	111.75
277.262	108.75
277.494	95.75
277.726	86.75
277.957	89.75
278.189	86.75
278.421	86.75
278.652	91.75
278.884	89.75
279.115	103.75
279.347	95.75
279.579	82.75
279.81	92.75
280.042	81.75
280.273	104.75
280.505	83.75
280.736	90.75
280.968	90.75
281.199	86.75
281.431	104.75
281.662	87.75
281.894	88.75
282.125	84.75
282.356	115.75
282.588	147.75
282.819	124.75
283.051	98.75
283.282	104.75
283.513	98.75
283.745	77.75
283.976	77.75
284.207	87.75
284.439	78.75
284.67	98.75
284.901	92.75
285.132	85.75
285.364	79.75
285.595	78.75
285.826	86.75
286.057	84.75
286.288	92.75
286.52	88.75
286.751	82.75
286.982	95.75
287.213	101.75
287.444	98.75
287.675	88.75
287.906	74.75
288.138	88.75
288.369	93.75
288.6	104.75
288.831	96.75
289.062	88.75
289.293	90.75
289.524	91.75
289.755	81.75
289.986	86.75
290.217	83.75
290.448	90.75
290.679	90.75
290.91	96.75
291.141	101.75
291.371	74.75
291.602	92.75
291.833	78.75
292.064	82.75
292.295	98.75
292.526	90.75
292.757	89.75
292.987	75.75
293.218	75.75
293.449	87.75
293.68	89.75
293.91	86.75
294.141	87.75
294.372	93.75
294.603	101.75
294.833	93.75
295.064	92.75
295.295	111.75
295.525	102.75
295.756	101.75
295.987	112.75
296.217	130.75
296.448	127.75
296.679	90.75
296.909	94.75
297.14	103.75
297.37	92.75
297.601	82.75
297.831	85.75
298.062	92.75
298.292	91.75
298.523	91.75
298.753	80.75
298.984	75.75
299.214	87.75
299.445	97.75
299.675	92.75
299.905	98.75
300.136	79.75
300.366	77.75
300.597	89.75
300.827	103.75
301.057	102.75
301.288	103.75
301.518	97.75
301.748	78.75
301.979	97.75
302.209	103.75
302.439	91.75
302.669	94.75
302.9	99.75
303.13	85.75
303.36	86.75
303.59	119.75
303.82	106.75
304.051	94.75
304.281	92.75
304.511	101.75
304.741	84.75
304.971	82.75
305.201	96.75
305.431	95.75
305.661	93.75
305.891	90.75
306.121	92.75
306.352	101.75
306.582	98.75
306.812	107.75
307.042	104.75
307.272	103.75
307.502	102.75
307.731	111.75
307.961	101.75
308.191	83.75
308.421	84.75
308.651	97.75
308.881	94.75
309.111	98.75
309.341	104.75
309.571	102.75
309.8	93.75
310.03	102.75
310.26	72.75
310.49	102.75
310.72	104.75
310.949	102.75
311.179	107.75
311.409	91.75
311.639	89.75
311.868	83.75
312.098	98.75
312.328	72.75
312.557	103.75
312.787	102.75
313.017	100.75
313.246	95.75
313.476	102.75
313.706	98.75
313.935	117.75
314.165	99.75
314.394	103.75
314.624	103.75
314.853	95.75
315.083	104.75
315.312	97.75
315.542	111.75
315.771	94.75
316.001	87.75
316.23	91.75
316.46	87.75
316.689	88.75
316.919	99.75
317.148	89.75
317.377	100.75
317.607	96.75
317.836	98.75
318.065	91.75
318.295	88.75
318.524	91.75
318.753	87.75
318.983	107.75
319.212	92.75
319.441	111.75
319.67	109.75
319.9	102.75
320.129	99.75
320.358	99.75
320.587	85.75
320.816	87.75
321.046	108.75
321.275	111.75
321.504	107.75
321.733	110.75
321.962	93.75
322.191	109.75
322.42	111.75
322.649	104.75
322.878	126.75
323.108	134.75
323.337	125.75
323.566	141.75
323.795	168.75
324.024	224.75
324.253	440.75
324.482	938.75
324.71	1946.75
324.939	2676.75
325.168	968.75
325.397	275.75
325.626	167.75
325.855	128.75
326.084	124.75
326.313	137.75
326.542	162.75
326.77	249.75
326.999	523.75
327.228	1068.75
327.457	2020.75
327.686	1627.75
327.914	427.75
328.143	193.75
328.372	158.75
328.6	121.75
328.829	119.75
329.058	126.75
329.287	120.75
329.515	109.75
329.744	107.75
329.972	95.75
330.201	118.75
330.43	131.75
330.658	130.75
330.887	138.75
331.115	116.75
331.344	111.75
331.572	92.75
331.801	103.75
332.03	112.75
332.258	111.75
332.486	95.75
332.715	87.75
332.943	103.75
333.172	93.75
333.4	93.75
333.629	107.75
333.857	109.75
334.085	107.75
334.314	123.75
334.542	125.75
334.771	136.75
334.999	107.75
335.227	98.75
335.455	97.75
335.684	113.75
335.912	104.75
336.14	83.75
336.369	79.75
336.597	99.75
336.825	105.75
337.053	93.75
337.281	98.75
337.51	104.75
337.738	90.75
337.966	91.75
338.194	93.75
338.422	87.75
338.65	84.75
338.878	99.75
339.106	92.75
339.334	82.75
339.562	100.75
339.79	93.75
340.018	88.75
340.246	112.75
340.474	103.75
340.702	80.75
340.93	86.75
341.158	84.75
341.386	96.75
341.614	100.75
341.842	98.75
342.07	84.75
342.298	116.75
342.526	96.75
342.754	88.75
342.981	85.75
343.209	88.75
343.437	87.75
343.665	72.75
343.893	104.75
344.12	87.75
344.348	99.75
344.576	94.75
344.804	88.75
345.031	108.75
345.259	107.75
345.487	103.75
345.714	93.75
345.942	90.75
346.17	108.75
346.397	78.75
346.625	105.75
346.853	106.75
347.08	103.75
347.308	101.75
347.535	104.75
347.763	90.75
347.99	100.75
348.218	104.75
348.445	104.75
348.673	101.75
348.9	91.75
349.128	116.75
349.355	109.75
349.583	89.75
349.81	92.75
350.037	90.75
350.265	114.75
350.492	99.75
350.72	86.75
350.947	101.75
351.174	111.75
351.402	100.75
351.629	119.75
351.856	99.75
352.083	110.75
352.311	123.75
352.538	118.75
352.765	104.75
352.992	123.75
353.22	105.75
353.447	98.75
353.674	91.75
353.901	107.75
354.128	105.75
354.355	99.75
354.583	113.75
354.81	109.75
355.037	98.75
355.264	80.75
355.491	86.75
355.718	93.75
355.945	96.75
356.172	116.75
356.399	98.75
356.626	102.75
356.853	92.75
357.08	90.75
357.307	95.75
357.534	102.75
357.761	98.75
357.988	87.75
358.215	94.75
358.441	91.75
358.668	93.75
358.895	93.75
359.122	96.75
359.349	113.75
359.576	94.75
359.802	99.75
360.029	117.75
360.256	103.75
360.483	107.75
360.709	86.75
360.936	114.75
361.163	90.75
361.39	92.75
361.616	90.75
361.843	102.75
362.07	101.75
362.296	98.75
362.523	90.75
362.749	105.75
362.976	101.75
363.203	94.75
363.429	93.75
363.656	94.75
363.882	89.75
364.109	96.75
364.335	100.75
364.562	94.75
364.788	94.75
365.015	88.75
365.241	106.75
365.468	106.75
365.694	91.75
365.92	108.75
366.147	83.75
366.373	88.75
366.599	94.75
366.826	69.75
367.052	92.75
367.278	100.75
367.505	103.75
367.731	106.75
367.957	88.75
368.184	93.75
368.41	109.75
368.636	96.75
368.862	122.75
369.089	111.75
369.315	90.75
369.541	102.75
369.767	94.75
369.993	94.75
370.219	93.75
370.445	86.75
370.672	93.75
370.898	98.75
371.124	110.75
371.35	101.75
371.576	100.75
371.802	91.75
372.028	90.75
372.254	75.75
372.48	98.75
372.706	98.75
372.932	99.75
373.158	92.75
373.384	92.75
373.61	99.75
373.835	84.75
374.061	94.75
374.287	101.75
374.513	88.75
374.739	106.75
374.965	84.75
375.191	109.75
375.416	90.75
375.642	86.75
375.868	101.75
376.094	90.75
376.319	88.75
376.545	91.75
376.771	90.75
376.997	92.75
377.222	76.75
377.448	85.75
377.674	92.75
377.899	94.75
378.125	98.75
378.35	98.75
378.576	97.75
378.802	91.75
379.027	102.75
379.253	99.75
379.478	100.75
379.704	86.75
379.929	93.75
380.155	101.75
380.38	86.75
380.606	88.75
380.831	103.75
381.057	102.75
381.282	105.75
381.507	97.75
381.733	98.75
381.958	102.75
382.184	110.75
382.409	93.75
382.634	105.75
382.86	105.75
383.085	100.75
383.31	98.75
383.535	112.75
383.761	102.75
383.986	95.75
384.211	107.75
384.436	104.75
384.662	104.75
384.887	98.75
385.112	91.75
385.337	118.75
385.562	101.75
385.787	106.75
386.013	112.75
386.238	112.75
386.463	104.75
386.688	105.75
386.913	99.75
387.138	111.75
387.363	89.75
387.588	87.75
387.813	104.75
388.038	109.75
388.263	86.75
388.488	100.75
388.713	85.75
388.938	88.75
389.163	102.75
389.387	106.75
389.612	82.75
389.837	88.75
390.062	86.75
390.287	81.75
390.512	93.75
390.736	83.75
390.961	89.75
391.186	102.75
391.411	104.75
391.636	95.75
391.86	94.75
392.085	79.75
392.31	101.75
392.534	85.75
392.759	77.75
392.984	78.75
393.208	93.75
393.433	92.75
393.658	95.75
393.882	82.75
394.107	85.75
394.331	78.75
394.556	86.75
394.78	98.75
395.005	91.75
395.229	92.75
395.454	94.75
395.678	89.75
395.903	87.75
396.127	94.75
396.352	79.75
396.576	103.75
396.801	101.75
397.025	100.75
397.249	88.75
397.474	105.75
397.698	101.75
397.922	78.75
398.147	101.75
398.371	98.75
398.595	80.75
398.82	95.75
399.044	91.75
399.268	91.75
399.492	98.75
399.717	95.75
399.941	94.75
400.165	101.75
400.389	100.75
400.613	90.75
400.837	96.75
401.062	100.75
401.286	78.75
401.51	80.75
401.734	86.75
401.958	102.75
402.182	124.75
402.406	146.75
402.63	105.75
402.854	84.75
403.078	89.75
403.302	90.75
403.526	88.75
403.75	90.75
403.974	80.75
404.198	102.75
404.422	83.75
404.645	111.75
404.869	70.75
405.093	92.75
405.317	98.75
405.541	86.75
405.765	102.75
405.988	109.75
406.212	163.75
406.436	225.75
406.66	145.75
406.883	92.75
407.107	100.75
407.331	105.75
407.555	107.75
407.778	99.75
408.002	107.75
408.226	106.75
408.449	94.75
408.673	86.75
408.896	89.75
409.12	100.75
409.344	80.75
409.567	97.75
409.791	98.75
410.014	100.75
410.238	99.75
410.461	85.75
410.685	81.75
410.908	98.75
411.132	123.75
411.355	116.75
411.578	96.75
411.802	96.75
412.025	83.75
412.249	86.75
412.472	101.75
412.695	106.75
412.919	92.75
413.142	79.75
413.365	102.75
413.589	90.75
413.812	96.75
414.035	83.75
414.258	98.75
414.482	83.75
414.705	82.75
414.928	86.75
415.151	99.75
415.374	90.75
415.597	84.75
415.821	90.75
416.044	101.75
416.267	88.75
416.49	95.75
416.713	104.75
416.936	96.75
417.159	98.75
417.382	101.75
417.605	86.75
417.828	89.75
418.051	88.75
418.274	103.75
418.497	87.75
418.72	95.75
418.943	90.75
419.166	104.75
419.389	82.75
419.611	82.75
419.834	98.75
420.057	87.75
420.28	89.75
420.503	83.75
420.726	74.75
420.948	90.75
421.171	90.75
421.394	95.75
421.617	79.75
421.839	102.75
422.062	90.75
422.285	107.75
422.507	101.75
422.73	100.75
422.953	94.75
423.175	88.75
423.398	102.75
423.621	106.75
423.843	86.75
424.066	89.75
424.288	94.75
424.511	89.75
424.733	100.75
424.956	122.75
425.178	94.75
425.401	112.75
425.623	103.75
425.846	90.75
426.068	114.75
426.291	97.75
426.513	92.75
426.735	109.75
426.958	88.75
427.18	102.75
427.402	151.75
427.625	188.75
427.847	141.75
428.069	111.75
428.292	86.75
428.514	102.75
428.736	103.75
428.958	86.75
429.181	93.75
429.403	90.75
429.625	83.75
429.847	88.75
430.069	104.75
430.292	90.75
430.514	82.75
430.736	95.75
430.958	108.75
431.18	111.75
431.402	93.75
431.624	90.75
431.846	84.75
432.068	79.75
432.29	96.75
432.512	83.75
432.734	79.75
432.956	102.75
433.178	98.75
433.4	107.75
433.622	99.75
433.844	107.75
434.066	92.75
434.287	107.75
434.509	84.75
434.731	99.75
434.953	90.75
435.175	104.75
435.397	88.75
435.618	105.75
435.84	105.75
436.062	119.75
436.284	122.75
436.505	101.75
436.727	103.75
436.949	100.75
437.17	99.75
437.392	93.75
437.614	102.75
437.835	103.75
438.057	120.75
438.278	94.75
438.5	116.75
438.721	118.75
438.943	105.75
439.165	93.75
439.386	88.75
439.608	98.75
439.829	111.75
440.05	114.75
440.272	151.75
440.493	106.75
440.715	83.75
440.936	90.75
441.158	103.75
441.379	93.75
441.6	85.75
441.822	106.75
442.043	88.75
442.264	111.75
442.486	116.75
442.707	101.75
442.928	105.75
443.149	126.75
443.371	142.75
443.592	123.75
443.813	125.75
444.034	113.75
444.255	95.75
444.476	80.75
444.698	87.75
444.919	102.75
445.14	136.75
445.361	121.75
445.582	116.75
445.803	137.75
446.024	136.75
446.245	160.75
446.466	127.75
446.687	88.75
446.908	84.75
447.129	90.75
447.35	74.75
447.571	89.75
447.792	103.75
448.013	101.75
448.234	100.75
448.455	100.75
448.675	121.75
448.896	124.75
449.117	111.75
449.338	120.75
449.559	131.75
449.779	146.75
450	105.75
450.221	90.75
450.442	107.75
450.662	88.75
450.883	111.75
451.104	112.75
451.324	109.75
451.545	80.75
451.766	87.75
451.986	82.75
452.207	91.75
452.428	99.75
452.648	94.75
452.869	118.75
453.089	109.75
453.31	121.75
453.53	94.75
453.751	96.75
453.971	119.75
454.192	102.75
454.412	106.75
454.633	83.75
454.853	103.75
455.073	103.75
455.294	92.75
455.514	104.75
455.734	102.75
455.955	85.75
456.175	86.75
456.395	91.75
456.616	88.75
456.836	84.75
457.056	84.75
457.276	75.75
457.497	93.75
457.717	90.75
457.937	87.75
458.157	82.75
458.377	101.75
458.598	105.75
458.818	166.75
459.038	186.75
459.258	120.75
459.478	82.75
459.698	86.75
459.918	88.75
460.138	86.75
460.358	91.75
460.578	86.75
460.798	95.75
461.018	88.75
461.238	88.75
461.458	80.75
461.678	87.75
461.898	78.75
462.118	77.75
462.338	93.75
462.558	75.75
462.777	84.75
462.997	94.75
463.217	95.75
463.437	97.75
463.657	87.75
463.876	93.75
464.096	95.75
464.316	87.75
464.536	96.75
464.755	89.75
464.975	103.75
465.195	167.75
465.414	148.75
465.634	102.75
465.854	74.75
466.073	86.75
466.293	90.75
466.512	90.75
466.732	91.75
466.951	78.75
467.171	94.75
467.391	106.75
467.61	109.75
467.829	105.75
468.049	109.75
468.268	101.75
468.488	71.75
468.707	90.75
468.927	94.75
469.146	85.75
469.365	91.75
469.585	92.75
469.804	101.75
470.023	99.75
470.243	94.75
470.462	94.75
470.681	103.75
470.901	90.75
471.12	76.75
471.339	77.75
471.558	90.75
471.777	83.75
471.997	88.75
472.216	109.75
472.435	152.75
472.654	123.75
472.873	106.75
473.092	121.75
473.311	82.75
473.53	86.75
473.749	75.75
473.968	96.75
474.187	104.75
474.406	95.75
474.625	83.75
474.844	87.75
475.063	91.75
475.282	74.75
475.501	89.75
475.72	76.75
475.939	82.75
476.158	82.75
476.377	94.75
476.596	78.75
476.814	91.75
477.033	93.75
477.252	97.75
477.471	88.75
477.69	84.75
477.908	94.75
478.127	95.75
478.346	87.75
478.564	93.75
478.783	92.75
479.002	90.75
479.22	106.75
479.439	93.75
479.658	103.75
479.876	96.75
480.095	90.75
480.313	81.75
480.532	94.75
480.751	106.75
480.969	115.75
481.188	204.75
481.406	142.75
481.624	104.75
481.843	89.75
482.061	92.75
482.28	86.75
482.498	98.75
482.717	95.75
482.935	99.75
483.153	93.75
483.372	106.75
483.59	98.75
483.808	97.75
484.027	87.75
484.245	94.75
484.463	97.75
484.681	92.75
484.9	83.75
485.118	94.75
485.336	96.75
485.554	108.75
485.772	106.75
485.99	105.75
486.209	112.75
486.427	103.75
486.645	106.75
486.863	108.75
487.081	103.75
487.299	92.75
487.517	100.75
487.735	97.75
487.953	96.75
488.171	101.75
488.389	85.75
488.607	94.75
488.825	87.75
489.043	81.75
489.261	89.75
489.479	90.75
489.696	90.75
489.914	98.75
490.132	98.75
490.35	88.75
490.568	94.75
490.786	105.75
491.003	84.75
491.221	95.75
491.439	88.75
491.657	98.75
491.874	106.75
492.092	95.75
492.31	96.75
492.527	91.75
492.745	83.75
492.963	96.75
493.18	106.75
493.398	91.75
493.615	96.75
493.833	100.75
494.05	89.75
494.268	76.75
494.485	86.75
494.703	93.75
494.92	94.75
495.138	102.75
495.355	92.75
495.573	104.75
495.79	79.75
496.008	86.75
496.225	90.75
496.442	87.75
496.66	103.75
496.877	90.75
497.094	86.75
497.312	80.75
497.529	99.75
497.746	98.75
497.963	84.75
498.181	100.75
498.398	95.75
498.615	115.75
498.832	123.75
499.049	101.75
499.267	95.75
499.484	81.75
499.701	93.75
499.918	92.75
500.135	89.75
500.352	94.75
500.569	91.75
500.786	100.75
501.003	96.75
501.22	94.75
501.437	95.75
501.654	104.75
501.871	107.75
502.088	78.75
502.305	94.75
502.522	88.75
502.739	107.75
502.956	110.75
503.172	89.75
503.389	100.75
503.606	111.75
503.823	84.75
504.04	96.75
504.256	84.75
504.473	92.75
504.69	92.75
504.907	87.75
505.123	87.75
505.34	102.75
505.557	86.75
505.773	100.75
505.99	83.75
506.207	91.75
506.423	98.75
506.64	89.75
506.856	94.75
507.073	92.75
507.289	93.75
507.506	86.75
507.722	97.75
507.939	109.75
508.155	98.75
508.372	107.75
508.588	104.75
508.805	106.75
509.021	96.75
509.238	96.75
509.454	107.75
509.67	115.75
509.887	130.75
510.103	130.75
510.319	205.75
510.536	733.75
510.752	2319.75
510.968	617.75
511.184	169.75
511.401	123.75
511.617	102.75
511.833	96.75
512.049	101.75
512.265	92.75
512.481	84.75
512.698	80.75
512.914	91.75
513.13	86.75
513.346	91.75
513.562	88.75
513.778	96.75
513.994	89.75
