Data from Uncirc_1981_H10_HRD10591_00081.txt Node
Date: Wed Jan 03 12:33:24 EST 2024
User: Yrep
Spectrometer: HR+D1059
Trigger mode: 1
Integration Time (sec): 1.000000E-1
Scans to average: 1
Electric dark correction enabled: true
Nonlinearity correction enabled: false
Boxcar width: 0
XAxis mode: Wavelengths
Number of Pixels in Spectrum: 2048
>>>>>Begin Spectral Data<<<<<
223.165	-8.88
223.4	-8.88
223.635	-8.88
223.869	-27.88
224.104	-18.88
224.338	-26.88
224.573	-30.88
224.808	-16.88
225.042	-14.88
225.277	-15.88
225.511	-4.88
225.746	2.12
225.98	19.12
226.215	21.12
226.449	19.12
226.683	29.12
226.918	31.12
227.152	44.12
227.387	39.12
227.621	47.12
227.856	56.12
228.09	62.12
228.324	56.12
228.559	52.12
228.793	48.12
229.027	67.12
229.262	60.12
229.496	79.12
229.73	83.12
229.964	85.12
230.199	66.12
230.433	64.12
230.667	71.12
230.901	76.12
231.136	93.12
231.37	91.12
231.604	87.12
231.838	95.12
232.072	78.12
232.306	96.12
232.541	95.12
232.775	72.12
233.009	87.12
233.243	88.12
233.477	79.12
233.711	85.12
233.945	95.12
234.179	78.12
234.413	98.12
234.647	84.12
234.881	80.12
235.115	74.12
235.349	69.12
235.583	77.12
235.817	83.12
236.051	84.12
236.285	68.12
236.519	88.12
236.753	97.12
236.987	76.12
237.221	81.12
237.455	96.12
237.689	74.12
237.922	83.12
238.156	86.12
238.39	70.12
238.624	80.12
238.858	89.12
239.091	72.12
239.325	80.12
239.559	80.12
239.793	79.12
240.027	89.12
240.26	70.12
240.494	83.12
240.728	85.12
240.961	79.12
241.195	85.12
241.429	74.12
241.662	89.12
241.896	76.12
242.13	93.12
242.363	77.12
242.597	83.12
242.83	83.12
243.064	96.12
243.298	81.12
243.531	71.12
243.765	82.12
243.998	67.12
244.232	89.12
244.465	83.12
244.699	86.12
244.932	79.12
245.166	87.12
245.399	85.12
245.633	71.12
245.866	81.12
246.099	79.12
246.333	84.12
246.566	97.12
246.8	91.12
247.033	78.12
247.266	77.12
247.5	87.12
247.733	78.12
247.966	95.12
248.2	99.12
248.433	70.12
248.666	73.12
248.899	92.12
249.133	91.12
249.366	99.12
249.599	99.12
249.832	74.12
250.066	81.12
250.299	90.12
250.532	95.12
250.765	74.12
250.998	77.12
251.231	71.12
251.465	77.12
251.698	86.12
251.931	86.12
252.164	70.12
252.397	76.12
252.63	80.12
252.863	75.12
253.096	80.12
253.329	85.12
253.562	78.12
253.795	67.12
254.028	87.12
254.261	86.12
254.494	81.12
254.727	87.12
254.96	88.12
255.193	74.12
255.426	95.12
255.659	84.12
255.892	90.12
256.124	88.12
256.357	83.12
256.59	87.12
256.823	91.12
257.056	87.12
257.289	87.12
257.521	85.12
257.754	78.12
257.987	82.12
258.22	101.12
258.452	91.12
258.685	83.12
258.918	78.12
259.151	69.12
259.383	98.12
259.616	89.12
259.849	88.12
260.081	77.12
260.314	82.12
260.547	88.12
260.779	85.12
261.012	90.12
261.244	94.12
261.477	102.12
261.71	92.12
261.942	99.12
262.175	105.12
262.407	100.12
262.64	76.12
262.872	69.12
263.105	84.12
263.337	77.12
263.57	77.12
263.802	91.12
264.035	74.12
264.267	101.12
264.499	77.12
264.732	90.12
264.964	72.12
265.197	71.12
265.429	80.12
265.661	86.12
265.894	83.12
266.126	86.12
266.358	92.12
266.591	92.12
266.823	92.12
267.055	69.12
267.287	81.12
267.52	85.12
267.752	108.12
267.984	85.12
268.216	93.12
268.448	88.12
268.681	86.12
268.913	83.12
269.145	87.12
269.377	84.12
269.609	79.12
269.841	83.12
270.073	87.12
270.306	91.12
270.538	78.12
270.77	73.12
271.002	83.12
271.234	99.12
271.466	79.12
271.698	85.12
271.93	78.12
272.162	97.12
272.394	92.12
272.626	90.12
272.858	101.12
273.09	94.12
273.322	103.12
273.553	94.12
273.785	87.12
274.017	84.12
274.249	83.12
274.481	77.12
274.713	92.12
274.945	91.12
275.176	83.12
275.408	97.12
275.64	87.12
275.872	76.12
276.104	85.12
276.335	94.12
276.567	101.12
276.799	87.12
277.031	90.12
277.262	94.12
277.494	89.12
277.726	96.12
277.957	84.12
278.189	90.12
278.421	81.12
278.652	77.12
278.884	96.12
279.115	87.12
279.347	102.12
279.579	87.12
279.81	79.12
280.042	83.12
280.273	83.12
280.505	73.12
280.736	91.12
280.968	91.12
281.199	77.12
281.431	89.12
281.662	94.12
281.894	86.12
282.125	100.12
282.356	115.12
282.588	113.12
282.819	101.12
283.051	91.12
283.282	89.12
283.513	103.12
283.745	92.12
283.976	83.12
284.207	90.12
284.439	100.12
284.67	99.12
284.901	79.12
285.132	92.12
285.364	89.12
285.595	92.12
285.826	78.12
286.057	93.12
286.288	85.12
286.52	85.12
286.751	95.12
286.982	83.12
287.213	96.12
287.444	80.12
287.675	91.12
287.906	71.12
288.138	81.12
288.369	89.12
288.6	105.12
288.831	101.12
289.062	94.12
289.293	85.12
289.524	94.12
289.755	89.12
289.986	91.12
290.217	93.12
290.448	102.12
290.679	89.12
290.91	83.12
291.141	94.12
291.371	99.12
291.602	83.12
291.833	94.12
292.064	96.12
292.295	88.12
292.526	85.12
292.757	86.12
292.987	98.12
293.218	96.12
293.449	82.12
293.68	93.12
293.91	92.12
294.141	95.12
294.372	83.12
294.603	91.12
294.833	89.12
295.064	92.12
295.295	87.12
295.525	93.12
295.756	83.12
295.987	103.12
296.217	125.12
296.448	110.12
296.679	94.12
296.909	96.12
297.14	76.12
297.37	81.12
297.601	69.12
297.831	84.12
298.062	104.12
298.292	82.12
298.523	108.12
298.753	93.12
298.984	105.12
299.214	102.12
299.445	95.12
299.675	105.12
299.905	100.12
300.136	88.12
300.366	105.12
300.597	83.12
300.827	82.12
301.057	86.12
301.288	96.12
301.518	85.12
301.748	84.12
301.979	94.12
302.209	97.12
302.439	86.12
302.669	84.12
302.9	96.12
303.13	95.12
303.36	85.12
303.59	91.12
303.82	93.12
304.051	93.12
304.281	90.12
304.511	93.12
304.741	86.12
304.971	107.12
305.201	88.12
305.431	87.12
305.661	93.12
305.891	80.12
306.121	98.12
306.352	102.12
306.582	111.12
306.812	89.12
307.042	110.12
307.272	88.12
307.502	80.12
307.731	98.12
307.961	91.12
308.191	107.12
308.421	85.12
308.651	96.12
308.881	88.12
309.111	97.12
309.341	87.12
309.571	90.12
309.8	108.12
310.03	108.12
310.26	107.12
310.49	89.12
310.72	100.12
310.949	92.12
311.179	92.12
311.409	102.12
311.639	96.12
311.868	111.12
312.098	95.12
312.328	84.12
312.557	97.12
312.787	104.12
313.017	110.12
313.246	90.12
313.476	102.12
313.706	108.12
313.935	87.12
314.165	103.12
314.394	86.12
314.624	99.12
314.853	110.12
315.083	93.12
315.312	88.12
315.542	80.12
315.771	69.12
316.001	93.12
316.23	96.12
316.46	95.12
316.689	97.12
316.919	103.12
317.148	109.12
317.377	104.12
317.607	90.12
317.836	89.12
318.065	77.12
318.295	85.12
318.524	110.12
318.753	111.12
318.983	108.12
319.212	99.12
319.441	97.12
319.67	101.12
319.9	85.12
320.129	89.12
320.358	95.12
320.587	91.12
320.816	97.12
321.046	103.12
321.275	95.12
321.504	103.12
321.733	108.12
321.962	100.12
322.191	98.12
322.42	102.12
322.649	110.12
322.878	109.12
323.108	114.12
323.337	115.12
323.566	140.12
323.795	133.12
324.024	180.12
324.253	336.12
324.482	741.12
324.71	1503.12
324.939	2007.12
325.168	724.12
325.397	237.12
325.626	154.12
325.855	131.12
326.084	127.12
326.313	124.12
326.542	135.12
326.77	214.12
326.999	403.12
327.228	871.12
327.457	1585.12
327.686	1240.12
327.914	333.12
328.143	157.12
328.372	139.12
328.6	116.12
328.829	115.12
329.058	112.12
329.287	128.12
329.515	116.12
329.744	108.12
329.972	100.12
330.201	108.12
330.43	112.12
330.658	118.12
330.887	118.12
331.115	110.12
331.344	100.12
331.572	96.12
331.801	99.12
332.03	113.12
332.258	101.12
332.486	95.12
332.715	96.12
332.943	105.12
333.172	92.12
333.4	101.12
333.629	107.12
333.857	109.12
334.085	112.12
334.314	110.12
334.542	121.12
334.771	127.12
334.999	105.12
335.227	98.12
335.455	94.12
335.684	104.12
335.912	104.12
336.14	104.12
336.369	95.12
336.597	96.12
336.825	100.12
337.053	88.12
337.281	103.12
337.51	96.12
337.738	89.12
337.966	104.12
338.194	104.12
338.422	107.12
338.65	92.12
338.878	88.12
339.106	78.12
339.334	101.12
339.562	99.12
339.79	95.12
340.018	107.12
340.246	97.12
340.474	97.12
340.702	104.12
340.93	104.12
341.158	105.12
341.386	93.12
341.614	85.12
341.842	93.12
342.07	81.12
342.298	87.12
342.526	95.12
342.754	104.12
342.981	98.12
343.209	104.12
343.437	113.12
343.665	100.12
343.893	99.12
344.12	85.12
344.348	87.12
344.576	87.12
344.804	90.12
345.031	108.12
345.259	125.12
345.487	102.12
345.714	98.12
345.942	89.12
346.17	85.12
346.397	109.12
346.625	84.12
346.853	103.12
347.08	101.12
347.308	113.12
347.535	120.12
347.763	97.12
347.99	100.12
348.218	92.12
348.445	97.12
348.673	104.12
348.9	96.12
349.128	87.12
349.355	105.12
349.583	100.12
349.81	96.12
350.037	88.12
350.265	97.12
350.492	91.12
350.72	109.12
350.947	103.12
351.174	106.12
351.402	104.12
351.629	94.12
351.856	89.12
352.083	113.12
352.311	105.12
352.538	83.12
352.765	103.12
352.992	100.12
353.22	107.12
353.447	111.12
353.674	100.12
353.901	94.12
354.128	106.12
354.355	104.12
354.583	90.12
354.81	101.12
355.037	106.12
355.264	102.12
355.491	96.12
355.718	93.12
355.945	97.12
356.172	90.12
356.399	101.12
356.626	97.12
356.853	98.12
357.08	107.12
357.307	112.12
357.534	93.12
357.761	95.12
357.988	88.12
358.215	97.12
358.441	89.12
358.668	99.12
358.895	103.12
359.122	88.12
359.349	85.12
359.576	103.12
359.802	93.12
360.029	107.12
360.256	107.12
360.483	101.12
360.709	96.12
360.936	108.12
361.163	95.12
361.39	96.12
361.616	94.12
361.843	101.12
362.07	85.12
362.296	105.12
362.523	89.12
362.749	105.12
362.976	97.12
363.203	100.12
363.429	85.12
363.656	98.12
363.882	97.12
364.109	81.12
364.335	101.12
364.562	96.12
364.788	103.12
365.015	105.12
365.241	105.12
365.468	95.12
365.694	102.12
365.92	99.12
366.147	81.12
366.373	98.12
366.599	87.12
366.826	87.12
367.052	83.12
367.278	88.12
367.505	92.12
367.731	102.12
367.957	90.12
368.184	85.12
368.41	112.12
368.636	110.12
368.862	116.12
369.089	113.12
369.315	93.12
369.541	83.12
369.767	90.12
369.993	88.12
370.219	87.12
370.445	99.12
370.672	95.12
370.898	94.12
371.124	96.12
371.35	89.12
371.576	80.12
371.802	93.12
372.028	93.12
372.254	96.12
372.48	81.12
372.706	91.12
372.932	94.12
373.158	93.12
373.384	111.12
373.61	83.12
373.835	83.12
374.061	91.12
374.287	97.12
374.513	71.12
374.739	84.12
374.965	87.12
375.191	85.12
375.416	93.12
375.642	89.12
375.868	93.12
376.094	101.12
376.319	86.12
376.545	104.12
376.771	107.12
376.997	95.12
377.222	104.12
377.448	92.12
377.674	78.12
377.899	84.12
378.125	101.12
378.35	97.12
378.576	87.12
378.802	101.12
379.027	103.12
379.253	118.12
379.478	88.12
379.704	87.12
379.929	101.12
380.155	90.12
380.38	113.12
380.606	109.12
380.831	91.12
381.057	98.12
381.282	101.12
381.507	97.12
381.733	107.12
381.958	95.12
382.184	101.12
382.409	102.12
382.634	92.12
382.86	98.12
383.085	100.12
383.31	107.12
383.535	117.12
383.761	109.12
383.986	92.12
384.211	104.12
384.436	99.12
384.662	113.12
384.887	101.12
385.112	102.12
385.337	109.12
385.562	110.12
385.787	106.12
386.013	106.12
386.238	105.12
386.463	106.12
386.688	106.12
386.913	95.12
387.138	118.12
387.363	118.12
387.588	109.12
387.813	96.12
388.038	103.12
388.263	115.12
388.488	106.12
388.713	93.12
388.938	106.12
389.163	104.12
389.387	95.12
389.612	97.12
389.837	91.12
390.062	102.12
390.287	102.12
390.512	111.12
390.736	101.12
390.961	102.12
391.186	112.12
391.411	95.12
391.636	92.12
391.86	87.12
392.085	96.12
392.31	80.12
392.534	91.12
392.759	86.12
392.984	90.12
393.208	90.12
393.433	88.12
393.658	95.12
393.882	83.12
394.107	77.12
394.331	95.12
394.556	73.12
394.78	84.12
395.005	85.12
395.229	91.12
395.454	93.12
395.678	97.12
395.903	94.12
396.127	94.12
396.352	100.12
396.576	91.12
396.801	90.12
397.025	79.12
397.249	115.12
397.474	97.12
397.698	91.12
397.922	76.12
398.147	93.12
398.371	93.12
398.595	83.12
398.82	90.12
399.044	100.12
399.268	101.12
399.492	91.12
399.717	92.12
399.941	101.12
400.165	101.12
400.389	100.12
400.613	87.12
400.837	75.12
401.062	83.12
401.286	85.12
401.51	97.12
401.734	103.12
401.958	105.12
402.182	100.12
402.406	118.12
402.63	104.12
402.854	97.12
403.078	87.12
403.302	96.12
403.526	86.12
403.75	79.12
403.974	86.12
404.198	85.12
404.422	89.12
404.645	88.12
404.869	85.12
405.093	102.12
405.317	92.12
405.541	102.12
405.765	97.12
405.988	104.12
406.212	115.12
406.436	175.12
406.66	120.12
406.883	109.12
407.107	79.12
407.331	95.12
407.555	91.12
407.778	87.12
408.002	92.12
408.226	83.12
408.449	94.12
408.673	93.12
408.896	95.12
409.12	100.12
409.344	97.12
409.567	90.12
409.791	101.12
410.014	116.12
410.238	104.12
410.461	86.12
410.685	102.12
410.908	101.12
411.132	110.12
411.355	94.12
411.578	100.12
411.802	87.12
412.025	89.12
412.249	83.12
412.472	94.12
412.695	93.12
412.919	87.12
413.142	89.12
413.365	94.12
413.589	87.12
413.812	90.12
414.035	93.12
414.258	97.12
414.482	97.12
414.705	82.12
414.928	94.12
415.151	95.12
415.374	85.12
415.597	89.12
415.821	80.12
416.044	88.12
416.267	89.12
416.49	95.12
416.713	100.12
416.936	93.12
417.159	86.12
417.382	92.12
417.605	89.12
417.828	97.12
418.051	89.12
418.274	90.12
418.497	102.12
418.72	88.12
418.943	96.12
419.166	78.12
419.389	95.12
419.611	91.12
419.834	80.12
420.057	79.12
420.28	97.12
420.503	95.12
420.726	108.12
420.948	79.12
421.171	90.12
421.394	95.12
421.617	107.12
421.839	94.12
422.062	105.12
422.285	97.12
422.507	85.12
422.73	92.12
422.953	103.12
423.175	107.12
423.398	102.12
423.621	85.12
423.843	85.12
424.066	84.12
424.288	81.12
424.511	109.12
424.733	92.12
424.956	104.12
425.178	97.12
425.401	85.12
425.623	107.12
425.846	95.12
426.068	94.12
426.291	98.12
426.513	86.12
426.735	95.12
426.958	97.12
427.18	81.12
427.402	127.12
427.625	153.12
427.847	105.12
428.069	94.12
428.292	95.12
428.514	83.12
428.736	79.12
428.958	87.12
429.181	76.12
429.403	92.12
429.625	89.12
429.847	87.12
430.069	112.12
430.292	95.12
430.514	102.12
430.736	94.12
430.958	87.12
431.18	83.12
431.402	71.12
431.624	90.12
431.846	85.12
432.068	104.12
432.29	85.12
432.512	98.12
432.734	91.12
432.956	90.12
433.178	94.12
433.4	87.12
433.622	78.12
433.844	86.12
434.066	107.12
434.287	99.12
434.509	95.12
434.731	89.12
434.953	84.12
435.175	77.12
435.397	93.12
435.618	91.12
435.84	108.12
436.062	116.12
436.284	129.12
436.505	98.12
436.727	107.12
436.949	87.12
437.17	95.12
437.392	110.12
437.614	96.12
437.835	85.12
438.057	101.12
438.278	113.12
438.5	106.12
438.721	110.12
438.943	116.12
439.165	99.12
439.386	90.12
439.608	99.12
439.829	111.12
440.05	112.12
440.272	120.12
440.493	105.12
440.715	83.12
440.936	81.12
441.158	94.12
441.379	83.12
441.6	97.12
441.822	95.12
442.043	89.12
442.264	113.12
442.486	105.12
442.707	93.12
442.928	109.12
443.149	111.12
443.371	118.12
443.592	94.12
443.813	96.12
444.034	107.12
444.255	94.12
444.476	105.12
444.698	104.12
444.919	84.12
445.14	134.12
445.361	119.12
445.582	117.12
445.803	131.12
446.024	125.12
446.245	119.12
446.466	118.12
446.687	84.12
446.908	83.12
447.129	88.12
447.35	99.12
447.571	111.12
447.792	91.12
448.013	89.12
448.234	92.12
448.455	99.12
448.675	111.12
448.896	115.12
449.117	104.12
449.338	107.12
449.559	128.12
449.779	127.12
450	95.12
450.221	100.12
450.442	98.12
450.662	104.12
450.883	103.12
451.104	101.12
451.324	93.12
451.545	84.12
451.766	104.12
451.986	97.12
452.207	103.12
452.428	91.12
452.648	94.12
452.869	106.12
453.089	98.12
453.31	107.12
453.53	93.12
453.751	88.12
453.971	103.12
454.192	98.12
454.412	105.12
454.633	80.12
454.853	92.12
455.073	94.12
455.294	100.12
455.514	102.12
455.734	91.12
455.955	99.12
456.175	93.12
456.395	77.12
456.616	95.12
456.836	91.12
457.056	102.12
457.276	101.12
457.497	85.12
457.717	99.12
457.937	87.12
458.157	84.12
458.377	80.12
458.598	107.12
458.818	128.12
459.038	137.12
459.258	102.12
459.478	105.12
459.698	99.12
459.918	107.12
460.138	85.12
460.358	88.12
460.578	97.12
460.798	101.12
461.018	114.12
461.238	92.12
461.458	89.12
461.678	100.12
461.898	92.12
462.118	102.12
462.338	101.12
462.558	100.12
462.777	83.12
462.997	93.12
463.217	92.12
463.437	103.12
463.657	84.12
463.876	93.12
464.096	83.12
464.316	93.12
464.536	100.12
464.755	96.12
464.975	116.12
465.195	136.12
465.414	133.12
465.634	95.12
465.854	97.12
466.073	100.12
466.293	88.12
466.512	77.12
466.732	85.12
466.951	87.12
467.171	89.12
467.391	92.12
467.61	110.12
467.829	99.12
468.049	110.12
468.268	104.12
468.488	84.12
468.707	88.12
468.927	96.12
469.146	93.12
469.365	84.12
469.585	91.12
469.804	97.12
470.023	92.12
470.243	81.12
470.462	98.12
470.681	107.12
470.901	91.12
471.12	96.12
471.339	92.12
471.558	99.12
471.777	77.12
471.997	90.12
472.216	103.12
472.435	135.12
472.654	104.12
472.873	102.12
473.092	80.12
473.311	80.12
473.53	80.12
473.749	104.12
473.968	101.12
474.187	98.12
474.406	100.12
474.625	86.12
474.844	79.12
475.063	87.12
475.282	89.12
475.501	89.12
475.72	105.12
475.939	100.12
476.158	89.12
476.377	101.12
476.596	101.12
476.814	103.12
477.033	104.12
477.252	81.12
477.471	95.12
477.69	107.12
477.908	90.12
478.127	91.12
478.346	89.12
478.564	94.12
478.783	100.12
479.002	89.12
479.22	79.12
479.439	92.12
479.658	111.12
479.876	101.12
480.095	95.12
480.313	92.12
480.532	92.12
480.751	84.12
480.969	116.12
481.188	167.12
481.406	131.12
481.624	106.12
481.843	97.12
482.061	94.12
482.28	90.12
482.498	98.12
482.717	100.12
482.935	100.12
483.153	93.12
483.372	85.12
483.59	88.12
483.808	83.12
484.027	87.12
484.245	102.12
484.463	94.12
484.681	97.12
484.9	95.12
485.118	113.12
485.336	101.12
485.554	100.12
485.772	111.12
485.99	113.12
486.209	106.12
486.427	112.12
486.645	106.12
486.863	111.12
487.081	108.12
487.299	96.12
487.517	100.12
487.735	91.12
487.953	99.12
488.171	96.12
488.389	103.12
488.607	102.12
488.825	87.12
489.043	94.12
489.261	89.12
489.479	90.12
489.696	88.12
489.914	90.12
490.132	93.12
490.35	96.12
490.568	80.12
490.786	83.12
491.003	93.12
491.221	91.12
491.439	96.12
491.657	89.12
491.874	96.12
492.092	107.12
492.31	99.12
492.527	92.12
492.745	100.12
492.963	104.12
493.18	77.12
493.398	103.12
493.615	97.12
493.833	104.12
494.05	96.12
494.268	87.12
494.485	95.12
494.703	87.12
494.92	107.12
495.138	98.12
495.355	97.12
495.573	97.12
495.79	81.12
496.008	95.12
496.225	85.12
496.442	89.12
496.66	101.12
496.877	96.12
497.094	106.12
497.312	73.12
497.529	90.12
497.746	87.12
497.963	77.12
498.181	88.12
498.398	95.12
498.615	99.12
498.832	95.12
499.049	88.12
499.267	91.12
499.484	83.12
499.701	91.12
499.918	96.12
500.135	97.12
500.352	92.12
500.569	93.12
500.786	89.12
501.003	85.12
501.22	97.12
501.437	86.12
501.654	102.12
501.871	96.12
502.088	90.12
502.305	96.12
502.522	110.12
502.739	99.12
502.956	77.12
503.172	85.12
503.389	83.12
503.606	99.12
503.823	103.12
504.04	107.12
504.256	90.12
504.473	90.12
504.69	96.12
504.907	97.12
505.123	88.12
505.34	93.12
505.557	95.12
505.773	85.12
505.99	91.12
506.207	97.12
506.423	80.12
506.64	99.12
506.856	103.12
507.073	99.12
507.289	77.12
507.506	92.12
507.722	111.12
507.939	112.12
508.155	97.12
508.372	85.12
508.588	93.12
508.805	95.12
509.021	88.12
509.238	92.12
509.454	102.12
509.67	93.12
509.887	102.12
510.103	118.12
510.319	193.12
510.536	556.12
510.752	1563.12
510.968	441.12
511.184	131.12
511.401	97.12
511.617	107.12
511.833	96.12
512.049	97.12
512.265	97.12
512.481	86.12
512.698	76.12
512.914	90.12
513.13	101.12
513.346	102.12
513.562	90.12
513.778	105.12
513.994	112.12
514.21	120.12
