Data from Uncirc_1981_H10_HRD10591_00032.txt Node
Date: Wed Jan 03 12:33:14 EST 2024
User: Yrep
Spectrometer: HR+D1059
Trigger mode: 1
Integration Time (sec): 1.000000E-1
Scans to average: 1
Electric dark correction enabled: true
Nonlinearity correction enabled: false
Boxcar width: 0
XAxis mode: Wavelengths
Number of Pixels in Spectrum: 2048
>>>>>Begin Spectral Data<<<<<
223.165	-9.81
223.4	-9.81
223.635	-9.81
223.869	-22.81
224.104	-32.81
224.338	-25.81
224.573	-14.81
224.808	-7.81
225.042	-15.81
225.277	-11.81
225.511	-1.81
225.746	3.19
225.98	7.19
226.215	6.19
226.449	25.19
226.683	34.19
226.918	26.19
227.152	41.19
227.387	34.19
227.621	38.19
227.856	40.19
228.09	49.19
228.324	55.19
228.559	64.19
228.793	59.19
229.027	51.19
229.262	69.19
229.496	56.19
229.73	67.19
229.964	79.19
230.199	79.19
230.433	77.19
230.667	89.19
230.901	72.19
231.136	85.19
231.37	70.19
231.604	87.19
231.838	94.19
232.072	70.19
232.306	86.19
232.541	83.19
232.775	84.19
233.009	84.19
233.243	86.19
233.477	93.19
233.711	89.19
233.945	95.19
234.179	90.19
234.413	61.19
234.647	69.19
234.881	79.19
235.115	68.19
235.349	76.19
235.583	83.19
235.817	80.19
236.051	74.19
236.285	81.19
236.519	89.19
236.753	81.19
236.987	71.19
237.221	72.19
237.455	73.19
237.689	81.19
237.922	78.19
238.156	74.19
238.39	79.19
238.624	69.19
238.858	79.19
239.091	80.19
239.325	83.19
239.559	93.19
239.793	86.19
240.027	78.19
240.26	85.19
240.494	102.19
240.728	88.19
240.961	67.19
241.195	71.19
241.429	84.19
241.662	78.19
241.896	91.19
242.13	67.19
242.363	76.19
242.597	87.19
242.83	91.19
243.064	87.19
243.298	92.19
243.531	75.19
243.765	77.19
243.998	76.19
244.232	63.19
244.465	80.19
244.699	81.19
244.932	91.19
245.166	81.19
245.399	88.19
245.633	83.19
245.866	86.19
246.099	89.19
246.333	73.19
246.566	80.19
246.8	85.19
247.033	76.19
247.266	88.19
247.5	72.19
247.733	91.19
247.966	76.19
248.2	100.19
248.433	67.19
248.666	76.19
248.899	57.19
249.133	71.19
249.366	79.19
249.599	88.19
249.832	83.19
250.066	88.19
250.299	83.19
250.532	80.19
250.765	78.19
250.998	80.19
251.231	89.19
251.465	89.19
251.698	90.19
251.931	81.19
252.164	86.19
252.397	88.19
252.63	75.19
252.863	96.19
253.096	86.19
253.329	85.19
253.562	80.19
253.795	73.19
254.028	77.19
254.261	78.19
254.494	89.19
254.727	87.19
254.96	78.19
255.193	81.19
255.426	84.19
255.659	83.19
255.892	83.19
256.124	91.19
256.357	84.19
256.59	97.19
256.823	76.19
257.056	87.19
257.289	80.19
257.521	84.19
257.754	85.19
257.987	83.19
258.22	95.19
258.452	85.19
258.685	91.19
258.918	92.19
259.151	87.19
259.383	91.19
259.616	90.19
259.849	86.19
260.081	85.19
260.314	99.19
260.547	88.19
260.779	71.19
261.012	95.19
261.244	86.19
261.477	106.19
261.71	83.19
261.942	96.19
262.175	103.19
262.407	94.19
262.64	75.19
262.872	96.19
263.105	92.19
263.337	88.19
263.57	87.19
263.802	96.19
264.035	76.19
264.267	98.19
264.499	83.19
264.732	83.19
264.964	92.19
265.197	80.19
265.429	83.19
265.661	92.19
265.894	83.19
266.126	105.19
266.358	87.19
266.591	89.19
266.823	99.19
267.055	74.19
267.287	90.19
267.52	88.19
267.752	79.19
267.984	100.19
268.216	83.19
268.448	87.19
268.681	96.19
268.913	88.19
269.145	88.19
269.377	97.19
269.609	94.19
269.841	95.19
270.073	78.19
270.306	82.19
270.538	67.19
270.77	90.19
271.002	93.19
271.234	87.19
271.466	96.19
271.698	77.19
271.93	77.19
272.162	67.19
272.394	87.19
272.626	91.19
272.858	93.19
273.09	103.19
273.322	87.19
273.553	74.19
273.785	93.19
274.017	83.19
274.249	87.19
274.481	80.19
274.713	74.19
274.945	97.19
275.176	96.19
275.408	77.19
275.64	84.19
275.872	91.19
276.104	85.19
276.335	76.19
276.567	94.19
276.799	110.19
277.031	84.19
277.262	93.19
277.494	84.19
277.726	80.19
277.957	85.19
278.189	82.19
278.421	93.19
278.652	83.19
278.884	91.19
279.115	85.19
279.347	89.19
279.579	98.19
279.81	87.19
280.042	84.19
280.273	79.19
280.505	87.19
280.736	95.19
280.968	72.19
281.199	83.19
281.431	94.19
281.662	95.19
281.894	99.19
282.125	108.19
282.356	93.19
282.588	106.19
282.819	103.19
283.051	90.19
283.282	91.19
283.513	87.19
283.745	80.19
283.976	83.19
284.207	91.19
284.439	95.19
284.67	91.19
284.901	100.19
285.132	77.19
285.364	85.19
285.595	78.19
285.826	78.19
286.057	92.19
286.288	74.19
286.52	101.19
286.751	87.19
286.982	85.19
287.213	88.19
287.444	92.19
287.675	99.19
287.906	85.19
288.138	87.19
288.369	93.19
288.6	79.19
288.831	85.19
289.062	88.19
289.293	81.19
289.524	87.19
289.755	93.19
289.986	80.19
290.217	87.19
290.448	85.19
290.679	78.19
290.91	87.19
291.141	97.19
291.371	84.19
291.602	91.19
291.833	84.19
292.064	86.19
292.295	94.19
292.526	91.19
292.757	83.19
292.987	94.19
293.218	91.19
293.449	83.19
293.68	77.19
293.91	88.19
294.141	94.19
294.372	96.19
294.603	89.19
294.833	102.19
295.064	98.19
295.295	98.19
295.525	105.19
295.756	97.19
295.987	93.19
296.217	125.19
296.448	101.19
296.679	101.19
296.909	96.19
297.14	91.19
297.37	103.19
297.601	92.19
297.831	105.19
298.062	83.19
298.292	102.19
298.523	96.19
298.753	101.19
298.984	90.19
299.214	92.19
299.445	100.19
299.675	85.19
299.905	98.19
300.136	89.19
300.366	90.19
300.597	89.19
300.827	77.19
301.057	97.19
301.288	91.19
301.518	87.19
301.748	98.19
301.979	95.19
302.209	84.19
302.439	86.19
302.669	89.19
302.9	81.19
303.13	86.19
303.36	95.19
303.59	85.19
303.82	104.19
304.051	102.19
304.281	94.19
304.511	106.19
304.741	84.19
304.971	95.19
305.201	88.19
305.431	100.19
305.661	99.19
305.891	79.19
306.121	88.19
306.352	104.19
306.582	87.19
306.812	94.19
307.042	79.19
307.272	92.19
307.502	85.19
307.731	91.19
307.961	84.19
308.191	94.19
308.421	92.19
308.651	96.19
308.881	93.19
309.111	93.19
309.341	91.19
309.571	98.19
309.8	116.19
310.03	86.19
310.26	100.19
310.49	95.19
310.72	101.19
310.949	96.19
311.179	79.19
311.409	96.19
311.639	97.19
311.868	80.19
312.098	87.19
312.328	87.19
312.557	111.19
312.787	90.19
313.017	98.19
313.246	104.19
313.476	99.19
313.706	91.19
313.935	85.19
314.165	90.19
314.394	104.19
314.624	96.19
314.853	86.19
315.083	86.19
315.312	91.19
315.542	95.19
315.771	104.19
316.001	90.19
316.23	95.19
316.46	91.19
316.689	78.19
316.919	94.19
317.148	95.19
317.377	90.19
317.607	95.19
317.836	94.19
318.065	92.19
318.295	92.19
318.524	88.19
318.753	89.19
318.983	104.19
319.212	104.19
319.441	101.19
319.67	105.19
319.9	89.19
320.129	94.19
320.358	94.19
320.587	108.19
320.816	107.19
321.046	91.19
321.275	99.19
321.504	76.19
321.733	97.19
321.962	104.19
322.191	86.19
322.42	99.19
322.649	115.19
322.878	111.19
323.108	109.19
323.337	117.19
323.566	125.19
323.795	132.19
324.024	174.19
324.253	311.19
324.482	622.19
324.71	1244.19
324.939	1635.19
325.168	599.19
325.397	191.19
325.626	125.19
325.855	119.19
326.084	117.19
326.313	126.19
326.542	139.19
326.77	189.19
326.999	350.19
327.228	745.19
327.457	1324.19
327.686	1031.19
327.914	311.19
328.143	160.19
328.372	127.19
328.6	108.19
328.829	90.19
329.058	119.19
329.287	118.19
329.515	110.19
329.744	105.19
329.972	105.19
330.201	119.19
330.43	113.19
330.658	112.19
330.887	132.19
331.115	108.19
331.344	97.19
331.572	107.19
331.801	92.19
332.03	101.19
332.258	83.19
332.486	86.19
332.715	87.19
332.943	104.19
333.172	91.19
333.4	96.19
333.629	118.19
333.857	105.19
334.085	108.19
334.314	106.19
334.542	121.19
334.771	95.19
334.999	84.19
335.227	94.19
335.455	93.19
335.684	113.19
335.912	100.19
336.14	96.19
336.369	97.19
336.597	90.19
336.825	101.19
337.053	94.19
337.281	97.19
337.51	80.19
337.738	81.19
337.966	89.19
338.194	104.19
338.422	99.19
338.65	103.19
338.878	86.19
339.106	100.19
339.334	103.19
339.562	89.19
339.79	95.19
340.018	97.19
340.246	98.19
340.474	88.19
340.702	96.19
340.93	89.19
341.158	93.19
341.386	92.19
341.614	86.19
341.842	94.19
342.07	83.19
342.298	106.19
342.526	94.19
342.754	79.19
342.981	95.19
343.209	103.19
343.437	110.19
343.665	91.19
343.893	84.19
344.12	90.19
344.348	80.19
344.576	95.19
344.804	92.19
345.031	100.19
345.259	109.19
345.487	94.19
345.714	97.19
345.942	101.19
346.17	91.19
346.397	90.19
346.625	102.19
346.853	91.19
347.08	96.19
347.308	108.19
347.535	99.19
347.763	100.19
347.99	107.19
348.218	99.19
348.445	108.19
348.673	84.19
348.9	95.19
349.128	90.19
349.355	104.19
349.583	89.19
349.81	110.19
350.037	103.19
350.265	111.19
350.492	88.19
350.72	92.19
350.947	117.19
351.174	107.19
351.402	117.19
351.629	110.19
351.856	105.19
352.083	88.19
352.311	100.19
352.538	119.19
352.765	106.19
352.992	115.19
353.22	103.19
353.447	111.19
353.674	110.19
353.901	94.19
354.128	100.19
354.355	98.19
354.583	105.19
354.81	108.19
355.037	104.19
355.264	103.19
355.491	117.19
355.718	103.19
355.945	100.19
356.172	106.19
356.399	99.19
356.626	97.19
356.853	97.19
357.08	108.19
357.307	108.19
357.534	108.19
357.761	93.19
357.988	96.19
358.215	99.19
358.441	95.19
358.668	89.19
358.895	83.19
359.122	97.19
359.349	92.19
359.576	79.19
359.802	106.19
360.029	97.19
360.256	85.19
360.483	92.19
360.709	77.19
360.936	106.19
361.163	93.19
361.39	88.19
361.616	92.19
361.843	88.19
362.07	93.19
362.296	109.19
362.523	92.19
362.749	99.19
362.976	91.19
363.203	81.19
363.429	91.19
363.656	102.19
363.882	91.19
364.109	96.19
364.335	102.19
364.562	109.19
364.788	95.19
365.015	95.19
365.241	107.19
365.468	84.19
365.694	97.19
365.92	109.19
366.147	103.19
366.373	90.19
366.599	79.19
366.826	90.19
367.052	90.19
367.278	104.19
367.505	91.19
367.731	60.19
367.957	90.19
368.184	86.19
368.41	96.19
368.636	110.19
368.862	99.19
369.089	91.19
369.315	99.19
369.541	80.19
369.767	83.19
369.993	90.19
370.219	111.19
370.445	89.19
370.672	101.19
370.898	84.19
371.124	91.19
371.35	85.19
371.576	98.19
371.802	96.19
372.028	82.19
372.254	96.19
372.48	95.19
372.706	96.19
372.932	88.19
373.158	101.19
373.384	92.19
373.61	83.19
373.835	89.19
374.061	96.19
374.287	91.19
374.513	95.19
374.739	94.19
374.965	115.19
375.191	94.19
375.416	91.19
375.642	100.19
375.868	88.19
376.094	88.19
376.319	98.19
376.545	79.19
376.771	78.19
376.997	92.19
377.222	85.19
377.448	90.19
377.674	101.19
377.899	87.19
378.125	95.19
378.35	87.19
378.576	95.19
378.802	92.19
379.027	93.19
379.253	104.19
379.478	91.19
379.704	99.19
379.929	75.19
380.155	90.19
380.38	103.19
380.606	101.19
380.831	87.19
381.057	103.19
381.282	97.19
381.507	105.19
381.733	121.19
381.958	97.19
382.184	106.19
382.409	104.19
382.634	117.19
382.86	95.19
383.085	114.19
383.31	104.19
383.535	90.19
383.761	92.19
383.986	110.19
384.211	104.19
384.436	104.19
384.662	105.19
384.887	112.19
385.112	118.19
385.337	105.19
385.562	118.19
385.787	112.19
386.013	122.19
386.238	135.19
386.463	112.19
386.688	112.19
386.913	101.19
387.138	121.19
387.363	113.19
387.588	118.19
387.813	107.19
388.038	107.19
388.263	132.19
388.488	115.19
388.713	110.19
388.938	99.19
389.163	105.19
389.387	109.19
389.612	89.19
389.837	96.19
390.062	91.19
390.287	103.19
390.512	104.19
390.736	101.19
390.961	84.19
391.186	84.19
391.411	107.19
391.636	109.19
391.86	93.19
392.085	85.19
392.31	91.19
392.534	77.19
392.759	95.19
392.984	84.19
393.208	89.19
393.433	90.19
393.658	73.19
393.882	83.19
394.107	80.19
394.331	96.19
394.556	83.19
394.78	84.19
395.005	100.19
395.229	88.19
395.454	71.19
395.678	91.19
395.903	83.19
396.127	89.19
396.352	85.19
396.576	96.19
396.801	83.19
397.025	75.19
397.249	91.19
397.474	95.19
397.698	84.19
397.922	86.19
398.147	83.19
398.371	95.19
398.595	94.19
398.82	89.19
399.044	79.19
399.268	75.19
399.492	94.19
399.717	94.19
399.941	85.19
400.165	90.19
400.389	80.19
400.613	93.19
400.837	89.19
401.062	106.19
401.286	96.19
401.51	96.19
401.734	79.19
401.958	106.19
402.182	98.19
402.406	134.19
402.63	120.19
402.854	94.19
403.078	91.19
403.302	86.19
403.526	97.19
403.75	85.19
403.974	89.19
404.198	83.19
404.422	96.19
404.645	92.19
404.869	97.19
405.093	105.19
405.317	100.19
405.541	73.19
405.765	91.19
405.988	103.19
406.212	145.19
406.436	160.19
406.66	117.19
406.883	94.19
407.107	91.19
407.331	86.19
407.555	77.19
407.778	94.19
408.002	91.19
408.226	96.19
408.449	89.19
408.673	81.19
408.896	91.19
409.12	104.19
409.344	87.19
409.567	90.19
409.791	77.19
410.014	85.19
410.238	93.19
410.461	100.19
410.685	106.19
410.908	95.19
411.132	110.19
411.355	88.19
411.578	93.19
411.802	95.19
412.025	92.19
412.249	88.19
412.472	96.19
412.695	103.19
412.919	95.19
413.142	98.19
413.365	91.19
413.589	80.19
413.812	97.19
414.035	100.19
414.258	104.19
414.482	88.19
414.705	91.19
414.928	105.19
415.151	90.19
415.374	104.19
415.597	105.19
415.821	92.19
416.044	100.19
416.267	110.19
416.49	108.19
416.713	89.19
416.936	94.19
417.159	92.19
417.382	85.19
417.605	84.19
417.828	93.19
418.051	92.19
418.274	85.19
418.497	97.19
418.72	89.19
418.943	100.19
419.166	97.19
419.389	90.19
419.611	89.19
419.834	88.19
420.057	97.19
420.28	85.19
420.503	81.19
420.726	106.19
420.948	83.19
421.171	73.19
421.394	113.19
421.617	91.19
421.839	85.19
422.062	90.19
422.285	95.19
422.507	105.19
422.73	76.19
422.953	75.19
423.175	88.19
423.398	94.19
423.621	89.19
423.843	79.19
424.066	85.19
424.288	119.19
424.511	101.19
424.733	91.19
424.956	96.19
425.178	96.19
425.401	99.19
425.623	101.19
425.846	109.19
426.068	90.19
426.291	91.19
426.513	99.19
426.735	87.19
426.958	92.19
427.18	94.19
427.402	120.19
427.625	126.19
427.847	116.19
428.069	106.19
428.292	81.19
428.514	89.19
428.736	95.19
428.958	100.19
429.181	86.19
429.403	89.19
429.625	93.19
429.847	94.19
430.069	104.19
430.292	78.19
430.514	81.19
430.736	96.19
430.958	89.19
431.18	87.19
431.402	86.19
431.624	82.19
431.846	94.19
432.068	85.19
432.29	106.19
432.512	98.19
432.734	97.19
432.956	80.19
433.178	79.19
433.4	89.19
433.622	107.19
433.844	88.19
434.066	83.19
434.287	94.19
434.509	85.19
434.731	87.19
434.953	87.19
435.175	105.19
435.397	92.19
435.618	85.19
435.84	102.19
436.062	116.19
436.284	104.19
436.505	91.19
436.727	99.19
436.949	87.19
437.17	81.19
437.392	99.19
437.614	99.19
437.835	107.19
438.057	118.19
438.278	96.19
438.5	99.19
438.721	116.19
438.943	99.19
439.165	81.19
439.386	102.19
439.608	88.19
439.829	102.19
440.05	113.19
440.272	112.19
440.493	86.19
440.715	92.19
440.936	71.19
441.158	87.19
441.379	104.19
441.6	98.19
441.822	94.19
442.043	74.19
442.264	84.19
442.486	85.19
442.707	88.19
442.928	99.19
443.149	106.19
443.371	127.19
443.592	93.19
443.813	95.19
444.034	101.19
444.255	82.19
444.476	101.19
444.698	90.19
444.919	83.19
445.14	124.19
445.361	105.19
445.582	103.19
445.803	119.19
446.024	112.19
446.245	110.19
446.466	107.19
446.687	83.19
446.908	91.19
447.129	88.19
447.35	92.19
447.571	98.19
447.792	90.19
448.013	100.19
448.234	111.19
448.455	103.19
448.675	95.19
448.896	92.19
449.117	105.19
449.338	94.19
449.559	116.19
449.779	116.19
450	91.19
450.221	89.19
450.442	89.19
450.662	90.19
450.883	103.19
451.104	93.19
451.324	89.19
451.545	99.19
451.766	87.19
451.986	85.19
452.207	101.19
452.428	84.19
452.648	88.19
452.869	99.19
453.089	97.19
453.31	111.19
453.53	84.19
453.751	99.19
453.971	91.19
454.192	108.19
454.412	83.19
454.633	81.19
454.853	87.19
455.073	95.19
455.294	88.19
455.514	86.19
455.734	84.19
455.955	85.19
456.175	78.19
456.395	73.19
456.616	101.19
456.836	89.19
457.056	80.19
457.276	85.19
457.497	81.19
457.717	100.19
457.937	91.19
458.157	91.19
458.377	79.19
458.598	101.19
458.818	126.19
459.038	125.19
459.258	101.19
459.478	72.19
459.698	99.19
459.918	97.19
460.138	87.19
460.358	88.19
460.578	96.19
460.798	84.19
461.018	104.19
461.238	102.19
461.458	88.19
461.678	93.19
461.898	94.19
462.118	85.19
462.338	109.19
462.558	86.19
462.777	93.19
462.997	91.19
463.217	93.19
463.437	77.19
463.657	88.19
463.876	99.19
464.096	86.19
464.316	83.19
464.536	93.19
464.755	96.19
464.975	98.19
465.195	130.19
465.414	122.19
465.634	100.19
465.854	81.19
466.073	102.19
466.293	85.19
466.512	102.19
466.732	91.19
466.951	95.19
467.171	95.19
467.391	96.19
467.61	96.19
467.829	74.19
468.049	103.19
468.268	101.19
468.488	97.19
468.707	94.19
468.927	95.19
469.146	84.19
469.365	85.19
469.585	87.19
469.804	91.19
470.023	88.19
470.243	93.19
470.462	96.19
470.681	99.19
470.901	90.19
471.12	87.19
471.339	98.19
471.558	99.19
471.777	81.19
471.997	88.19
472.216	115.19
472.435	111.19
472.654	100.19
472.873	88.19
473.092	84.19
473.311	87.19
473.53	100.19
473.749	102.19
473.968	91.19
474.187	95.19
474.406	90.19
474.625	94.19
474.844	86.19
475.063	88.19
475.282	87.19
475.501	90.19
475.72	87.19
475.939	95.19
476.158	77.19
476.377	101.19
476.596	78.19
476.814	93.19
477.033	107.19
477.252	81.19
477.471	89.19
477.69	90.19
477.908	88.19
478.127	91.19
478.346	93.19
478.564	96.19
478.783	95.19
479.002	91.19
479.22	82.19
479.439	96.19
479.658	88.19
479.876	95.19
480.095	95.19
480.313	94.19
480.532	78.19
480.751	79.19
480.969	97.19
481.188	150.19
481.406	121.19
481.624	86.19
481.843	72.19
482.061	104.19
482.28	86.19
482.498	90.19
482.717	86.19
482.935	91.19
483.153	86.19
483.372	95.19
483.59	121.19
483.808	83.19
484.027	86.19
484.245	88.19
484.463	86.19
484.681	99.19
484.9	107.19
485.118	96.19
485.336	104.19
485.554	88.19
485.772	97.19
485.99	102.19
486.209	104.19
486.427	95.19
486.645	98.19
486.863	103.19
487.081	96.19
487.299	104.19
487.517	89.19
487.735	80.19
487.953	92.19
488.171	116.19
488.389	104.19
488.607	94.19
488.825	100.19
489.043	94.19
489.261	83.19
489.479	100.19
489.696	95.19
489.914	89.19
490.132	93.19
490.35	90.19
490.568	95.19
490.786	103.19
491.003	101.19
491.221	89.19
491.439	91.19
491.657	92.19
491.874	89.19
492.092	78.19
492.31	97.19
492.527	89.19
492.745	98.19
492.963	91.19
493.18	86.19
493.398	90.19
493.615	102.19
493.833	106.19
494.05	92.19
494.268	89.19
494.485	89.19
494.703	95.19
494.92	83.19
495.138	86.19
495.355	78.19
495.573	92.19
495.79	85.19
496.008	97.19
496.225	109.19
496.442	96.19
496.66	104.19
496.877	99.19
497.094	99.19
497.312	94.19
497.529	99.19
497.746	90.19
497.963	87.19
498.181	92.19
498.398	98.19
498.615	102.19
498.832	102.19
499.049	81.19
499.267	98.19
499.484	93.19
499.701	91.19
499.918	93.19
500.135	95.19
500.352	91.19
500.569	93.19
500.786	95.19
501.003	89.19
501.22	87.19
501.437	95.19
501.654	97.19
501.871	102.19
502.088	89.19
502.305	90.19
502.522	88.19
502.739	92.19
502.956	92.19
503.172	86.19
503.389	103.19
503.606	111.19
503.823	73.19
504.04	103.19
504.256	100.19
504.473	85.19
504.69	69.19
504.907	89.19
505.123	87.19
505.34	99.19
505.557	87.19
505.773	92.19
505.99	84.19
506.207	77.19
506.423	102.19
506.64	81.19
506.856	96.19
507.073	74.19
507.289	91.19
507.506	106.19
507.722	107.19
507.939	100.19
508.155	107.19
508.372	91.19
508.588	100.19
508.805	109.19
509.021	89.19
509.238	95.19
509.454	88.19
509.67	89.19
509.887	121.19
510.103	116.19
510.319	159.19
510.536	501.19
510.752	1455.19
510.968	419.19
511.184	133.19
511.401	102.19
511.617	96.19
511.833	92.19
512.049	92.19
512.265	100.19
512.481	87.19
512.698	73.19
512.914	91.19
513.13	93.19
513.346	86.19
513.562	101.19
513.778	96.19
513.994	105.19
514.21	93.19
514.426	103.19
514.642	118.19
514.858	128.19
515.074	126.19
515.29	297.19
