Data from Uncirc_1981_H10_HRD10591_00088.txt Node
Date: Wed Jan 03 12:33:25 EST 2024
User: Yrep
Spectrometer: HR+D1059
Trigger mode: 1
Integration Time (sec): 1.000000E-1
Scans to average: 1
Electric dark correction enabled: true
Nonlinearity correction enabled: false
Boxcar width: 0
XAxis mode: Wavelengths
Number of Pixels in Spectrum: 2048
>>>>>Begin Spectral Data<<<<<
223.165	-25.31
223.4	-25.31
223.635	-25.31
223.869	-20.31
224.104	-14.31
224.338	-14.31
224.573	-20.31
224.808	-31.31
225.042	2.69
225.277	-11.31
225.511	-1.31
225.746	-5.31
225.98	8.69
226.215	15.69
226.449	16.69
226.683	22.69
226.918	38.69
227.152	38.69
227.387	29.69
227.621	34.69
227.856	42.69
228.09	35.69
228.324	40.69
228.559	54.69
228.793	65.69
229.027	48.69
229.262	46.69
229.496	59.69
229.73	80.69
229.964	66.69
230.199	52.69
230.433	74.69
230.667	65.69
230.901	57.69
231.136	64.69
231.37	66.69
231.604	62.69
231.838	71.69
232.072	53.69
232.306	79.69
232.541	68.69
232.775	83.69
233.009	78.69
233.243	69.69
233.477	76.69
233.711	61.69
233.945	82.69
234.179	81.69
234.413	92.69
234.647	61.69
234.881	71.69
235.115	86.69
235.349	67.69
235.583	65.69
235.817	64.69
236.051	65.69
236.285	72.69
236.519	79.69
236.753	66.69
236.987	87.69
237.221	57.69
237.455	78.69
237.689	78.69
237.922	61.69
238.156	62.69
238.39	64.69
238.624	61.69
238.858	64.69
239.091	94.69
239.325	71.69
239.559	74.69
239.793	72.69
240.027	61.69
240.26	66.69
240.494	73.69
240.728	59.69
240.961	87.69
241.195	64.69
241.429	76.69
241.662	79.69
241.896	71.69
242.13	69.69
242.363	66.69
242.597	69.69
242.83	95.69
243.064	67.69
243.298	77.69
243.531	63.69
243.765	63.69
243.998	70.69
244.232	70.69
244.465	78.69
244.699	82.69
244.932	77.69
245.166	61.69
245.399	73.69
245.633	90.69
245.866	78.69
246.099	70.69
246.333	76.69
246.566	78.69
246.8	78.69
247.033	66.69
247.266	91.69
247.5	79.69
247.733	62.69
247.966	56.69
248.2	63.69
248.433	81.69
248.666	83.69
248.899	72.69
249.133	77.69
249.366	74.69
249.599	79.69
249.832	68.69
250.066	74.69
250.299	70.69
250.532	66.69
250.765	82.69
250.998	80.69
251.231	80.69
251.465	75.69
251.698	61.69
251.931	69.69
252.164	79.69
252.397	79.69
252.63	76.69
252.863	66.69
253.096	72.69
253.329	77.69
253.562	62.69
253.795	79.69
254.028	86.69
254.261	70.69
254.494	85.69
254.727	80.69
254.96	67.69
255.193	88.69
255.426	64.69
255.659	71.69
255.892	60.69
256.124	68.69
256.357	69.69
256.59	81.69
256.823	74.69
257.056	69.69
257.289	82.69
257.521	89.69
257.754	67.69
257.987	53.69
258.22	75.69
258.452	76.69
258.685	71.69
258.918	70.69
259.151	71.69
259.383	84.69
259.616	71.69
259.849	95.69
260.081	83.69
260.314	79.69
260.547	69.69
260.779	72.69
261.012	78.69
261.244	81.69
261.477	84.69
261.71	70.69
261.942	90.69
262.175	91.69
262.407	79.69
262.64	78.69
262.872	86.69
263.105	74.69
263.337	75.69
263.57	63.69
263.802	75.69
264.035	71.69
264.267	79.69
264.499	65.69
264.732	69.69
264.964	64.69
265.197	97.69
265.429	84.69
265.661	85.69
265.894	82.69
266.126	79.69
266.358	71.69
266.591	72.69
266.823	67.69
267.055	57.69
267.287	69.69
267.52	80.69
267.752	82.69
267.984	80.69
268.216	78.69
268.448	76.69
268.681	83.69
268.913	68.69
269.145	78.69
269.377	75.69
269.609	76.69
269.841	70.69
270.073	76.69
270.306	84.69
270.538	67.69
270.77	78.69
271.002	81.69
271.234	81.69
271.466	83.69
271.698	85.69
271.93	75.69
272.162	84.69
272.394	90.69
272.626	78.69
272.858	70.69
273.09	93.69
273.322	77.69
273.553	81.69
273.785	74.69
274.017	94.69
274.249	83.69
274.481	60.69
274.713	86.69
274.945	70.69
275.176	68.69
275.408	80.69
275.64	83.69
275.872	89.69
276.104	71.69
276.335	77.69
276.567	98.69
276.799	92.69
277.031	91.69
277.262	89.69
277.494	76.69
277.726	85.69
277.957	76.69
278.189	82.69
278.421	80.69
278.652	78.69
278.884	80.69
279.115	63.69
279.347	77.69
279.579	82.69
279.81	63.69
280.042	82.69
280.273	72.69
280.505	86.69
280.736	78.69
280.968	88.69
281.199	80.69
281.431	75.69
281.662	85.69
281.894	79.69
282.125	88.69
282.356	88.69
282.588	100.69
282.819	90.69
283.051	75.69
283.282	81.69
283.513	88.69
283.745	82.69
283.976	80.69
284.207	72.69
284.439	62.69
284.67	84.69
284.901	77.69
285.132	78.69
285.364	88.69
285.595	81.69
285.826	74.69
286.057	61.69
286.288	78.69
286.52	88.69
286.751	70.69
286.982	87.69
287.213	67.69
287.444	71.69
287.675	88.69
287.906	82.69
288.138	91.69
288.369	86.69
288.6	83.69
288.831	73.69
289.062	80.69
289.293	84.69
289.524	77.69
289.755	89.69
289.986	74.69
290.217	89.69
290.448	78.69
290.679	95.69
290.91	89.69
291.141	77.69
291.371	85.69
291.602	73.69
291.833	83.69
292.064	78.69
292.295	69.69
292.526	86.69
292.757	71.69
292.987	68.69
293.218	78.69
293.449	69.69
293.68	78.69
293.91	76.69
294.141	87.69
294.372	74.69
294.603	83.69
294.833	87.69
295.064	83.69
295.295	91.69
295.525	94.69
295.756	96.69
295.987	105.69
296.217	109.69
296.448	102.69
296.679	92.69
296.909	90.69
297.14	78.69
297.37	86.69
297.601	78.69
297.831	75.69
298.062	86.69
298.292	78.69
298.523	91.69
298.753	75.69
298.984	86.69
299.214	89.69
299.445	84.69
299.675	90.69
299.905	87.69
300.136	98.69
300.366	69.69
300.597	96.69
300.827	86.69
301.057	84.69
301.288	103.69
301.518	83.69
301.748	61.69
301.979	90.69
302.209	89.69
302.439	79.69
302.669	88.69
302.9	95.69
303.13	77.69
303.36	83.69
303.59	90.69
303.82	94.69
304.051	79.69
304.281	83.69
304.511	86.69
304.741	95.69
304.971	88.69
305.201	84.69
305.431	85.69
305.661	80.69
305.891	78.69
306.121	85.69
306.352	90.69
306.582	90.69
306.812	88.69
307.042	87.69
307.272	83.69
307.502	86.69
307.731	79.69
307.961	93.69
308.191	85.69
308.421	87.69
308.651	90.69
308.881	83.69
309.111	78.69
309.341	86.69
309.571	86.69
309.8	96.69
310.03	82.69
310.26	93.69
310.49	87.69
310.72	77.69
310.949	83.69
311.179	91.69
311.409	77.69
311.639	79.69
311.868	100.69
312.098	98.69
312.328	89.69
312.557	100.69
312.787	108.69
313.017	97.69
313.246	88.69
313.476	84.69
313.706	86.69
313.935	80.69
314.165	93.69
314.394	102.69
314.624	88.69
314.853	75.69
315.083	77.69
315.312	90.69
315.542	85.69
315.771	87.69
316.001	93.69
316.23	87.69
316.46	85.69
316.689	74.69
316.919	104.69
317.148	78.69
317.377	84.69
317.607	86.69
317.836	75.69
318.065	86.69
318.295	81.69
318.524	75.69
318.753	90.69
318.983	92.69
319.212	93.69
319.441	90.69
319.67	91.69
319.9	90.69
320.129	85.69
320.358	94.69
320.587	74.69
320.816	77.69
321.046	88.69
321.275	79.69
321.504	89.69
321.733	88.69
321.962	100.69
322.191	95.69
322.42	99.69
322.649	98.69
322.878	84.69
323.108	111.69
323.337	111.69
323.566	101.69
323.795	128.69
324.024	168.69
324.253	318.69
324.482	689.69
324.71	1422.69
324.939	1853.69
325.168	676.69
325.397	201.69
325.626	127.69
325.855	110.69
326.084	105.69
326.313	130.69
326.542	135.69
326.77	191.69
326.999	413.69
327.228	815.69
327.457	1516.69
327.686	1162.69
327.914	314.69
328.143	150.69
328.372	129.69
328.6	96.69
328.829	80.69
329.058	101.69
329.287	103.69
329.515	92.69
329.744	95.69
329.972	104.69
330.201	114.69
330.43	111.69
330.658	114.69
330.887	126.69
331.115	101.69
331.344	86.69
331.572	92.69
331.801	87.69
332.03	82.69
332.258	91.69
332.486	69.69
332.715	87.69
332.943	85.69
333.172	91.69
333.4	74.69
333.629	86.69
333.857	87.69
334.085	77.69
334.314	100.69
334.542	110.69
334.771	101.69
334.999	96.69
335.227	96.69
335.455	96.69
335.684	85.69
335.912	88.69
336.14	85.69
336.369	80.69
336.597	96.69
336.825	105.69
337.053	91.69
337.281	90.69
337.51	83.69
337.738	96.69
337.966	75.69
338.194	79.69
338.422	87.69
338.65	98.69
338.878	84.69
339.106	99.69
339.334	93.69
339.562	76.69
339.79	89.69
340.018	83.69
340.246	80.69
340.474	77.69
340.702	62.69
340.93	77.69
341.158	89.69
341.386	73.69
341.614	83.69
341.842	88.69
342.07	82.69
342.298	90.69
342.526	80.69
342.754	75.69
342.981	76.69
343.209	84.69
343.437	111.69
343.665	72.69
343.893	63.69
344.12	77.69
344.348	82.69
344.576	77.69
344.804	101.69
345.031	92.69
345.259	94.69
345.487	86.69
345.714	83.69
345.942	91.69
346.17	91.69
346.397	88.69
346.625	99.69
346.853	92.69
347.08	96.69
347.308	79.69
347.535	95.69
347.763	98.69
347.99	98.69
348.218	93.69
348.445	94.69
348.673	89.69
348.9	95.69
349.128	80.69
349.355	89.69
349.583	85.69
349.81	84.69
350.037	82.69
350.265	95.69
350.492	94.69
350.72	99.69
350.947	103.69
351.174	91.69
351.402	97.69
351.629	94.69
351.856	99.69
352.083	75.69
352.311	93.69
352.538	94.69
352.765	103.69
352.992	110.69
353.22	95.69
353.447	111.69
353.674	102.69
353.901	101.69
354.128	94.69
354.355	86.69
354.583	84.69
354.81	91.69
355.037	88.69
355.264	82.69
355.491	90.69
355.718	97.69
355.945	101.69
356.172	94.69
356.399	98.69
356.626	91.69
356.853	85.69
357.08	95.69
357.307	94.69
357.534	91.69
357.761	77.69
357.988	88.69
358.215	77.69
358.441	74.69
358.668	92.69
358.895	92.69
359.122	86.69
359.349	78.69
359.576	79.69
359.802	73.69
360.029	91.69
360.256	87.69
360.483	99.69
360.709	81.69
360.936	86.69
361.163	78.69
361.39	83.69
361.616	66.69
361.843	78.69
362.07	85.69
362.296	69.69
362.523	82.69
362.749	86.69
362.976	81.69
363.203	75.69
363.429	72.69
363.656	76.69
363.882	86.69
364.109	90.69
364.335	100.69
364.562	90.69
364.788	88.69
365.015	79.69
365.241	93.69
365.468	89.69
365.694	93.69
365.92	95.69
366.147	86.69
366.373	92.69
366.599	86.69
366.826	83.69
367.052	88.69
367.278	98.69
367.505	104.69
367.731	88.69
367.957	87.69
368.184	83.69
368.41	89.69
368.636	98.69
368.862	115.69
369.089	94.69
369.315	82.69
369.541	76.69
369.767	95.69
369.993	98.69
370.219	94.69
370.445	77.69
370.672	77.69
370.898	88.69
371.124	80.69
371.35	75.69
371.576	66.69
371.802	78.69
372.028	71.69
372.254	85.69
372.48	82.69
372.706	77.69
372.932	75.69
373.158	69.69
373.384	78.69
373.61	90.69
373.835	85.69
374.061	89.69
374.287	77.69
374.513	88.69
374.739	91.69
374.965	82.69
375.191	90.69
375.416	71.69
375.642	83.69
375.868	86.69
376.094	88.69
376.319	76.69
376.545	78.69
376.771	85.69
376.997	79.69
377.222	78.69
377.448	81.69
377.674	79.69
377.899	79.69
378.125	81.69
378.35	96.69
378.576	90.69
378.802	94.69
379.027	77.69
379.253	94.69
379.478	78.69
379.704	96.69
379.929	88.69
380.155	92.69
380.38	78.69
380.606	96.69
380.831	84.69
381.057	78.69
381.282	75.69
381.507	86.69
381.733	95.69
381.958	94.69
382.184	90.69
382.409	94.69
382.634	84.69
382.86	92.69
383.085	95.69
383.31	90.69
383.535	88.69
383.761	105.69
383.986	82.69
384.211	93.69
384.436	91.69
384.662	93.69
384.887	90.69
385.112	80.69
385.337	104.69
385.562	105.69
385.787	103.69
386.013	96.69
386.238	111.69
386.463	101.69
386.688	112.69
386.913	83.69
387.138	98.69
387.363	105.69
387.588	111.69
387.813	80.69
388.038	99.69
388.263	104.69
388.488	100.69
388.713	103.69
388.938	78.69
389.163	88.69
389.387	97.69
389.612	105.69
389.837	94.69
390.062	86.69
390.287	88.69
390.512	77.69
390.736	72.69
390.961	76.69
391.186	83.69
391.411	95.69
391.636	67.69
391.86	89.69
392.085	76.69
392.31	74.69
392.534	78.69
392.759	74.69
392.984	91.69
393.208	78.69
393.433	83.69
393.658	84.69
393.882	90.69
394.107	68.69
394.331	58.69
394.556	81.69
394.78	90.69
395.005	80.69
395.229	74.69
395.454	70.69
395.678	72.69
395.903	79.69
396.127	82.69
396.352	78.69
396.576	92.69
396.801	86.69
397.025	82.69
397.249	82.69
397.474	86.69
397.698	86.69
397.922	75.69
398.147	85.69
398.371	75.69
398.595	85.69
398.82	84.69
399.044	81.69
399.268	83.69
399.492	92.69
399.717	91.69
399.941	90.69
400.165	89.69
400.389	82.69
400.613	87.69
400.837	90.69
401.062	93.69
401.286	92.69
401.51	75.69
401.734	68.69
401.958	93.69
402.182	102.69
402.406	122.69
402.63	95.69
402.854	86.69
403.078	74.69
403.302	90.69
403.526	94.69
403.75	87.69
403.974	79.69
404.198	85.69
404.422	79.69
404.645	76.69
404.869	88.69
405.093	85.69
405.317	90.69
405.541	88.69
405.765	68.69
405.988	97.69
406.212	130.69
406.436	165.69
406.66	122.69
406.883	78.69
407.107	80.69
407.331	83.69
407.555	83.69
407.778	77.69
408.002	99.69
408.226	71.69
408.449	83.69
408.673	79.69
408.896	75.69
409.12	83.69
409.344	84.69
409.567	71.69
409.791	76.69
410.014	76.69
410.238	89.69
410.461	89.69
410.685	105.69
410.908	106.69
411.132	98.69
411.355	97.69
411.578	91.69
411.802	76.69
412.025	79.69
412.249	85.69
412.472	87.69
412.695	89.69
412.919	78.69
413.142	86.69
413.365	93.69
413.589	86.69
413.812	90.69
414.035	93.69
414.258	90.69
414.482	102.69
414.705	87.69
414.928	100.69
415.151	94.69
415.374	92.69
415.597	90.69
415.821	85.69
416.044	86.69
416.267	75.69
416.49	83.69
416.713	83.69
416.936	81.69
417.159	78.69
417.382	77.69
417.605	91.69
417.828	87.69
418.051	80.69
418.274	75.69
418.497	84.69
418.72	95.69
418.943	78.69
419.166	82.69
419.389	88.69
419.611	89.69
419.834	76.69
420.057	85.69
420.28	72.69
420.503	86.69
420.726	82.69
420.948	87.69
421.171	99.69
421.394	86.69
421.617	92.69
421.839	83.69
422.062	80.69
422.285	91.69
422.507	83.69
422.73	84.69
422.953	95.69
423.175	83.69
423.398	86.69
423.621	82.69
423.843	79.69
424.066	83.69
424.288	84.69
424.511	96.69
424.733	92.69
424.956	99.69
425.178	101.69
425.401	84.69
425.623	102.69
425.846	76.69
426.068	85.69
426.291	83.69
426.513	91.69
426.735	78.69
426.958	94.69
427.18	88.69
427.402	100.69
427.625	130.69
427.847	121.69
428.069	98.69
428.292	70.69
428.514	80.69
428.736	87.69
428.958	71.69
429.181	82.69
429.403	84.69
429.625	75.69
429.847	87.69
430.069	86.69
430.292	83.69
430.514	76.69
430.736	86.69
430.958	84.69
431.18	85.69
431.402	76.69
431.624	71.69
431.846	74.69
432.068	82.69
432.29	77.69
432.512	82.69
432.734	72.69
432.956	83.69
433.178	101.69
433.4	90.69
433.622	90.69
433.844	91.69
434.066	77.69
434.287	79.69
434.509	90.69
434.731	95.69
434.953	89.69
435.175	80.69
435.397	81.69
435.618	80.69
435.84	85.69
436.062	116.69
436.284	114.69
436.505	98.69
436.727	104.69
436.949	82.69
437.17	90.69
437.392	77.69
437.614	95.69
437.835	90.69
438.057	92.69
438.278	83.69
438.5	98.69
438.721	112.69
438.943	88.69
439.165	76.69
439.386	85.69
439.608	74.69
439.829	92.69
440.05	98.69
440.272	112.69
440.493	84.69
440.715	76.69
440.936	77.69
441.158	63.69
441.379	74.69
441.6	87.69
441.822	84.69
442.043	86.69
442.264	96.69
442.486	96.69
442.707	96.69
442.928	96.69
443.149	110.69
443.371	108.69
443.592	104.69
443.813	91.69
444.034	102.69
444.255	95.69
444.476	88.69
444.698	81.69
444.919	74.69
445.14	115.69
445.361	90.69
445.582	94.69
445.803	119.69
446.024	114.69
446.245	115.69
446.466	91.69
446.687	76.69
446.908	76.69
447.129	85.69
447.35	93.69
447.571	94.69
447.792	99.69
448.013	78.69
448.234	103.69
448.455	90.69
448.675	106.69
448.896	95.69
449.117	87.69
449.338	86.69
449.559	98.69
449.779	118.69
450	91.69
450.221	88.69
450.442	75.69
450.662	77.69
450.883	88.69
451.104	86.69
451.324	88.69
451.545	78.69
451.766	75.69
451.986	76.69
452.207	80.69
452.428	61.69
452.648	92.69
452.869	80.69
453.089	89.69
453.31	95.69
453.53	87.69
453.751	95.69
453.971	85.69
454.192	88.69
454.412	76.69
454.633	87.69
454.853	84.69
455.073	75.69
455.294	84.69
455.514	104.69
455.734	82.69
455.955	90.69
456.175	81.69
456.395	78.69
456.616	82.69
456.836	76.69
457.056	78.69
457.276	69.69
457.497	93.69
457.717	84.69
457.937	94.69
458.157	72.69
458.377	81.69
458.598	82.69
458.818	112.69
459.038	119.69
459.258	86.69
459.478	70.69
459.698	75.69
459.918	92.69
460.138	84.69
460.358	75.69
460.578	80.69
460.798	80.69
461.018	77.69
461.238	90.69
461.458	82.69
461.678	79.69
461.898	82.69
462.118	77.69
462.338	78.69
462.558	74.69
462.777	69.69
462.997	74.69
463.217	92.69
463.437	84.69
463.657	77.69
463.876	85.69
464.096	78.69
464.316	90.69
464.536	84.69
464.755	86.69
464.975	99.69
465.195	121.69
465.414	124.69
465.634	95.69
465.854	85.69
466.073	80.69
466.293	77.69
466.512	74.69
466.732	78.69
466.951	67.69
467.171	93.69
467.391	90.69
467.61	88.69
467.829	89.69
468.049	82.69
468.268	80.69
468.488	80.69
468.707	77.69
468.927	87.69
469.146	89.69
469.365	80.69
469.585	92.69
469.804	95.69
470.023	90.69
470.243	82.69
470.462	84.69
470.681	98.69
470.901	77.69
471.12	93.69
471.339	82.69
471.558	82.69
471.777	82.69
471.997	84.69
472.216	85.69
472.435	120.69
472.654	86.69
472.873	82.69
473.092	79.69
473.311	87.69
473.53	86.69
473.749	74.69
473.968	80.69
474.187	91.69
474.406	83.69
474.625	77.69
474.844	71.69
475.063	86.69
475.282	71.69
475.501	80.69
475.72	94.69
475.939	86.69
476.158	79.69
476.377	75.69
476.596	81.69
476.814	71.69
477.033	94.69
477.252	85.69
477.471	87.69
477.69	75.69
477.908	94.69
478.127	86.69
478.346	88.69
478.564	91.69
478.783	89.69
479.002	87.69
479.22	82.69
479.439	87.69
479.658	94.69
479.876	95.69
480.095	96.69
480.313	86.69
480.532	83.69
480.751	75.69
480.969	84.69
481.188	161.69
481.406	120.69
481.624	95.69
481.843	76.69
482.061	64.69
482.28	83.69
482.498	84.69
482.717	82.69
482.935	82.69
483.153	92.69
483.372	74.69
483.59	78.69
483.808	81.69
484.027	93.69
484.245	92.69
484.463	90.69
484.681	84.69
484.9	87.69
485.118	84.69
485.336	91.69
485.554	85.69
485.772	90.69
485.99	81.69
486.209	96.69
486.427	116.69
486.645	96.69
486.863	110.69
487.081	95.69
487.299	95.69
487.517	93.69
487.735	84.69
487.953	76.69
488.171	91.69
488.389	82.69
488.607	90.69
488.825	84.69
489.043	79.69
489.261	80.69
489.479	74.69
489.696	82.69
489.914	84.69
490.132	90.69
490.35	87.69
490.568	83.69
490.786	79.69
491.003	79.69
491.221	75.69
491.439	86.69
491.657	80.69
491.874	100.69
492.092	87.69
492.31	80.69
492.527	84.69
492.745	75.69
492.963	86.69
493.18	78.69
493.398	83.69
493.615	93.69
493.833	80.69
494.05	86.69
494.268	86.69
494.485	93.69
494.703	82.69
494.92	76.69
495.138	67.69
495.355	87.69
495.573	86.69
495.79	92.69
496.008	79.69
496.225	91.69
496.442	93.69
496.66	88.69
496.877	79.69
497.094	93.69
497.312	81.69
497.529	80.69
497.746	82.69
497.963	75.69
498.181	75.69
498.398	95.69
498.615	100.69
498.832	95.69
499.049	71.69
499.267	70.69
499.484	72.69
499.701	83.69
499.918	92.69
500.135	88.69
500.352	85.69
500.569	85.69
500.786	88.69
501.003	77.69
501.22	85.69
501.437	86.69
501.654	82.69
501.871	79.69
502.088	90.69
502.305	81.69
502.522	92.69
502.739	81.69
502.956	86.69
503.172	70.69
503.389	82.69
503.606	99.69
503.823	92.69
504.04	92.69
504.256	90.69
504.473	61.69
504.69	86.69
504.907	90.69
505.123	103.69
505.34	94.69
505.557	93.69
505.773	87.69
505.99	69.69
506.207	76.69
506.423	76.69
506.64	81.69
506.856	96.69
507.073	68.69
507.289	84.69
507.506	82.69
507.722	88.69
507.939	97.69
508.155	89.69
508.372	88.69
508.588	95.69
508.805	81.69
509.021	83.69
509.238	95.69
509.454	78.69
509.67	86.69
509.887	95.69
510.103	104.69
510.319	165.69
510.536	544.69
510.752	1646.69
510.968	469.69
511.184	127.69
511.401	107.69
511.617	82.69
511.833	82.69
512.049	82.69
512.265	87.69
512.481	95.69
512.698	92.69
512.914	76.69
513.13	96.69
513.346	80.69
513.562	105.69
513.778	79.69
513.994	88.69
514.21	85.69
514.426	94.69
514.642	104.69
514.858	115.69
515.074	134.69
515.29	322.69
515.506	968.69
515.721	357.69
515.937	122.69
516.153	90.69
516.369	83.69
516.585	69.69
516.801	90.69
517.016	84.69
517.232	84.69
517.448	93.69
517.664	78.69
517.879	86.69
518.095	82.69
518.311	90.69
