Data from Uncirc_1981_H10_HRD10591_00031.txt Node
Date: Wed Jan 03 12:33:14 EST 2024
User: Yrep
Spectrometer: HR+D1059
Trigger mode: 1
Integration Time (sec): 1.000000E-1
Scans to average: 1
Electric dark correction enabled: true
Nonlinearity correction enabled: false
Boxcar width: 0
XAxis mode: Wavelengths
Number of Pixels in Spectrum: 2048
>>>>>Begin Spectral Data<<<<<
223.165	-19.31
223.4	-19.31
223.635	-19.31
223.869	-24.31
224.104	-14.31
224.338	-23.31
224.573	-12.31
224.808	-20.31
225.042	1.69
225.277	-0.31
225.511	8.69
225.746	20.69
225.98	7.69
226.215	-0.31
226.449	-4.31
226.683	18.69
226.918	35.69
227.152	25.69
227.387	33.69
227.621	40.69
227.856	47.69
228.09	45.69
228.324	45.69
228.559	60.69
228.793	60.69
229.027	57.69
229.262	58.69
229.496	75.69
229.73	84.69
229.964	75.69
230.199	76.69
230.433	75.69
230.667	76.69
230.901	71.69
231.136	83.69
231.37	71.69
231.604	81.69
231.838	67.69
232.072	74.69
232.306	85.69
232.541	66.69
232.775	71.69
233.009	79.69
233.243	87.69
233.477	83.69
233.711	71.69
233.945	71.69
234.179	88.69
234.413	99.69
234.647	70.69
234.881	64.69
235.115	84.69
235.349	66.69
235.583	91.69
235.817	67.69
236.051	83.69
236.285	71.69
236.519	83.69
236.753	81.69
236.987	71.69
237.221	69.69
237.455	82.69
237.689	75.69
237.922	75.69
238.156	63.69
238.39	82.69
238.624	72.69
238.858	64.69
239.091	73.69
239.325	89.69
239.559	88.69
239.793	67.69
240.027	83.69
240.26	71.69
240.494	69.69
240.728	62.69
240.961	63.69
241.195	73.69
241.429	67.69
241.662	76.69
241.896	65.69
242.13	69.69
242.363	79.69
242.597	76.69
242.83	76.69
243.064	87.69
243.298	69.69
243.531	65.69
243.765	89.69
243.998	85.69
244.232	84.69
244.465	73.69
244.699	88.69
244.932	66.69
245.166	79.69
245.399	77.69
245.633	92.69
245.866	75.69
246.099	69.69
246.333	76.69
246.566	71.69
246.8	79.69
247.033	79.69
247.266	68.69
247.5	81.69
247.733	82.69
247.966	70.69
248.2	88.69
248.433	78.69
248.666	80.69
248.899	90.69
249.133	85.69
249.366	100.69
249.599	84.69
249.832	79.69
250.066	79.69
250.299	90.69
250.532	76.69
250.765	72.69
250.998	73.69
251.231	75.69
251.465	72.69
251.698	80.69
251.931	74.69
252.164	81.69
252.397	80.69
252.63	77.69
252.863	93.69
253.096	64.69
253.329	72.69
253.562	79.69
253.795	81.69
254.028	89.69
254.261	75.69
254.494	73.69
254.727	72.69
254.96	81.69
255.193	61.69
255.426	76.69
255.659	84.69
255.892	77.69
256.124	78.69
256.357	82.69
256.59	72.69
256.823	76.69
257.056	84.69
257.289	90.69
257.521	72.69
257.754	81.69
257.987	82.69
258.22	71.69
258.452	76.69
258.685	85.69
258.918	89.69
259.151	84.69
259.383	79.69
259.616	52.69
259.849	85.69
260.081	74.69
260.314	89.69
260.547	83.69
260.779	74.69
261.012	86.69
261.244	88.69
261.477	88.69
261.71	82.69
261.942	103.69
262.175	92.69
262.407	75.69
262.64	76.69
262.872	85.69
263.105	83.69
263.337	80.69
263.57	81.69
263.802	87.69
264.035	80.69
264.267	88.69
264.499	72.69
264.732	76.69
264.964	72.69
265.197	85.69
265.429	74.69
265.661	74.69
265.894	72.69
266.126	72.69
266.358	73.69
266.591	90.69
266.823	71.69
267.055	80.69
267.287	87.69
267.52	87.69
267.752	82.69
267.984	92.69
268.216	85.69
268.448	84.69
268.681	85.69
268.913	77.69
269.145	73.69
269.377	86.69
269.609	85.69
269.841	86.69
270.073	84.69
270.306	85.69
270.538	83.69
270.77	77.69
271.002	80.69
271.234	84.69
271.466	88.69
271.698	97.69
271.93	85.69
272.162	85.69
272.394	84.69
272.626	83.69
272.858	97.69
273.09	98.69
273.322	83.69
273.553	102.69
273.785	91.69
274.017	76.69
274.249	87.69
274.481	75.69
274.713	90.69
274.945	88.69
275.176	76.69
275.408	81.69
275.64	81.69
275.872	90.69
276.104	76.69
276.335	89.69
276.567	87.69
276.799	98.69
277.031	81.69
277.262	67.69
277.494	103.69
277.726	85.69
277.957	79.69
278.189	84.69
278.421	83.69
278.652	97.69
278.884	84.69
279.115	85.69
279.347	93.69
279.579	94.69
279.81	79.69
280.042	80.69
280.273	89.69
280.505	74.69
280.736	86.69
280.968	92.69
281.199	82.69
281.431	79.69
281.662	92.69
281.894	95.69
282.125	96.69
282.356	92.69
282.588	116.69
282.819	115.69
283.051	93.69
283.282	85.69
283.513	80.69
283.745	79.69
283.976	85.69
284.207	68.69
284.439	97.69
284.67	71.69
284.901	85.69
285.132	81.69
285.364	81.69
285.595	94.69
285.826	80.69
286.057	85.69
286.288	91.69
286.52	88.69
286.751	67.69
286.982	85.69
287.213	91.69
287.444	71.69
287.675	85.69
287.906	95.69
288.138	79.69
288.369	85.69
288.6	89.69
288.831	101.69
289.062	84.69
289.293	83.69
289.524	83.69
289.755	85.69
289.986	88.69
290.217	96.69
290.448	81.69
290.679	79.69
290.91	93.69
291.141	89.69
291.371	85.69
291.602	76.69
291.833	105.69
292.064	95.69
292.295	83.69
292.526	84.69
292.757	92.69
292.987	85.69
293.218	87.69
293.449	95.69
293.68	89.69
293.91	75.69
294.141	87.69
294.372	91.69
294.603	80.69
294.833	80.69
295.064	90.69
295.295	89.69
295.525	77.69
295.756	79.69
295.987	103.69
296.217	114.69
296.448	100.69
296.679	82.69
296.909	76.69
297.14	83.69
297.37	81.69
297.601	80.69
297.831	87.69
298.062	97.69
298.292	87.69
298.523	96.69
298.753	83.69
298.984	94.69
299.214	90.69
299.445	94.69
299.675	97.69
299.905	95.69
300.136	90.69
300.366	84.69
300.597	100.69
300.827	75.69
301.057	99.69
301.288	100.69
301.518	76.69
301.748	85.69
301.979	105.69
302.209	92.69
302.439	93.69
302.669	81.69
302.9	73.69
303.13	90.69
303.36	88.69
303.59	79.69
303.82	109.69
304.051	83.69
304.281	86.69
304.511	99.69
304.741	99.69
304.971	88.69
305.201	91.69
305.431	85.69
305.661	90.69
305.891	83.69
306.121	100.69
306.352	85.69
306.582	86.69
306.812	96.69
307.042	77.69
307.272	82.69
307.502	96.69
307.731	94.69
307.961	85.69
308.191	83.69
308.421	79.69
308.651	85.69
308.881	95.69
309.111	79.69
309.341	94.69
309.571	83.69
309.8	92.69
310.03	101.69
310.26	92.69
310.49	92.69
310.72	90.69
310.949	101.69
311.179	106.69
311.409	88.69
311.639	91.69
311.868	83.69
312.098	88.69
312.328	90.69
312.557	82.69
312.787	98.69
313.017	93.69
313.246	99.69
313.476	83.69
313.706	80.69
313.935	87.69
314.165	95.69
314.394	93.69
314.624	94.69
314.853	89.69
315.083	82.69
315.312	98.69
315.542	101.69
315.771	89.69
316.001	87.69
316.23	91.69
316.46	84.69
316.689	88.69
316.919	88.69
317.148	95.69
317.377	85.69
317.607	99.69
317.836	82.69
318.065	84.69
318.295	89.69
318.524	92.69
318.753	89.69
318.983	92.69
319.212	85.69
319.441	90.69
319.67	100.69
319.9	92.69
320.129	103.69
320.358	82.69
320.587	95.69
320.816	87.69
321.046	88.69
321.275	85.69
321.504	76.69
321.733	73.69
321.962	84.69
322.191	84.69
322.42	97.69
322.649	100.69
322.878	106.69
323.108	107.69
323.337	102.69
323.566	114.69
323.795	117.69
324.024	181.69
324.253	324.69
324.482	677.69
324.71	1373.69
324.939	1809.69
325.168	667.69
325.397	215.69
325.626	131.69
325.855	100.69
326.084	129.69
326.313	121.69
326.542	138.69
326.77	202.69
326.999	399.69
327.228	799.69
327.457	1421.69
327.686	1121.69
327.914	318.69
328.143	161.69
328.372	147.69
328.6	99.69
328.829	107.69
329.058	109.69
329.287	89.69
329.515	104.69
329.744	86.69
329.972	83.69
330.201	121.69
330.43	120.69
330.658	108.69
330.887	119.69
331.115	91.69
331.344	91.69
331.572	96.69
331.801	100.69
332.03	99.69
332.258	87.69
332.486	88.69
332.715	102.69
332.943	95.69
333.172	93.69
333.4	88.69
333.629	99.69
333.857	112.69
334.085	97.69
334.314	103.69
334.542	117.69
334.771	120.69
334.999	103.69
335.227	99.69
335.455	89.69
335.684	83.69
335.912	96.69
336.14	95.69
336.369	92.69
336.597	101.69
336.825	76.69
337.053	85.69
337.281	81.69
337.51	81.69
337.738	96.69
337.966	83.69
338.194	92.69
338.422	96.69
338.65	91.69
338.878	92.69
339.106	80.69
339.334	92.69
339.562	98.69
339.79	77.69
340.018	88.69
340.246	98.69
340.474	91.69
340.702	86.69
340.93	70.69
341.158	104.69
341.386	88.69
341.614	96.69
341.842	87.69
342.07	90.69
342.298	83.69
342.526	76.69
342.754	86.69
342.981	96.69
343.209	88.69
343.437	97.69
343.665	86.69
343.893	92.69
344.12	94.69
344.348	100.69
344.576	76.69
344.804	88.69
345.031	91.69
345.259	91.69
345.487	101.69
345.714	92.69
345.942	98.69
346.17	79.69
346.397	88.69
346.625	89.69
346.853	89.69
347.08	86.69
347.308	99.69
347.535	95.69
347.763	91.69
347.99	97.69
348.218	101.69
348.445	97.69
348.673	98.69
348.9	97.69
349.128	104.69
349.355	89.69
349.583	108.69
349.81	95.69
350.037	97.69
350.265	101.69
350.492	76.69
350.72	72.69
350.947	107.69
351.174	91.69
351.402	90.69
351.629	101.69
351.856	112.69
352.083	82.69
352.311	90.69
352.538	108.69
352.765	93.69
352.992	109.69
353.22	115.69
353.447	91.69
353.674	109.69
353.901	102.69
354.128	105.69
354.355	101.69
354.583	99.69
354.81	91.69
355.037	101.69
355.264	95.69
355.491	100.69
355.718	94.69
355.945	97.69
356.172	91.69
356.399	91.69
356.626	83.69
356.853	95.69
357.08	95.69
357.307	87.69
357.534	85.69
357.761	95.69
357.988	101.69
358.215	97.69
358.441	92.69
358.668	101.69
358.895	88.69
359.122	81.69
359.349	85.69
359.576	96.69
359.802	83.69
360.029	93.69
360.256	108.69
360.483	81.69
360.709	90.69
360.936	85.69
361.163	90.69
361.39	88.69
361.616	97.69
361.843	80.69
362.07	96.69
362.296	82.69
362.523	87.69
362.749	85.69
362.976	81.69
363.203	106.69
363.429	83.69
363.656	92.69
363.882	85.69
364.109	87.69
364.335	77.69
364.562	83.69
364.788	88.69
365.015	95.69
365.241	80.69
365.468	90.69
365.694	109.69
365.92	85.69
366.147	88.69
366.373	81.69
366.599	91.69
366.826	88.69
367.052	95.69
367.278	95.69
367.505	75.69
367.731	71.69
367.957	76.69
368.184	90.69
368.41	85.69
368.636	100.69
368.862	104.69
369.089	86.69
369.315	85.69
369.541	102.69
369.767	84.69
369.993	85.69
370.219	79.69
370.445	63.69
370.672	88.69
370.898	87.69
371.124	97.69
371.35	84.69
371.576	75.69
371.802	105.69
372.028	95.69
372.254	75.69
372.48	97.69
372.706	87.69
372.932	118.69
373.158	97.69
373.384	96.69
373.61	97.69
373.835	95.69
374.061	74.69
374.287	79.69
374.513	74.69
374.739	89.69
374.965	81.69
375.191	89.69
375.416	78.69
375.642	100.69
375.868	94.69
376.094	80.69
376.319	97.69
376.545	85.69
376.771	77.69
376.997	92.69
377.222	89.69
377.448	90.69
377.674	95.69
377.899	106.69
378.125	65.69
378.35	89.69
378.576	82.69
378.802	74.69
379.027	83.69
379.253	105.69
379.478	79.69
379.704	99.69
379.929	99.69
380.155	98.69
380.38	94.69
380.606	87.69
380.831	94.69
381.057	94.69
381.282	85.69
381.507	98.69
381.733	101.69
381.958	83.69
382.184	113.69
382.409	103.69
382.634	119.69
382.86	107.69
383.085	98.69
383.31	98.69
383.535	89.69
383.761	76.69
383.986	97.69
384.211	89.69
384.436	110.69
384.662	104.69
384.887	113.69
385.112	103.69
385.337	110.69
385.562	115.69
385.787	97.69
386.013	108.69
386.238	109.69
386.463	110.69
386.688	111.69
386.913	115.69
387.138	112.69
387.363	98.69
387.588	105.69
387.813	114.69
388.038	109.69
388.263	124.69
388.488	100.69
388.713	103.69
388.938	108.69
389.163	109.69
389.387	102.69
389.612	103.69
389.837	88.69
390.062	93.69
390.287	94.69
390.512	91.69
390.736	91.69
390.961	109.69
391.186	100.69
391.411	102.69
391.636	95.69
391.86	86.69
392.085	83.69
392.31	94.69
392.534	97.69
392.759	95.69
392.984	96.69
393.208	82.69
393.433	91.69
393.658	89.69
393.882	92.69
394.107	81.69
394.331	91.69
394.556	83.69
394.78	88.69
395.005	80.69
395.229	93.69
395.454	92.69
395.678	73.69
395.903	81.69
396.127	79.69
396.352	87.69
396.576	86.69
396.801	75.69
397.025	92.69
397.249	63.69
397.474	85.69
397.698	71.69
397.922	90.69
398.147	93.69
398.371	79.69
398.595	92.69
398.82	98.69
399.044	85.69
399.268	85.69
399.492	88.69
399.717	89.69
399.941	91.69
400.165	87.69
400.389	88.69
400.613	76.69
400.837	84.69
401.062	90.69
401.286	87.69
401.51	85.69
401.734	81.69
401.958	90.69
402.182	103.69
402.406	120.69
402.63	104.69
402.854	79.69
403.078	89.69
403.302	81.69
403.526	83.69
403.75	105.69
403.974	82.69
404.198	81.69
404.422	86.69
404.645	91.69
404.869	97.69
405.093	91.69
405.317	80.69
405.541	90.69
405.765	84.69
405.988	97.69
406.212	135.69
406.436	168.69
406.66	105.69
406.883	88.69
407.107	78.69
407.331	85.69
407.555	91.69
407.778	81.69
408.002	84.69
408.226	92.69
408.449	87.69
408.673	89.69
408.896	89.69
409.12	105.69
409.344	86.69
409.567	90.69
409.791	86.69
410.014	95.69
410.238	94.69
410.461	95.69
410.685	86.69
410.908	104.69
411.132	96.69
411.355	81.69
411.578	82.69
411.802	86.69
412.025	77.69
412.249	88.69
412.472	80.69
412.695	87.69
412.919	82.69
413.142	93.69
413.365	79.69
413.589	81.69
413.812	86.69
414.035	81.69
414.258	96.69
414.482	84.69
414.705	86.69
414.928	97.69
415.151	83.69
415.374	79.69
415.597	94.69
415.821	94.69
416.044	91.69
416.267	88.69
416.49	100.69
416.713	85.69
416.936	95.69
417.159	85.69
417.382	77.69
417.605	89.69
417.828	81.69
418.051	91.69
418.274	87.69
418.497	89.69
418.72	98.69
418.943	83.69
419.166	77.69
419.389	94.69
419.611	92.69
419.834	100.69
420.057	93.69
420.28	88.69
420.503	79.69
420.726	86.69
420.948	91.69
421.171	86.69
421.394	79.69
421.617	85.69
421.839	96.69
422.062	93.69
422.285	93.69
422.507	93.69
422.73	83.69
422.953	96.69
423.175	97.69
423.398	87.69
423.621	81.69
423.843	88.69
424.066	78.69
424.288	90.69
424.511	81.69
424.733	112.69
424.956	103.69
425.178	82.69
425.401	99.69
425.623	88.69
425.846	84.69
426.068	90.69
426.291	79.69
426.513	90.69
426.735	87.69
426.958	97.69
427.18	103.69
427.402	118.69
427.625	131.69
427.847	120.69
428.069	105.69
428.292	87.69
428.514	89.69
428.736	86.69
428.958	84.69
429.181	100.69
429.403	73.69
429.625	86.69
429.847	63.69
430.069	86.69
430.292	97.69
430.514	82.69
430.736	81.69
430.958	86.69
431.18	76.69
431.402	81.69
431.624	89.69
431.846	95.69
432.068	91.69
432.29	85.69
432.512	97.69
432.734	81.69
432.956	97.69
433.178	90.69
433.4	100.69
433.622	76.69
433.844	91.69
434.066	95.69
434.287	91.69
434.509	87.69
434.731	97.69
434.953	77.69
435.175	85.69
435.397	90.69
435.618	89.69
435.84	94.69
436.062	101.69
436.284	104.69
436.505	97.69
436.727	93.69
436.949	95.69
437.17	91.69
437.392	81.69
437.614	80.69
437.835	98.69
438.057	83.69
438.278	100.69
438.5	104.69
438.721	115.69
438.943	96.69
439.165	73.69
439.386	79.69
439.608	76.69
439.829	87.69
440.05	108.69
440.272	114.69
440.493	99.69
440.715	74.69
440.936	83.69
441.158	83.69
441.379	76.69
441.6	90.69
441.822	93.69
442.043	89.69
442.264	91.69
442.486	89.69
442.707	91.69
442.928	105.69
443.149	93.69
443.371	104.69
443.592	103.69
443.813	105.69
444.034	88.69
444.255	75.69
444.476	92.69
444.698	88.69
444.919	84.69
445.14	124.69
445.361	113.69
445.582	116.69
445.803	117.69
446.024	114.69
446.245	120.69
446.466	96.69
446.687	93.69
446.908	90.69
447.129	74.69
447.35	100.69
447.571	92.69
447.792	86.69
448.013	96.69
448.234	84.69
448.455	96.69
448.675	106.69
448.896	105.69
449.117	83.69
449.338	96.69
449.559	104.69
449.779	114.69
450	87.69
450.221	80.69
450.442	90.69
450.662	99.69
450.883	99.69
451.104	89.69
451.324	95.69
451.545	99.69
451.766	93.69
451.986	81.69
452.207	91.69
452.428	99.69
452.648	98.69
452.869	109.69
453.089	99.69
453.31	107.69
453.53	85.69
453.751	97.69
453.971	92.69
454.192	106.69
454.412	105.69
454.633	97.69
454.853	88.69
455.073	85.69
455.294	70.69
455.514	80.69
455.734	82.69
455.955	79.69
456.175	80.69
456.395	75.69
456.616	81.69
456.836	94.69
457.056	79.69
457.276	76.69
457.497	85.69
457.717	78.69
457.937	87.69
458.157	80.69
458.377	98.69
458.598	98.69
458.818	120.69
459.038	125.69
459.258	96.69
459.478	90.69
459.698	90.69
459.918	80.69
460.138	87.69
460.358	100.69
460.578	93.69
460.798	85.69
461.018	89.69
461.238	89.69
461.458	79.69
461.678	83.69
461.898	90.69
462.118	86.69
462.338	74.69
462.558	85.69
462.777	88.69
462.997	75.69
463.217	86.69
463.437	101.69
463.657	83.69
463.876	80.69
464.096	89.69
464.316	87.69
464.536	89.69
464.755	95.69
464.975	88.69
465.195	117.69
465.414	125.69
465.634	89.69
465.854	92.69
466.073	81.69
466.293	83.69
466.512	89.69
466.732	93.69
466.951	74.69
467.171	91.69
467.391	95.69
467.61	92.69
467.829	74.69
468.049	100.69
468.268	97.69
468.488	89.69
468.707	88.69
468.927	84.69
469.146	79.69
469.365	84.69
469.585	99.69
469.804	90.69
470.023	87.69
470.243	88.69
470.462	86.69
470.681	82.69
470.901	80.69
471.12	79.69
471.339	77.69
471.558	93.69
471.777	88.69
471.997	92.69
472.216	84.69
472.435	90.69
472.654	85.69
472.873	89.69
473.092	79.69
473.311	83.69
473.53	89.69
473.749	97.69
473.968	89.69
474.187	92.69
474.406	82.69
474.625	95.69
474.844	87.69
475.063	91.69
475.282	85.69
475.501	85.69
475.72	94.69
475.939	92.69
476.158	83.69
476.377	74.69
476.596	80.69
476.814	84.69
477.033	88.69
477.252	92.69
477.471	91.69
477.69	88.69
477.908	102.69
478.127	89.69
478.346	80.69
478.564	84.69
478.783	97.69
479.002	107.69
479.22	71.69
479.439	103.69
479.658	96.69
479.876	92.69
480.095	90.69
480.313	81.69
480.532	76.69
480.751	83.69
480.969	95.69
481.188	155.69
481.406	122.69
481.624	88.69
481.843	91.69
482.061	97.69
482.28	88.69
482.498	99.69
482.717	79.69
482.935	73.69
483.153	97.69
483.372	85.69
483.59	83.69
483.808	84.69
484.027	92.69
484.245	82.69
484.463	94.69
484.681	92.69
484.9	93.69
485.118	100.69
485.336	88.69
485.554	99.69
485.772	103.69
485.99	87.69
486.209	87.69
486.427	115.69
486.645	102.69
486.863	97.69
487.081	95.69
487.299	95.69
487.517	93.69
487.735	89.69
487.953	86.69
488.171	93.69
488.389	81.69
488.607	95.69
488.825	108.69
489.043	81.69
489.261	82.69
489.479	87.69
489.696	84.69
489.914	75.69
490.132	89.69
490.35	96.69
490.568	91.69
490.786	89.69
491.003	76.69
491.221	91.69
491.439	89.69
491.657	86.69
491.874	80.69
492.092	106.69
492.31	97.69
492.527	85.69
492.745	89.69
492.963	100.69
493.18	71.69
493.398	89.69
493.615	81.69
493.833	85.69
494.05	80.69
494.268	90.69
494.485	88.69
494.703	89.69
494.92	104.69
495.138	84.69
495.355	99.69
495.573	108.69
495.79	92.69
496.008	91.69
496.225	90.69
496.442	91.69
496.66	90.69
496.877	93.69
497.094	88.69
497.312	91.69
497.529	80.69
497.746	102.69
497.963	79.69
498.181	79.69
498.398	88.69
498.615	85.69
498.832	93.69
499.049	94.69
499.267	84.69
499.484	92.69
499.701	80.69
499.918	91.69
500.135	86.69
500.352	84.69
500.569	84.69
500.786	98.69
501.003	92.69
501.22	88.69
501.437	89.69
501.654	92.69
501.871	92.69
502.088	94.69
502.305	77.69
502.522	87.69
502.739	79.69
502.956	100.69
503.172	88.69
503.389	91.69
503.606	91.69
503.823	86.69
504.04	98.69
504.256	88.69
504.473	91.69
504.69	92.69
504.907	87.69
505.123	95.69
505.34	78.69
505.557	94.69
505.773	85.69
505.99	98.69
506.207	106.69
506.423	88.69
506.64	80.69
506.856	96.69
507.073	81.69
507.289	85.69
507.506	79.69
507.722	114.69
507.939	98.69
508.155	91.69
508.372	95.69
508.588	88.69
508.805	87.69
509.021	75.69
509.238	97.69
509.454	99.69
509.67	92.69
509.887	100.69
510.103	125.69
510.319	168.69
510.536	563.69
510.752	1506.69
510.968	437.69
511.184	119.69
511.401	97.69
511.617	87.69
511.833	87.69
512.049	81.69
512.265	83.69
512.481	85.69
512.698	85.69
512.914	88.69
513.13	77.69
513.346	68.69
513.562	104.69
513.778	91.69
513.994	96.69
514.21	95.69
514.426	108.69
514.642	104.69
514.858	118.69
515.074	132.69
515.29	296.69
515.506	885.69
515.721	337.69
515.937	119.69
516.153	103.69
516.369	83.69
516.585	77.69
516.801	109.69
517.016	99.69
