Data from Uncirc_1981_H10_HRD10591_00046.txt Node
Date: Wed Jan 03 12:33:17 EST 2024
User: Yrep
Spectrometer: HR+D1059
Trigger mode: 1
Integration Time (sec): 1.000000E-1
Scans to average: 1
Electric dark correction enabled: true
Nonlinearity correction enabled: false
Boxcar width: 0
XAxis mode: Wavelengths
Number of Pixels in Spectrum: 2048
>>>>>Begin Spectral Data<<<<<
223.165	-19.69
223.4	-19.69
223.635	-19.69
223.869	-17.69
224.104	-3.69
224.338	-17.69
224.573	-24.69
224.808	0.31
225.042	-4.69
225.277	-21.69
225.511	1.31
225.746	0.31
225.98	2.31
226.215	7.31
226.449	24.31
226.683	17.31
226.918	25.31
227.152	31.31
227.387	35.31
227.621	48.31
227.856	63.31
228.09	39.31
228.324	53.31
228.559	59.31
228.793	62.31
229.027	65.31
229.262	66.31
229.496	72.31
229.73	81.31
229.964	79.31
230.199	74.31
230.433	72.31
230.667	75.31
230.901	79.31
231.136	72.31
231.37	76.31
231.604	63.31
231.838	83.31
232.072	83.31
232.306	80.31
232.541	77.31
232.775	90.31
233.009	76.31
233.243	72.31
233.477	83.31
233.711	73.31
233.945	81.31
234.179	75.31
234.413	67.31
234.647	65.31
234.881	81.31
235.115	82.31
235.349	77.31
235.583	79.31
235.817	87.31
236.051	81.31
236.285	68.31
236.519	85.31
236.753	81.31
236.987	88.31
237.221	79.31
237.455	72.31
237.689	87.31
237.922	76.31
238.156	58.31
238.39	80.31
238.624	66.31
238.858	83.31
239.091	82.31
239.325	67.31
239.559	68.31
239.793	81.31
240.027	74.31
240.26	61.31
240.494	69.31
240.728	74.31
240.961	76.31
241.195	84.31
241.429	84.31
241.662	64.31
241.896	73.31
242.13	68.31
242.363	80.31
242.597	83.31
242.83	87.31
243.064	74.31
243.298	79.31
243.531	71.31
243.765	75.31
243.998	72.31
244.232	92.31
244.465	80.31
244.699	76.31
244.932	68.31
245.166	71.31
245.399	82.31
245.633	88.31
245.866	68.31
246.099	72.31
246.333	75.31
246.566	71.31
246.8	84.31
247.033	74.31
247.266	82.31
247.5	83.31
247.733	75.31
247.966	74.31
248.2	88.31
248.433	100.31
248.666	72.31
248.899	75.31
249.133	84.31
249.366	93.31
249.599	102.31
249.832	73.31
250.066	75.31
250.299	80.31
250.532	75.31
250.765	91.31
250.998	80.31
251.231	71.31
251.465	79.31
251.698	73.31
251.931	87.31
252.164	84.31
252.397	92.31
252.63	60.31
252.863	73.31
253.096	82.31
253.329	85.31
253.562	75.31
253.795	70.31
254.028	90.31
254.261	76.31
254.494	91.31
254.727	91.31
254.96	74.31
255.193	74.31
255.426	72.31
255.659	69.31
255.892	80.31
256.124	68.31
256.357	74.31
256.59	96.31
256.823	93.31
257.056	78.31
257.289	63.31
257.521	99.31
257.754	75.31
257.987	91.31
258.22	75.31
258.452	98.31
258.685	88.31
258.918	88.31
259.151	85.31
259.383	92.31
259.616	83.31
259.849	86.31
260.081	88.31
260.314	79.31
260.547	83.31
260.779	77.31
261.012	86.31
261.244	77.31
261.477	85.31
261.71	105.31
261.942	90.31
262.175	103.31
262.407	90.31
262.64	92.31
262.872	95.31
263.105	83.31
263.337	74.31
263.57	81.31
263.802	84.31
264.035	80.31
264.267	80.31
264.499	84.31
264.732	99.31
264.964	79.31
265.197	82.31
265.429	91.31
265.661	73.31
265.894	92.31
266.126	83.31
266.358	77.31
266.591	91.31
266.823	101.31
267.055	67.31
267.287	84.31
267.52	73.31
267.752	89.31
267.984	83.31
268.216	72.31
268.448	82.31
268.681	81.31
268.913	103.31
269.145	83.31
269.377	76.31
269.609	95.31
269.841	85.31
270.073	84.31
270.306	94.31
270.538	81.31
270.77	84.31
271.002	79.31
271.234	85.31
271.466	79.31
271.698	90.31
271.93	87.31
272.162	88.31
272.394	87.31
272.626	89.31
272.858	72.31
273.09	73.31
273.322	93.31
273.553	84.31
273.785	84.31
274.017	72.31
274.249	103.31
274.481	87.31
274.713	86.31
274.945	80.31
275.176	93.31
275.408	72.31
275.64	86.31
275.872	90.31
276.104	88.31
276.335	92.31
276.567	96.31
276.799	107.31
277.031	91.31
277.262	90.31
277.494	83.31
277.726	79.31
277.957	80.31
278.189	84.31
278.421	76.31
278.652	83.31
278.884	91.31
279.115	85.31
279.347	87.31
279.579	87.31
279.81	90.31
280.042	83.31
280.273	96.31
280.505	97.31
280.736	91.31
280.968	91.31
281.199	77.31
281.431	86.31
281.662	80.31
281.894	97.31
282.125	102.31
282.356	111.31
282.588	109.31
282.819	103.31
283.051	86.31
283.282	92.31
283.513	73.31
283.745	79.31
283.976	86.31
284.207	106.31
284.439	85.31
284.67	75.31
284.901	89.31
285.132	83.31
285.364	89.31
285.595	84.31
285.826	85.31
286.057	82.31
286.288	71.31
286.52	68.31
286.751	87.31
286.982	84.31
287.213	87.31
287.444	85.31
287.675	87.31
287.906	95.31
288.138	102.31
288.369	88.31
288.6	75.31
288.831	85.31
289.062	81.31
289.293	85.31
289.524	83.31
289.755	81.31
289.986	75.31
290.217	84.31
290.448	91.31
290.679	82.31
290.91	70.31
291.141	93.31
291.371	82.31
291.602	85.31
291.833	98.31
292.064	92.31
292.295	97.31
292.526	91.31
292.757	75.31
292.987	88.31
293.218	70.31
293.449	83.31
293.68	87.31
293.91	89.31
294.141	100.31
294.372	86.31
294.603	92.31
294.833	90.31
295.064	92.31
295.295	86.31
295.525	92.31
295.756	100.31
295.987	95.31
296.217	120.31
296.448	101.31
296.679	83.31
296.909	93.31
297.14	101.31
297.37	104.31
297.601	85.31
297.831	91.31
298.062	92.31
298.292	88.31
298.523	95.31
298.753	73.31
298.984	94.31
299.214	75.31
299.445	95.31
299.675	88.31
299.905	92.31
300.136	88.31
300.366	85.31
300.597	62.31
300.827	91.31
301.057	92.31
301.288	99.31
301.518	81.31
301.748	98.31
301.979	99.31
302.209	91.31
302.439	90.31
302.669	82.31
302.9	80.31
303.13	89.31
303.36	83.31
303.59	88.31
303.82	97.31
304.051	97.31
304.281	72.31
304.511	89.31
304.741	79.31
304.971	82.31
305.201	98.31
305.431	98.31
305.661	100.31
305.891	94.31
306.121	103.31
306.352	106.31
306.582	95.31
306.812	102.31
307.042	88.31
307.272	94.31
307.502	96.31
307.731	78.31
307.961	96.31
308.191	92.31
308.421	97.31
308.651	92.31
308.881	75.31
309.111	106.31
309.341	93.31
309.571	100.31
309.8	106.31
310.03	84.31
310.26	97.31
310.49	105.31
310.72	99.31
310.949	81.31
311.179	91.31
311.409	78.31
311.639	102.31
311.868	99.31
312.098	103.31
312.328	93.31
312.557	97.31
312.787	105.31
313.017	92.31
313.246	85.31
313.476	97.31
313.706	90.31
313.935	81.31
314.165	99.31
314.394	80.31
314.624	78.31
314.853	101.31
315.083	79.31
315.312	97.31
315.542	66.31
315.771	100.31
316.001	86.31
316.23	96.31
316.46	88.31
316.689	76.31
316.919	80.31
317.148	89.31
317.377	84.31
317.607	75.31
317.836	97.31
318.065	97.31
318.295	84.31
318.524	90.31
318.753	107.31
318.983	97.31
319.212	99.31
319.441	107.31
319.67	99.31
319.9	87.31
320.129	83.31
320.358	94.31
320.587	80.31
320.816	101.31
321.046	98.31
321.275	82.31
321.504	100.31
321.733	97.31
321.962	83.31
322.191	93.31
322.42	103.31
322.649	108.31
322.878	96.31
323.108	115.31
323.337	119.31
323.566	127.31
323.795	129.31
324.024	176.31
324.253	349.31
324.482	785.31
324.71	1601.31
324.939	2063.31
325.168	756.31
325.397	227.31
325.626	123.31
325.855	119.31
326.084	127.31
326.313	123.31
326.542	147.31
326.77	216.31
326.999	435.31
327.228	885.31
327.457	1667.31
327.686	1324.31
327.914	361.31
328.143	183.31
328.372	147.31
328.6	113.31
328.829	119.31
329.058	116.31
329.287	101.31
329.515	126.31
329.744	125.31
329.972	102.31
330.201	111.31
330.43	117.31
330.658	124.31
330.887	113.31
331.115	107.31
331.344	101.31
331.572	93.31
331.801	105.31
332.03	106.31
332.258	101.31
332.486	93.31
332.715	89.31
332.943	86.31
333.172	95.31
333.4	97.31
333.629	97.31
333.857	116.31
334.085	113.31
334.314	115.31
334.542	111.31
334.771	132.31
334.999	108.31
335.227	74.31
335.455	101.31
335.684	101.31
335.912	119.31
336.14	102.31
336.369	103.31
336.597	89.31
336.825	92.31
337.053	77.31
337.281	96.31
337.51	85.31
337.738	104.31
337.966	91.31
338.194	100.31
338.422	107.31
338.65	84.31
338.878	88.31
339.106	91.31
339.334	72.31
339.562	92.31
339.79	95.31
340.018	103.31
340.246	91.31
340.474	92.31
340.702	92.31
340.93	89.31
341.158	98.31
341.386	90.31
341.614	106.31
341.842	97.31
342.07	84.31
342.298	84.31
342.526	92.31
342.754	85.31
342.981	92.31
343.209	86.31
343.437	95.31
343.665	95.31
343.893	96.31
344.12	93.31
344.348	79.31
344.576	100.31
344.804	85.31
345.031	89.31
345.259	69.31
345.487	92.31
345.714	96.31
345.942	86.31
346.17	91.31
346.397	80.31
346.625	95.31
346.853	79.31
347.08	79.31
347.308	99.31
347.535	100.31
347.763	103.31
347.99	93.31
348.218	103.31
348.445	103.31
348.673	98.31
348.9	90.31
349.128	77.31
349.355	81.31
349.583	99.31
349.81	109.31
350.037	101.31
350.265	97.31
350.492	94.31
350.72	99.31
350.947	95.31
351.174	116.31
351.402	104.31
351.629	116.31
351.856	99.31
352.083	96.31
352.311	99.31
352.538	99.31
352.765	110.31
352.992	95.31
353.22	93.31
353.447	104.31
353.674	102.31
353.901	84.31
354.128	91.31
354.355	92.31
354.583	96.31
354.81	114.31
355.037	110.31
355.264	92.31
355.491	87.31
355.718	85.31
355.945	80.31
356.172	98.31
356.399	92.31
356.626	80.31
356.853	85.31
357.08	85.31
357.307	87.31
357.534	107.31
357.761	95.31
357.988	93.31
358.215	113.31
358.441	101.31
358.668	89.31
358.895	106.31
359.122	95.31
359.349	95.31
359.576	94.31
359.802	99.31
360.029	101.31
360.256	88.31
360.483	103.31
360.709	85.31
360.936	96.31
361.163	88.31
361.39	81.31
361.616	105.31
361.843	95.31
362.07	90.31
362.296	83.31
362.523	89.31
362.749	74.31
362.976	81.31
363.203	86.31
363.429	85.31
363.656	75.31
363.882	85.31
364.109	96.31
364.335	96.31
364.562	93.31
364.788	90.31
365.015	96.31
365.241	92.31
365.468	101.31
365.694	97.31
365.92	84.31
366.147	78.31
366.373	99.31
366.599	96.31
366.826	94.31
367.052	94.31
367.278	94.31
367.505	75.31
367.731	95.31
367.957	83.31
368.184	89.31
368.41	96.31
368.636	104.31
368.862	101.31
369.089	85.31
369.315	89.31
369.541	99.31
369.767	74.31
369.993	84.31
370.219	80.31
370.445	81.31
370.672	98.31
370.898	97.31
371.124	81.31
371.35	99.31
371.576	78.31
371.802	100.31
372.028	82.31
372.254	91.31
372.48	87.31
372.706	108.31
372.932	77.31
373.158	87.31
373.384	93.31
373.61	98.31
373.835	97.31
374.061	96.31
374.287	92.31
374.513	85.31
374.739	81.31
374.965	91.31
375.191	83.31
375.416	80.31
375.642	80.31
375.868	83.31
376.094	90.31
376.319	91.31
376.545	81.31
376.771	65.31
376.997	79.31
377.222	85.31
377.448	105.31
377.674	88.31
377.899	83.31
378.125	92.31
378.35	95.31
378.576	76.31
378.802	76.31
379.027	86.31
379.253	82.31
379.478	90.31
379.704	101.31
379.929	98.31
380.155	96.31
380.38	90.31
380.606	86.31
380.831	98.31
381.057	109.31
381.282	103.31
381.507	88.31
381.733	103.31
381.958	88.31
382.184	97.31
382.409	94.31
382.634	109.31
382.86	97.31
383.085	91.31
383.31	93.31
383.535	99.31
383.761	109.31
383.986	103.31
384.211	98.31
384.436	107.31
384.662	95.31
384.887	102.31
385.112	112.31
385.337	109.31
385.562	108.31
385.787	93.31
386.013	115.31
386.238	112.31
386.463	103.31
386.688	100.31
386.913	84.31
387.138	104.31
387.363	83.31
387.588	102.31
387.813	103.31
388.038	109.31
388.263	113.31
388.488	111.31
388.713	97.31
388.938	101.31
389.163	98.31
389.387	98.31
389.612	91.31
389.837	99.31
390.062	87.31
390.287	91.31
390.512	94.31
390.736	90.31
390.961	92.31
391.186	91.31
391.411	86.31
391.636	105.31
391.86	94.31
392.085	90.31
392.31	80.31
392.534	92.31
392.759	87.31
392.984	75.31
393.208	81.31
393.433	69.31
393.658	84.31
393.882	92.31
394.107	88.31
394.331	87.31
394.556	91.31
394.78	95.31
395.005	88.31
395.229	96.31
395.454	74.31
395.678	88.31
395.903	93.31
396.127	83.31
396.352	105.31
396.576	87.31
396.801	96.31
397.025	74.31
397.249	97.31
397.474	93.31
397.698	88.31
397.922	85.31
398.147	87.31
398.371	79.31
398.595	85.31
398.82	74.31
399.044	87.31
399.268	99.31
399.492	84.31
399.717	88.31
399.941	91.31
400.165	101.31
400.389	75.31
400.613	83.31
400.837	88.31
401.062	76.31
401.286	93.31
401.51	86.31
401.734	76.31
401.958	92.31
402.182	114.31
402.406	130.31
402.63	98.31
402.854	94.31
403.078	89.31
403.302	87.31
403.526	87.31
403.75	92.31
403.974	84.31
404.198	79.31
404.422	80.31
404.645	88.31
404.869	84.31
405.093	90.31
405.317	85.31
405.541	99.31
405.765	108.31
405.988	107.31
406.212	160.31
406.436	185.31
406.66	119.31
406.883	87.31
407.107	98.31
407.331	104.31
407.555	87.31
407.778	87.31
408.002	80.31
408.226	89.31
408.449	83.31
408.673	78.31
408.896	92.31
409.12	84.31
409.344	95.31
409.567	86.31
409.791	95.31
410.014	100.31
410.238	105.31
410.461	92.31
410.685	101.31
410.908	97.31
411.132	95.31
411.355	98.31
411.578	88.31
411.802	85.31
412.025	87.31
412.249	89.31
412.472	88.31
412.695	74.31
412.919	92.31
413.142	83.31
413.365	76.31
413.589	77.31
413.812	79.31
414.035	81.31
414.258	82.31
414.482	99.31
414.705	85.31
414.928	91.31
415.151	83.31
415.374	82.31
415.597	85.31
415.821	73.31
416.044	71.31
416.267	76.31
416.49	99.31
416.713	83.31
416.936	77.31
417.159	77.31
417.382	88.31
417.605	87.31
417.828	91.31
418.051	88.31
418.274	84.31
418.497	88.31
418.72	92.31
418.943	98.31
419.166	84.31
419.389	93.31
419.611	91.31
419.834	87.31
420.057	88.31
420.28	76.31
420.503	93.31
420.726	88.31
420.948	83.31
421.171	90.31
421.394	96.31
421.617	92.31
421.839	83.31
422.062	93.31
422.285	99.31
422.507	100.31
422.73	104.31
422.953	89.31
423.175	87.31
423.398	77.31
423.621	89.31
423.843	91.31
424.066	85.31
424.288	100.31
424.511	81.31
424.733	99.31
424.956	91.31
425.178	91.31
425.401	101.31
425.623	70.31
425.846	89.31
426.068	80.31
426.291	99.31
426.513	71.31
426.735	90.31
426.958	76.31
427.18	100.31
427.402	121.31
427.625	149.31
427.847	118.31
428.069	116.31
428.292	88.31
428.514	75.31
428.736	76.31
428.958	76.31
429.181	92.31
429.403	89.31
429.625	80.31
429.847	80.31
430.069	77.31
430.292	95.31
430.514	70.31
430.736	79.31
430.958	73.31
431.18	84.31
431.402	80.31
431.624	90.31
431.846	77.31
432.068	71.31
432.29	84.31
432.512	87.31
432.734	85.31
432.956	99.31
433.178	84.31
433.4	89.31
433.622	79.31
433.844	97.31
434.066	77.31
434.287	90.31
434.509	91.31
434.731	68.31
434.953	80.31
435.175	76.31
435.397	89.31
435.618	87.31
435.84	101.31
436.062	112.31
436.284	99.31
436.505	95.31
436.727	104.31
436.949	91.31
437.17	98.31
437.392	82.31
437.614	92.31
437.835	103.31
438.057	105.31
438.278	93.31
438.5	101.31
438.721	107.31
438.943	104.31
439.165	79.31
439.386	86.31
439.608	80.31
439.829	95.31
440.05	109.31
440.272	128.31
440.493	92.31
440.715	74.31
440.936	79.31
441.158	85.31
441.379	83.31
441.6	93.31
441.822	74.31
442.043	100.31
442.264	99.31
442.486	91.31
442.707	83.31
442.928	88.31
443.149	91.31
443.371	115.31
443.592	105.31
443.813	109.31
444.034	108.31
444.255	79.31
444.476	89.31
444.698	91.31
444.919	77.31
445.14	133.31
445.361	114.31
445.582	108.31
445.803	123.31
446.024	113.31
446.245	117.31
446.466	101.31
446.687	86.31
446.908	91.31
447.129	79.31
447.35	95.31
447.571	100.31
447.792	91.31
448.013	87.31
448.234	93.31
448.455	87.31
448.675	95.31
448.896	127.31
449.117	104.31
449.338	104.31
449.559	123.31
449.779	126.31
450	83.31
450.221	96.31
450.442	89.31
450.662	90.31
450.883	101.31
451.104	111.31
451.324	90.31
451.545	87.31
451.766	82.31
451.986	85.31
452.207	69.31
452.428	94.31
452.648	97.31
452.869	75.31
453.089	103.31
453.31	90.31
453.53	96.31
453.751	93.31
453.971	106.31
454.192	102.31
454.412	89.31
454.633	82.31
454.853	92.31
455.073	100.31
455.294	85.31
455.514	103.31
455.734	87.31
455.955	85.31
456.175	80.31
456.395	76.31
456.616	88.31
456.836	76.31
457.056	77.31
457.276	68.31
457.497	81.31
457.717	91.31
457.937	73.31
458.157	89.31
458.377	95.31
458.598	92.31
458.818	131.31
459.038	144.31
459.258	108.31
459.478	86.31
459.698	86.31
459.918	79.31
460.138	82.31
460.358	81.31
460.578	84.31
460.798	81.31
461.018	81.31
461.238	98.31
461.458	79.31
461.678	83.31
461.898	85.31
462.118	67.31
462.338	66.31
462.558	93.31
462.777	93.31
462.997	76.31
463.217	84.31
463.437	95.31
463.657	85.31
463.876	84.31
464.096	86.31
464.316	80.31
464.536	90.31
464.755	92.31
464.975	93.31
465.195	129.31
465.414	127.31
465.634	73.31
465.854	98.31
466.073	90.31
466.293	97.31
466.512	91.31
466.732	80.31
466.951	87.31
467.171	85.31
467.391	96.31
467.61	84.31
467.829	85.31
468.049	117.31
468.268	88.31
468.488	83.31
468.707	80.31
468.927	87.31
469.146	84.31
469.365	81.31
469.585	84.31
469.804	99.31
470.023	75.31
470.243	88.31
470.462	114.31
470.681	94.31
470.901	88.31
471.12	98.31
471.339	89.31
471.558	92.31
471.777	90.31
471.997	95.31
472.216	103.31
472.435	113.31
472.654	97.31
472.873	106.31
473.092	85.31
473.311	86.31
473.53	86.31
473.749	73.31
473.968	85.31
474.187	99.31
474.406	91.31
474.625	73.31
474.844	90.31
475.063	87.31
475.282	94.31
475.501	89.31
475.72	100.31
475.939	99.31
476.158	80.31
476.377	82.31
476.596	83.31
476.814	84.31
477.033	82.31
477.252	90.31
477.471	84.31
477.69	100.31
477.908	78.31
478.127	90.31
478.346	96.31
478.564	87.31
478.783	100.31
479.002	87.31
479.22	90.31
479.439	100.31
479.658	97.31
479.876	91.31
480.095	88.31
480.313	102.31
480.532	93.31
480.751	108.31
480.969	127.31
481.188	156.31
481.406	120.31
481.624	97.31
481.843	82.31
482.061	80.31
482.28	85.31
482.498	91.31
482.717	69.31
482.935	87.31
483.153	89.31
483.372	100.31
483.59	90.31
483.808	76.31
484.027	88.31
484.245	88.31
484.463	77.31
484.681	87.31
484.9	93.31
485.118	100.31
485.336	87.31
485.554	105.31
485.772	96.31
485.99	93.31
486.209	103.31
486.427	109.31
486.645	102.31
486.863	118.31
487.081	100.31
487.299	105.31
487.517	88.31
487.735	101.31
487.953	89.31
488.171	86.31
488.389	91.31
488.607	95.31
488.825	106.31
489.043	95.31
489.261	93.31
489.479	101.31
489.696	84.31
489.914	79.31
490.132	91.31
490.35	89.31
490.568	89.31
490.786	85.31
491.003	110.31
491.221	87.31
491.439	93.31
491.657	95.31
491.874	100.31
492.092	88.31
492.31	95.31
492.527	78.31
492.745	88.31
492.963	98.31
493.18	84.31
493.398	90.31
493.615	97.31
493.833	91.31
494.05	85.31
494.268	98.31
494.485	93.31
494.703	70.31
494.92	103.31
495.138	96.31
495.355	91.31
495.573	95.31
495.79	96.31
496.008	108.31
496.225	108.31
496.442	100.31
496.66	88.31
496.877	84.31
497.094	95.31
497.312	102.31
497.529	82.31
497.746	92.31
497.963	89.31
498.181	101.31
498.398	80.31
498.615	113.31
498.832	112.31
499.049	103.31
499.267	98.31
499.484	99.31
499.701	76.31
499.918	95.31
500.135	93.31
500.352	85.31
500.569	101.31
500.786	105.31
501.003	72.31
501.22	82.31
501.437	97.31
501.654	95.31
501.871	95.31
502.088	87.31
502.305	91.31
502.522	79.31
502.739	91.31
502.956	91.31
503.172	95.31
503.389	99.31
503.606	104.31
503.823	105.31
504.04	99.31
504.256	84.31
504.473	90.31
504.69	82.31
504.907	90.31
505.123	91.31
505.34	98.31
505.557	85.31
505.773	95.31
505.99	103.31
506.207	94.31
506.423	72.31
506.64	85.31
506.856	91.31
507.073	88.31
507.289	100.31
507.506	107.31
507.722	105.31
507.939	107.31
508.155	91.31
508.372	82.31
508.588	115.31
508.805	103.31
509.021	81.31
509.238	91.31
509.454	99.31
509.67	97.31
509.887	114.31
510.103	108.31
510.319	193.31
510.536	586.31
510.752	1736.31
510.968	495.31
511.184	129.31
511.401	91.31
511.617	90.31
511.833	88.31
512.049	84.31
512.265	92.31
512.481	93.31
512.698	92.31
512.914	91.31
513.13	97.31
513.346	94.31
513.562	93.31
513.778	103.31
513.994	103.31
514.21	96.31
514.426	98.31
514.642	117.31
514.858	120.31
515.074	133.31
515.29	342.31
515.506	1095.31
515.721	409.31
515.937	124.31
516.153	111.31
