Data from Uncirc_1981_H10_HRD10591_00063.txt Node
Date: Wed Jan 03 12:33:20 EST 2024
User: Yrep
Spectrometer: HR+D1059
Trigger mode: 1
Integration Time (sec): 1.000000E-1
Scans to average: 1
Electric dark correction enabled: true
Nonlinearity correction enabled: false
Boxcar width: 0
XAxis mode: Wavelengths
Number of Pixels in Spectrum: 2048
>>>>>Begin Spectral Data<<<<<
223.165	-21.5
223.4	-21.5
223.635	-21.5
223.869	-18.5
224.104	-18.5
224.338	-12.5
224.573	-1.5
224.808	-10.5
225.042	-12.5
225.277	-16.5
225.511	2.5
225.746	5.5
225.98	11.5
226.215	15.5
226.449	5.5
226.683	17.5
226.918	20.5
227.152	33.5
227.387	23.5
227.621	42.5
227.856	44.5
228.09	53.5
228.324	43.5
228.559	63.5
228.793	53.5
229.027	44.5
229.262	72.5
229.496	65.5
229.73	66.5
229.964	74.5
230.199	69.5
230.433	65.5
230.667	61.5
230.901	74.5
231.136	79.5
231.37	90.5
231.604	63.5
231.838	84.5
232.072	85.5
232.306	75.5
232.541	63.5
232.775	70.5
233.009	68.5
233.243	80.5
233.477	85.5
233.711	63.5
233.945	73.5
234.179	92.5
234.413	76.5
234.647	88.5
234.881	93.5
235.115	72.5
235.349	57.5
235.583	75.5
235.817	69.5
236.051	77.5
236.285	67.5
236.519	60.5
236.753	76.5
236.987	74.5
237.221	88.5
237.455	85.5
237.689	72.5
237.922	83.5
238.156	81.5
238.39	81.5
238.624	69.5
238.858	61.5
239.091	67.5
239.325	81.5
239.559	80.5
239.793	81.5
240.027	82.5
240.26	74.5
240.494	71.5
240.728	72.5
240.961	79.5
241.195	72.5
241.429	72.5
241.662	65.5
241.896	70.5
242.13	70.5
242.363	69.5
242.597	77.5
242.83	71.5
243.064	75.5
243.298	74.5
243.531	83.5
243.765	55.5
243.998	83.5
244.232	72.5
244.465	72.5
244.699	71.5
244.932	74.5
245.166	65.5
245.399	67.5
245.633	62.5
245.866	69.5
246.099	86.5
246.333	69.5
246.566	61.5
246.8	66.5
247.033	70.5
247.266	72.5
247.5	74.5
247.733	74.5
247.966	72.5
248.2	65.5
248.433	83.5
248.666	72.5
248.899	81.5
249.133	81.5
249.366	86.5
249.599	82.5
249.832	73.5
250.066	83.5
250.299	85.5
250.532	77.5
250.765	72.5
250.998	77.5
251.231	68.5
251.465	77.5
251.698	67.5
251.931	65.5
252.164	73.5
252.397	80.5
252.63	66.5
252.863	81.5
253.096	74.5
253.329	75.5
253.562	86.5
253.795	74.5
254.028	75.5
254.261	97.5
254.494	81.5
254.727	82.5
254.96	77.5
255.193	83.5
255.426	80.5
255.659	81.5
255.892	81.5
256.124	88.5
256.357	70.5
256.59	78.5
256.823	94.5
257.056	65.5
257.289	87.5
257.521	70.5
257.754	78.5
257.987	66.5
258.22	92.5
258.452	73.5
258.685	72.5
258.918	68.5
259.151	86.5
259.383	85.5
259.616	79.5
259.849	85.5
260.081	76.5
260.314	75.5
260.547	73.5
260.779	70.5
261.012	73.5
261.244	81.5
261.477	79.5
261.71	84.5
261.942	89.5
262.175	100.5
262.407	96.5
262.64	97.5
262.872	73.5
263.105	92.5
263.337	93.5
263.57	85.5
263.802	83.5
264.035	87.5
264.267	84.5
264.499	83.5
264.732	72.5
264.964	83.5
265.197	68.5
265.429	93.5
265.661	104.5
265.894	85.5
266.126	94.5
266.358	97.5
266.591	72.5
266.823	69.5
267.055	83.5
267.287	70.5
267.52	72.5
267.752	81.5
267.984	88.5
268.216	66.5
268.448	74.5
268.681	82.5
268.913	82.5
269.145	71.5
269.377	83.5
269.609	82.5
269.841	90.5
270.073	86.5
270.306	82.5
270.538	74.5
270.77	88.5
271.002	89.5
271.234	73.5
271.466	80.5
271.698	73.5
271.93	71.5
272.162	72.5
272.394	94.5
272.626	87.5
272.858	75.5
273.09	71.5
273.322	84.5
273.553	78.5
273.785	73.5
274.017	63.5
274.249	82.5
274.481	69.5
274.713	74.5
274.945	87.5
275.176	78.5
275.408	82.5
275.64	82.5
275.872	72.5
276.104	85.5
276.335	85.5
276.567	82.5
276.799	99.5
277.031	81.5
277.262	96.5
277.494	90.5
277.726	94.5
277.957	92.5
278.189	89.5
278.421	75.5
278.652	80.5
278.884	89.5
279.115	84.5
279.347	83.5
279.579	72.5
279.81	91.5
280.042	81.5
280.273	95.5
280.505	81.5
280.736	89.5
280.968	92.5
281.199	91.5
281.431	83.5
281.662	69.5
281.894	95.5
282.125	96.5
282.356	103.5
282.588	122.5
282.819	98.5
283.051	64.5
283.282	84.5
283.513	101.5
283.745	86.5
283.976	86.5
284.207	94.5
284.439	85.5
284.67	73.5
284.901	74.5
285.132	87.5
285.364	74.5
285.595	79.5
285.826	83.5
286.057	92.5
286.288	71.5
286.52	92.5
286.751	73.5
286.982	69.5
287.213	86.5
287.444	77.5
287.675	76.5
287.906	85.5
288.138	101.5
288.369	96.5
288.6	90.5
288.831	88.5
289.062	93.5
289.293	82.5
289.524	84.5
289.755	106.5
289.986	75.5
290.217	83.5
290.448	79.5
290.679	97.5
290.91	91.5
291.141	77.5
291.371	83.5
291.602	92.5
291.833	77.5
292.064	81.5
292.295	90.5
292.526	87.5
292.757	87.5
292.987	88.5
293.218	84.5
293.449	75.5
293.68	92.5
293.91	75.5
294.141	79.5
294.372	87.5
294.603	83.5
294.833	82.5
295.064	90.5
295.295	93.5
295.525	91.5
295.756	84.5
295.987	101.5
296.217	132.5
296.448	111.5
296.679	95.5
296.909	77.5
297.14	82.5
297.37	105.5
297.601	66.5
297.831	84.5
298.062	87.5
298.292	85.5
298.523	92.5
298.753	87.5
298.984	86.5
299.214	87.5
299.445	80.5
299.675	89.5
299.905	88.5
300.136	82.5
300.366	83.5
300.597	68.5
300.827	91.5
301.057	86.5
301.288	84.5
301.518	81.5
301.748	77.5
301.979	112.5
302.209	75.5
302.439	71.5
302.669	105.5
302.9	100.5
303.13	83.5
303.36	89.5
303.59	101.5
303.82	90.5
304.051	87.5
304.281	88.5
304.511	67.5
304.741	80.5
304.971	91.5
305.201	92.5
305.431	81.5
305.661	91.5
305.891	89.5
306.121	86.5
306.352	89.5
306.582	89.5
306.812	72.5
307.042	82.5
307.272	86.5
307.502	83.5
307.731	97.5
307.961	88.5
308.191	91.5
308.421	86.5
308.651	91.5
308.881	89.5
309.111	79.5
309.341	79.5
309.571	66.5
309.8	99.5
310.03	93.5
310.26	93.5
310.49	98.5
310.72	98.5
310.949	91.5
311.179	104.5
311.409	94.5
311.639	87.5
311.868	94.5
312.098	87.5
312.328	77.5
312.557	97.5
312.787	98.5
313.017	89.5
313.246	83.5
313.476	86.5
313.706	93.5
313.935	104.5
314.165	99.5
314.394	89.5
314.624	102.5
314.853	85.5
315.083	93.5
315.312	81.5
315.542	83.5
315.771	78.5
316.001	91.5
316.23	92.5
316.46	91.5
316.689	82.5
316.919	85.5
317.148	104.5
317.377	90.5
317.607	88.5
317.836	97.5
318.065	94.5
318.295	87.5
318.524	82.5
318.753	84.5
318.983	88.5
319.212	84.5
319.441	97.5
319.67	92.5
319.9	90.5
320.129	81.5
320.358	96.5
320.587	89.5
320.816	104.5
321.046	115.5
321.275	92.5
321.504	85.5
321.733	94.5
321.962	88.5
322.191	88.5
322.42	92.5
322.649	91.5
322.878	109.5
323.108	100.5
323.337	100.5
323.566	99.5
323.795	124.5
324.024	177.5
324.253	336.5
324.482	688.5
324.71	1369.5
324.939	1780.5
325.168	667.5
325.397	196.5
325.626	131.5
325.855	127.5
326.084	117.5
326.313	114.5
326.542	143.5
326.77	194.5
326.999	386.5
327.228	781.5
327.457	1449.5
327.686	1111.5
327.914	333.5
328.143	170.5
328.372	135.5
328.6	126.5
328.829	109.5
329.058	109.5
329.287	114.5
329.515	90.5
329.744	103.5
329.972	105.5
330.201	102.5
330.43	123.5
330.658	103.5
330.887	113.5
331.115	116.5
331.344	99.5
331.572	88.5
331.801	70.5
332.03	93.5
332.258	98.5
332.486	87.5
332.715	93.5
332.943	82.5
333.172	97.5
333.4	94.5
333.629	95.5
333.857	111.5
334.085	96.5
334.314	102.5
334.542	114.5
334.771	109.5
334.999	92.5
335.227	103.5
335.455	91.5
335.684	90.5
335.912	89.5
336.14	96.5
336.369	89.5
336.597	88.5
336.825	98.5
337.053	86.5
337.281	86.5
337.51	85.5
337.738	96.5
337.966	91.5
338.194	87.5
338.422	82.5
338.65	95.5
338.878	91.5
339.106	94.5
339.334	91.5
339.562	71.5
339.79	85.5
340.018	88.5
340.246	84.5
340.474	83.5
340.702	86.5
340.93	77.5
341.158	91.5
341.386	96.5
341.614	101.5
341.842	86.5
342.07	96.5
342.298	79.5
342.526	82.5
342.754	83.5
342.981	81.5
343.209	98.5
343.437	94.5
343.665	88.5
343.893	99.5
344.12	90.5
344.348	93.5
344.576	95.5
344.804	94.5
345.031	87.5
345.259	73.5
345.487	85.5
345.714	74.5
345.942	95.5
346.17	73.5
346.397	85.5
346.625	85.5
346.853	77.5
347.08	83.5
347.308	94.5
347.535	102.5
347.763	102.5
347.99	97.5
348.218	106.5
348.445	99.5
348.673	94.5
348.9	94.5
349.128	90.5
349.355	83.5
349.583	88.5
349.81	99.5
350.037	85.5
350.265	82.5
350.492	89.5
350.72	93.5
350.947	82.5
351.174	99.5
351.402	107.5
351.629	89.5
351.856	98.5
352.083	97.5
352.311	109.5
352.538	102.5
352.765	107.5
352.992	114.5
353.22	96.5
353.447	111.5
353.674	101.5
353.901	92.5
354.128	89.5
354.355	93.5
354.583	95.5
354.81	92.5
355.037	81.5
355.264	98.5
355.491	89.5
355.718	91.5
355.945	91.5
356.172	82.5
356.399	101.5
356.626	93.5
356.853	97.5
357.08	90.5
357.307	86.5
357.534	86.5
357.761	96.5
357.988	78.5
358.215	89.5
358.441	93.5
358.668	93.5
358.895	93.5
359.122	84.5
359.349	87.5
359.576	93.5
359.802	91.5
360.029	97.5
360.256	107.5
360.483	93.5
360.709	77.5
360.936	78.5
361.163	81.5
361.39	95.5
361.616	91.5
361.843	98.5
362.07	79.5
362.296	78.5
362.523	72.5
362.749	96.5
362.976	81.5
363.203	91.5
363.429	87.5
363.656	88.5
363.882	86.5
364.109	105.5
364.335	97.5
364.562	95.5
364.788	89.5
365.015	79.5
365.241	86.5
365.468	98.5
365.694	89.5
365.92	86.5
366.147	74.5
366.373	85.5
366.599	84.5
366.826	81.5
367.052	103.5
367.278	81.5
367.505	77.5
367.731	81.5
367.957	90.5
368.184	77.5
368.41	86.5
368.636	117.5
368.862	92.5
369.089	82.5
369.315	91.5
369.541	93.5
369.767	76.5
369.993	94.5
370.219	88.5
370.445	85.5
370.672	74.5
370.898	96.5
371.124	85.5
371.35	82.5
371.576	92.5
371.802	85.5
372.028	78.5
372.254	90.5
372.48	81.5
372.706	83.5
372.932	74.5
373.158	90.5
373.384	94.5
373.61	85.5
373.835	90.5
374.061	84.5
374.287	93.5
374.513	83.5
374.739	98.5
374.965	96.5
375.191	103.5
375.416	77.5
375.642	82.5
375.868	87.5
376.094	97.5
376.319	59.5
376.545	82.5
376.771	80.5
376.997	90.5
377.222	83.5
377.448	88.5
377.674	82.5
377.899	91.5
378.125	81.5
378.35	91.5
378.576	78.5
378.802	93.5
379.027	83.5
379.253	87.5
379.478	92.5
379.704	86.5
379.929	78.5
380.155	88.5
380.38	95.5
380.606	91.5
380.831	95.5
381.057	106.5
381.282	103.5
381.507	95.5
381.733	99.5
381.958	80.5
382.184	98.5
382.409	103.5
382.634	93.5
382.86	95.5
383.085	112.5
383.31	101.5
383.535	99.5
383.761	103.5
383.986	82.5
384.211	102.5
384.436	78.5
384.662	88.5
384.887	101.5
385.112	101.5
385.337	93.5
385.562	98.5
385.787	106.5
386.013	96.5
386.238	107.5
386.463	104.5
386.688	92.5
386.913	97.5
387.138	106.5
387.363	88.5
387.588	101.5
387.813	95.5
388.038	94.5
388.263	115.5
388.488	112.5
388.713	88.5
388.938	75.5
389.163	93.5
389.387	86.5
389.612	91.5
389.837	81.5
390.062	81.5
390.287	100.5
390.512	82.5
390.736	83.5
390.961	92.5
391.186	95.5
391.411	94.5
391.636	85.5
391.86	78.5
392.085	89.5
392.31	89.5
392.534	82.5
392.759	102.5
392.984	82.5
393.208	83.5
393.433	76.5
393.658	96.5
393.882	85.5
394.107	74.5
394.331	73.5
394.556	103.5
394.78	91.5
395.005	75.5
395.229	94.5
395.454	82.5
395.678	75.5
395.903	80.5
396.127	75.5
396.352	96.5
396.576	76.5
396.801	101.5
397.025	86.5
397.249	79.5
397.474	93.5
397.698	78.5
397.922	88.5
398.147	91.5
398.371	71.5
398.595	87.5
398.82	86.5
399.044	88.5
399.268	64.5
399.492	78.5
399.717	97.5
399.941	75.5
400.165	89.5
400.389	73.5
400.613	86.5
400.837	105.5
401.062	76.5
401.286	93.5
401.51	72.5
401.734	74.5
401.958	96.5
402.182	113.5
402.406	142.5
402.63	115.5
402.854	89.5
403.078	88.5
403.302	70.5
403.526	70.5
403.75	66.5
403.974	82.5
404.198	84.5
404.422	81.5
404.645	93.5
404.869	86.5
405.093	85.5
405.317	88.5
405.541	94.5
405.765	91.5
405.988	92.5
406.212	145.5
406.436	194.5
406.66	129.5
406.883	98.5
407.107	79.5
407.331	92.5
407.555	111.5
407.778	82.5
408.002	80.5
408.226	91.5
408.449	91.5
408.673	79.5
408.896	96.5
409.12	101.5
409.344	81.5
409.567	68.5
409.791	73.5
410.014	80.5
410.238	101.5
410.461	87.5
410.685	95.5
410.908	89.5
411.132	106.5
411.355	94.5
411.578	91.5
411.802	89.5
412.025	97.5
412.249	106.5
412.472	106.5
412.695	91.5
412.919	92.5
413.142	83.5
413.365	89.5
413.589	94.5
413.812	85.5
414.035	87.5
414.258	82.5
414.482	83.5
414.705	91.5
414.928	85.5
415.151	90.5
415.374	96.5
415.597	91.5
415.821	82.5
416.044	93.5
416.267	79.5
416.49	85.5
416.713	76.5
416.936	99.5
417.159	84.5
417.382	90.5
417.605	87.5
417.828	72.5
418.051	74.5
418.274	85.5
418.497	89.5
418.72	89.5
418.943	81.5
419.166	84.5
419.389	89.5
419.611	106.5
419.834	98.5
420.057	93.5
420.28	98.5
420.503	81.5
420.726	72.5
420.948	87.5
421.171	90.5
421.394	89.5
421.617	78.5
421.839	88.5
422.062	84.5
422.285	93.5
422.507	105.5
422.73	90.5
422.953	88.5
423.175	80.5
423.398	93.5
423.621	99.5
423.843	85.5
424.066	90.5
424.288	88.5
424.511	93.5
424.733	94.5
424.956	103.5
425.178	90.5
425.401	89.5
425.623	97.5
425.846	81.5
426.068	97.5
426.291	80.5
426.513	93.5
426.735	73.5
426.958	90.5
427.18	97.5
427.402	120.5
427.625	129.5
427.847	108.5
428.069	93.5
428.292	85.5
428.514	88.5
428.736	84.5
428.958	98.5
429.181	84.5
429.403	93.5
429.625	77.5
429.847	93.5
430.069	99.5
430.292	90.5
430.514	82.5
430.736	91.5
430.958	85.5
431.18	81.5
431.402	75.5
431.624	83.5
431.846	94.5
432.068	84.5
432.29	94.5
432.512	86.5
432.734	78.5
432.956	79.5
433.178	93.5
433.4	104.5
433.622	85.5
433.844	82.5
434.066	84.5
434.287	82.5
434.509	98.5
434.731	87.5
434.953	84.5
435.175	84.5
435.397	74.5
435.618	86.5
435.84	86.5
436.062	109.5
436.284	93.5
436.505	93.5
436.727	94.5
436.949	96.5
437.17	83.5
437.392	80.5
437.614	97.5
437.835	83.5
438.057	105.5
438.278	97.5
438.5	100.5
438.721	103.5
438.943	113.5
439.165	88.5
439.386	86.5
439.608	93.5
439.829	89.5
440.05	115.5
440.272	121.5
440.493	104.5
440.715	81.5
440.936	80.5
441.158	85.5
441.379	85.5
441.6	96.5
441.822	100.5
442.043	72.5
442.264	102.5
442.486	99.5
442.707	94.5
442.928	101.5
443.149	118.5
443.371	116.5
443.592	102.5
443.813	102.5
444.034	98.5
444.255	84.5
444.476	83.5
444.698	75.5
444.919	85.5
445.14	118.5
445.361	98.5
445.582	110.5
445.803	127.5
446.024	112.5
446.245	112.5
446.466	113.5
446.687	90.5
446.908	89.5
447.129	89.5
447.35	89.5
447.571	87.5
447.792	81.5
448.013	99.5
448.234	90.5
448.455	102.5
448.675	94.5
448.896	102.5
449.117	87.5
449.338	98.5
449.559	117.5
449.779	117.5
450	96.5
450.221	77.5
450.442	79.5
450.662	95.5
450.883	103.5
451.104	94.5
451.324	106.5
451.545	93.5
451.766	72.5
451.986	85.5
452.207	85.5
452.428	82.5
452.648	90.5
452.869	100.5
453.089	94.5
453.31	100.5
453.53	87.5
453.751	91.5
453.971	108.5
454.192	106.5
454.412	73.5
454.633	72.5
454.853	77.5
455.073	95.5
455.294	105.5
455.514	87.5
455.734	87.5
455.955	78.5
456.175	71.5
456.395	77.5
456.616	87.5
456.836	84.5
457.056	94.5
457.276	81.5
457.497	88.5
457.717	99.5
457.937	87.5
458.157	89.5
458.377	94.5
458.598	95.5
458.818	131.5
459.038	122.5
459.258	90.5
459.478	78.5
459.698	89.5
459.918	87.5
460.138	81.5
460.358	83.5
460.578	85.5
460.798	85.5
461.018	101.5
461.238	78.5
461.458	81.5
461.678	77.5
461.898	89.5
462.118	77.5
462.338	91.5
462.558	87.5
462.777	69.5
462.997	76.5
463.217	79.5
463.437	77.5
463.657	68.5
463.876	71.5
464.096	72.5
464.316	96.5
464.536	86.5
464.755	81.5
464.975	106.5
465.195	134.5
465.414	132.5
465.634	89.5
465.854	86.5
466.073	82.5
466.293	73.5
466.512	79.5
466.732	77.5
466.951	94.5
467.171	97.5
467.391	88.5
467.61	93.5
467.829	89.5
468.049	93.5
468.268	95.5
468.488	88.5
468.707	74.5
468.927	77.5
469.146	93.5
469.365	84.5
469.585	81.5
469.804	79.5
470.023	95.5
470.243	85.5
470.462	88.5
470.681	92.5
470.901	93.5
471.12	92.5
471.339	84.5
471.558	83.5
471.777	86.5
471.997	93.5
472.216	116.5
472.435	115.5
472.654	94.5
472.873	94.5
473.092	90.5
473.311	100.5
473.53	86.5
473.749	91.5
473.968	91.5
474.187	87.5
474.406	87.5
474.625	83.5
474.844	81.5
475.063	83.5
475.282	80.5
475.501	87.5
475.72	90.5
475.939	93.5
476.158	84.5
476.377	89.5
476.596	85.5
476.814	92.5
477.033	96.5
477.252	85.5
477.471	72.5
477.69	90.5
477.908	90.5
478.127	74.5
478.346	98.5
478.564	100.5
478.783	88.5
479.002	81.5
479.22	88.5
479.439	93.5
479.658	102.5
479.876	90.5
480.095	79.5
480.313	67.5
480.532	87.5
480.751	101.5
480.969	106.5
481.188	175.5
481.406	141.5
481.624	92.5
481.843	89.5
482.061	81.5
482.28	72.5
482.498	80.5
482.717	77.5
482.935	88.5
483.153	88.5
483.372	84.5
483.59	87.5
483.808	73.5
484.027	83.5
484.245	77.5
484.463	77.5
484.681	82.5
484.9	97.5
485.118	96.5
485.336	101.5
485.554	97.5
485.772	107.5
485.99	96.5
486.209	102.5
486.427	84.5
486.645	104.5
486.863	87.5
487.081	100.5
487.299	74.5
487.517	79.5
487.735	95.5
487.953	85.5
488.171	99.5
488.389	85.5
488.607	101.5
488.825	81.5
489.043	74.5
489.261	87.5
489.479	86.5
489.696	81.5
489.914	87.5
490.132	87.5
490.35	91.5
490.568	91.5
490.786	88.5
491.003	87.5
491.221	77.5
491.439	70.5
491.657	97.5
491.874	93.5
492.092	88.5
492.31	85.5
492.527	81.5
492.745	80.5
492.963	85.5
493.18	95.5
493.398	84.5
493.615	79.5
493.833	77.5
494.05	95.5
494.268	94.5
494.485	79.5
494.703	85.5
494.92	97.5
495.138	94.5
495.355	90.5
495.573	89.5
495.79	89.5
496.008	99.5
496.225	89.5
496.442	90.5
496.66	103.5
496.877	105.5
497.094	88.5
497.312	91.5
497.529	94.5
497.746	102.5
497.963	91.5
498.181	86.5
498.398	97.5
498.615	105.5
498.832	102.5
499.049	85.5
499.267	86.5
499.484	75.5
499.701	87.5
499.918	87.5
500.135	101.5
500.352	94.5
500.569	81.5
500.786	98.5
501.003	82.5
501.22	91.5
501.437	94.5
501.654	84.5
501.871	106.5
502.088	85.5
502.305	97.5
502.522	91.5
502.739	84.5
502.956	103.5
503.172	87.5
503.389	90.5
503.606	106.5
503.823	98.5
504.04	82.5
504.256	83.5
504.473	75.5
504.69	93.5
504.907	101.5
505.123	86.5
505.34	85.5
505.557	81.5
505.773	82.5
505.99	85.5
506.207	83.5
506.423	86.5
506.64	91.5
506.856	84.5
507.073	88.5
507.289	96.5
507.506	91.5
507.722	99.5
507.939	100.5
508.155	95.5
508.372	99.5
508.588	90.5
508.805	85.5
509.021	94.5
509.238	105.5
509.454	93.5
509.67	102.5
509.887	82.5
510.103	103.5
510.319	205.5
510.536	634.5
510.752	1941.5
510.968	518.5
511.184	145.5
511.401	107.5
511.617	96.5
511.833	98.5
512.049	90.5
512.265	98.5
512.481	83.5
512.698	86.5
512.914	103.5
513.13	86.5
513.346	90.5
513.562	87.5
513.778	97.5
513.994	82.5
514.21	93.5
514.426	85.5
514.642	110.5
514.858	99.5
515.074	142.5
515.29	369.5
515.506	1142.5
515.721	422.5
515.937	133.5
516.153	100.5
516.369	90.5
516.585	87.5
516.801	73.5
517.016	98.5
517.232	77.5
517.448	94.5
517.664	106.5
517.879	95.5
518.095	91.5
518.311	93.5
518.527	95.5
518.742	91.5
518.958	92.5
519.173	90.5
519.389	95.5
519.605	86.5
519.82	91.5
520.036	102.5
520.251	108.5
520.467	98.5
520.682	90.5
520.898	102.5
521.113	107.5
521.329	123.5
521.544	176.5
521.76	465.5
521.975	1874.5
522.19	1112.5
522.406	250.5
522.621	123.5
522.836	105.5
523.052	94.5
523.267	97.5
523.482	107.5
523.698	81.5
523.913	114.5
524.128	100.5
524.343	92.5
524.559	80.5
524.774	73.5
524.989	102.5
525.204	94.5
525.419	91.5
525.634	75.5
525.849	94.5
526.064	97.5
526.28	100.5
526.495	86.5
526.71	95.5
526.925	85.5
527.14	85.5
527.355	81.5
527.57	87.5
527.785	105.5
527.999	92.5
528.214	85.5
528.429	97.5
528.644	98.5
528.859	92.5
529.074	83.5
529.289	133.5
529.503	157.5
529.718	89.5
529.933	85.5
530.148	88.5
530.363	87.5
530.577	85.5
530.792	87.5
531.007	77.5
531.221	86.5
531.436	77.5
531.651	102.5
531.865	100.5
532.08	98.5
532.295	88.5
532.509	72.5
532.724	100.5
532.938	99.5
533.153	105.5
533.367	98.5
533.582	81.5
533.796	90.5
534.011	101.5
534.225	82.5
534.44	79.5
534.654	83.5
534.868	74.5
535.083	92.5
535.297	111.5
535.511	105.5
535.726	78.5
535.94	87.5
536.154	99.5
536.369	101.5
536.583	78.5
536.797	85.5
537.011	85.5
