Data from Uncirc_1981_H10_HRD10591_00055.txt Node
Date: Wed Jan 03 12:33:19 EST 2024
User: Yrep
Spectrometer: HR+D1059
Trigger mode: 1
Integration Time (sec): 1.000000E-1
Scans to average: 1
Electric dark correction enabled: true
Nonlinearity correction enabled: false
Boxcar width: 0
XAxis mode: Wavelengths
Number of Pixels in Spectrum: 2048
>>>>>Begin Spectral Data<<<<<
223.165	-22.69
223.4	-22.69
223.635	-22.69
223.869	-29.69
224.104	-13.69
224.338	-16.69
224.573	-13.69
224.808	-0.69
225.042	-11.69
225.277	-4.69
225.511	-15.69
225.746	5.31
225.98	0.31
226.215	9.31
226.449	17.31
226.683	8.31
226.918	51.31
227.152	37.31
227.387	34.31
227.621	39.31
227.856	36.31
228.09	41.31
228.324	53.31
228.559	55.31
228.793	57.31
229.027	64.31
229.262	61.31
229.496	82.31
229.73	77.31
229.964	70.31
230.199	72.31
230.433	85.31
230.667	65.31
230.901	81.31
231.136	83.31
231.37	87.31
231.604	73.31
231.838	84.31
232.072	93.31
232.306	76.31
232.541	79.31
232.775	71.31
233.009	69.31
233.243	77.31
233.477	94.31
233.711	73.31
233.945	83.31
234.179	71.31
234.413	69.31
234.647	61.31
234.881	83.31
235.115	83.31
235.349	92.31
235.583	75.31
235.817	70.31
236.051	77.31
236.285	72.31
236.519	73.31
236.753	77.31
236.987	85.31
237.221	90.31
237.455	74.31
237.689	84.31
237.922	73.31
238.156	68.31
238.39	88.31
238.624	70.31
238.858	69.31
239.091	77.31
239.325	69.31
239.559	89.31
239.793	79.31
240.027	83.31
240.26	69.31
240.494	78.31
240.728	63.31
240.961	61.31
241.195	81.31
241.429	63.31
241.662	66.31
241.896	60.31
242.13	70.31
242.363	77.31
242.597	81.31
242.83	81.31
243.064	77.31
243.298	80.31
243.531	69.31
243.765	65.31
243.998	89.31
244.232	85.31
244.465	94.31
244.699	76.31
244.932	71.31
245.166	88.31
245.399	87.31
245.633	85.31
245.866	85.31
246.099	94.31
246.333	74.31
246.566	80.31
246.8	75.31
247.033	87.31
247.266	87.31
247.5	72.31
247.733	79.31
247.966	84.31
248.2	89.31
248.433	76.31
248.666	62.31
248.899	76.31
249.133	86.31
249.366	100.31
249.599	97.31
249.832	96.31
250.066	81.31
250.299	71.31
250.532	77.31
250.765	73.31
250.998	80.31
251.231	89.31
251.465	81.31
251.698	85.31
251.931	89.31
252.164	73.31
252.397	81.31
252.63	85.31
252.863	54.31
253.096	71.31
253.329	83.31
253.562	87.31
253.795	78.31
254.028	89.31
254.261	75.31
254.494	76.31
254.727	82.31
254.96	87.31
255.193	79.31
255.426	73.31
255.659	83.31
255.892	97.31
256.124	78.31
256.357	94.31
256.59	82.31
256.823	89.31
257.056	71.31
257.289	91.31
257.521	77.31
257.754	76.31
257.987	66.31
258.22	82.31
258.452	85.31
258.685	75.31
258.918	82.31
259.151	74.31
259.383	89.31
259.616	73.31
259.849	82.31
260.081	83.31
260.314	100.31
260.547	74.31
260.779	75.31
261.012	74.31
261.244	74.31
261.477	94.31
261.71	93.31
261.942	109.31
262.175	117.31
262.407	96.31
262.64	86.31
262.872	79.31
263.105	69.31
263.337	83.31
263.57	71.31
263.802	91.31
264.035	81.31
264.267	70.31
264.499	76.31
264.732	86.31
264.964	95.31
265.197	76.31
265.429	77.31
265.661	76.31
265.894	86.31
266.126	82.31
266.358	67.31
266.591	82.31
266.823	94.31
267.055	77.31
267.287	96.31
267.52	80.31
267.752	89.31
267.984	74.31
268.216	69.31
268.448	79.31
268.681	98.31
268.913	86.31
269.145	85.31
269.377	91.31
269.609	86.31
269.841	82.31
270.073	81.31
270.306	83.31
270.538	85.31
270.77	103.31
271.002	92.31
271.234	88.31
271.466	99.31
271.698	85.31
271.93	81.31
272.162	98.31
272.394	92.31
272.626	79.31
272.858	73.31
273.09	95.31
273.322	78.31
273.553	79.31
273.785	65.31
274.017	84.31
274.249	94.31
274.481	91.31
274.713	81.31
274.945	76.31
275.176	74.31
275.408	88.31
275.64	103.31
275.872	95.31
276.104	88.31
276.335	97.31
276.567	90.31
276.799	99.31
277.031	101.31
277.262	94.31
277.494	85.31
277.726	93.31
277.957	91.31
278.189	92.31
278.421	97.31
278.652	87.31
278.884	78.31
279.115	94.31
279.347	88.31
279.579	85.31
279.81	78.31
280.042	82.31
280.273	81.31
280.505	81.31
280.736	98.31
280.968	76.31
281.199	90.31
281.431	79.31
281.662	87.31
281.894	90.31
282.125	112.31
282.356	107.31
282.588	138.31
282.819	118.31
283.051	87.31
283.282	95.31
283.513	90.31
283.745	89.31
283.976	88.31
284.207	79.31
284.439	99.31
284.67	85.31
284.901	75.31
285.132	88.31
285.364	78.31
285.595	98.31
285.826	98.31
286.057	86.31
286.288	100.31
286.52	92.31
286.751	89.31
286.982	97.31
287.213	92.31
287.444	85.31
287.675	89.31
287.906	79.31
288.138	92.31
288.369	85.31
288.6	86.31
288.831	83.31
289.062	92.31
289.293	93.31
289.524	79.31
289.755	87.31
289.986	87.31
290.217	90.31
290.448	94.31
290.679	91.31
290.91	71.31
291.141	84.31
291.371	101.31
291.602	88.31
291.833	78.31
292.064	75.31
292.295	75.31
292.526	91.31
292.757	89.31
292.987	83.31
293.218	97.31
293.449	92.31
293.68	70.31
293.91	83.31
294.141	94.31
294.372	89.31
294.603	100.31
294.833	95.31
295.064	87.31
295.295	90.31
295.525	89.31
295.756	93.31
295.987	105.31
296.217	121.31
296.448	120.31
296.679	84.31
296.909	88.31
297.14	95.31
297.37	104.31
297.601	91.31
297.831	68.31
298.062	89.31
298.292	81.31
298.523	100.31
298.753	92.31
298.984	94.31
299.214	84.31
299.445	103.31
299.675	91.31
299.905	111.31
300.136	87.31
300.366	94.31
300.597	92.31
300.827	99.31
301.057	110.31
301.288	110.31
301.518	88.31
301.748	85.31
301.979	89.31
302.209	81.31
302.439	84.31
302.669	83.31
302.9	102.31
303.13	92.31
303.36	84.31
303.59	109.31
303.82	103.31
304.051	79.31
304.281	84.31
304.511	89.31
304.741	81.31
304.971	87.31
305.201	99.31
305.431	98.31
305.661	82.31
305.891	81.31
306.121	81.31
306.352	92.31
306.582	108.31
306.812	79.31
307.042	79.31
307.272	89.31
307.502	102.31
307.731	99.31
307.961	81.31
308.191	109.31
308.421	82.31
308.651	89.31
308.881	94.31
309.111	89.31
309.341	98.31
309.571	81.31
309.8	87.31
310.03	100.31
310.26	96.31
310.49	81.31
310.72	98.31
310.949	102.31
311.179	98.31
311.409	98.31
311.639	91.31
311.868	98.31
312.098	98.31
312.328	96.31
312.557	96.31
312.787	97.31
313.017	103.31
313.246	113.31
313.476	100.31
313.706	86.31
313.935	97.31
314.165	97.31
314.394	103.31
314.624	98.31
314.853	90.31
315.083	100.31
315.312	94.31
315.542	96.31
315.771	97.31
316.001	88.31
316.23	103.31
316.46	89.31
316.689	95.31
316.919	109.31
317.148	94.31
317.377	93.31
317.607	99.31
317.836	83.31
318.065	85.31
318.295	99.31
318.524	85.31
318.753	92.31
318.983	94.31
319.212	111.31
319.441	104.31
319.67	109.31
319.9	92.31
320.129	89.31
320.358	91.31
320.587	86.31
320.816	91.31
321.046	115.31
321.275	92.31
321.504	80.31
321.733	100.31
321.962	97.31
322.191	102.31
322.42	111.31
322.649	99.31
322.878	127.31
323.108	126.31
323.337	111.31
323.566	112.31
323.795	133.31
324.024	197.31
324.253	372.31
324.482	787.31
324.71	1647.31
324.939	2200.31
325.168	798.31
325.397	251.31
325.626	134.31
325.855	119.31
326.084	135.31
326.313	132.31
326.542	162.31
326.77	229.31
326.999	445.31
327.228	914.31
327.457	1733.31
327.686	1393.31
327.914	361.31
328.143	204.31
328.372	131.31
328.6	130.31
328.829	122.31
329.058	118.31
329.287	116.31
329.515	109.31
329.744	110.31
329.972	105.31
330.201	108.31
330.43	122.31
330.658	137.31
330.887	129.31
331.115	108.31
331.344	79.31
331.572	85.31
331.801	106.31
332.03	93.31
332.258	104.31
332.486	93.31
332.715	90.31
332.943	87.31
333.172	90.31
333.4	97.31
333.629	107.31
333.857	106.31
334.085	107.31
334.314	109.31
334.542	118.31
334.771	125.31
334.999	97.31
335.227	105.31
335.455	102.31
335.684	102.31
335.912	107.31
336.14	99.31
336.369	93.31
336.597	97.31
336.825	88.31
337.053	95.31
337.281	89.31
337.51	88.31
337.738	88.31
337.966	91.31
338.194	93.31
338.422	108.31
338.65	109.31
338.878	86.31
339.106	97.31
339.334	99.31
339.562	91.31
339.79	92.31
340.018	89.31
340.246	107.31
340.474	102.31
340.702	91.31
340.93	99.31
341.158	91.31
341.386	94.31
341.614	108.31
341.842	96.31
342.07	86.31
342.298	84.31
342.526	98.31
342.754	86.31
342.981	84.31
343.209	93.31
343.437	90.31
343.665	90.31
343.893	93.31
344.12	82.31
344.348	87.31
344.576	88.31
344.804	97.31
345.031	90.31
345.259	103.31
345.487	101.31
345.714	82.31
345.942	95.31
346.17	83.31
346.397	83.31
346.625	82.31
346.853	77.31
347.08	95.31
347.308	105.31
347.535	102.31
347.763	109.31
347.99	86.31
348.218	105.31
348.445	91.31
348.673	99.31
348.9	83.31
349.128	94.31
349.355	94.31
349.583	92.31
349.81	99.31
350.037	90.31
350.265	93.31
350.492	84.31
350.72	114.31
350.947	103.31
351.174	99.31
351.402	103.31
351.629	94.31
351.856	108.31
352.083	111.31
352.311	125.31
352.538	114.31
352.765	105.31
352.992	122.31
353.22	106.31
353.447	80.31
353.674	96.31
353.901	97.31
354.128	118.31
354.355	91.31
354.583	103.31
354.81	94.31
355.037	106.31
355.264	66.31
355.491	95.31
355.718	92.31
355.945	90.31
356.172	96.31
356.399	105.31
356.626	97.31
356.853	86.31
357.08	88.31
357.307	105.31
357.534	84.31
357.761	98.31
357.988	90.31
358.215	82.31
358.441	83.31
358.668	92.31
358.895	85.31
359.122	99.31
359.349	82.31
359.576	78.31
359.802	110.31
360.029	86.31
360.256	109.31
360.483	102.31
360.709	86.31
360.936	88.31
361.163	97.31
361.39	90.31
361.616	94.31
361.843	86.31
362.07	107.31
362.296	103.31
362.523	93.31
362.749	89.31
362.976	86.31
363.203	99.31
363.429	103.31
363.656	84.31
363.882	85.31
364.109	86.31
364.335	81.31
364.562	78.31
364.788	87.31
365.015	110.31
365.241	101.31
365.468	111.31
365.694	84.31
365.92	98.31
366.147	85.31
366.373	102.31
366.599	92.31
366.826	91.31
367.052	91.31
367.278	98.31
367.505	92.31
367.731	87.31
367.957	105.31
368.184	100.31
368.41	99.31
368.636	92.31
368.862	105.31
369.089	96.31
369.315	93.31
369.541	100.31
369.767	87.31
369.993	95.31
370.219	92.31
370.445	84.31
370.672	85.31
370.898	76.31
371.124	79.31
371.35	89.31
371.576	86.31
371.802	88.31
372.028	90.31
372.254	92.31
372.48	85.31
372.706	88.31
372.932	94.31
373.158	91.31
373.384	97.31
373.61	82.31
373.835	95.31
374.061	101.31
374.287	85.31
374.513	104.31
374.739	102.31
374.965	98.31
375.191	99.31
375.416	99.31
375.642	97.31
375.868	82.31
376.094	88.31
376.319	107.31
376.545	88.31
376.771	94.31
376.997	77.31
377.222	105.31
377.448	91.31
377.674	92.31
377.899	94.31
378.125	76.31
378.35	95.31
378.576	97.31
378.802	99.31
379.027	93.31
379.253	88.31
379.478	87.31
379.704	105.31
379.929	87.31
380.155	85.31
380.38	87.31
380.606	94.31
380.831	97.31
381.057	104.31
381.282	85.31
381.507	102.31
381.733	104.31
381.958	81.31
382.184	99.31
382.409	107.31
382.634	105.31
382.86	93.31
383.085	103.31
383.31	113.31
383.535	98.31
383.761	100.31
383.986	101.31
384.211	103.31
384.436	89.31
384.662	100.31
384.887	104.31
385.112	94.31
385.337	115.31
385.562	107.31
385.787	101.31
386.013	97.31
386.238	124.31
386.463	102.31
386.688	106.31
386.913	108.31
387.138	115.31
387.363	102.31
387.588	101.31
387.813	102.31
388.038	114.31
388.263	109.31
388.488	113.31
388.713	89.31
388.938	98.31
389.163	106.31
389.387	106.31
389.612	100.31
389.837	86.31
390.062	104.31
390.287	82.31
390.512	96.31
390.736	83.31
390.961	101.31
391.186	82.31
391.411	102.31
391.636	99.31
391.86	98.31
392.085	86.31
392.31	92.31
392.534	79.31
392.759	89.31
392.984	77.31
393.208	85.31
393.433	94.31
393.658	87.31
393.882	83.31
394.107	99.31
394.331	72.31
394.556	84.31
394.78	101.31
395.005	89.31
395.229	81.31
395.454	82.31
395.678	92.31
395.903	87.31
396.127	85.31
396.352	88.31
396.576	89.31
396.801	90.31
397.025	87.31
397.249	91.31
397.474	68.31
397.698	90.31
397.922	92.31
398.147	75.31
398.371	83.31
398.595	94.31
398.82	81.31
399.044	91.31
399.268	70.31
399.492	90.31
399.717	90.31
399.941	96.31
400.165	84.31
400.389	88.31
400.613	86.31
400.837	86.31
401.062	77.31
401.286	93.31
401.51	89.31
401.734	83.31
401.958	95.31
402.182	112.31
402.406	131.31
402.63	110.31
402.854	85.31
403.078	90.31
403.302	94.31
403.526	105.31
403.75	84.31
403.974	101.31
404.198	94.31
404.422	88.31
404.645	93.31
404.869	95.31
405.093	89.31
405.317	103.31
405.541	103.31
405.765	95.31
405.988	111.31
406.212	164.31
406.436	194.31
406.66	137.31
406.883	103.31
407.107	97.31
407.331	93.31
407.555	98.31
407.778	105.31
408.002	81.31
408.226	91.31
408.449	93.31
408.673	83.31
408.896	99.31
409.12	92.31
409.344	105.31
409.567	83.31
409.791	90.31
410.014	100.31
410.238	95.31
410.461	89.31
410.685	92.31
410.908	91.31
411.132	117.31
411.355	101.31
411.578	94.31
411.802	85.31
412.025	102.31
412.249	89.31
412.472	84.31
412.695	92.31
412.919	76.31
413.142	90.31
413.365	72.31
413.589	87.31
413.812	85.31
414.035	89.31
414.258	95.31
414.482	91.31
414.705	98.31
414.928	108.31
415.151	93.31
415.374	98.31
415.597	89.31
415.821	96.31
416.044	77.31
416.267	84.31
416.49	97.31
416.713	87.31
416.936	92.31
417.159	71.31
417.382	85.31
417.605	99.31
417.828	85.31
418.051	81.31
418.274	87.31
418.497	72.31
418.72	80.31
418.943	98.31
419.166	93.31
419.389	73.31
419.611	91.31
419.834	98.31
420.057	75.31
420.28	93.31
420.503	79.31
420.726	76.31
420.948	85.31
421.171	89.31
421.394	101.31
421.617	78.31
421.839	88.31
422.062	95.31
422.285	98.31
422.507	100.31
422.73	107.31
422.953	99.31
423.175	90.31
423.398	96.31
423.621	89.31
423.843	95.31
424.066	94.31
424.288	95.31
424.511	93.31
424.733	102.31
424.956	117.31
425.178	101.31
425.401	103.31
425.623	103.31
425.846	92.31
426.068	83.31
426.291	91.31
426.513	106.31
426.735	91.31
426.958	91.31
427.18	105.31
427.402	130.31
427.625	149.31
427.847	110.31
428.069	105.31
428.292	99.31
428.514	94.31
428.736	89.31
428.958	94.31
429.181	97.31
429.403	77.31
429.625	80.31
429.847	72.31
430.069	88.31
430.292	77.31
430.514	77.31
430.736	77.31
430.958	89.31
431.18	90.31
431.402	87.31
431.624	82.31
431.846	69.31
432.068	85.31
432.29	99.31
432.512	87.31
432.734	92.31
432.956	83.31
433.178	104.31
433.4	103.31
433.622	102.31
433.844	92.31
434.066	90.31
434.287	92.31
434.509	92.31
434.731	78.31
434.953	71.31
435.175	80.31
435.397	90.31
435.618	89.31
435.84	99.31
436.062	116.31
436.284	116.31
436.505	94.31
436.727	103.31
436.949	109.31
437.17	84.31
437.392	78.31
437.614	79.31
437.835	111.31
438.057	104.31
438.278	110.31
438.5	111.31
438.721	123.31
438.943	105.31
439.165	99.31
439.386	96.31
439.608	88.31
439.829	105.31
440.05	126.31
440.272	153.31
440.493	106.31
440.715	85.31
440.936	93.31
441.158	93.31
441.379	91.31
441.6	85.31
441.822	102.31
442.043	100.31
442.264	104.31
442.486	95.31
442.707	92.31
442.928	99.31
443.149	141.31
443.371	118.31
443.592	106.31
443.813	115.31
444.034	109.31
444.255	83.31
444.476	101.31
444.698	77.31
444.919	84.31
445.14	148.31
445.361	125.31
445.582	121.31
445.803	146.31
446.024	146.31
446.245	139.31
446.466	116.31
446.687	99.31
446.908	99.31
447.129	92.31
447.35	75.31
447.571	91.31
447.792	86.31
448.013	93.31
448.234	101.31
448.455	114.31
448.675	122.31
448.896	129.31
449.117	98.31
449.338	97.31
449.559	102.31
449.779	108.31
450	95.31
450.221	92.31
450.442	97.31
450.662	94.31
450.883	98.31
451.104	110.31
451.324	95.31
451.545	82.31
451.766	74.31
451.986	82.31
452.207	88.31
452.428	101.31
452.648	91.31
452.869	121.31
453.089	109.31
453.31	85.31
453.53	81.31
453.751	84.31
453.971	94.31
454.192	105.31
454.412	97.31
454.633	79.31
454.853	91.31
455.073	87.31
455.294	85.31
455.514	92.31
455.734	94.31
455.955	93.31
456.175	77.31
456.395	82.31
456.616	93.31
456.836	93.31
457.056	92.31
457.276	90.31
457.497	103.31
457.717	109.31
457.937	79.31
458.157	77.31
458.377	90.31
458.598	99.31
458.818	122.31
459.038	155.31
459.258	114.31
459.478	76.31
459.698	95.31
459.918	90.31
460.138	93.31
460.358	76.31
460.578	85.31
460.798	83.31
461.018	93.31
461.238	95.31
461.458	99.31
461.678	87.31
461.898	92.31
462.118	94.31
462.338	86.31
462.558	101.31
462.777	81.31
462.997	83.31
463.217	68.31
463.437	84.31
463.657	80.31
463.876	98.31
464.096	97.31
464.316	92.31
464.536	78.31
464.755	92.31
464.975	101.31
465.195	150.31
465.414	141.31
465.634	85.31
465.854	102.31
466.073	87.31
466.293	66.31
466.512	92.31
466.732	89.31
466.951	77.31
467.171	91.31
467.391	85.31
467.61	93.31
467.829	103.31
468.049	98.31
468.268	98.31
468.488	79.31
468.707	75.31
468.927	94.31
469.146	76.31
469.365	91.31
469.585	97.31
469.804	94.31
470.023	90.31
470.243	85.31
470.462	96.31
470.681	103.31
470.901	87.31
471.12	88.31
471.339	81.31
471.558	106.31
471.777	103.31
471.997	83.31
472.216	107.31
472.435	146.31
472.654	101.31
472.873	98.31
473.092	85.31
473.311	83.31
473.53	90.31
473.749	98.31
473.968	89.31
474.187	93.31
474.406	87.31
474.625	88.31
474.844	87.31
475.063	81.31
475.282	79.31
475.501	77.31
475.72	87.31
475.939	85.31
476.158	79.31
476.377	90.31
476.596	97.31
476.814	91.31
477.033	83.31
477.252	83.31
477.471	78.31
477.69	84.31
477.908	96.31
478.127	113.31
478.346	72.31
478.564	98.31
478.783	78.31
479.002	79.31
479.22	99.31
479.439	92.31
479.658	105.31
479.876	93.31
480.095	89.31
480.313	96.31
480.532	96.31
480.751	94.31
480.969	121.31
481.188	168.31
481.406	125.31
481.624	100.31
481.843	89.31
482.061	91.31
482.28	94.31
482.498	83.31
482.717	87.31
482.935	86.31
483.153	79.31
483.372	83.31
483.59	111.31
483.808	94.31
484.027	89.31
484.245	86.31
484.463	86.31
484.681	101.31
484.9	84.31
485.118	114.31
485.336	98.31
485.554	97.31
485.772	108.31
485.99	93.31
486.209	103.31
486.427	103.31
486.645	121.31
486.863	114.31
487.081	95.31
487.299	94.31
487.517	98.31
487.735	114.31
487.953	95.31
488.171	85.31
488.389	90.31
488.607	87.31
488.825	103.31
489.043	78.31
489.261	84.31
489.479	92.31
489.696	92.31
489.914	76.31
490.132	71.31
490.35	99.31
490.568	79.31
490.786	81.31
491.003	75.31
491.221	92.31
491.439	110.31
491.657	99.31
491.874	89.31
492.092	78.31
492.31	84.31
492.527	102.31
492.745	91.31
492.963	86.31
493.18	89.31
493.398	89.31
493.615	102.31
493.833	87.31
494.05	91.31
494.268	92.31
494.485	82.31
494.703	86.31
494.92	90.31
495.138	94.31
495.355	93.31
495.573	89.31
495.79	91.31
496.008	81.31
496.225	85.31
496.442	95.31
496.66	99.31
496.877	97.31
497.094	91.31
497.312	90.31
497.529	90.31
497.746	96.31
497.963	89.31
498.181	95.31
498.398	85.31
498.615	114.31
498.832	86.31
499.049	78.31
499.267	95.31
499.484	90.31
499.701	90.31
499.918	88.31
500.135	107.31
500.352	78.31
500.569	84.31
500.786	93.31
501.003	101.31
501.22	90.31
501.437	92.31
501.654	102.31
501.871	110.31
502.088	95.31
502.305	81.31
502.522	100.31
502.739	98.31
502.956	84.31
503.172	83.31
503.389	93.31
503.606	102.31
503.823	107.31
504.04	86.31
504.256	98.31
504.473	99.31
504.69	104.31
504.907	99.31
505.123	107.31
505.34	90.31
505.557	95.31
505.773	86.31
505.99	90.31
506.207	85.31
506.423	99.31
506.64	94.31
506.856	88.31
507.073	90.31
507.289	90.31
507.506	105.31
507.722	106.31
507.939	101.31
508.155	96.31
508.372	88.31
508.588	112.31
508.805	97.31
509.021	83.31
509.238	94.31
509.454	98.31
509.67	102.31
509.887	101.31
510.103	126.31
510.319	210.31
510.536	670.31
510.752	2039.31
510.968	569.31
511.184	130.31
511.401	102.31
511.617	87.31
511.833	87.31
512.049	90.31
512.265	91.31
512.481	92.31
512.698	97.31
512.914	91.31
513.13	99.31
513.346	90.31
513.562	102.31
513.778	108.31
513.994	101.31
514.21	100.31
514.426	105.31
514.642	138.31
514.858	115.31
515.074	133.31
515.29	397.31
515.506	1297.31
