Data from Uncirc_1981_H10_HRD10591_00043.txt Node
Date: Wed Jan 03 12:33:16 EST 2024
User: Yrep
Spectrometer: HR+D1059
Trigger mode: 1
Integration Time (sec): 1.000000E-1
Scans to average: 1
Electric dark correction enabled: true
Nonlinearity correction enabled: false
Boxcar width: 0
XAxis mode: Wavelengths
Number of Pixels in Spectrum: 2048
>>>>>Begin Spectral Data<<<<<
223.165	-7.62
223.4	-7.62
223.635	-7.62
223.869	-24.62
224.104	-33.62
224.338	-18.62
224.573	-20.62
224.808	-13.62
225.042	7.38
225.277	0.38
225.511	-8.62
225.746	-0.62
225.98	3.38
226.215	10.38
226.449	24.38
226.683	33.38
226.918	17.38
227.152	31.38
227.387	41.38
227.621	36.38
227.856	42.38
228.09	47.38
228.324	46.38
228.559	61.38
228.793	52.38
229.027	68.38
229.262	64.38
229.496	61.38
229.73	67.38
229.964	63.38
230.199	86.38
230.433	62.38
230.667	83.38
230.901	88.38
231.136	83.38
231.37	82.38
231.604	78.38
231.838	85.38
232.072	68.38
232.306	69.38
232.541	82.38
232.775	74.38
233.009	81.38
233.243	65.38
233.477	78.38
233.711	97.38
233.945	76.38
234.179	67.38
234.413	75.38
234.647	83.38
234.881	95.38
235.115	86.38
235.349	63.38
235.583	69.38
235.817	94.38
236.051	71.38
236.285	74.38
236.519	73.38
236.753	69.38
236.987	65.38
237.221	86.38
237.455	87.38
237.689	87.38
237.922	78.38
238.156	83.38
238.39	69.38
238.624	63.38
238.858	83.38
239.091	91.38
239.325	72.38
239.559	75.38
239.793	80.38
240.027	70.38
240.26	86.38
240.494	78.38
240.728	61.38
240.961	65.38
241.195	74.38
241.429	71.38
241.662	71.38
241.896	59.38
242.13	72.38
242.363	71.38
242.597	72.38
242.83	62.38
243.064	77.38
243.298	76.38
243.531	84.38
243.765	78.38
243.998	70.38
244.232	69.38
244.465	65.38
244.699	71.38
244.932	81.38
245.166	79.38
245.399	81.38
245.633	81.38
245.866	70.38
246.099	71.38
246.333	78.38
246.566	78.38
246.8	78.38
247.033	74.38
247.266	70.38
247.5	79.38
247.733	79.38
247.966	81.38
248.2	69.38
248.433	90.38
248.666	84.38
248.899	80.38
249.133	72.38
249.366	89.38
249.599	80.38
249.832	88.38
250.066	96.38
250.299	80.38
250.532	91.38
250.765	86.38
250.998	79.38
251.231	75.38
251.465	69.38
251.698	67.38
251.931	99.38
252.164	76.38
252.397	67.38
252.63	67.38
252.863	74.38
253.096	78.38
253.329	78.38
253.562	70.38
253.795	68.38
254.028	75.38
254.261	96.38
254.494	85.38
254.727	82.38
254.96	80.38
255.193	80.38
255.426	73.38
255.659	82.38
255.892	78.38
256.124	81.38
256.357	74.38
256.59	80.38
256.823	72.38
257.056	74.38
257.289	86.38
257.521	72.38
257.754	70.38
257.987	71.38
258.22	68.38
258.452	82.38
258.685	75.38
258.918	78.38
259.151	73.38
259.383	72.38
259.616	72.38
259.849	94.38
260.081	94.38
260.314	92.38
260.547	70.38
260.779	80.38
261.012	83.38
261.244	85.38
261.477	78.38
261.71	84.38
261.942	103.38
262.175	96.38
262.407	85.38
262.64	82.38
262.872	80.38
263.105	80.38
263.337	92.38
263.57	75.38
263.802	82.38
264.035	88.38
264.267	90.38
264.499	73.38
264.732	81.38
264.964	75.38
265.197	83.38
265.429	74.38
265.661	76.38
265.894	86.38
266.126	96.38
266.358	78.38
266.591	74.38
266.823	75.38
267.055	81.38
267.287	81.38
267.52	88.38
267.752	89.38
267.984	81.38
268.216	89.38
268.448	80.38
268.681	94.38
268.913	75.38
269.145	75.38
269.377	62.38
269.609	86.38
269.841	70.38
270.073	74.38
270.306	87.38
270.538	82.38
270.77	74.38
271.002	84.38
271.234	83.38
271.466	74.38
271.698	76.38
271.93	73.38
272.162	87.38
272.394	80.38
272.626	77.38
272.858	96.38
273.09	86.38
273.322	91.38
273.553	89.38
273.785	82.38
274.017	90.38
274.249	73.38
274.481	93.38
274.713	71.38
274.945	92.38
275.176	108.38
275.408	95.38
275.64	97.38
275.872	96.38
276.104	84.38
276.335	84.38
276.567	91.38
276.799	87.38
277.031	79.38
277.262	90.38
277.494	88.38
277.726	80.38
277.957	86.38
278.189	84.38
278.421	91.38
278.652	81.38
278.884	96.38
279.115	87.38
279.347	72.38
279.579	85.38
279.81	80.38
280.042	86.38
280.273	99.38
280.505	83.38
280.736	84.38
280.968	83.38
281.199	85.38
281.431	102.38
281.662	90.38
281.894	91.38
282.125	106.38
282.356	94.38
282.588	104.38
282.819	93.38
283.051	89.38
283.282	87.38
283.513	93.38
283.745	82.38
283.976	91.38
284.207	89.38
284.439	86.38
284.67	74.38
284.901	84.38
285.132	78.38
285.364	79.38
285.595	87.38
285.826	86.38
286.057	90.38
286.288	69.38
286.52	76.38
286.751	89.38
286.982	97.38
287.213	90.38
287.444	89.38
287.675	84.38
287.906	87.38
288.138	79.38
288.369	74.38
288.6	94.38
288.831	82.38
289.062	82.38
289.293	96.38
289.524	82.38
289.755	74.38
289.986	96.38
290.217	83.38
290.448	75.38
290.679	92.38
290.91	84.38
291.141	86.38
291.371	98.38
291.602	91.38
291.833	58.38
292.064	80.38
292.295	81.38
292.526	86.38
292.757	94.38
292.987	90.38
293.218	79.38
293.449	83.38
293.68	88.38
293.91	91.38
294.141	94.38
294.372	68.38
294.603	83.38
294.833	84.38
295.064	91.38
295.295	80.38
295.525	87.38
295.756	86.38
295.987	95.38
296.217	118.38
296.448	112.38
296.679	88.38
296.909	80.38
297.14	92.38
297.37	72.38
297.601	91.38
297.831	94.38
298.062	81.38
298.292	82.38
298.523	90.38
298.753	70.38
298.984	88.38
299.214	83.38
299.445	92.38
299.675	89.38
299.905	86.38
300.136	84.38
300.366	72.38
300.597	82.38
300.827	89.38
301.057	91.38
301.288	99.38
301.518	75.38
301.748	76.38
301.979	88.38
302.209	102.38
302.439	88.38
302.669	89.38
302.9	95.38
303.13	96.38
303.36	90.38
303.59	94.38
303.82	86.38
304.051	76.38
304.281	100.38
304.511	89.38
304.741	91.38
304.971	86.38
305.201	86.38
305.431	87.38
305.661	85.38
305.891	82.38
306.121	87.38
306.352	92.38
306.582	106.38
306.812	88.38
307.042	89.38
307.272	88.38
307.502	95.38
307.731	91.38
307.961	75.38
308.191	97.38
308.421	96.38
308.651	92.38
308.881	100.38
309.111	94.38
309.341	99.38
309.571	99.38
309.8	88.38
310.03	97.38
310.26	86.38
310.49	88.38
310.72	106.38
310.949	87.38
311.179	96.38
311.409	81.38
311.639	95.38
311.868	97.38
312.098	85.38
312.328	96.38
312.557	86.38
312.787	85.38
313.017	84.38
313.246	94.38
313.476	82.38
313.706	87.38
313.935	90.38
314.165	75.38
314.394	88.38
314.624	89.38
314.853	86.38
315.083	82.38
315.312	89.38
315.542	94.38
315.771	88.38
316.001	87.38
316.23	91.38
316.46	95.38
316.689	90.38
316.919	107.38
317.148	105.38
317.377	91.38
317.607	90.38
317.836	87.38
318.065	99.38
318.295	71.38
318.524	86.38
318.753	88.38
318.983	91.38
319.212	99.38
319.441	107.38
319.67	88.38
319.9	105.38
320.129	92.38
320.358	93.38
320.587	74.38
320.816	92.38
321.046	91.38
321.275	82.38
321.504	75.38
321.733	98.38
321.962	100.38
322.191	94.38
322.42	92.38
322.649	100.38
322.878	101.38
323.108	108.38
323.337	95.38
323.566	126.38
323.795	114.38
324.024	163.38
324.253	314.38
324.482	622.38
324.71	1286.38
324.939	1650.38
325.168	607.38
325.397	192.38
325.626	123.38
325.855	117.38
326.084	101.38
326.313	112.38
326.542	118.38
326.77	195.38
326.999	393.38
327.228	761.38
327.457	1355.38
327.686	1086.38
327.914	290.38
328.143	166.38
328.372	137.38
328.6	102.38
328.829	96.38
329.058	130.38
329.287	96.38
329.515	106.38
329.744	108.38
329.972	80.38
330.201	97.38
330.43	104.38
330.658	109.38
330.887	103.38
331.115	105.38
331.344	95.38
331.572	83.38
331.801	104.38
332.03	108.38
332.258	92.38
332.486	94.38
332.715	78.38
332.943	87.38
333.172	100.38
333.4	93.38
333.629	91.38
333.857	105.38
334.085	104.38
334.314	96.38
334.542	112.38
334.771	117.38
334.999	107.38
335.227	90.38
335.455	85.38
335.684	91.38
335.912	100.38
336.14	94.38
336.369	75.38
336.597	82.38
336.825	82.38
337.053	83.38
337.281	89.38
337.51	88.38
337.738	98.38
337.966	89.38
338.194	103.38
338.422	84.38
338.65	96.38
338.878	74.38
339.106	79.38
339.334	88.38
339.562	86.38
339.79	86.38
340.018	79.38
340.246	91.38
340.474	71.38
340.702	82.38
340.93	73.38
341.158	84.38
341.386	84.38
341.614	88.38
341.842	90.38
342.07	90.38
342.298	91.38
342.526	87.38
342.754	83.38
342.981	87.38
343.209	72.38
343.437	85.38
343.665	87.38
343.893	99.38
344.12	94.38
344.348	82.38
344.576	87.38
344.804	75.38
345.031	79.38
345.259	98.38
345.487	86.38
345.714	91.38
345.942	84.38
346.17	76.38
346.397	85.38
346.625	72.38
346.853	86.38
347.08	89.38
347.308	85.38
347.535	104.38
347.763	106.38
347.99	105.38
348.218	81.38
348.445	95.38
348.673	88.38
348.9	79.38
349.128	95.38
349.355	87.38
349.583	91.38
349.81	97.38
350.037	85.38
350.265	100.38
350.492	98.38
350.72	95.38
350.947	98.38
351.174	98.38
351.402	99.38
351.629	96.38
351.856	111.38
352.083	103.38
352.311	88.38
352.538	93.38
352.765	104.38
352.992	105.38
353.22	108.38
353.447	106.38
353.674	101.38
353.901	104.38
354.128	88.38
354.355	84.38
354.583	94.38
354.81	92.38
355.037	97.38
355.264	91.38
355.491	71.38
355.718	94.38
355.945	96.38
356.172	103.38
356.399	92.38
356.626	101.38
356.853	89.38
357.08	86.38
357.307	108.38
357.534	99.38
357.761	96.38
357.988	97.38
358.215	100.38
358.441	91.38
358.668	95.38
358.895	87.38
359.122	80.38
359.349	86.38
359.576	88.38
359.802	99.38
360.029	91.38
360.256	101.38
360.483	84.38
360.709	79.38
360.936	89.38
361.163	90.38
361.39	83.38
361.616	71.38
361.843	83.38
362.07	91.38
362.296	85.38
362.523	82.38
362.749	95.38
362.976	88.38
363.203	95.38
363.429	86.38
363.656	89.38
363.882	83.38
364.109	82.38
364.335	96.38
364.562	82.38
364.788	91.38
365.015	95.38
365.241	91.38
365.468	104.38
365.694	99.38
365.92	87.38
366.147	84.38
366.373	80.38
366.599	75.38
366.826	83.38
367.052	87.38
367.278	87.38
367.505	72.38
367.731	96.38
367.957	92.38
368.184	85.38
368.41	81.38
368.636	90.38
368.862	92.38
369.089	95.38
369.315	91.38
369.541	91.38
369.767	88.38
369.993	83.38
370.219	80.38
370.445	68.38
370.672	72.38
370.898	82.38
371.124	79.38
371.35	87.38
371.576	98.38
371.802	89.38
372.028	99.38
372.254	99.38
372.48	89.38
372.706	86.38
372.932	83.38
373.158	104.38
373.384	92.38
373.61	79.38
373.835	84.38
374.061	93.38
374.287	79.38
374.513	80.38
374.739	84.38
374.965	86.38
375.191	60.38
375.416	84.38
375.642	94.38
375.868	78.38
376.094	97.38
376.319	82.38
376.545	79.38
376.771	78.38
376.997	79.38
377.222	82.38
377.448	81.38
377.674	85.38
377.899	96.38
378.125	90.38
378.35	82.38
378.576	78.38
378.802	86.38
379.027	95.38
379.253	110.38
379.478	85.38
379.704	85.38
379.929	83.38
380.155	89.38
380.38	81.38
380.606	95.38
380.831	83.38
381.057	93.38
381.282	87.38
381.507	92.38
381.733	91.38
381.958	82.38
382.184	92.38
382.409	98.38
382.634	100.38
382.86	98.38
383.085	111.38
383.31	109.38
383.535	102.38
383.761	96.38
383.986	107.38
384.211	99.38
384.436	86.38
384.662	88.38
384.887	80.38
385.112	98.38
385.337	106.38
385.562	116.38
385.787	102.38
386.013	107.38
386.238	95.38
386.463	94.38
386.688	112.38
386.913	110.38
387.138	101.38
387.363	91.38
387.588	100.38
387.813	111.38
388.038	107.38
388.263	104.38
388.488	96.38
388.713	84.38
388.938	95.38
389.163	106.38
389.387	92.38
389.612	88.38
389.837	79.38
390.062	107.38
390.287	88.38
390.512	91.38
390.736	78.38
390.961	92.38
391.186	96.38
391.411	89.38
391.636	103.38
391.86	89.38
392.085	87.38
392.31	78.38
392.534	89.38
392.759	87.38
392.984	79.38
393.208	75.38
393.433	81.38
393.658	75.38
393.882	73.38
394.107	87.38
394.331	75.38
394.556	91.38
394.78	84.38
395.005	82.38
395.229	76.38
395.454	82.38
395.678	82.38
395.903	85.38
396.127	72.38
396.352	89.38
396.576	85.38
396.801	96.38
397.025	89.38
397.249	71.38
397.474	89.38
397.698	100.38
397.922	87.38
398.147	69.38
398.371	91.38
398.595	66.38
398.82	88.38
399.044	69.38
399.268	71.38
399.492	86.38
399.717	94.38
399.941	82.38
400.165	94.38
400.389	91.38
400.613	69.38
400.837	89.38
401.062	80.38
401.286	82.38
401.51	80.38
401.734	87.38
401.958	87.38
402.182	87.38
402.406	109.38
402.63	82.38
402.854	86.38
403.078	95.38
403.302	66.38
403.526	83.38
403.75	73.38
403.974	90.38
404.198	67.38
404.422	90.38
404.645	78.38
404.869	76.38
405.093	87.38
405.317	90.38
405.541	94.38
405.765	98.38
405.988	102.38
406.212	128.38
406.436	161.38
406.66	101.38
406.883	87.38
407.107	87.38
407.331	87.38
407.555	90.38
407.778	79.38
408.002	87.38
408.226	86.38
408.449	79.38
408.673	80.38
408.896	92.38
409.12	81.38
409.344	83.38
409.567	82.38
409.791	90.38
410.014	104.38
410.238	84.38
410.461	78.38
410.685	86.38
410.908	98.38
411.132	92.38
411.355	88.38
411.578	111.38
411.802	86.38
412.025	78.38
412.249	74.38
412.472	99.38
412.695	86.38
412.919	92.38
413.142	66.38
413.365	90.38
413.589	88.38
413.812	83.38
414.035	67.38
414.258	70.38
414.482	78.38
414.705	91.38
414.928	101.38
415.151	90.38
415.374	90.38
415.597	73.38
415.821	92.38
416.044	82.38
416.267	92.38
416.49	94.38
416.713	81.38
416.936	88.38
417.159	86.38
417.382	76.38
417.605	78.38
417.828	76.38
418.051	95.38
418.274	80.38
418.497	75.38
418.72	90.38
418.943	72.38
419.166	88.38
419.389	99.38
419.611	82.38
419.834	73.38
420.057	82.38
420.28	74.38
420.503	93.38
420.726	87.38
420.948	90.38
421.171	84.38
421.394	86.38
421.617	72.38
421.839	70.38
422.062	79.38
422.285	83.38
422.507	96.38
422.73	87.38
422.953	90.38
423.175	91.38
423.398	87.38
423.621	89.38
423.843	101.38
424.066	80.38
424.288	77.38
424.511	79.38
424.733	88.38
424.956	96.38
425.178	92.38
425.401	83.38
425.623	92.38
425.846	87.38
426.068	78.38
426.291	88.38
426.513	73.38
426.735	81.38
426.958	84.38
427.18	93.38
427.402	102.38
427.625	118.38
427.847	93.38
428.069	94.38
428.292	92.38
428.514	74.38
428.736	88.38
428.958	90.38
429.181	81.38
429.403	78.38
429.625	90.38
429.847	88.38
430.069	75.38
430.292	69.38
430.514	82.38
430.736	78.38
430.958	94.38
431.18	85.38
431.402	84.38
431.624	85.38
431.846	92.38
432.068	94.38
432.29	79.38
432.512	87.38
432.734	78.38
432.956	90.38
433.178	89.38
433.4	81.38
433.622	95.38
433.844	90.38
434.066	90.38
434.287	91.38
434.509	74.38
434.731	79.38
434.953	95.38
435.175	64.38
435.397	87.38
435.618	90.38
435.84	97.38
436.062	100.38
436.284	94.38
436.505	94.38
436.727	98.38
436.949	82.38
437.17	79.38
437.392	73.38
437.614	87.38
437.835	80.38
438.057	100.38
438.278	102.38
438.5	89.38
438.721	99.38
438.943	78.38
439.165	80.38
439.386	76.38
439.608	92.38
439.829	79.38
440.05	110.38
440.272	114.38
440.493	87.38
440.715	82.38
440.936	89.38
441.158	81.38
441.379	77.38
441.6	100.38
441.822	83.38
442.043	89.38
442.264	72.38
442.486	82.38
442.707	73.38
442.928	89.38
443.149	100.38
443.371	104.38
443.592	100.38
443.813	81.38
444.034	87.38
444.255	85.38
444.476	78.38
444.698	89.38
444.919	76.38
445.14	120.38
445.361	109.38
445.582	100.38
445.803	118.38
446.024	114.38
446.245	120.38
446.466	86.38
446.687	94.38
446.908	80.38
447.129	81.38
447.35	80.38
447.571	90.38
447.792	88.38
448.013	88.38
448.234	90.38
448.455	80.38
448.675	100.38
448.896	92.38
449.117	85.38
449.338	93.38
449.559	104.38
449.779	121.38
450	88.38
450.221	88.38
450.442	86.38
450.662	82.38
450.883	75.38
451.104	92.38
451.324	80.38
451.545	81.38
451.766	81.38
451.986	85.38
452.207	73.38
452.428	79.38
452.648	90.38
452.869	100.38
453.089	97.38
453.31	98.38
453.53	103.38
453.751	82.38
453.971	83.38
454.192	97.38
454.412	78.38
454.633	77.38
454.853	81.38
455.073	80.38
455.294	87.38
455.514	86.38
455.734	93.38
455.955	74.38
456.175	90.38
456.395	87.38
456.616	71.38
456.836	79.38
457.056	93.38
457.276	86.38
457.497	81.38
457.717	94.38
457.937	89.38
458.157	83.38
458.377	73.38
458.598	98.38
458.818	100.38
459.038	100.38
459.258	101.38
459.478	78.38
459.698	78.38
459.918	80.38
460.138	69.38
460.358	91.38
460.578	92.38
460.798	69.38
461.018	88.38
461.238	76.38
461.458	80.38
461.678	75.38
461.898	89.38
462.118	83.38
462.338	96.38
462.558	91.38
462.777	103.38
462.997	81.38
463.217	79.38
463.437	78.38
463.657	96.38
463.876	82.38
464.096	89.38
464.316	95.38
464.536	78.38
464.755	99.38
464.975	68.38
465.195	111.38
465.414	109.38
465.634	88.38
465.854	89.38
466.073	80.38
466.293	102.38
466.512	87.38
466.732	89.38
466.951	90.38
467.171	83.38
467.391	78.38
467.61	89.38
467.829	98.38
468.049	110.38
468.268	98.38
468.488	85.38
468.707	93.38
468.927	79.38
469.146	81.38
469.365	72.38
469.585	80.38
469.804	94.38
470.023	85.38
470.243	97.38
470.462	100.38
470.681	101.38
470.901	87.38
471.12	69.38
471.339	92.38
471.558	73.38
471.777	98.38
471.997	84.38
472.216	90.38
472.435	126.38
472.654	103.38
472.873	98.38
473.092	73.38
473.311	88.38
473.53	87.38
473.749	86.38
473.968	88.38
474.187	86.38
474.406	93.38
474.625	78.38
474.844	98.38
475.063	84.38
475.282	78.38
475.501	91.38
475.72	95.38
475.939	97.38
476.158	101.38
476.377	87.38
476.596	73.38
476.814	70.38
477.033	98.38
477.252	82.38
477.471	100.38
477.69	91.38
477.908	94.38
478.127	98.38
478.346	86.38
478.564	71.38
478.783	92.38
479.002	88.38
479.22	85.38
479.439	98.38
479.658	89.38
479.876	91.38
480.095	105.38
480.313	74.38
480.532	78.38
480.751	93.38
480.969	107.38
481.188	163.38
481.406	117.38
481.624	94.38
481.843	83.38
482.061	88.38
482.28	86.38
482.498	78.38
482.717	90.38
482.935	81.38
483.153	88.38
483.372	92.38
483.59	81.38
483.808	83.38
484.027	84.38
484.245	90.38
484.463	63.38
484.681	94.38
484.9	93.38
485.118	79.38
485.336	102.38
485.554	94.38
485.772	99.38
485.99	112.38
486.209	110.38
486.427	89.38
486.645	88.38
486.863	87.38
487.081	86.38
487.299	98.38
487.517	87.38
487.735	89.38
487.953	96.38
488.171	113.38
488.389	81.38
488.607	90.38
488.825	87.38
489.043	84.38
489.261	78.38
489.479	84.38
489.696	102.38
489.914	84.38
490.132	82.38
490.35	82.38
490.568	99.38
490.786	90.38
491.003	86.38
491.221	99.38
491.439	86.38
491.657	80.38
491.874	87.38
492.092	81.38
492.31	84.38
492.527	82.38
492.745	78.38
492.963	91.38
493.18	82.38
493.398	99.38
493.615	96.38
493.833	98.38
494.05	94.38
494.268	91.38
494.485	88.38
494.703	68.38
494.92	76.38
495.138	89.38
495.355	89.38
495.573	94.38
495.79	84.38
496.008	96.38
496.225	71.38
496.442	90.38
496.66	87.38
496.877	87.38
497.094	73.38
497.312	94.38
497.529	96.38
497.746	101.38
497.963	86.38
498.181	92.38
498.398	91.38
498.615	84.38
498.832	95.38
499.049	89.38
499.267	104.38
499.484	86.38
499.701	79.38
499.918	84.38
500.135	74.38
500.352	82.38
500.569	78.38
500.786	83.38
501.003	78.38
501.22	83.38
501.437	98.38
501.654	73.38
501.871	98.38
502.088	95.38
502.305	83.38
502.522	84.38
502.739	91.38
502.956	90.38
503.172	95.38
503.389	92.38
503.606	81.38
503.823	90.38
504.04	78.38
504.256	95.38
504.473	86.38
504.69	94.38
504.907	92.38
505.123	81.38
505.34	86.38
505.557	93.38
505.773	79.38
505.99	81.38
506.207	91.38
506.423	71.38
506.64	88.38
506.856	84.38
507.073	92.38
507.289	78.38
507.506	79.38
507.722	92.38
507.939	82.38
508.155	103.38
508.372	80.38
508.588	90.38
508.805	90.38
509.021	90.38
509.238	91.38
509.454	72.38
509.67	80.38
509.887	90.38
510.103	113.38
510.319	163.38
510.536	504.38
510.752	1447.38
510.968	419.38
511.184	120.38
511.401	102.38
511.617	92.38
511.833	78.38
512.049	95.38
512.265	91.38
512.481	95.38
512.698	94.38
512.914	90.38
513.13	82.38
513.346	82.38
513.562	83.38
513.778	85.38
513.994	86.38
514.21	83.38
514.426	102.38
514.642	109.38
514.858	108.38
515.074	125.38
515.29	292.38
515.506	816.38
515.721	312.38
515.937	124.38
516.153	108.38
516.369	98.38
516.585	96.38
516.801	74.38
517.016	100.38
517.232	90.38
517.448	73.38
517.664	93.38
