Data from Uncirc_1981_H10_HRD10591_00075.txt Node
Date: Wed Jan 03 12:33:23 EST 2024
User: Yrep
Spectrometer: HR+D1059
Trigger mode: 1
Integration Time (sec): 1.000000E-1
Scans to average: 1
Electric dark correction enabled: true
Nonlinearity correction enabled: false
Boxcar width: 0
XAxis mode: Wavelengths
Number of Pixels in Spectrum: 2048
>>>>>Begin Spectral Data<<<<<
223.165	-34.81
223.4	-34.81
223.635	-34.81
223.869	-19.81
224.104	-24.81
224.338	-6.81
224.573	-25.81
224.808	-8.81
225.042	-7.81
225.277	-1.81
225.511	-2.81
225.746	9.19
225.98	10.19
226.215	19.19
226.449	10.19
226.683	21.19
226.918	20.19
227.152	43.19
227.387	45.19
227.621	30.19
227.856	44.19
228.09	58.19
228.324	50.19
228.559	44.19
228.793	45.19
229.027	66.19
229.262	69.19
229.496	75.19
229.73	76.19
229.964	92.19
230.199	65.19
230.433	62.19
230.667	74.19
230.901	72.19
231.136	74.19
231.37	80.19
231.604	84.19
231.838	89.19
232.072	72.19
232.306	83.19
232.541	80.19
232.775	83.19
233.009	89.19
233.243	82.19
233.477	79.19
233.711	87.19
233.945	89.19
234.179	87.19
234.413	86.19
234.647	85.19
234.881	61.19
235.115	89.19
235.349	72.19
235.583	83.19
235.817	89.19
236.051	80.19
236.285	82.19
236.519	80.19
236.753	82.19
236.987	72.19
237.221	74.19
237.455	75.19
237.689	65.19
237.922	75.19
238.156	82.19
238.39	70.19
238.624	88.19
238.858	77.19
239.091	62.19
239.325	77.19
239.559	81.19
239.793	89.19
240.027	73.19
240.26	75.19
240.494	81.19
240.728	67.19
240.961	68.19
241.195	79.19
241.429	78.19
241.662	80.19
241.896	86.19
242.13	75.19
242.363	80.19
242.597	72.19
242.83	72.19
243.064	71.19
243.298	69.19
243.531	60.19
243.765	72.19
243.998	78.19
244.232	80.19
244.465	82.19
244.699	92.19
244.932	83.19
245.166	63.19
245.399	87.19
245.633	65.19
245.866	70.19
246.099	73.19
246.333	68.19
246.566	76.19
246.8	66.19
247.033	80.19
247.266	88.19
247.5	84.19
247.733	67.19
247.966	79.19
248.2	61.19
248.433	89.19
248.666	74.19
248.899	85.19
249.133	73.19
249.366	85.19
249.599	83.19
249.832	87.19
250.066	77.19
250.299	82.19
250.532	69.19
250.765	75.19
250.998	79.19
251.231	72.19
251.465	85.19
251.698	79.19
251.931	86.19
252.164	83.19
252.397	73.19
252.63	86.19
252.863	69.19
253.096	77.19
253.329	81.19
253.562	91.19
253.795	84.19
254.028	73.19
254.261	90.19
254.494	75.19
254.727	98.19
254.96	74.19
255.193	79.19
255.426	97.19
255.659	79.19
255.892	89.19
256.124	75.19
256.357	69.19
256.59	76.19
256.823	82.19
257.056	67.19
257.289	73.19
257.521	67.19
257.754	62.19
257.987	82.19
258.22	96.19
258.452	91.19
258.685	90.19
258.918	87.19
259.151	78.19
259.383	85.19
259.616	85.19
259.849	83.19
260.081	81.19
260.314	81.19
260.547	80.19
260.779	81.19
261.012	88.19
261.244	72.19
261.477	86.19
261.71	87.19
261.942	86.19
262.175	105.19
262.407	71.19
262.64	85.19
262.872	81.19
263.105	79.19
263.337	76.19
263.57	68.19
263.802	88.19
264.035	84.19
264.267	79.19
264.499	81.19
264.732	70.19
264.964	84.19
265.197	87.19
265.429	84.19
265.661	101.19
265.894	81.19
266.126	76.19
266.358	79.19
266.591	79.19
266.823	91.19
267.055	84.19
267.287	84.19
267.52	92.19
267.752	87.19
267.984	79.19
268.216	98.19
268.448	88.19
268.681	81.19
268.913	88.19
269.145	75.19
269.377	97.19
269.609	83.19
269.841	86.19
270.073	69.19
270.306	81.19
270.538	88.19
270.77	83.19
271.002	100.19
271.234	94.19
271.466	87.19
271.698	84.19
271.93	91.19
272.162	83.19
272.394	80.19
272.626	84.19
272.858	83.19
273.09	81.19
273.322	98.19
273.553	76.19
273.785	77.19
274.017	75.19
274.249	69.19
274.481	73.19
274.713	77.19
274.945	101.19
275.176	92.19
275.408	76.19
275.64	79.19
275.872	89.19
276.104	104.19
276.335	101.19
276.567	89.19
276.799	103.19
277.031	92.19
277.262	87.19
277.494	81.19
277.726	97.19
277.957	91.19
278.189	79.19
278.421	89.19
278.652	77.19
278.884	76.19
279.115	96.19
279.347	75.19
279.579	71.19
279.81	79.19
280.042	83.19
280.273	84.19
280.505	87.19
280.736	95.19
280.968	89.19
281.199	89.19
281.431	91.19
281.662	84.19
281.894	82.19
282.125	97.19
282.356	97.19
282.588	121.19
282.819	106.19
283.051	88.19
283.282	84.19
283.513	93.19
283.745	80.19
283.976	77.19
284.207	63.19
284.439	82.19
284.67	91.19
284.901	86.19
285.132	91.19
285.364	93.19
285.595	91.19
285.826	98.19
286.057	85.19
286.288	76.19
286.52	92.19
286.751	79.19
286.982	82.19
287.213	81.19
287.444	96.19
287.675	91.19
287.906	81.19
288.138	87.19
288.369	72.19
288.6	88.19
288.831	84.19
289.062	95.19
289.293	79.19
289.524	95.19
289.755	74.19
289.986	79.19
290.217	87.19
290.448	84.19
290.679	91.19
290.91	99.19
291.141	91.19
291.371	99.19
291.602	91.19
291.833	85.19
292.064	95.19
292.295	91.19
292.526	87.19
292.757	79.19
292.987	75.19
293.218	91.19
293.449	92.19
293.68	75.19
293.91	68.19
294.141	92.19
294.372	81.19
294.603	89.19
294.833	71.19
295.064	84.19
295.295	91.19
295.525	91.19
295.756	115.19
295.987	108.19
296.217	126.19
296.448	117.19
296.679	88.19
296.909	99.19
297.14	92.19
297.37	90.19
297.601	86.19
297.831	100.19
298.062	92.19
298.292	88.19
298.523	69.19
298.753	87.19
298.984	84.19
299.214	89.19
299.445	88.19
299.675	84.19
299.905	84.19
300.136	75.19
300.366	72.19
300.597	95.19
300.827	91.19
301.057	95.19
301.288	95.19
301.518	89.19
301.748	89.19
301.979	106.19
302.209	104.19
302.439	81.19
302.669	102.19
302.9	76.19
303.13	73.19
303.36	87.19
303.59	85.19
303.82	100.19
304.051	87.19
304.281	76.19
304.511	87.19
304.741	73.19
304.971	98.19
305.201	106.19
305.431	96.19
305.661	98.19
305.891	93.19
306.121	89.19
306.352	100.19
306.582	90.19
306.812	83.19
307.042	83.19
307.272	84.19
307.502	95.19
307.731	97.19
307.961	86.19
308.191	83.19
308.421	89.19
308.651	96.19
308.881	101.19
309.111	94.19
309.341	75.19
309.571	97.19
309.8	99.19
310.03	91.19
310.26	87.19
310.49	94.19
310.72	84.19
310.949	91.19
311.179	80.19
311.409	87.19
311.639	99.19
311.868	89.19
312.098	84.19
312.328	103.19
312.557	89.19
312.787	87.19
313.017	91.19
313.246	113.19
313.476	80.19
313.706	97.19
313.935	91.19
314.165	98.19
314.394	95.19
314.624	79.19
314.853	83.19
315.083	97.19
315.312	79.19
315.542	91.19
315.771	91.19
316.001	101.19
316.23	95.19
316.46	91.19
316.689	90.19
316.919	79.19
317.148	83.19
317.377	86.19
317.607	90.19
317.836	85.19
318.065	97.19
318.295	91.19
318.524	89.19
318.753	76.19
318.983	96.19
319.212	106.19
319.441	98.19
319.67	106.19
319.9	91.19
320.129	91.19
320.358	100.19
320.587	95.19
320.816	101.19
321.046	109.19
321.275	107.19
321.504	98.19
321.733	87.19
321.962	97.19
322.191	93.19
322.42	100.19
322.649	107.19
322.878	96.19
323.108	103.19
323.337	110.19
323.566	111.19
323.795	133.19
324.024	186.19
324.253	360.19
324.482	723.19
324.71	1530.19
324.939	1987.19
325.168	736.19
325.397	225.19
325.626	145.19
325.855	127.19
326.084	120.19
326.313	129.19
326.542	139.19
326.77	197.19
326.999	412.19
327.228	889.19
327.457	1546.19
327.686	1249.19
327.914	337.19
328.143	171.19
328.372	131.19
328.6	117.19
328.829	108.19
329.058	124.19
329.287	108.19
329.515	104.19
329.744	103.19
329.972	112.19
330.201	106.19
330.43	120.19
330.658	103.19
330.887	107.19
331.115	107.19
331.344	108.19
331.572	96.19
331.801	102.19
332.03	113.19
332.258	98.19
332.486	94.19
332.715	97.19
332.943	83.19
333.172	92.19
333.4	95.19
333.629	92.19
333.857	105.19
334.085	91.19
334.314	107.19
334.542	119.19
334.771	106.19
334.999	88.19
335.227	92.19
335.455	98.19
335.684	98.19
335.912	99.19
336.14	85.19
336.369	115.19
336.597	102.19
336.825	90.19
337.053	79.19
337.281	76.19
337.51	87.19
337.738	87.19
337.966	84.19
338.194	83.19
338.422	96.19
338.65	108.19
338.878	97.19
339.106	81.19
339.334	93.19
339.562	88.19
339.79	94.19
340.018	91.19
340.246	96.19
340.474	96.19
340.702	80.19
340.93	101.19
341.158	100.19
341.386	87.19
341.614	91.19
341.842	75.19
342.07	97.19
342.298	79.19
342.526	76.19
342.754	91.19
342.981	83.19
343.209	74.19
343.437	90.19
343.665	95.19
343.893	85.19
344.12	93.19
344.348	96.19
344.576	84.19
344.804	90.19
345.031	91.19
345.259	106.19
345.487	88.19
345.714	84.19
345.942	78.19
346.17	86.19
346.397	95.19
346.625	93.19
346.853	83.19
347.08	90.19
347.308	85.19
347.535	88.19
347.763	76.19
347.99	90.19
348.218	108.19
348.445	94.19
348.673	94.19
348.9	91.19
349.128	75.19
349.355	83.19
349.583	103.19
349.81	105.19
350.037	95.19
350.265	96.19
350.492	85.19
350.72	88.19
350.947	85.19
351.174	103.19
351.402	109.19
351.629	95.19
351.856	101.19
352.083	105.19
352.311	89.19
352.538	109.19
352.765	109.19
352.992	104.19
353.22	104.19
353.447	95.19
353.674	97.19
353.901	97.19
354.128	110.19
354.355	97.19
354.583	107.19
354.81	88.19
355.037	93.19
355.264	99.19
355.491	87.19
355.718	99.19
355.945	76.19
356.172	91.19
356.399	98.19
356.626	81.19
356.853	87.19
357.08	76.19
357.307	94.19
357.534	95.19
357.761	106.19
357.988	106.19
358.215	91.19
358.441	87.19
358.668	111.19
358.895	84.19
359.122	76.19
359.349	91.19
359.576	99.19
359.802	99.19
360.029	103.19
360.256	101.19
360.483	98.19
360.709	84.19
360.936	87.19
361.163	102.19
361.39	79.19
361.616	90.19
361.843	80.19
362.07	100.19
362.296	88.19
362.523	99.19
362.749	68.19
362.976	88.19
363.203	84.19
363.429	79.19
363.656	102.19
363.882	87.19
364.109	97.19
364.335	91.19
364.562	103.19
364.788	85.19
365.015	97.19
365.241	109.19
365.468	105.19
365.694	92.19
365.92	89.19
366.147	89.19
366.373	97.19
366.599	92.19
366.826	96.19
367.052	86.19
367.278	85.19
367.505	93.19
367.731	98.19
367.957	99.19
368.184	85.19
368.41	93.19
368.636	83.19
368.862	105.19
369.089	106.19
369.315	90.19
369.541	96.19
369.767	89.19
369.993	94.19
370.219	95.19
370.445	77.19
370.672	101.19
370.898	94.19
371.124	71.19
371.35	85.19
371.576	75.19
371.802	85.19
372.028	79.19
372.254	80.19
372.48	87.19
372.706	87.19
372.932	91.19
373.158	100.19
373.384	92.19
373.61	76.19
373.835	99.19
374.061	95.19
374.287	87.19
374.513	97.19
374.739	87.19
374.965	93.19
375.191	76.19
375.416	79.19
375.642	82.19
375.868	91.19
376.094	87.19
376.319	93.19
376.545	79.19
376.771	91.19
376.997	82.19
377.222	80.19
377.448	85.19
377.674	92.19
377.899	84.19
378.125	92.19
378.35	98.19
378.576	95.19
378.802	73.19
379.027	97.19
379.253	91.19
379.478	81.19
379.704	92.19
379.929	94.19
380.155	86.19
380.38	89.19
380.606	71.19
380.831	95.19
381.057	90.19
381.282	97.19
381.507	67.19
381.733	77.19
381.958	107.19
382.184	93.19
382.409	98.19
382.634	89.19
382.86	87.19
383.085	93.19
383.31	93.19
383.535	104.19
383.761	95.19
383.986	107.19
384.211	92.19
384.436	95.19
384.662	99.19
384.887	100.19
385.112	100.19
385.337	108.19
385.562	100.19
385.787	100.19
386.013	94.19
386.238	118.19
386.463	105.19
386.688	106.19
386.913	116.19
387.138	108.19
387.363	88.19
387.588	89.19
387.813	99.19
388.038	95.19
388.263	104.19
388.488	106.19
388.713	99.19
388.938	100.19
389.163	82.19
389.387	97.19
389.612	84.19
389.837	86.19
390.062	93.19
390.287	95.19
390.512	83.19
390.736	83.19
390.961	84.19
391.186	92.19
391.411	89.19
391.636	101.19
391.86	92.19
392.085	97.19
392.31	99.19
392.534	87.19
392.759	89.19
392.984	76.19
393.208	74.19
393.433	76.19
393.658	76.19
393.882	76.19
394.107	81.19
394.331	89.19
394.556	88.19
394.78	90.19
395.005	90.19
395.229	84.19
395.454	74.19
395.678	91.19
395.903	77.19
396.127	82.19
396.352	81.19
396.576	83.19
396.801	83.19
397.025	86.19
397.249	95.19
397.474	90.19
397.698	86.19
397.922	82.19
398.147	88.19
398.371	93.19
398.595	96.19
398.82	82.19
399.044	73.19
399.268	79.19
399.492	82.19
399.717	88.19
399.941	89.19
400.165	93.19
400.389	88.19
400.613	89.19
400.837	77.19
401.062	95.19
401.286	81.19
401.51	103.19
401.734	94.19
401.958	90.19
402.182	115.19
402.406	126.19
402.63	111.19
402.854	90.19
403.078	98.19
403.302	84.19
403.526	102.19
403.75	99.19
403.974	96.19
404.198	73.19
404.422	95.19
404.645	85.19
404.869	88.19
405.093	86.19
405.317	96.19
405.541	101.19
405.765	99.19
405.988	107.19
406.212	128.19
406.436	183.19
406.66	115.19
406.883	68.19
407.107	101.19
407.331	97.19
407.555	92.19
407.778	81.19
408.002	82.19
408.226	74.19
408.449	82.19
408.673	96.19
408.896	87.19
409.12	89.19
409.344	83.19
409.567	87.19
409.791	95.19
410.014	97.19
410.238	90.19
410.461	105.19
410.685	89.19
410.908	92.19
411.132	91.19
411.355	94.19
411.578	87.19
411.802	95.19
412.025	90.19
412.249	81.19
412.472	85.19
412.695	95.19
412.919	80.19
413.142	90.19
413.365	86.19
413.589	97.19
413.812	81.19
414.035	96.19
414.258	92.19
414.482	97.19
414.705	83.19
414.928	81.19
415.151	102.19
415.374	87.19
415.597	88.19
415.821	89.19
416.044	104.19
416.267	95.19
416.49	80.19
416.713	81.19
416.936	91.19
417.159	75.19
417.382	82.19
417.605	93.19
417.828	95.19
418.051	84.19
418.274	88.19
418.497	97.19
418.72	88.19
418.943	82.19
419.166	88.19
419.389	77.19
419.611	80.19
419.834	95.19
420.057	92.19
420.28	71.19
420.503	89.19
420.726	84.19
420.948	80.19
421.171	93.19
421.394	85.19
421.617	86.19
421.839	100.19
422.062	97.19
422.285	92.19
422.507	107.19
422.73	101.19
422.953	75.19
423.175	100.19
423.398	95.19
423.621	88.19
423.843	90.19
424.066	86.19
424.288	81.19
424.511	93.19
424.733	88.19
424.956	96.19
425.178	99.19
425.401	98.19
425.623	84.19
425.846	84.19
426.068	104.19
426.291	105.19
426.513	95.19
426.735	80.19
426.958	88.19
427.18	109.19
427.402	125.19
427.625	146.19
427.847	117.19
428.069	113.19
428.292	75.19
428.514	88.19
428.736	84.19
428.958	98.19
429.181	81.19
429.403	89.19
429.625	83.19
429.847	91.19
430.069	87.19
430.292	85.19
430.514	76.19
430.736	73.19
430.958	70.19
431.18	91.19
431.402	81.19
431.624	85.19
431.846	95.19
432.068	90.19
432.29	91.19
432.512	68.19
432.734	84.19
432.956	83.19
433.178	91.19
433.4	96.19
433.622	91.19
433.844	72.19
434.066	89.19
434.287	103.19
434.509	80.19
434.731	94.19
434.953	77.19
435.175	83.19
435.397	100.19
435.618	101.19
435.84	91.19
436.062	103.19
436.284	95.19
436.505	104.19
436.727	96.19
436.949	90.19
437.17	90.19
437.392	84.19
437.614	86.19
437.835	86.19
438.057	100.19
438.278	92.19
438.5	105.19
438.721	99.19
438.943	100.19
439.165	86.19
439.386	80.19
439.608	88.19
439.829	92.19
440.05	103.19
440.272	115.19
440.493	80.19
440.715	76.19
440.936	85.19
441.158	87.19
441.379	95.19
441.6	85.19
441.822	83.19
442.043	69.19
442.264	92.19
442.486	92.19
442.707	97.19
442.928	94.19
443.149	124.19
443.371	125.19
443.592	100.19
443.813	113.19
444.034	93.19
444.255	77.19
444.476	90.19
444.698	82.19
444.919	82.19
445.14	120.19
445.361	112.19
445.582	109.19
445.803	122.19
446.024	108.19
446.245	112.19
446.466	113.19
446.687	90.19
446.908	92.19
447.129	74.19
447.35	83.19
447.571	83.19
447.792	92.19
448.013	76.19
448.234	87.19
448.455	85.19
448.675	112.19
448.896	95.19
449.117	102.19
449.338	95.19
449.559	119.19
449.779	105.19
450	91.19
450.221	97.19
450.442	88.19
450.662	93.19
450.883	84.19
451.104	92.19
451.324	100.19
451.545	81.19
451.766	72.19
451.986	90.19
452.207	96.19
452.428	85.19
452.648	99.19
452.869	107.19
453.089	104.19
453.31	115.19
453.53	71.19
453.751	90.19
453.971	94.19
454.192	97.19
454.412	78.19
454.633	72.19
454.853	75.19
455.073	87.19
455.294	70.19
455.514	81.19
455.734	75.19
455.955	79.19
456.175	92.19
456.395	90.19
456.616	87.19
456.836	89.19
457.056	95.19
457.276	81.19
457.497	74.19
457.717	83.19
457.937	83.19
458.157	84.19
458.377	80.19
458.598	87.19
458.818	111.19
459.038	134.19
459.258	117.19
459.478	88.19
459.698	79.19
459.918	92.19
460.138	80.19
460.358	86.19
460.578	94.19
460.798	93.19
461.018	90.19
461.238	87.19
461.458	96.19
461.678	85.19
461.898	71.19
462.118	99.19
462.338	76.19
462.558	84.19
462.777	66.19
462.997	95.19
463.217	68.19
463.437	85.19
463.657	95.19
463.876	88.19
464.096	82.19
464.316	104.19
464.536	81.19
464.755	85.19
464.975	101.19
465.195	124.19
465.414	121.19
465.634	84.19
465.854	68.19
466.073	91.19
466.293	73.19
466.512	87.19
466.732	79.19
466.951	86.19
467.171	95.19
467.391	95.19
467.61	100.19
467.829	89.19
468.049	96.19
468.268	103.19
468.488	93.19
468.707	85.19
468.927	95.19
469.146	89.19
469.365	79.19
469.585	76.19
469.804	89.19
470.023	91.19
470.243	86.19
470.462	96.19
470.681	90.19
470.901	86.19
471.12	87.19
471.339	91.19
471.558	92.19
471.777	81.19
471.997	79.19
472.216	111.19
472.435	127.19
472.654	86.19
472.873	84.19
473.092	91.19
473.311	96.19
473.53	75.19
473.749	79.19
473.968	96.19
474.187	97.19
474.406	93.19
474.625	80.19
474.844	94.19
475.063	83.19
475.282	76.19
475.501	80.19
475.72	84.19
475.939	79.19
476.158	80.19
476.377	83.19
476.596	97.19
476.814	88.19
477.033	97.19
477.252	74.19
477.471	81.19
477.69	73.19
477.908	104.19
478.127	98.19
478.346	83.19
478.564	91.19
478.783	93.19
479.002	95.19
479.22	77.19
479.439	98.19
479.658	92.19
479.876	81.19
480.095	92.19
480.313	90.19
480.532	106.19
480.751	105.19
480.969	100.19
481.188	170.19
481.406	130.19
481.624	101.19
481.843	97.19
482.061	90.19
482.28	90.19
482.498	79.19
482.717	84.19
482.935	81.19
483.153	87.19
483.372	85.19
483.59	94.19
483.808	79.19
484.027	93.19
484.245	87.19
484.463	93.19
484.681	93.19
484.9	90.19
485.118	84.19
485.336	98.19
485.554	99.19
485.772	99.19
485.99	98.19
486.209	112.19
486.427	118.19
486.645	107.19
486.863	98.19
487.081	98.19
487.299	100.19
487.517	92.19
487.735	96.19
487.953	95.19
488.171	92.19
488.389	95.19
488.607	95.19
488.825	93.19
489.043	97.19
489.261	86.19
489.479	84.19
489.696	90.19
489.914	85.19
490.132	87.19
490.35	76.19
490.568	68.19
490.786	90.19
491.003	87.19
491.221	75.19
491.439	89.19
491.657	101.19
491.874	112.19
492.092	96.19
492.31	101.19
492.527	88.19
492.745	84.19
492.963	103.19
493.18	93.19
493.398	86.19
493.615	102.19
493.833	97.19
494.05	85.19
494.268	88.19
494.485	85.19
494.703	98.19
494.92	91.19
495.138	89.19
495.355	90.19
495.573	91.19
495.79	91.19
496.008	85.19
496.225	89.19
496.442	93.19
496.66	98.19
496.877	92.19
497.094	94.19
497.312	85.19
497.529	91.19
497.746	79.19
497.963	85.19
498.181	91.19
498.398	99.19
498.615	99.19
498.832	89.19
499.049	83.19
499.267	101.19
499.484	102.19
499.701	95.19
499.918	97.19
500.135	78.19
500.352	91.19
500.569	91.19
500.786	97.19
501.003	95.19
501.22	88.19
501.437	82.19
501.654	89.19
501.871	105.19
502.088	99.19
502.305	94.19
502.522	88.19
502.739	74.19
502.956	79.19
503.172	90.19
503.389	104.19
503.606	98.19
503.823	92.19
504.04	84.19
504.256	91.19
504.473	78.19
504.69	82.19
504.907	87.19
505.123	87.19
505.34	90.19
505.557	97.19
505.773	98.19
505.99	100.19
506.207	87.19
506.423	71.19
506.64	87.19
506.856	84.19
507.073	97.19
507.289	96.19
507.506	82.19
507.722	103.19
507.939	121.19
508.155	86.19
508.372	99.19
508.588	98.19
508.805	104.19
509.021	83.19
509.238	100.19
509.454	81.19
509.67	91.19
509.887	86.19
510.103	119.19
510.319	166.19
510.536	570.19
510.752	1675.19
510.968	477.19
511.184	125.19
511.401	114.19
511.617	99.19
511.833	92.19
512.049	107.19
512.265	79.19
512.481	80.19
512.698	89.19
512.914	97.19
513.13	90.19
513.346	80.19
513.562	91.19
513.778	88.19
513.994	102.19
514.21	96.19
514.426	103.19
514.642	112.19
514.858	99.19
515.074	148.19
515.29	343.19
515.506	999.19
515.721	372.19
515.937	115.19
516.153	90.19
516.369	98.19
516.585	97.19
516.801	92.19
