Data from Uncirc_1981_H10_HRD10591_00017.txt Node
Date: Wed Jan 03 12:33:11 EST 2024
User: Yrep
Spectrometer: HR+D1059
Trigger mode: 1
Integration Time (sec): 1.000000E-1
Scans to average: 1
Electric dark correction enabled: true
Nonlinearity correction enabled: false
Boxcar width: 0
XAxis mode: Wavelengths
Number of Pixels in Spectrum: 2048
>>>>>Begin Spectral Data<<<<<
223.165	-9.81
223.4	-9.81
223.635	-9.81
223.869	-25.81
224.104	-23.81
224.338	-13.81
224.573	-15.81
224.808	-20.81
225.042	5.19
225.277	1.19
225.511	-6.81
225.746	7.19
225.98	15.19
226.215	3.19
226.449	24.19
226.683	26.19
226.918	6.19
227.152	28.19
227.387	29.19
227.621	41.19
227.856	40.19
228.09	41.19
228.324	55.19
228.559	51.19
228.793	66.19
229.027	56.19
229.262	60.19
229.496	51.19
229.73	64.19
229.964	80.19
230.199	60.19
230.433	71.19
230.667	72.19
230.901	81.19
231.136	78.19
231.37	87.19
231.604	80.19
231.838	87.19
232.072	73.19
232.306	82.19
232.541	79.19
232.775	76.19
233.009	74.19
233.243	80.19
233.477	82.19
233.711	68.19
233.945	80.19
234.179	65.19
234.413	86.19
234.647	87.19
234.881	67.19
235.115	77.19
235.349	75.19
235.583	80.19
235.817	75.19
236.051	87.19
236.285	78.19
236.519	86.19
236.753	87.19
236.987	76.19
237.221	75.19
237.455	70.19
237.689	66.19
237.922	96.19
238.156	78.19
238.39	66.19
238.624	81.19
238.858	59.19
239.091	82.19
239.325	77.19
239.559	84.19
239.793	74.19
240.027	86.19
240.26	82.19
240.494	84.19
240.728	72.19
240.961	82.19
241.195	77.19
241.429	81.19
241.662	72.19
241.896	66.19
242.13	67.19
242.363	65.19
242.597	65.19
242.83	80.19
243.064	56.19
243.298	67.19
243.531	70.19
243.765	89.19
243.998	88.19
244.232	86.19
244.465	71.19
244.699	76.19
244.932	79.19
245.166	94.19
245.399	82.19
245.633	97.19
245.866	79.19
246.099	66.19
246.333	86.19
246.566	92.19
246.8	78.19
247.033	75.19
247.266	82.19
247.5	74.19
247.733	80.19
247.966	75.19
248.2	82.19
248.433	73.19
248.666	70.19
248.899	74.19
249.133	84.19
249.366	83.19
249.599	74.19
249.832	85.19
250.066	70.19
250.299	68.19
250.532	95.19
250.765	74.19
250.998	66.19
251.231	76.19
251.465	71.19
251.698	60.19
251.931	70.19
252.164	83.19
252.397	82.19
252.63	83.19
252.863	80.19
253.096	75.19
253.329	60.19
253.562	82.19
253.795	74.19
254.028	74.19
254.261	83.19
254.494	79.19
254.727	78.19
254.96	81.19
255.193	83.19
255.426	95.19
255.659	62.19
255.892	74.19
256.124	83.19
256.357	72.19
256.59	84.19
256.823	70.19
257.056	87.19
257.289	92.19
257.521	83.19
257.754	78.19
257.987	71.19
258.22	97.19
258.452	74.19
258.685	86.19
258.918	88.19
259.151	77.19
259.383	81.19
259.616	86.19
259.849	91.19
260.081	87.19
260.314	69.19
260.547	74.19
260.779	82.19
261.012	81.19
261.244	83.19
261.477	82.19
261.71	85.19
261.942	96.19
262.175	83.19
262.407	77.19
262.64	72.19
262.872	95.19
263.105	83.19
263.337	80.19
263.57	83.19
263.802	70.19
264.035	69.19
264.267	79.19
264.499	83.19
264.732	82.19
264.964	79.19
265.197	81.19
265.429	59.19
265.661	83.19
265.894	82.19
266.126	81.19
266.358	84.19
266.591	65.19
266.823	76.19
267.055	79.19
267.287	70.19
267.52	96.19
267.752	85.19
267.984	86.19
268.216	85.19
268.448	86.19
268.681	84.19
268.913	89.19
269.145	84.19
269.377	81.19
269.609	89.19
269.841	94.19
270.073	86.19
270.306	94.19
270.538	89.19
270.77	70.19
271.002	82.19
271.234	80.19
271.466	83.19
271.698	82.19
271.93	89.19
272.162	76.19
272.394	94.19
272.626	65.19
272.858	83.19
273.09	97.19
273.322	78.19
273.553	84.19
273.785	75.19
274.017	78.19
274.249	94.19
274.481	86.19
274.713	75.19
274.945	82.19
275.176	86.19
275.408	81.19
275.64	87.19
275.872	81.19
276.104	85.19
276.335	87.19
276.567	90.19
276.799	90.19
277.031	97.19
277.262	80.19
277.494	98.19
277.726	89.19
277.957	79.19
278.189	72.19
278.421	89.19
278.652	79.19
278.884	94.19
279.115	92.19
279.347	95.19
279.579	86.19
279.81	65.19
280.042	82.19
280.273	82.19
280.505	74.19
280.736	89.19
280.968	79.19
281.199	89.19
281.431	80.19
281.662	82.19
281.894	87.19
282.125	94.19
282.356	98.19
282.588	102.19
282.819	99.19
283.051	96.19
283.282	81.19
283.513	95.19
283.745	86.19
283.976	84.19
284.207	86.19
284.439	76.19
284.67	85.19
284.901	64.19
285.132	76.19
285.364	72.19
285.595	73.19
285.826	87.19
286.057	79.19
286.288	88.19
286.52	88.19
286.751	69.19
286.982	74.19
287.213	86.19
287.444	77.19
287.675	89.19
287.906	72.19
288.138	85.19
288.369	80.19
288.6	89.19
288.831	83.19
289.062	76.19
289.293	92.19
289.524	83.19
289.755	91.19
289.986	73.19
290.217	82.19
290.448	78.19
290.679	99.19
290.91	79.19
291.141	80.19
291.371	72.19
291.602	95.19
291.833	74.19
292.064	92.19
292.295	86.19
292.526	95.19
292.757	76.19
292.987	78.19
293.218	80.19
293.449	106.19
293.68	94.19
293.91	77.19
294.141	88.19
294.372	81.19
294.603	79.19
294.833	92.19
295.064	101.19
295.295	82.19
295.525	75.19
295.756	84.19
295.987	83.19
296.217	119.19
296.448	104.19
296.679	91.19
296.909	83.19
297.14	82.19
297.37	90.19
297.601	84.19
297.831	97.19
298.062	89.19
298.292	76.19
298.523	96.19
298.753	68.19
298.984	84.19
299.214	86.19
299.445	98.19
299.675	101.19
299.905	83.19
300.136	87.19
300.366	76.19
300.597	86.19
300.827	73.19
301.057	94.19
301.288	90.19
301.518	83.19
301.748	90.19
301.979	102.19
302.209	96.19
302.439	87.19
302.669	90.19
302.9	68.19
303.13	88.19
303.36	83.19
303.59	79.19
303.82	91.19
304.051	78.19
304.281	86.19
304.511	71.19
304.741	82.19
304.971	88.19
305.201	92.19
305.431	83.19
305.661	97.19
305.891	75.19
306.121	86.19
306.352	102.19
306.582	100.19
306.812	103.19
307.042	80.19
307.272	92.19
307.502	82.19
307.731	95.19
307.961	111.19
308.191	91.19
308.421	88.19
308.651	89.19
308.881	102.19
309.111	90.19
309.341	85.19
309.571	90.19
309.8	91.19
310.03	86.19
310.26	94.19
310.49	95.19
310.72	93.19
310.949	89.19
311.179	101.19
311.409	93.19
311.639	92.19
311.868	87.19
312.098	92.19
312.328	83.19
312.557	81.19
312.787	94.19
313.017	98.19
313.246	89.19
313.476	89.19
313.706	103.19
313.935	102.19
314.165	88.19
314.394	80.19
314.624	73.19
314.853	105.19
315.083	99.19
315.312	84.19
315.542	85.19
315.771	85.19
316.001	91.19
316.23	97.19
316.46	94.19
316.689	95.19
316.919	81.19
317.148	94.19
317.377	91.19
317.607	97.19
317.836	86.19
318.065	90.19
318.295	88.19
318.524	91.19
318.753	83.19
318.983	76.19
319.212	79.19
319.441	101.19
319.67	114.19
319.9	90.19
320.129	94.19
320.358	90.19
320.587	105.19
320.816	95.19
321.046	105.19
321.275	88.19
321.504	88.19
321.733	88.19
321.962	86.19
322.191	97.19
322.42	97.19
322.649	91.19
322.878	95.19
323.108	101.19
323.337	105.19
323.566	116.19
323.795	138.19
324.024	183.19
324.253	310.19
324.482	648.19
324.71	1398.19
324.939	1864.19
325.168	674.19
325.397	211.19
325.626	118.19
325.855	114.19
326.084	130.19
326.313	121.19
326.542	148.19
326.77	206.19
326.999	400.19
327.228	795.19
327.457	1459.19
327.686	1174.19
327.914	306.19
328.143	152.19
328.372	128.19
328.6	109.19
328.829	97.19
329.058	112.19
329.287	120.19
329.515	88.19
329.744	94.19
329.972	107.19
330.201	103.19
330.43	120.19
330.658	96.19
330.887	124.19
331.115	103.19
331.344	81.19
331.572	106.19
331.801	89.19
332.03	77.19
332.258	95.19
332.486	80.19
332.715	92.19
332.943	86.19
333.172	97.19
333.4	88.19
333.629	85.19
333.857	96.19
334.085	92.19
334.314	101.19
334.542	111.19
334.771	111.19
334.999	95.19
335.227	100.19
335.455	91.19
335.684	94.19
335.912	92.19
336.14	86.19
336.369	89.19
336.597	86.19
336.825	90.19
337.053	88.19
337.281	87.19
337.51	91.19
337.738	72.19
337.966	92.19
338.194	93.19
338.422	72.19
338.65	102.19
338.878	71.19
339.106	91.19
339.334	82.19
339.562	87.19
339.79	90.19
340.018	88.19
340.246	87.19
340.474	103.19
340.702	98.19
340.93	90.19
341.158	99.19
341.386	92.19
341.614	91.19
341.842	92.19
342.07	95.19
342.298	99.19
342.526	86.19
342.754	90.19
342.981	85.19
343.209	76.19
343.437	86.19
343.665	90.19
343.893	78.19
344.12	101.19
344.348	80.19
344.576	87.19
344.804	73.19
345.031	98.19
345.259	97.19
345.487	99.19
345.714	90.19
345.942	73.19
346.17	74.19
346.397	81.19
346.625	101.19
346.853	95.19
347.08	90.19
347.308	76.19
347.535	86.19
347.763	90.19
347.99	104.19
348.218	105.19
348.445	99.19
348.673	99.19
348.9	98.19
349.128	98.19
349.355	84.19
349.583	88.19
349.81	92.19
350.037	85.19
350.265	87.19
350.492	91.19
350.72	83.19
350.947	81.19
351.174	100.19
351.402	99.19
351.629	97.19
351.856	81.19
352.083	91.19
352.311	102.19
352.538	97.19
352.765	96.19
352.992	104.19
353.22	100.19
353.447	97.19
353.674	99.19
353.901	95.19
354.128	88.19
354.355	102.19
354.583	103.19
354.81	107.19
355.037	96.19
355.264	90.19
355.491	83.19
355.718	91.19
355.945	103.19
356.172	96.19
356.399	99.19
356.626	105.19
356.853	77.19
357.08	90.19
357.307	97.19
357.534	82.19
357.761	94.19
357.988	106.19
358.215	115.19
358.441	103.19
358.668	96.19
358.895	98.19
359.122	103.19
359.349	91.19
359.576	91.19
359.802	95.19
360.029	91.19
360.256	105.19
360.483	100.19
360.709	94.19
360.936	94.19
361.163	85.19
361.39	79.19
361.616	99.19
361.843	82.19
362.07	92.19
362.296	92.19
362.523	89.19
362.749	91.19
362.976	92.19
363.203	80.19
363.429	83.19
363.656	91.19
363.882	72.19
364.109	84.19
364.335	91.19
364.562	78.19
364.788	80.19
365.015	84.19
365.241	103.19
365.468	109.19
365.694	106.19
365.92	82.19
366.147	95.19
366.373	84.19
366.599	82.19
366.826	89.19
367.052	96.19
367.278	80.19
367.505	78.19
367.731	96.19
367.957	80.19
368.184	90.19
368.41	97.19
368.636	97.19
368.862	97.19
369.089	106.19
369.315	80.19
369.541	90.19
369.767	80.19
369.993	90.19
370.219	67.19
370.445	70.19
370.672	82.19
370.898	89.19
371.124	87.19
371.35	71.19
371.576	80.19
371.802	75.19
372.028	94.19
372.254	99.19
372.48	79.19
372.706	94.19
372.932	84.19
373.158	94.19
373.384	87.19
373.61	108.19
373.835	88.19
374.061	80.19
374.287	84.19
374.513	92.19
374.739	88.19
374.965	89.19
375.191	103.19
375.416	91.19
375.642	90.19
375.868	87.19
376.094	61.19
376.319	83.19
376.545	78.19
376.771	88.19
376.997	107.19
377.222	90.19
377.448	90.19
377.674	91.19
377.899	92.19
378.125	86.19
378.35	98.19
378.576	98.19
378.802	103.19
379.027	88.19
379.253	95.19
379.478	96.19
379.704	89.19
379.929	98.19
380.155	97.19
380.38	102.19
380.606	96.19
380.831	93.19
381.057	96.19
381.282	102.19
381.507	95.19
381.733	100.19
381.958	104.19
382.184	96.19
382.409	107.19
382.634	96.19
382.86	106.19
383.085	123.19
383.31	107.19
383.535	105.19
383.761	102.19
383.986	96.19
384.211	114.19
384.436	116.19
384.662	112.19
384.887	118.19
385.112	99.19
385.337	128.19
385.562	119.19
385.787	112.19
386.013	98.19
386.238	136.19
386.463	119.19
386.688	129.19
386.913	101.19
387.138	121.19
387.363	108.19
387.588	114.19
387.813	106.19
388.038	129.19
388.263	129.19
388.488	121.19
388.713	98.19
388.938	93.19
389.163	95.19
389.387	101.19
389.612	84.19
389.837	101.19
390.062	87.19
390.287	91.19
390.512	98.19
390.736	90.19
390.961	97.19
391.186	83.19
391.411	88.19
391.636	92.19
391.86	84.19
392.085	88.19
392.31	76.19
392.534	92.19
392.759	81.19
392.984	96.19
393.208	78.19
393.433	89.19
393.658	86.19
393.882	84.19
394.107	97.19
394.331	82.19
394.556	97.19
394.78	86.19
395.005	80.19
395.229	80.19
395.454	80.19
395.678	74.19
395.903	88.19
396.127	83.19
396.352	92.19
396.576	86.19
396.801	81.19
397.025	78.19
397.249	86.19
397.474	79.19
397.698	86.19
397.922	80.19
398.147	101.19
398.371	87.19
398.595	78.19
398.82	81.19
399.044	95.19
399.268	71.19
399.492	88.19
399.717	86.19
399.941	81.19
400.165	90.19
400.389	95.19
400.613	82.19
400.837	99.19
401.062	80.19
401.286	72.19
401.51	96.19
401.734	101.19
401.958	92.19
402.182	106.19
402.406	116.19
402.63	94.19
402.854	89.19
403.078	80.19
403.302	87.19
403.526	92.19
403.75	84.19
403.974	78.19
404.198	79.19
404.422	90.19
404.645	80.19
404.869	84.19
405.093	98.19
405.317	89.19
405.541	99.19
405.765	82.19
405.988	91.19
406.212	126.19
406.436	164.19
406.66	122.19
406.883	102.19
407.107	90.19
407.331	97.19
407.555	99.19
407.778	88.19
408.002	75.19
408.226	90.19
408.449	74.19
408.673	83.19
408.896	93.19
409.12	87.19
409.344	79.19
409.567	86.19
409.791	88.19
410.014	96.19
410.238	85.19
410.461	89.19
410.685	95.19
410.908	96.19
411.132	96.19
411.355	96.19
411.578	98.19
411.802	91.19
412.025	88.19
412.249	73.19
412.472	94.19
412.695	82.19
412.919	90.19
413.142	108.19
413.365	74.19
413.589	88.19
413.812	101.19
414.035	89.19
414.258	96.19
414.482	87.19
414.705	83.19
414.928	99.19
415.151	82.19
415.374	92.19
415.597	91.19
415.821	106.19
416.044	102.19
416.267	66.19
416.49	91.19
416.713	100.19
416.936	88.19
417.159	101.19
417.382	91.19
417.605	74.19
417.828	90.19
418.051	106.19
418.274	87.19
418.497	82.19
418.72	100.19
418.943	84.19
419.166	79.19
419.389	90.19
419.611	83.19
419.834	88.19
420.057	83.19
420.28	108.19
420.503	83.19
420.726	89.19
420.948	83.19
421.171	99.19
421.394	84.19
421.617	72.19
421.839	73.19
422.062	84.19
422.285	88.19
422.507	94.19
422.73	84.19
422.953	80.19
423.175	107.19
423.398	84.19
423.621	88.19
423.843	69.19
424.066	95.19
424.288	91.19
424.511	75.19
424.733	83.19
424.956	80.19
425.178	85.19
425.401	107.19
425.623	107.19
425.846	97.19
426.068	103.19
426.291	80.19
426.513	87.19
426.735	102.19
426.958	100.19
427.18	103.19
427.402	128.19
427.625	126.19
427.847	90.19
428.069	97.19
428.292	85.19
428.514	88.19
428.736	95.19
428.958	79.19
429.181	96.19
429.403	78.19
429.625	76.19
429.847	82.19
430.069	96.19
430.292	91.19
430.514	94.19
430.736	92.19
430.958	81.19
431.18	71.19
431.402	90.19
431.624	89.19
431.846	82.19
432.068	95.19
432.29	78.19
432.512	91.19
432.734	77.19
432.956	92.19
433.178	80.19
433.4	85.19
433.622	78.19
433.844	103.19
434.066	99.19
434.287	84.19
434.509	104.19
434.731	89.19
434.953	73.19
435.175	71.19
435.397	95.19
435.618	78.19
435.84	95.19
436.062	107.19
436.284	111.19
436.505	99.19
436.727	108.19
436.949	97.19
437.17	95.19
437.392	84.19
437.614	91.19
437.835	84.19
438.057	106.19
438.278	99.19
438.5	81.19
438.721	109.19
438.943	101.19
439.165	96.19
439.386	80.19
439.608	89.19
439.829	89.19
440.05	123.19
440.272	128.19
440.493	82.19
440.715	76.19
440.936	86.19
441.158	83.19
441.379	94.19
441.6	81.19
441.822	98.19
442.043	85.19
442.264	84.19
442.486	82.19
442.707	84.19
442.928	79.19
443.149	98.19
443.371	116.19
443.592	88.19
443.813	99.19
444.034	118.19
444.255	101.19
444.476	80.19
444.698	77.19
444.919	85.19
445.14	132.19
445.361	108.19
445.582	115.19
445.803	121.19
446.024	113.19
446.245	136.19
446.466	95.19
446.687	82.19
446.908	90.19
447.129	87.19
447.35	94.19
447.571	90.19
447.792	84.19
448.013	83.19
448.234	87.19
448.455	89.19
448.675	103.19
448.896	108.19
449.117	85.19
449.338	114.19
449.559	125.19
449.779	126.19
450	90.19
450.221	85.19
450.442	88.19
450.662	88.19
450.883	112.19
451.104	88.19
451.324	88.19
451.545	86.19
451.766	84.19
451.986	74.19
452.207	70.19
452.428	83.19
452.648	90.19
452.869	89.19
453.089	88.19
453.31	91.19
453.53	91.19
453.751	86.19
453.971	86.19
454.192	83.19
454.412	91.19
454.633	96.19
454.853	91.19
455.073	85.19
455.294	94.19
455.514	100.19
455.734	82.19
455.955	74.19
456.175	82.19
456.395	82.19
456.616	83.19
456.836	87.19
457.056	71.19
457.276	82.19
457.497	78.19
457.717	83.19
457.937	83.19
458.157	89.19
458.377	94.19
458.598	98.19
458.818	117.19
459.038	132.19
459.258	92.19
459.478	88.19
459.698	78.19
459.918	69.19
460.138	92.19
460.358	88.19
460.578	85.19
460.798	87.19
461.018	83.19
461.238	89.19
461.458	83.19
461.678	91.19
461.898	79.19
462.118	87.19
462.338	82.19
462.558	92.19
462.777	83.19
462.997	86.19
463.217	82.19
463.437	83.19
463.657	78.19
463.876	86.19
464.096	75.19
464.316	84.19
464.536	82.19
464.755	89.19
464.975	103.19
465.195	122.19
465.414	122.19
465.634	74.19
465.854	86.19
466.073	84.19
466.293	92.19
466.512	78.19
466.732	72.19
466.951	74.19
467.171	80.19
467.391	91.19
467.61	92.19
467.829	85.19
468.049	104.19
468.268	94.19
468.488	82.19
468.707	82.19
468.927	90.19
469.146	94.19
469.365	91.19
469.585	106.19
469.804	80.19
470.023	88.19
470.243	80.19
470.462	86.19
470.681	105.19
470.901	86.19
471.12	80.19
471.339	100.19
471.558	82.19
471.777	86.19
471.997	96.19
472.216	109.19
472.435	114.19
472.654	99.19
472.873	84.19
473.092	79.19
473.311	87.19
473.53	63.19
473.749	70.19
473.968	89.19
474.187	90.19
474.406	102.19
474.625	84.19
474.844	96.19
475.063	83.19
475.282	84.19
475.501	85.19
475.72	97.19
475.939	91.19
476.158	85.19
476.377	82.19
476.596	84.19
476.814	93.19
477.033	101.19
477.252	74.19
477.471	96.19
477.69	80.19
477.908	79.19
478.127	92.19
478.346	88.19
478.564	91.19
478.783	86.19
479.002	75.19
479.22	85.19
479.439	85.19
479.658	85.19
479.876	103.19
480.095	70.19
480.313	74.19
480.532	83.19
480.751	92.19
480.969	118.19
481.188	150.19
481.406	118.19
481.624	98.19
481.843	74.19
482.061	80.19
482.28	84.19
482.498	86.19
482.717	78.19
482.935	83.19
483.153	86.19
483.372	82.19
483.59	83.19
483.808	90.19
484.027	95.19
484.245	94.19
484.463	87.19
484.681	92.19
484.9	85.19
485.118	95.19
485.336	88.19
485.554	92.19
485.772	92.19
485.99	113.19
486.209	108.19
486.427	105.19
486.645	95.19
486.863	96.19
487.081	98.19
487.299	85.19
487.517	101.19
487.735	87.19
487.953	90.19
488.171	104.19
488.389	87.19
488.607	98.19
488.825	88.19
489.043	94.19
489.261	88.19
489.479	100.19
489.696	75.19
489.914	80.19
490.132	96.19
490.35	86.19
490.568	79.19
490.786	78.19
491.003	74.19
491.221	88.19
491.439	96.19
491.657	115.19
491.874	77.19
492.092	86.19
492.31	95.19
492.527	87.19
492.745	85.19
492.963	80.19
493.18	100.19
493.398	90.19
493.615	98.19
493.833	99.19
494.05	87.19
494.268	74.19
494.485	90.19
494.703	84.19
494.92	87.19
495.138	90.19
495.355	88.19
495.573	97.19
495.79	81.19
496.008	88.19
496.225	80.19
496.442	76.19
496.66	91.19
496.877	86.19
497.094	91.19
497.312	68.19
497.529	80.19
497.746	86.19
497.963	85.19
498.181	87.19
498.398	90.19
498.615	99.19
498.832	86.19
499.049	78.19
499.267	89.19
499.484	94.19
499.701	66.19
499.918	93.19
500.135	82.19
500.352	86.19
500.569	84.19
500.786	84.19
501.003	83.19
501.22	86.19
501.437	80.19
501.654	89.19
501.871	102.19
502.088	103.19
502.305	80.19
502.522	82.19
502.739	78.19
502.956	73.19
503.172	91.19
503.389	80.19
503.606	95.19
503.823	102.19
504.04	101.19
504.256	91.19
504.473	88.19
504.69	88.19
504.907	88.19
505.123	96.19
505.34	85.19
505.557	94.19
505.773	91.19
505.99	81.19
506.207	87.19
506.423	90.19
506.64	88.19
506.856	75.19
507.073	83.19
507.289	103.19
507.506	94.19
507.722	86.19
507.939	95.19
508.155	100.19
508.372	93.19
508.588	92.19
508.805	90.19
509.021	93.19
509.238	74.19
509.454	88.19
509.67	105.19
509.887	113.19
510.103	100.19
510.319	156.19
510.536	451.19
510.752	1270.19
510.968	377.19
511.184	112.19
511.401	114.19
511.617	100.19
511.833	99.19
512.049	96.19
512.265	80.19
512.481	74.19
512.698	94.19
512.914	84.19
513.13	105.19
513.346	82.19
513.562	89.19
513.778	91.19
513.994	86.19
514.21	105.19
514.426	90.19
514.642	117.19
514.858	101.19
515.074	138.19
515.29	278.19
515.506	778.19
515.721	297.19
515.937	128.19
516.153	108.19
516.369	96.19
516.585	83.19
516.801	95.19
517.016	90.19
