Data from Uncirc_1981_H10_HRD10591_00020.txt Node
Date: Wed Jan 03 12:33:12 EST 2024
User: Yrep
Spectrometer: HR+D1059
Trigger mode: 1
Integration Time (sec): 1.000000E-1
Scans to average: 1
Electric dark correction enabled: true
Nonlinearity correction enabled: false
Boxcar width: 0
XAxis mode: Wavelengths
Number of Pixels in Spectrum: 2048
>>>>>Begin Spectral Data<<<<<
223.165	-10.44
223.4	-10.44
223.635	-10.44
223.869	-5.44
224.104	-20.44
224.338	-10.44
224.573	-14.44
224.808	-8.44
225.042	-3.44
225.277	-1.44
225.511	-17.44
225.746	11.56
225.98	8.56
226.215	-9.44
226.449	15.56
226.683	7.56
226.918	29.56
227.152	28.56
227.387	16.56
227.621	43.56
227.856	38.56
228.09	46.56
228.324	62.56
228.559	65.56
228.793	44.56
229.027	50.56
229.262	73.56
229.496	64.56
229.73	85.56
229.964	83.56
230.199	87.56
230.433	71.56
230.667	83.56
230.901	79.56
231.136	76.56
231.37	72.56
231.604	95.56
231.838	86.56
232.072	86.56
232.306	71.56
232.541	88.56
232.775	90.56
233.009	78.56
233.243	80.56
233.477	86.56
233.711	85.56
233.945	85.56
234.179	87.56
234.413	73.56
234.647	84.56
234.881	82.56
235.115	86.56
235.349	80.56
235.583	99.56
235.817	95.56
236.051	72.56
236.285	85.56
236.519	81.56
236.753	84.56
236.987	80.56
237.221	94.56
237.455	91.56
237.689	87.56
237.922	82.56
238.156	78.56
238.39	62.56
238.624	70.56
238.858	67.56
239.091	89.56
239.325	83.56
239.559	91.56
239.793	69.56
240.027	69.56
240.26	72.56
240.494	60.56
240.728	86.56
240.961	76.56
241.195	75.56
241.429	87.56
241.662	78.56
241.896	67.56
242.13	75.56
242.363	86.56
242.597	76.56
242.83	74.56
243.064	80.56
243.298	83.56
243.531	84.56
243.765	86.56
243.998	73.56
244.232	86.56
244.465	70.56
244.699	80.56
244.932	87.56
245.166	71.56
245.399	86.56
245.633	80.56
245.866	85.56
246.099	86.56
246.333	83.56
246.566	91.56
246.8	93.56
247.033	80.56
247.266	77.56
247.5	78.56
247.733	82.56
247.966	85.56
248.2	93.56
248.433	80.56
248.666	89.56
248.899	74.56
249.133	82.56
249.366	93.56
249.599	86.56
249.832	95.56
250.066	95.56
250.299	81.56
250.532	77.56
250.765	72.56
250.998	63.56
251.231	74.56
251.465	67.56
251.698	80.56
251.931	81.56
252.164	76.56
252.397	73.56
252.63	81.56
252.863	73.56
253.096	84.56
253.329	88.56
253.562	85.56
253.795	91.56
254.028	84.56
254.261	84.56
254.494	85.56
254.727	91.56
254.96	95.56
255.193	77.56
255.426	72.56
255.659	85.56
255.892	83.56
256.124	75.56
256.357	79.56
256.59	77.56
256.823	102.56
257.056	91.56
257.289	95.56
257.521	83.56
257.754	76.56
257.987	83.56
258.22	92.56
258.452	88.56
258.685	89.56
258.918	80.56
259.151	78.56
259.383	89.56
259.616	91.56
259.849	85.56
260.081	69.56
260.314	80.56
260.547	83.56
260.779	100.56
261.012	90.56
261.244	87.56
261.477	81.56
261.71	75.56
261.942	103.56
262.175	103.56
262.407	79.56
262.64	71.56
262.872	88.56
263.105	92.56
263.337	76.56
263.57	85.56
263.802	82.56
264.035	74.56
264.267	84.56
264.499	79.56
264.732	83.56
264.964	86.56
265.197	73.56
265.429	78.56
265.661	85.56
265.894	99.56
266.126	87.56
266.358	87.56
266.591	85.56
266.823	96.56
267.055	88.56
267.287	94.56
267.52	77.56
267.752	85.56
267.984	87.56
268.216	96.56
268.448	78.56
268.681	76.56
268.913	90.56
269.145	85.56
269.377	89.56
269.609	92.56
269.841	89.56
270.073	88.56
270.306	84.56
270.538	78.56
270.77	88.56
271.002	101.56
271.234	89.56
271.466	84.56
271.698	87.56
271.93	94.56
272.162	88.56
272.394	94.56
272.626	81.56
272.858	101.56
273.09	89.56
273.322	93.56
273.553	79.56
273.785	80.56
274.017	89.56
274.249	83.56
274.481	89.56
274.713	96.56
274.945	94.56
275.176	95.56
275.408	79.56
275.64	87.56
275.872	91.56
276.104	85.56
276.335	94.56
276.567	97.56
276.799	108.56
277.031	96.56
277.262	103.56
277.494	89.56
277.726	91.56
277.957	86.56
278.189	88.56
278.421	86.56
278.652	82.56
278.884	89.56
279.115	94.56
279.347	85.56
279.579	93.56
279.81	89.56
280.042	104.56
280.273	90.56
280.505	108.56
280.736	100.56
280.968	100.56
281.199	102.56
281.431	93.56
281.662	86.56
281.894	95.56
282.125	103.56
282.356	110.56
282.588	116.56
282.819	104.56
283.051	89.56
283.282	83.56
283.513	92.56
283.745	88.56
283.976	82.56
284.207	86.56
284.439	89.56
284.67	91.56
284.901	81.56
285.132	89.56
285.364	91.56
285.595	98.56
285.826	93.56
286.057	79.56
286.288	91.56
286.52	76.56
286.751	87.56
286.982	87.56
287.213	88.56
287.444	88.56
287.675	87.56
287.906	69.56
288.138	93.56
288.369	88.56
288.6	91.56
288.831	91.56
289.062	92.56
289.293	92.56
289.524	92.56
289.755	74.56
289.986	86.56
290.217	87.56
290.448	90.56
290.679	101.56
290.91	75.56
291.141	85.56
291.371	91.56
291.602	86.56
291.833	88.56
292.064	87.56
292.295	100.56
292.526	83.56
292.757	100.56
292.987	90.56
293.218	102.56
293.449	77.56
293.68	87.56
293.91	90.56
294.141	84.56
294.372	95.56
294.603	77.56
294.833	78.56
295.064	96.56
295.295	79.56
295.525	95.56
295.756	84.56
295.987	101.56
296.217	115.56
296.448	102.56
296.679	91.56
296.909	74.56
297.14	92.56
297.37	106.56
297.601	83.56
297.831	93.56
298.062	84.56
298.292	78.56
298.523	85.56
298.753	78.56
298.984	91.56
299.214	98.56
299.445	89.56
299.675	84.56
299.905	94.56
300.136	88.56
300.366	84.56
300.597	86.56
300.827	96.56
301.057	107.56
301.288	83.56
301.518	105.56
301.748	101.56
301.979	108.56
302.209	96.56
302.439	81.56
302.669	77.56
302.9	77.56
303.13	96.56
303.36	83.56
303.59	100.56
303.82	103.56
304.051	100.56
304.281	82.56
304.511	100.56
304.741	89.56
304.971	99.56
305.201	85.56
305.431	89.56
305.661	93.56
305.891	88.56
306.121	85.56
306.352	101.56
306.582	107.56
306.812	101.56
307.042	97.56
307.272	88.56
307.502	98.56
307.731	79.56
307.961	88.56
308.191	83.56
308.421	93.56
308.651	92.56
308.881	96.56
309.111	106.56
309.341	89.56
309.571	97.56
309.8	79.56
310.03	92.56
310.26	98.56
310.49	97.56
310.72	88.56
310.949	94.56
311.179	100.56
311.409	92.56
311.639	107.56
311.868	95.56
312.098	91.56
312.328	99.56
312.557	98.56
312.787	95.56
313.017	103.56
313.246	92.56
313.476	89.56
313.706	100.56
313.935	91.56
314.165	83.56
314.394	108.56
314.624	97.56
314.853	92.56
315.083	111.56
315.312	101.56
315.542	84.56
315.771	91.56
316.001	84.56
316.23	91.56
316.46	94.56
316.689	98.56
316.919	95.56
317.148	91.56
317.377	85.56
317.607	111.56
317.836	106.56
318.065	96.56
318.295	85.56
318.524	92.56
318.753	85.56
318.983	96.56
319.212	111.56
319.441	102.56
319.67	109.56
319.9	98.56
320.129	103.56
320.358	103.56
320.587	87.56
320.816	93.56
321.046	85.56
321.275	105.56
321.504	100.56
321.733	96.56
321.962	87.56
322.191	112.56
322.42	98.56
322.649	111.56
322.878	113.56
323.108	120.56
323.337	116.56
323.566	118.56
323.795	121.56
324.024	179.56
324.253	308.56
324.482	667.56
324.71	1399.56
324.939	1887.56
325.168	687.56
325.397	225.56
325.626	144.56
325.855	126.56
326.084	123.56
326.313	137.56
326.542	144.56
326.77	208.56
326.999	380.56
327.228	792.56
327.457	1491.56
327.686	1168.56
327.914	317.56
328.143	180.56
328.372	123.56
328.6	114.56
328.829	112.56
329.058	102.56
329.287	119.56
329.515	112.56
329.744	99.56
329.972	118.56
330.201	112.56
330.43	93.56
330.658	99.56
330.887	123.56
331.115	113.56
331.344	104.56
331.572	110.56
331.801	104.56
332.03	118.56
332.258	96.56
332.486	106.56
332.715	93.56
332.943	94.56
333.172	103.56
333.4	99.56
333.629	107.56
333.857	99.56
334.085	102.56
334.314	92.56
334.542	116.56
334.771	117.56
334.999	104.56
335.227	91.56
335.455	99.56
335.684	84.56
335.912	78.56
336.14	107.56
336.369	92.56
336.597	99.56
336.825	91.56
337.053	98.56
337.281	92.56
337.51	103.56
337.738	104.56
337.966	89.56
338.194	95.56
338.422	89.56
338.65	95.56
338.878	112.56
339.106	102.56
339.334	87.56
339.562	92.56
339.79	98.56
340.018	87.56
340.246	102.56
340.474	98.56
340.702	90.56
340.93	92.56
341.158	88.56
341.386	116.56
341.614	88.56
341.842	105.56
342.07	81.56
342.298	88.56
342.526	95.56
342.754	80.56
342.981	85.56
343.209	77.56
343.437	97.56
343.665	93.56
343.893	93.56
344.12	104.56
344.348	98.56
344.576	94.56
344.804	101.56
345.031	110.56
345.259	103.56
345.487	84.56
345.714	100.56
345.942	95.56
346.17	119.56
346.397	95.56
346.625	72.56
346.853	91.56
347.08	103.56
347.308	99.56
347.535	104.56
347.763	107.56
347.99	101.56
348.218	99.56
348.445	95.56
348.673	102.56
348.9	102.56
349.128	97.56
349.355	107.56
349.583	96.56
349.81	94.56
350.037	101.56
350.265	95.56
350.492	104.56
350.72	94.56
350.947	107.56
351.174	96.56
351.402	102.56
351.629	105.56
351.856	106.56
352.083	119.56
352.311	112.56
352.538	107.56
352.765	116.56
352.992	115.56
353.22	125.56
353.447	103.56
353.674	97.56
353.901	105.56
354.128	94.56
354.355	94.56
354.583	101.56
354.81	103.56
355.037	97.56
355.264	105.56
355.491	102.56
355.718	94.56
355.945	97.56
356.172	93.56
356.399	96.56
356.626	97.56
356.853	111.56
357.08	86.56
357.307	94.56
357.534	86.56
357.761	107.56
357.988	104.56
358.215	99.56
358.441	102.56
358.668	100.56
358.895	95.56
359.122	93.56
359.349	78.56
359.576	96.56
359.802	101.56
360.029	99.56
360.256	101.56
360.483	96.56
360.709	90.56
360.936	96.56
361.163	103.56
361.39	99.56
361.616	93.56
361.843	101.56
362.07	98.56
362.296	94.56
362.523	96.56
362.749	91.56
362.976	110.56
363.203	101.56
363.429	87.56
363.656	95.56
363.882	87.56
364.109	90.56
364.335	90.56
364.562	106.56
364.788	93.56
365.015	91.56
365.241	96.56
365.468	92.56
365.694	99.56
365.92	93.56
366.147	94.56
366.373	89.56
366.599	100.56
366.826	94.56
367.052	79.56
367.278	106.56
367.505	91.56
367.731	94.56
367.957	94.56
368.184	98.56
368.41	99.56
368.636	114.56
368.862	110.56
369.089	93.56
369.315	104.56
369.541	97.56
369.767	87.56
369.993	91.56
370.219	86.56
370.445	95.56
370.672	86.56
370.898	118.56
371.124	95.56
371.35	100.56
371.576	94.56
371.802	96.56
372.028	95.56
372.254	89.56
372.48	86.56
372.706	85.56
372.932	96.56
373.158	93.56
373.384	91.56
373.61	98.56
373.835	107.56
374.061	89.56
374.287	99.56
374.513	79.56
374.739	94.56
374.965	105.56
375.191	100.56
375.416	94.56
375.642	80.56
375.868	97.56
376.094	106.56
376.319	99.56
376.545	105.56
376.771	85.56
376.997	89.56
377.222	90.56
377.448	87.56
377.674	110.56
377.899	108.56
378.125	101.56
378.35	105.56
378.576	108.56
378.802	96.56
379.027	101.56
379.253	103.56
379.478	100.56
379.704	94.56
379.929	101.56
380.155	96.56
380.38	98.56
380.606	92.56
380.831	93.56
381.057	108.56
381.282	96.56
381.507	116.56
381.733	91.56
381.958	126.56
382.184	96.56
382.409	112.56
382.634	122.56
382.86	107.56
383.085	104.56
383.31	108.56
383.535	105.56
383.761	117.56
383.986	100.56
384.211	106.56
384.436	119.56
384.662	110.56
384.887	135.56
385.112	135.56
385.337	129.56
385.562	125.56
385.787	121.56
386.013	131.56
386.238	137.56
386.463	120.56
386.688	124.56
386.913	120.56
387.138	117.56
387.363	115.56
387.588	109.56
387.813	119.56
388.038	124.56
388.263	147.56
388.488	134.56
388.713	112.56
388.938	105.56
389.163	101.56
389.387	94.56
389.612	99.56
389.837	94.56
390.062	99.56
390.287	100.56
390.512	88.56
390.736	100.56
390.961	90.56
391.186	105.56
391.411	97.56
391.636	101.56
391.86	87.56
392.085	82.56
392.31	86.56
392.534	85.56
392.759	91.56
392.984	96.56
393.208	116.56
393.433	84.56
393.658	93.56
393.882	98.56
394.107	90.56
394.331	99.56
394.556	80.56
394.78	101.56
395.005	94.56
395.229	91.56
395.454	105.56
395.678	87.56
395.903	87.56
396.127	91.56
396.352	90.56
396.576	75.56
396.801	74.56
397.025	92.56
397.249	109.56
397.474	88.56
397.698	96.56
397.922	87.56
398.147	101.56
398.371	85.56
398.595	98.56
398.82	96.56
399.044	93.56
399.268	83.56
399.492	92.56
399.717	106.56
399.941	97.56
400.165	96.56
400.389	89.56
400.613	80.56
400.837	90.56
401.062	94.56
401.286	100.56
401.51	85.56
401.734	93.56
401.958	90.56
402.182	87.56
402.406	129.56
402.63	109.56
402.854	101.56
403.078	80.56
403.302	100.56
403.526	79.56
403.75	89.56
403.974	93.56
404.198	103.56
404.422	93.56
404.645	96.56
404.869	101.56
405.093	92.56
405.317	97.56
405.541	99.56
405.765	103.56
405.988	112.56
406.212	129.56
406.436	166.56
406.66	115.56
406.883	96.56
407.107	80.56
407.331	98.56
407.555	98.56
407.778	96.56
408.002	103.56
408.226	103.56
408.449	92.56
408.673	93.56
408.896	93.56
409.12	99.56
409.344	105.56
409.567	96.56
409.791	104.56
410.014	100.56
410.238	105.56
410.461	101.56
410.685	94.56
410.908	107.56
411.132	117.56
411.355	106.56
411.578	104.56
411.802	105.56
412.025	91.56
412.249	103.56
412.472	87.56
412.695	90.56
412.919	85.56
413.142	96.56
413.365	97.56
413.589	89.56
413.812	83.56
414.035	88.56
414.258	89.56
414.482	93.56
414.705	92.56
414.928	88.56
415.151	98.56
415.374	88.56
415.597	91.56
415.821	104.56
416.044	94.56
416.267	99.56
416.49	98.56
416.713	101.56
416.936	89.56
417.159	101.56
417.382	95.56
417.605	86.56
417.828	92.56
418.051	90.56
418.274	93.56
418.497	96.56
418.72	92.56
418.943	98.56
419.166	85.56
419.389	97.56
419.611	92.56
419.834	89.56
420.057	83.56
420.28	84.56
420.503	104.56
420.726	91.56
420.948	102.56
421.171	108.56
421.394	107.56
421.617	92.56
421.839	87.56
422.062	91.56
422.285	101.56
422.507	103.56
422.73	99.56
422.953	103.56
423.175	103.56
423.398	91.56
423.621	92.56
423.843	76.56
424.066	95.56
424.288	102.56
424.511	99.56
424.733	112.56
424.956	97.56
425.178	78.56
425.401	111.56
425.623	95.56
425.846	94.56
426.068	101.56
426.291	91.56
426.513	86.56
426.735	91.56
426.958	78.56
427.18	88.56
427.402	117.56
427.625	142.56
427.847	126.56
428.069	115.56
428.292	88.56
428.514	82.56
428.736	96.56
428.958	94.56
429.181	91.56
429.403	109.56
429.625	81.56
429.847	87.56
430.069	89.56
430.292	79.56
430.514	93.56
430.736	88.56
430.958	95.56
431.18	88.56
431.402	107.56
431.624	93.56
431.846	96.56
432.068	90.56
432.29	82.56
432.512	84.56
432.734	102.56
432.956	95.56
433.178	101.56
433.4	102.56
433.622	99.56
433.844	96.56
434.066	102.56
434.287	98.56
434.509	102.56
434.731	102.56
434.953	86.56
435.175	90.56
435.397	108.56
435.618	101.56
435.84	101.56
436.062	121.56
436.284	116.56
436.505	97.56
436.727	93.56
436.949	98.56
437.17	91.56
437.392	87.56
437.614	89.56
437.835	100.56
438.057	102.56
438.278	92.56
438.5	94.56
438.721	123.56
438.943	102.56
439.165	83.56
439.386	95.56
439.608	100.56
439.829	92.56
440.05	107.56
440.272	129.56
440.493	92.56
440.715	83.56
440.936	78.56
441.158	97.56
441.379	93.56
441.6	84.56
441.822	78.56
442.043	94.56
442.264	93.56
442.486	88.56
442.707	96.56
442.928	100.56
443.149	104.56
443.371	114.56
443.592	102.56
443.813	105.56
444.034	101.56
444.255	97.56
444.476	94.56
444.698	86.56
444.919	95.56
445.14	127.56
445.361	119.56
445.582	96.56
445.803	104.56
446.024	133.56
446.245	121.56
446.466	99.56
446.687	108.56
446.908	99.56
447.129	93.56
447.35	87.56
447.571	86.56
447.792	85.56
448.013	106.56
448.234	104.56
448.455	78.56
448.675	112.56
448.896	109.56
449.117	99.56
449.338	99.56
449.559	126.56
449.779	127.56
450	83.56
450.221	92.56
450.442	80.56
450.662	96.56
450.883	104.56
451.104	108.56
451.324	97.56
451.545	89.56
451.766	86.56
451.986	75.56
452.207	89.56
452.428	83.56
452.648	102.56
452.869	121.56
453.089	109.56
453.31	103.56
453.53	93.56
453.751	90.56
453.971	93.56
454.192	102.56
454.412	106.56
454.633	81.56
454.853	82.56
455.073	71.56
455.294	96.56
455.514	94.56
455.734	94.56
455.955	87.56
456.175	88.56
456.395	90.56
456.616	96.56
456.836	91.56
457.056	106.56
457.276	83.56
457.497	83.56
457.717	86.56
457.937	89.56
458.157	93.56
458.377	97.56
458.598	95.56
458.818	134.56
459.038	139.56
459.258	107.56
459.478	81.56
459.698	89.56
459.918	88.56
460.138	91.56
460.358	85.56
460.578	107.56
460.798	93.56
461.018	94.56
461.238	74.56
461.458	82.56
461.678	92.56
461.898	99.56
462.118	96.56
462.338	101.56
462.558	87.56
462.777	91.56
462.997	78.56
463.217	80.56
463.437	92.56
463.657	82.56
463.876	74.56
464.096	89.56
464.316	98.56
464.536	86.56
464.755	89.56
464.975	99.56
465.195	128.56
465.414	129.56
465.634	84.56
465.854	91.56
466.073	89.56
466.293	88.56
466.512	81.56
466.732	87.56
466.951	70.56
467.171	89.56
467.391	90.56
467.61	105.56
467.829	90.56
468.049	102.56
468.268	96.56
468.488	91.56
468.707	84.56
468.927	89.56
469.146	102.56
469.365	99.56
469.585	86.56
469.804	97.56
470.023	91.56
470.243	82.56
470.462	99.56
470.681	107.56
470.901	101.56
471.12	82.56
471.339	88.56
471.558	89.56
471.777	88.56
471.997	95.56
472.216	105.56
472.435	116.56
472.654	86.56
472.873	80.56
473.092	66.56
473.311	83.56
473.53	83.56
473.749	94.56
473.968	84.56
474.187	103.56
474.406	86.56
474.625	91.56
474.844	95.56
475.063	80.56
475.282	93.56
475.501	75.56
475.72	83.56
475.939	80.56
476.158	80.56
476.377	76.56
476.596	97.56
476.814	81.56
477.033	85.56
477.252	84.56
477.471	85.56
477.69	98.56
477.908	95.56
478.127	93.56
478.346	94.56
478.564	90.56
478.783	114.56
479.002	107.56
479.22	95.56
479.439	97.56
479.658	92.56
479.876	86.56
480.095	89.56
480.313	84.56
480.532	92.56
480.751	110.56
480.969	104.56
481.188	145.56
481.406	128.56
481.624	102.56
481.843	71.56
482.061	88.56
482.28	90.56
482.498	85.56
482.717	86.56
482.935	103.56
483.153	84.56
483.372	77.56
483.59	85.56
483.808	89.56
484.027	98.56
484.245	92.56
484.463	80.56
484.681	109.56
484.9	105.56
485.118	103.56
485.336	116.56
485.554	97.56
485.772	115.56
485.99	111.56
486.209	102.56
486.427	112.56
486.645	107.56
486.863	108.56
487.081	96.56
487.299	86.56
487.517	112.56
487.735	107.56
487.953	101.56
488.171	106.56
488.389	87.56
488.607	105.56
488.825	75.56
489.043	96.56
489.261	83.56
489.479	104.56
489.696	79.56
489.914	76.56
490.132	90.56
490.35	81.56
490.568	87.56
490.786	107.56
491.003	84.56
491.221	90.56
491.439	97.56
491.657	91.56
491.874	100.56
492.092	99.56
492.31	77.56
492.527	97.56
492.745	96.56
492.963	93.56
493.18	104.56
493.398	87.56
493.615	111.56
493.833	104.56
494.05	83.56
494.268	105.56
494.485	93.56
494.703	81.56
494.92	83.56
495.138	87.56
495.355	101.56
495.573	99.56
495.79	102.56
496.008	91.56
496.225	94.56
496.442	89.56
496.66	107.56
496.877	81.56
497.094	96.56
497.312	99.56
497.529	93.56
497.746	98.56
497.963	78.56
498.181	85.56
498.398	94.56
498.615	115.56
498.832	111.56
499.049	90.56
499.267	89.56
499.484	88.56
499.701	88.56
499.918	94.56
500.135	93.56
500.352	93.56
500.569	78.56
500.786	92.56
501.003	96.56
501.22	87.56
501.437	95.56
501.654	98.56
501.871	102.56
502.088	103.56
502.305	76.56
502.522	91.56
502.739	111.56
502.956	88.56
503.172	83.56
503.389	85.56
503.606	107.56
503.823	110.56
504.04	79.56
504.256	94.56
504.473	103.56
504.69	96.56
504.907	92.56
505.123	113.56
505.34	95.56
505.557	102.56
505.773	87.56
505.99	104.56
506.207	92.56
506.423	86.56
506.64	92.56
506.856	86.56
507.073	89.56
507.289	86.56
507.506	89.56
507.722	103.56
507.939	106.56
508.155	91.56
508.372	111.56
508.588	96.56
508.805	100.56
509.021	103.56
509.238	93.56
509.454	91.56
509.67	97.56
509.887	99.56
510.103	105.56
510.319	176.56
510.536	521.56
510.752	1373.56
510.968	398.56
511.184	129.56
511.401	104.56
511.617	101.56
511.833	100.56
512.049	89.56
512.265	96.56
512.481	81.56
512.698	94.56
512.914	105.56
513.13	73.56
513.346	73.56
513.562	86.56
513.778	92.56
513.994	95.56
514.21	91.56
514.426	115.56
514.642	117.56
