Data from Uncirc_1981_H10_HRD10591_00096.txt Node
Date: Wed Jan 03 12:33:27 EST 2024
User: Yrep
Spectrometer: HR+D1059
Trigger mode: 1
Integration Time (sec): 1.000000E-1
Scans to average: 1
Electric dark correction enabled: true
Nonlinearity correction enabled: false
Boxcar width: 0
XAxis mode: Wavelengths
Number of Pixels in Spectrum: 2048
>>>>>Begin Spectral Data<<<<<
223.165	-15.94
223.4	-15.94
223.635	-15.94
223.869	-9.94
224.104	-13.94
224.338	-17.94
224.573	-22.94
224.808	-16.94
225.042	-4.94
225.277	-13.94
225.511	7.06
225.746	14.06
225.98	-2.94
226.215	4.06
226.449	12.06
226.683	24.06
226.918	31.06
227.152	27.06
227.387	42.06
227.621	46.06
227.856	44.06
228.09	54.06
228.324	54.06
228.559	65.06
228.793	50.06
229.027	65.06
229.262	75.06
229.496	67.06
229.73	100.06
229.964	65.06
230.199	84.06
230.433	86.06
230.667	75.06
230.901	78.06
231.136	93.06
231.37	85.06
231.604	76.06
231.838	68.06
232.072	82.06
232.306	76.06
232.541	73.06
232.775	90.06
233.009	80.06
233.243	70.06
233.477	79.06
233.711	86.06
233.945	88.06
234.179	74.06
234.413	76.06
234.647	76.06
234.881	84.06
235.115	75.06
235.349	83.06
235.583	72.06
235.817	85.06
236.051	75.06
236.285	82.06
236.519	98.06
236.753	74.06
236.987	65.06
237.221	90.06
237.455	85.06
237.689	87.06
237.922	70.06
238.156	85.06
238.39	82.06
238.624	86.06
238.858	89.06
239.091	85.06
239.325	83.06
239.559	85.06
239.793	88.06
240.027	92.06
240.26	90.06
240.494	74.06
240.728	71.06
240.961	78.06
241.195	76.06
241.429	80.06
241.662	80.06
241.896	89.06
242.13	79.06
242.363	77.06
242.597	90.06
242.83	74.06
243.064	78.06
243.298	86.06
243.531	80.06
243.765	86.06
243.998	69.06
244.232	91.06
244.465	94.06
244.699	84.06
244.932	87.06
245.166	85.06
245.399	66.06
245.633	82.06
245.866	77.06
246.099	86.06
246.333	86.06
246.566	89.06
246.8	70.06
247.033	88.06
247.266	88.06
247.5	63.06
247.733	68.06
247.966	89.06
248.2	69.06
248.433	86.06
248.666	88.06
248.899	89.06
249.133	87.06
249.366	96.06
249.599	90.06
249.832	70.06
250.066	79.06
250.299	95.06
250.532	81.06
250.765	86.06
250.998	80.06
251.231	78.06
251.465	87.06
251.698	88.06
251.931	75.06
252.164	90.06
252.397	77.06
252.63	76.06
252.863	84.06
253.096	94.06
253.329	76.06
253.562	84.06
253.795	91.06
254.028	92.06
254.261	77.06
254.494	80.06
254.727	88.06
254.96	85.06
255.193	92.06
255.426	69.06
255.659	85.06
255.892	93.06
256.124	93.06
256.357	89.06
256.59	72.06
256.823	88.06
257.056	80.06
257.289	76.06
257.521	84.06
257.754	101.06
257.987	93.06
258.22	86.06
258.452	89.06
258.685	81.06
258.918	76.06
259.151	89.06
259.383	88.06
259.616	69.06
259.849	89.06
260.081	87.06
260.314	74.06
260.547	84.06
260.779	98.06
261.012	96.06
261.244	78.06
261.477	89.06
261.71	102.06
261.942	101.06
262.175	103.06
262.407	85.06
262.64	99.06
262.872	75.06
263.105	92.06
263.337	84.06
263.57	81.06
263.802	62.06
264.035	80.06
264.267	80.06
264.499	97.06
264.732	96.06
264.964	78.06
265.197	88.06
265.429	84.06
265.661	85.06
265.894	89.06
266.126	88.06
266.358	96.06
266.591	100.06
266.823	99.06
267.055	73.06
267.287	89.06
267.52	96.06
267.752	88.06
267.984	76.06
268.216	91.06
268.448	84.06
268.681	73.06
268.913	92.06
269.145	92.06
269.377	76.06
269.609	86.06
269.841	73.06
270.073	84.06
270.306	80.06
270.538	82.06
270.77	80.06
271.002	95.06
271.234	98.06
271.466	87.06
271.698	95.06
271.93	88.06
272.162	74.06
272.394	79.06
272.626	86.06
272.858	90.06
273.09	81.06
273.322	81.06
273.553	88.06
273.785	103.06
274.017	89.06
274.249	88.06
274.481	59.06
274.713	86.06
274.945	86.06
275.176	89.06
275.408	90.06
275.64	77.06
275.872	88.06
276.104	96.06
276.335	92.06
276.567	98.06
276.799	98.06
277.031	77.06
277.262	76.06
277.494	87.06
277.726	93.06
277.957	88.06
278.189	88.06
278.421	86.06
278.652	101.06
278.884	96.06
279.115	78.06
279.347	74.06
279.579	81.06
279.81	82.06
280.042	79.06
280.273	86.06
280.505	69.06
280.736	95.06
280.968	84.06
281.199	85.06
281.431	103.06
281.662	94.06
281.894	76.06
282.125	88.06
282.356	103.06
282.588	118.06
282.819	107.06
283.051	92.06
283.282	84.06
283.513	100.06
283.745	93.06
283.976	107.06
284.207	87.06
284.439	88.06
284.67	98.06
284.901	91.06
285.132	86.06
285.364	96.06
285.595	95.06
285.826	93.06
286.057	81.06
286.288	80.06
286.52	84.06
286.751	83.06
286.982	102.06
287.213	81.06
287.444	95.06
287.675	100.06
287.906	105.06
288.138	89.06
288.369	87.06
288.6	86.06
288.831	86.06
289.062	96.06
289.293	106.06
289.524	84.06
289.755	88.06
289.986	78.06
290.217	84.06
290.448	89.06
290.679	95.06
290.91	90.06
291.141	96.06
291.371	89.06
291.602	106.06
291.833	87.06
292.064	104.06
292.295	96.06
292.526	97.06
292.757	86.06
292.987	97.06
293.218	77.06
293.449	105.06
293.68	84.06
293.91	96.06
294.141	110.06
294.372	102.06
294.603	72.06
294.833	90.06
295.064	96.06
295.295	88.06
295.525	97.06
295.756	96.06
295.987	109.06
296.217	105.06
296.448	100.06
296.679	93.06
296.909	85.06
297.14	101.06
297.37	98.06
297.601	90.06
297.831	103.06
298.062	102.06
298.292	107.06
298.523	100.06
298.753	76.06
298.984	103.06
299.214	98.06
299.445	103.06
299.675	110.06
299.905	102.06
300.136	90.06
300.366	104.06
300.597	115.06
300.827	87.06
301.057	91.06
301.288	107.06
301.518	106.06
301.748	100.06
301.979	111.06
302.209	87.06
302.439	91.06
302.669	81.06
302.9	97.06
303.13	100.06
303.36	94.06
303.59	101.06
303.82	102.06
304.051	81.06
304.281	81.06
304.511	106.06
304.741	90.06
304.971	101.06
305.201	86.06
305.431	92.06
305.661	95.06
305.891	102.06
306.121	95.06
306.352	92.06
306.582	88.06
306.812	98.06
307.042	91.06
307.272	96.06
307.502	99.06
307.731	97.06
307.961	96.06
308.191	93.06
308.421	82.06
308.651	99.06
308.881	110.06
309.111	90.06
309.341	86.06
309.571	92.06
309.8	91.06
310.03	88.06
310.26	95.06
310.49	101.06
310.72	92.06
310.949	110.06
311.179	108.06
311.409	103.06
311.639	102.06
311.868	83.06
312.098	102.06
312.328	108.06
312.557	106.06
312.787	106.06
313.017	100.06
313.246	96.06
313.476	94.06
313.706	99.06
313.935	92.06
314.165	92.06
314.394	105.06
314.624	105.06
314.853	98.06
315.083	86.06
315.312	79.06
315.542	113.06
315.771	92.06
316.001	95.06
316.23	93.06
316.46	81.06
316.689	97.06
316.919	103.06
317.148	95.06
317.377	103.06
317.607	99.06
317.836	102.06
318.065	98.06
318.295	86.06
318.524	97.06
318.753	92.06
318.983	104.06
319.212	100.06
319.441	106.06
319.67	114.06
319.9	96.06
320.129	94.06
320.358	95.06
320.587	94.06
320.816	101.06
321.046	92.06
321.275	97.06
321.504	93.06
321.733	110.06
321.962	94.06
322.191	82.06
322.42	98.06
322.649	118.06
322.878	103.06
323.108	118.06
323.337	120.06
323.566	119.06
323.795	130.06
324.024	170.06
324.253	318.06
324.482	674.06
324.71	1322.06
324.939	1733.06
325.168	626.06
325.397	214.06
325.626	128.06
325.855	110.06
326.084	102.06
326.313	125.06
326.542	134.06
326.77	206.06
326.999	383.06
327.228	785.06
327.457	1396.06
327.686	1114.06
327.914	305.06
328.143	173.06
328.372	144.06
328.6	120.06
328.829	117.06
329.058	128.06
329.287	122.06
329.515	100.06
329.744	105.06
329.972	110.06
330.201	120.06
330.43	132.06
330.658	117.06
330.887	120.06
331.115	109.06
331.344	94.06
331.572	87.06
331.801	94.06
332.03	94.06
332.258	97.06
332.486	98.06
332.715	99.06
332.943	105.06
333.172	105.06
333.4	91.06
333.629	104.06
333.857	110.06
334.085	108.06
334.314	116.06
334.542	133.06
334.771	110.06
334.999	112.06
335.227	97.06
335.455	85.06
335.684	86.06
335.912	92.06
336.14	112.06
336.369	105.06
336.597	103.06
336.825	96.06
337.053	85.06
337.281	95.06
337.51	98.06
337.738	98.06
337.966	90.06
338.194	103.06
338.422	110.06
338.65	99.06
338.878	92.06
339.106	100.06
339.334	102.06
339.562	81.06
339.79	92.06
340.018	94.06
340.246	92.06
340.474	105.06
340.702	92.06
340.93	85.06
341.158	87.06
341.386	92.06
341.614	103.06
341.842	92.06
342.07	92.06
342.298	99.06
342.526	92.06
342.754	99.06
342.981	101.06
343.209	85.06
343.437	119.06
343.665	96.06
343.893	94.06
344.12	95.06
344.348	95.06
344.576	92.06
344.804	100.06
345.031	93.06
345.259	88.06
345.487	91.06
345.714	78.06
345.942	106.06
346.17	100.06
346.397	98.06
346.625	84.06
346.853	83.06
347.08	91.06
347.308	100.06
347.535	91.06
347.763	101.06
347.99	104.06
348.218	108.06
348.445	114.06
348.673	105.06
348.9	99.06
349.128	100.06
349.355	95.06
349.583	101.06
349.81	96.06
350.037	98.06
350.265	96.06
350.492	99.06
350.72	92.06
350.947	100.06
351.174	113.06
351.402	96.06
351.629	98.06
351.856	102.06
352.083	109.06
352.311	97.06
352.538	103.06
352.765	96.06
352.992	108.06
353.22	93.06
353.447	101.06
353.674	104.06
353.901	100.06
354.128	115.06
354.355	88.06
354.583	80.06
354.81	89.06
355.037	97.06
355.264	101.06
355.491	113.06
355.718	94.06
355.945	100.06
356.172	95.06
356.399	101.06
356.626	105.06
356.853	93.06
357.08	92.06
357.307	92.06
357.534	91.06
357.761	100.06
357.988	100.06
358.215	110.06
358.441	95.06
358.668	86.06
358.895	94.06
359.122	94.06
359.349	84.06
359.576	100.06
359.802	95.06
360.029	104.06
360.256	97.06
360.483	101.06
360.709	84.06
360.936	96.06
361.163	97.06
361.39	97.06
361.616	87.06
361.843	86.06
362.07	104.06
362.296	104.06
362.523	100.06
362.749	90.06
362.976	97.06
363.203	88.06
363.429	87.06
363.656	94.06
363.882	86.06
364.109	80.06
364.335	94.06
364.562	108.06
364.788	99.06
365.015	90.06
365.241	88.06
365.468	106.06
365.694	93.06
365.92	92.06
366.147	101.06
366.373	98.06
366.599	79.06
366.826	86.06
367.052	98.06
367.278	87.06
367.505	100.06
367.731	102.06
367.957	89.06
368.184	103.06
368.41	94.06
368.636	98.06
368.862	111.06
369.089	100.06
369.315	79.06
369.541	98.06
369.767	90.06
369.993	104.06
370.219	109.06
370.445	102.06
370.672	95.06
370.898	91.06
371.124	77.06
371.35	90.06
371.576	79.06
371.802	81.06
372.028	89.06
372.254	96.06
372.48	97.06
372.706	93.06
372.932	90.06
373.158	90.06
373.384	81.06
373.61	94.06
373.835	88.06
374.061	90.06
374.287	88.06
374.513	110.06
374.739	95.06
374.965	94.06
375.191	108.06
375.416	102.06
375.642	93.06
375.868	89.06
376.094	91.06
376.319	79.06
376.545	92.06
376.771	89.06
376.997	101.06
377.222	93.06
377.448	98.06
377.674	94.06
377.899	97.06
378.125	79.06
378.35	95.06
378.576	80.06
378.802	87.06
379.027	92.06
379.253	98.06
379.478	91.06
379.704	89.06
379.929	99.06
380.155	102.06
380.38	117.06
380.606	103.06
380.831	96.06
381.057	105.06
381.282	99.06
381.507	107.06
381.733	92.06
381.958	91.06
382.184	114.06
382.409	93.06
382.634	105.06
382.86	106.06
383.085	112.06
383.31	113.06
383.535	93.06
383.761	108.06
383.986	107.06
384.211	97.06
384.436	102.06
384.662	114.06
384.887	100.06
385.112	105.06
385.337	106.06
385.562	90.06
385.787	106.06
386.013	114.06
386.238	108.06
386.463	103.06
386.688	134.06
386.913	104.06
387.138	99.06
387.363	114.06
387.588	94.06
387.813	102.06
388.038	114.06
388.263	106.06
388.488	118.06
388.713	104.06
388.938	102.06
389.163	102.06
389.387	106.06
389.612	98.06
389.837	98.06
390.062	96.06
390.287	100.06
390.512	104.06
390.736	102.06
390.961	89.06
391.186	89.06
391.411	103.06
391.636	92.06
391.86	98.06
392.085	76.06
392.31	91.06
392.534	94.06
392.759	96.06
392.984	97.06
393.208	97.06
393.433	84.06
393.658	88.06
393.882	89.06
394.107	97.06
394.331	84.06
394.556	106.06
394.78	96.06
395.005	92.06
395.229	85.06
395.454	79.06
395.678	100.06
395.903	90.06
396.127	102.06
396.352	90.06
396.576	99.06
396.801	88.06
397.025	91.06
397.249	90.06
397.474	94.06
397.698	97.06
397.922	85.06
398.147	74.06
398.371	88.06
398.595	104.06
398.82	86.06
399.044	85.06
399.268	88.06
399.492	90.06
399.717	91.06
399.941	96.06
400.165	99.06
400.389	104.06
400.613	97.06
400.837	92.06
401.062	95.06
401.286	80.06
401.51	88.06
401.734	96.06
401.958	101.06
402.182	116.06
402.406	128.06
402.63	96.06
402.854	92.06
403.078	98.06
403.302	90.06
403.526	79.06
403.75	100.06
403.974	106.06
404.198	102.06
404.422	102.06
404.645	93.06
404.869	94.06
405.093	94.06
405.317	90.06
405.541	94.06
405.765	90.06
405.988	119.06
406.212	128.06
406.436	168.06
406.66	116.06
406.883	86.06
407.107	92.06
407.331	96.06
407.555	93.06
407.778	97.06
408.002	87.06
408.226	77.06
408.449	92.06
408.673	86.06
408.896	93.06
409.12	93.06
409.344	94.06
409.567	91.06
409.791	102.06
410.014	91.06
410.238	102.06
410.461	106.06
410.685	97.06
410.908	96.06
411.132	100.06
411.355	105.06
411.578	89.06
411.802	97.06
412.025	96.06
412.249	94.06
412.472	101.06
412.695	87.06
412.919	95.06
413.142	97.06
413.365	90.06
413.589	85.06
413.812	93.06
414.035	98.06
414.258	86.06
414.482	94.06
414.705	96.06
414.928	88.06
415.151	89.06
415.374	93.06
415.597	93.06
415.821	89.06
416.044	89.06
416.267	92.06
416.49	88.06
416.713	99.06
416.936	103.06
417.159	93.06
417.382	98.06
417.605	100.06
417.828	107.06
418.051	105.06
418.274	82.06
418.497	90.06
418.72	88.06
418.943	88.06
419.166	93.06
419.389	98.06
419.611	82.06
419.834	95.06
420.057	105.06
420.28	93.06
420.503	101.06
420.726	95.06
420.948	96.06
421.171	85.06
421.394	84.06
421.617	90.06
421.839	95.06
422.062	86.06
422.285	92.06
422.507	107.06
422.73	108.06
422.953	95.06
423.175	77.06
423.398	90.06
423.621	95.06
423.843	85.06
424.066	80.06
424.288	96.06
424.511	96.06
424.733	95.06
424.956	104.06
425.178	79.06
425.401	101.06
425.623	90.06
425.846	94.06
426.068	114.06
426.291	93.06
426.513	80.06
426.735	94.06
426.958	88.06
427.18	99.06
427.402	118.06
427.625	134.06
427.847	113.06
428.069	112.06
428.292	93.06
428.514	85.06
428.736	96.06
428.958	89.06
429.181	85.06
429.403	80.06
429.625	101.06
429.847	89.06
430.069	111.06
430.292	90.06
430.514	104.06
430.736	95.06
430.958	88.06
431.18	93.06
431.402	102.06
431.624	84.06
431.846	75.06
432.068	92.06
432.29	84.06
432.512	93.06
432.734	90.06
432.956	81.06
433.178	96.06
433.4	102.06
433.622	88.06
433.844	88.06
434.066	86.06
434.287	101.06
434.509	92.06
434.731	86.06
434.953	87.06
435.175	87.06
435.397	94.06
435.618	96.06
435.84	105.06
436.062	125.06
436.284	93.06
436.505	110.06
436.727	99.06
436.949	90.06
437.17	85.06
437.392	101.06
437.614	93.06
437.835	110.06
438.057	95.06
438.278	89.06
438.5	101.06
438.721	114.06
438.943	102.06
439.165	81.06
439.386	89.06
439.608	90.06
439.829	103.06
440.05	121.06
440.272	126.06
440.493	95.06
440.715	96.06
440.936	79.06
441.158	92.06
441.379	104.06
441.6	94.06
441.822	108.06
442.043	96.06
442.264	98.06
442.486	98.06
442.707	107.06
442.928	93.06
443.149	108.06
443.371	114.06
443.592	96.06
443.813	108.06
444.034	106.06
444.255	89.06
444.476	97.06
444.698	85.06
444.919	94.06
445.14	132.06
445.361	126.06
445.582	113.06
445.803	129.06
446.024	124.06
446.245	120.06
446.466	101.06
446.687	89.06
446.908	91.06
447.129	104.06
447.35	93.06
447.571	97.06
447.792	89.06
448.013	89.06
448.234	112.06
448.455	94.06
448.675	105.06
448.896	118.06
449.117	96.06
449.338	109.06
449.559	124.06
449.779	139.06
450	104.06
450.221	90.06
450.442	91.06
450.662	100.06
450.883	87.06
451.104	108.06
451.324	94.06
451.545	87.06
451.766	90.06
451.986	82.06
452.207	90.06
452.428	78.06
452.648	98.06
452.869	105.06
453.089	84.06
453.31	103.06
453.53	81.06
453.751	98.06
453.971	112.06
454.192	88.06
454.412	85.06
454.633	92.06
454.853	86.06
455.073	92.06
455.294	88.06
455.514	104.06
455.734	88.06
455.955	79.06
456.175	105.06
456.395	96.06
456.616	82.06
456.836	87.06
457.056	92.06
457.276	81.06
457.497	102.06
457.717	97.06
457.937	98.06
458.157	94.06
458.377	80.06
458.598	88.06
458.818	126.06
459.038	129.06
459.258	99.06
459.478	107.06
459.698	95.06
459.918	97.06
460.138	97.06
460.358	90.06
460.578	92.06
460.798	97.06
461.018	81.06
461.238	84.06
461.458	94.06
461.678	92.06
461.898	80.06
462.118	95.06
462.338	82.06
462.558	102.06
462.777	82.06
462.997	80.06
463.217	81.06
463.437	95.06
463.657	80.06
463.876	101.06
464.096	88.06
464.316	85.06
464.536	87.06
464.755	101.06
464.975	112.06
465.195	118.06
465.414	141.06
465.634	90.06
465.854	88.06
466.073	85.06
466.293	105.06
466.512	84.06
466.732	86.06
466.951	80.06
467.171	90.06
467.391	94.06
467.61	96.06
467.829	87.06
468.049	105.06
468.268	98.06
468.488	78.06
468.707	88.06
468.927	104.06
469.146	86.06
469.365	96.06
469.585	93.06
469.804	78.06
470.023	86.06
470.243	97.06
470.462	101.06
470.681	101.06
470.901	87.06
471.12	88.06
471.339	97.06
471.558	90.06
471.777	96.06
471.997	93.06
472.216	122.06
472.435	133.06
472.654	104.06
472.873	92.06
473.092	102.06
473.311	90.06
473.53	88.06
473.749	98.06
473.968	112.06
474.187	94.06
474.406	98.06
474.625	82.06
474.844	95.06
475.063	91.06
475.282	86.06
475.501	83.06
475.72	91.06
475.939	95.06
476.158	99.06
476.377	98.06
476.596	88.06
476.814	95.06
477.033	86.06
477.252	97.06
477.471	86.06
477.69	88.06
477.908	95.06
478.127	104.06
478.346	93.06
478.564	96.06
478.783	91.06
479.002	86.06
479.22	82.06
479.439	96.06
479.658	89.06
479.876	93.06
480.095	85.06
480.313	100.06
480.532	88.06
480.751	87.06
480.969	97.06
481.188	164.06
481.406	128.06
481.624	86.06
481.843	99.06
482.061	78.06
482.28	89.06
482.498	80.06
482.717	88.06
482.935	87.06
483.153	88.06
483.372	102.06
483.59	90.06
483.808	88.06
484.027	87.06
484.245	91.06
484.463	106.06
484.681	97.06
484.9	118.06
485.118	88.06
485.336	100.06
485.554	108.06
485.772	84.06
485.99	102.06
486.209	105.06
486.427	102.06
486.645	94.06
486.863	100.06
487.081	109.06
487.299	103.06
487.517	84.06
487.735	94.06
487.953	113.06
488.171	111.06
488.389	92.06
488.607	104.06
488.825	98.06
489.043	90.06
489.261	93.06
489.479	94.06
489.696	87.06
489.914	87.06
490.132	104.06
490.35	101.06
490.568	98.06
490.786	88.06
491.003	93.06
491.221	92.06
491.439	88.06
491.657	108.06
491.874	100.06
492.092	96.06
492.31	95.06
492.527	101.06
492.745	92.06
492.963	86.06
493.18	97.06
493.398	91.06
493.615	101.06
493.833	88.06
494.05	87.06
494.268	88.06
494.485	91.06
494.703	94.06
494.92	90.06
495.138	82.06
495.355	86.06
495.573	96.06
495.79	87.06
496.008	78.06
496.225	86.06
496.442	92.06
496.66	96.06
496.877	88.06
497.094	82.06
497.312	94.06
497.529	95.06
497.746	93.06
497.963	104.06
498.181	82.06
498.398	97.06
498.615	108.06
498.832	98.06
499.049	93.06
499.267	102.06
499.484	93.06
499.701	84.06
499.918	95.06
500.135	95.06
500.352	99.06
500.569	92.06
500.786	94.06
501.003	106.06
501.22	91.06
501.437	96.06
501.654	89.06
501.871	90.06
502.088	79.06
502.305	74.06
502.522	97.06
502.739	92.06
502.956	92.06
503.172	82.06
503.389	86.06
503.606	90.06
503.823	97.06
504.04	97.06
504.256	103.06
504.473	101.06
504.69	92.06
504.907	86.06
505.123	111.06
505.34	94.06
505.557	98.06
505.773	97.06
505.99	87.06
506.207	90.06
506.423	90.06
506.64	86.06
506.856	85.06
507.073	80.06
507.289	94.06
507.506	87.06
507.722	119.06
507.939	103.06
508.155	100.06
508.372	106.06
508.588	112.06
508.805	107.06
509.021	85.06
509.238	95.06
509.454	90.06
509.67	109.06
509.887	106.06
510.103	127.06
510.319	182.06
510.536	493.06
510.752	1500.06
510.968	440.06
511.184	136.06
511.401	109.06
511.617	109.06
511.833	90.06
512.049	94.06
512.265	91.06
512.481	108.06
512.698	96.06
512.914	105.06
513.13	97.06
513.346	101.06
513.562	92.06
513.778	103.06
513.994	84.06
514.21	89.06
514.426	108.06
514.642	117.06
514.858	118.06
