Data from Uncirc_1981_H10_HRD10591_00011.txt Node
Date: Wed Jan 03 12:33:10 EST 2024
User: Yrep
Spectrometer: HR+D1059
Trigger mode: 1
Integration Time (sec): 1.000000E-1
Scans to average: 1
Electric dark correction enabled: true
Nonlinearity correction enabled: false
Boxcar width: 0
XAxis mode: Wavelengths
Number of Pixels in Spectrum: 2048
>>>>>Begin Spectral Data<<<<<
223.165	-20.88
223.4	-20.88
223.635	-20.88
223.869	-12.88
224.104	-20.88
224.338	-14.88
224.573	-14.88
224.808	-17.88
225.042	-4.88
225.277	-3.88
225.511	-0.88
225.746	-2.88
225.98	5.12
226.215	19.12
226.449	24.12
226.683	21.12
226.918	16.12
227.152	29.12
227.387	27.12
227.621	42.12
227.856	49.12
228.09	49.12
228.324	60.12
228.559	54.12
228.793	65.12
229.027	77.12
229.262	61.12
229.496	67.12
229.73	67.12
229.964	58.12
230.199	77.12
230.433	81.12
230.667	69.12
230.901	67.12
231.136	74.12
231.37	87.12
231.604	79.12
231.838	90.12
232.072	87.12
232.306	87.12
232.541	89.12
232.775	86.12
233.009	93.12
233.243	70.12
233.477	91.12
233.711	85.12
233.945	68.12
234.179	76.12
234.413	84.12
234.647	73.12
234.881	76.12
235.115	102.12
235.349	75.12
235.583	83.12
235.817	75.12
236.051	80.12
236.285	80.12
236.519	71.12
236.753	71.12
236.987	83.12
237.221	76.12
237.455	88.12
237.689	65.12
237.922	73.12
238.156	63.12
238.39	81.12
238.624	75.12
238.858	75.12
239.091	78.12
239.325	88.12
239.559	69.12
239.793	83.12
240.027	87.12
240.26	76.12
240.494	85.12
240.728	74.12
240.961	76.12
241.195	75.12
241.429	85.12
241.662	74.12
241.896	68.12
242.13	80.12
242.363	76.12
242.597	74.12
242.83	80.12
243.064	69.12
243.298	85.12
243.531	74.12
243.765	67.12
243.998	74.12
244.232	87.12
244.465	72.12
244.699	100.12
244.932	74.12
245.166	73.12
245.399	75.12
245.633	99.12
245.866	72.12
246.099	80.12
246.333	69.12
246.566	91.12
246.8	86.12
247.033	89.12
247.266	88.12
247.5	97.12
247.733	70.12
247.966	70.12
248.2	80.12
248.433	77.12
248.666	81.12
248.899	90.12
249.133	93.12
249.366	93.12
249.599	88.12
249.832	70.12
250.066	65.12
250.299	75.12
250.532	75.12
250.765	80.12
250.998	66.12
251.231	89.12
251.465	87.12
251.698	80.12
251.931	96.12
252.164	75.12
252.397	95.12
252.63	79.12
252.863	72.12
253.096	96.12
253.329	91.12
253.562	78.12
253.795	80.12
254.028	79.12
254.261	72.12
254.494	84.12
254.727	81.12
254.96	80.12
255.193	86.12
255.426	75.12
255.659	70.12
255.892	67.12
256.124	72.12
256.357	73.12
256.59	97.12
256.823	89.12
257.056	74.12
257.289	68.12
257.521	95.12
257.754	79.12
257.987	87.12
258.22	89.12
258.452	87.12
258.685	84.12
258.918	86.12
259.151	91.12
259.383	103.12
259.616	93.12
259.849	76.12
260.081	75.12
260.314	84.12
260.547	83.12
260.779	93.12
261.012	79.12
261.244	73.12
261.477	88.12
261.71	94.12
261.942	89.12
262.175	108.12
262.407	99.12
262.64	85.12
262.872	79.12
263.105	87.12
263.337	87.12
263.57	88.12
263.802	88.12
264.035	70.12
264.267	68.12
264.499	81.12
264.732	85.12
264.964	87.12
265.197	92.12
265.429	77.12
265.661	85.12
265.894	69.12
266.126	80.12
266.358	76.12
266.591	98.12
266.823	88.12
267.055	92.12
267.287	85.12
267.52	87.12
267.752	88.12
267.984	84.12
268.216	80.12
268.448	87.12
268.681	87.12
268.913	73.12
269.145	74.12
269.377	84.12
269.609	77.12
269.841	95.12
270.073	92.12
270.306	101.12
270.538	72.12
270.77	81.12
271.002	80.12
271.234	90.12
271.466	87.12
271.698	86.12
271.93	80.12
272.162	85.12
272.394	80.12
272.626	94.12
272.858	85.12
273.09	96.12
273.322	91.12
273.553	73.12
273.785	77.12
274.017	85.12
274.249	91.12
274.481	78.12
274.713	93.12
274.945	106.12
275.176	83.12
275.408	87.12
275.64	80.12
275.872	87.12
276.104	77.12
276.335	73.12
276.567	81.12
276.799	94.12
277.031	71.12
277.262	107.12
277.494	87.12
277.726	83.12
277.957	92.12
278.189	98.12
278.421	81.12
278.652	88.12
278.884	75.12
279.115	98.12
279.347	88.12
279.579	91.12
279.81	82.12
280.042	82.12
280.273	97.12
280.505	88.12
280.736	98.12
280.968	85.12
281.199	94.12
281.431	83.12
281.662	92.12
281.894	103.12
282.125	100.12
282.356	110.12
282.588	124.12
282.819	94.12
283.051	73.12
283.282	81.12
283.513	90.12
283.745	97.12
283.976	83.12
284.207	79.12
284.439	83.12
284.67	75.12
284.901	97.12
285.132	76.12
285.364	82.12
285.595	83.12
285.826	96.12
286.057	91.12
286.288	92.12
286.52	85.12
286.751	89.12
286.982	95.12
287.213	87.12
287.444	77.12
287.675	87.12
287.906	95.12
288.138	94.12
288.369	88.12
288.6	91.12
288.831	90.12
289.062	100.12
289.293	84.12
289.524	78.12
289.755	73.12
289.986	94.12
290.217	84.12
290.448	89.12
290.679	96.12
290.91	85.12
291.141	80.12
291.371	85.12
291.602	88.12
291.833	81.12
292.064	87.12
292.295	91.12
292.526	84.12
292.757	91.12
292.987	78.12
293.218	80.12
293.449	98.12
293.68	84.12
293.91	82.12
294.141	93.12
294.372	86.12
294.603	96.12
294.833	88.12
295.064	97.12
295.295	85.12
295.525	95.12
295.756	89.12
295.987	94.12
296.217	116.12
296.448	110.12
296.679	106.12
296.909	96.12
297.14	92.12
297.37	89.12
297.601	85.12
297.831	79.12
298.062	109.12
298.292	90.12
298.523	89.12
298.753	92.12
298.984	85.12
299.214	84.12
299.445	86.12
299.675	80.12
299.905	101.12
300.136	97.12
300.366	108.12
300.597	98.12
300.827	93.12
301.057	87.12
301.288	104.12
301.518	109.12
301.748	95.12
301.979	105.12
302.209	89.12
302.439	90.12
302.669	84.12
302.9	106.12
303.13	85.12
303.36	90.12
303.59	83.12
303.82	95.12
304.051	94.12
304.281	89.12
304.511	95.12
304.741	75.12
304.971	85.12
305.201	84.12
305.431	96.12
305.661	85.12
305.891	89.12
306.121	104.12
306.352	108.12
306.582	78.12
306.812	92.12
307.042	80.12
307.272	97.12
307.502	94.12
307.731	86.12
307.961	96.12
308.191	103.12
308.421	77.12
308.651	92.12
308.881	99.12
309.111	98.12
309.341	116.12
309.571	97.12
309.8	96.12
310.03	105.12
310.26	112.12
310.49	87.12
310.72	96.12
310.949	92.12
311.179	94.12
311.409	104.12
311.639	95.12
311.868	89.12
312.098	87.12
312.328	91.12
312.557	97.12
312.787	89.12
313.017	100.12
313.246	101.12
313.476	97.12
313.706	104.12
313.935	89.12
314.165	85.12
314.394	92.12
314.624	99.12
314.853	85.12
315.083	98.12
315.312	67.12
315.542	96.12
315.771	99.12
316.001	94.12
316.23	101.12
316.46	91.12
316.689	88.12
316.919	87.12
317.148	98.12
317.377	88.12
317.607	111.12
317.836	91.12
318.065	88.12
318.295	87.12
318.524	94.12
318.753	84.12
318.983	93.12
319.212	88.12
319.441	90.12
319.67	102.12
319.9	100.12
320.129	81.12
320.358	85.12
320.587	88.12
320.816	99.12
321.046	108.12
321.275	92.12
321.504	86.12
321.733	89.12
321.962	96.12
322.191	91.12
322.42	85.12
322.649	103.12
322.878	110.12
323.108	127.12
323.337	109.12
323.566	120.12
323.795	136.12
324.024	176.12
324.253	284.12
324.482	547.12
324.71	1149.12
324.939	1517.12
325.168	556.12
325.397	183.12
325.626	109.12
325.855	128.12
326.084	100.12
326.313	111.12
326.542	135.12
326.77	184.12
326.999	360.12
327.228	693.12
327.457	1234.12
327.686	956.12
327.914	260.12
328.143	142.12
328.372	120.12
328.6	110.12
328.829	94.12
329.058	105.12
329.287	110.12
329.515	107.12
329.744	105.12
329.972	110.12
330.201	95.12
330.43	108.12
330.658	89.12
330.887	112.12
331.115	85.12
331.344	102.12
331.572	112.12
331.801	105.12
332.03	88.12
332.258	103.12
332.486	88.12
332.715	89.12
332.943	81.12
333.172	87.12
333.4	104.12
333.629	93.12
333.857	109.12
334.085	107.12
334.314	117.12
334.542	119.12
334.771	116.12
334.999	89.12
335.227	90.12
335.455	97.12
335.684	104.12
335.912	107.12
336.14	99.12
336.369	90.12
336.597	95.12
336.825	89.12
337.053	93.12
337.281	97.12
337.51	99.12
337.738	94.12
337.966	91.12
338.194	99.12
338.422	98.12
338.65	85.12
338.878	96.12
339.106	88.12
339.334	86.12
339.562	93.12
339.79	94.12
340.018	73.12
340.246	105.12
340.474	95.12
340.702	93.12
340.93	99.12
341.158	88.12
341.386	84.12
341.614	97.12
341.842	89.12
342.07	105.12
342.298	91.12
342.526	106.12
342.754	94.12
342.981	91.12
343.209	90.12
343.437	102.12
343.665	86.12
343.893	96.12
344.12	89.12
344.348	103.12
344.576	91.12
344.804	90.12
345.031	84.12
345.259	101.12
345.487	80.12
345.714	94.12
345.942	101.12
346.17	93.12
346.397	99.12
346.625	95.12
346.853	81.12
347.08	104.12
347.308	102.12
347.535	84.12
347.763	97.12
347.99	92.12
348.218	103.12
348.445	96.12
348.673	89.12
348.9	101.12
349.128	94.12
349.355	83.12
349.583	102.12
349.81	96.12
350.037	99.12
350.265	104.12
350.492	73.12
350.72	93.12
350.947	99.12
351.174	84.12
351.402	107.12
351.629	103.12
351.856	90.12
352.083	100.12
352.311	97.12
352.538	103.12
352.765	99.12
352.992	98.12
353.22	104.12
353.447	97.12
353.674	109.12
353.901	106.12
354.128	95.12
354.355	88.12
354.583	108.12
354.81	88.12
355.037	100.12
355.264	95.12
355.491	91.12
355.718	93.12
355.945	86.12
356.172	107.12
356.399	106.12
356.626	111.12
356.853	85.12
357.08	105.12
357.307	96.12
357.534	91.12
357.761	102.12
357.988	100.12
358.215	107.12
358.441	109.12
358.668	100.12
358.895	102.12
359.122	93.12
359.349	87.12
359.576	91.12
359.802	88.12
360.029	89.12
360.256	89.12
360.483	88.12
360.709	87.12
360.936	91.12
361.163	101.12
361.39	103.12
361.616	78.12
361.843	82.12
362.07	103.12
362.296	98.12
362.523	94.12
362.749	86.12
362.976	85.12
363.203	108.12
363.429	73.12
363.656	85.12
363.882	80.12
364.109	85.12
364.335	84.12
364.562	93.12
364.788	83.12
365.015	107.12
365.241	105.12
365.468	87.12
365.694	107.12
365.92	86.12
366.147	85.12
366.373	77.12
366.599	95.12
366.826	87.12
367.052	92.12
367.278	90.12
367.505	97.12
367.731	95.12
367.957	101.12
368.184	94.12
368.41	75.12
368.636	103.12
368.862	99.12
369.089	108.12
369.315	88.12
369.541	102.12
369.767	100.12
369.993	103.12
370.219	94.12
370.445	84.12
370.672	88.12
370.898	85.12
371.124	86.12
371.35	85.12
371.576	87.12
371.802	85.12
372.028	93.12
372.254	102.12
372.48	86.12
372.706	77.12
372.932	94.12
373.158	86.12
373.384	94.12
373.61	94.12
373.835	85.12
374.061	92.12
374.287	85.12
374.513	100.12
374.739	86.12
374.965	106.12
375.191	92.12
375.416	91.12
375.642	96.12
375.868	102.12
376.094	91.12
376.319	98.12
376.545	88.12
376.771	87.12
376.997	87.12
377.222	101.12
377.448	103.12
377.674	87.12
377.899	90.12
378.125	96.12
378.35	87.12
378.576	99.12
378.802	92.12
379.027	89.12
379.253	104.12
379.478	92.12
379.704	100.12
379.929	107.12
380.155	99.12
380.38	97.12
380.606	115.12
380.831	117.12
381.057	102.12
381.282	107.12
381.507	98.12
381.733	92.12
381.958	95.12
382.184	111.12
382.409	109.12
382.634	128.12
382.86	109.12
383.085	116.12
383.31	108.12
383.535	112.12
383.761	110.12
383.986	120.12
384.211	106.12
384.436	112.12
384.662	124.12
384.887	122.12
385.112	121.12
385.337	119.12
385.562	120.12
385.787	128.12
386.013	134.12
386.238	128.12
386.463	128.12
386.688	124.12
386.913	121.12
387.138	136.12
387.363	109.12
387.588	123.12
387.813	116.12
388.038	133.12
388.263	141.12
388.488	144.12
388.713	101.12
388.938	108.12
389.163	107.12
389.387	109.12
389.612	93.12
389.837	100.12
390.062	116.12
390.287	86.12
390.512	99.12
390.736	99.12
390.961	106.12
391.186	88.12
391.411	96.12
391.636	94.12
391.86	79.12
392.085	73.12
392.31	93.12
392.534	77.12
392.759	94.12
392.984	82.12
393.208	87.12
393.433	99.12
393.658	90.12
393.882	83.12
394.107	90.12
394.331	69.12
394.556	97.12
394.78	101.12
395.005	78.12
395.229	85.12
395.454	103.12
395.678	83.12
395.903	79.12
396.127	83.12
396.352	100.12
396.576	84.12
396.801	82.12
397.025	95.12
397.249	102.12
397.474	78.12
397.698	93.12
397.922	95.12
398.147	83.12
398.371	85.12
398.595	78.12
398.82	104.12
399.044	93.12
399.268	102.12
399.492	95.12
399.717	80.12
399.941	95.12
400.165	90.12
400.389	89.12
400.613	77.12
400.837	91.12
401.062	99.12
401.286	97.12
401.51	93.12
401.734	70.12
401.958	99.12
402.182	105.12
402.406	123.12
402.63	105.12
402.854	85.12
403.078	89.12
403.302	95.12
403.526	89.12
403.75	105.12
403.974	91.12
404.198	92.12
404.422	84.12
404.645	91.12
404.869	91.12
405.093	86.12
405.317	89.12
405.541	96.12
405.765	86.12
405.988	103.12
406.212	125.12
406.436	132.12
406.66	113.12
406.883	86.12
407.107	85.12
407.331	86.12
407.555	96.12
407.778	77.12
408.002	93.12
408.226	92.12
408.449	94.12
408.673	101.12
408.896	98.12
409.12	93.12
409.344	75.12
409.567	79.12
409.791	90.12
410.014	91.12
410.238	92.12
410.461	96.12
410.685	93.12
410.908	104.12
411.132	101.12
411.355	102.12
411.578	117.12
411.802	91.12
412.025	88.12
412.249	94.12
412.472	97.12
412.695	108.12
412.919	93.12
413.142	89.12
413.365	95.12
413.589	100.12
413.812	91.12
414.035	107.12
414.258	88.12
414.482	101.12
414.705	92.12
414.928	83.12
415.151	86.12
415.374	103.12
415.597	83.12
415.821	80.12
416.044	89.12
416.267	94.12
416.49	107.12
416.713	102.12
416.936	80.12
417.159	88.12
417.382	92.12
417.605	82.12
417.828	95.12
418.051	79.12
418.274	91.12
418.497	85.12
418.72	80.12
418.943	92.12
419.166	84.12
419.389	81.12
419.611	84.12
419.834	91.12
420.057	92.12
420.28	87.12
420.503	96.12
420.726	93.12
420.948	96.12
421.171	83.12
421.394	75.12
421.617	95.12
421.839	82.12
422.062	86.12
422.285	90.12
422.507	84.12
422.73	102.12
422.953	94.12
423.175	90.12
423.398	88.12
423.621	81.12
423.843	96.12
424.066	95.12
424.288	106.12
424.511	104.12
424.733	69.12
424.956	100.12
425.178	94.12
425.401	82.12
425.623	84.12
425.846	85.12
426.068	106.12
426.291	105.12
426.513	95.12
426.735	83.12
426.958	84.12
427.18	104.12
427.402	104.12
427.625	119.12
427.847	125.12
428.069	101.12
428.292	85.12
428.514	96.12
428.736	72.12
428.958	89.12
429.181	95.12
429.403	86.12
429.625	82.12
429.847	103.12
430.069	98.12
430.292	111.12
430.514	75.12
430.736	96.12
430.958	94.12
431.18	80.12
431.402	79.12
431.624	84.12
431.846	88.12
432.068	89.12
432.29	87.12
432.512	104.12
432.734	99.12
432.956	93.12
433.178	96.12
433.4	93.12
433.622	84.12
433.844	97.12
434.066	80.12
434.287	80.12
434.509	90.12
434.731	85.12
434.953	81.12
435.175	86.12
435.397	89.12
435.618	95.12
435.84	105.12
436.062	100.12
436.284	83.12
436.505	93.12
436.727	89.12
436.949	103.12
437.17	81.12
437.392	94.12
437.614	99.12
437.835	88.12
438.057	89.12
438.278	98.12
438.5	92.12
438.721	107.12
438.943	85.12
439.165	83.12
439.386	88.12
439.608	95.12
439.829	86.12
440.05	104.12
440.272	105.12
440.493	92.12
440.715	101.12
440.936	99.12
441.158	104.12
441.379	86.12
441.6	95.12
441.822	98.12
442.043	98.12
442.264	92.12
442.486	89.12
442.707	95.12
442.928	104.12
443.149	111.12
443.371	103.12
443.592	97.12
443.813	97.12
444.034	106.12
444.255	95.12
444.476	103.12
444.698	91.12
444.919	73.12
445.14	128.12
445.361	103.12
445.582	103.12
445.803	122.12
446.024	121.12
446.245	112.12
446.466	104.12
446.687	85.12
446.908	79.12
447.129	97.12
447.35	84.12
447.571	88.12
447.792	101.12
448.013	95.12
448.234	90.12
448.455	96.12
448.675	110.12
448.896	106.12
449.117	94.12
449.338	101.12
449.559	110.12
449.779	112.12
450	86.12
450.221	83.12
450.442	87.12
450.662	107.12
450.883	78.12
451.104	106.12
451.324	77.12
451.545	91.12
451.766	91.12
451.986	80.12
452.207	98.12
452.428	85.12
452.648	71.12
452.869	93.12
453.089	97.12
453.31	104.12
453.53	83.12
453.751	94.12
453.971	92.12
454.192	87.12
454.412	86.12
454.633	71.12
454.853	91.12
455.073	83.12
455.294	83.12
455.514	84.12
455.734	89.12
455.955	86.12
456.175	86.12
456.395	84.12
456.616	81.12
456.836	80.12
457.056	76.12
457.276	101.12
457.497	93.12
457.717	86.12
457.937	89.12
458.157	88.12
458.377	80.12
458.598	86.12
458.818	128.12
459.038	120.12
459.258	96.12
459.478	84.12
459.698	69.12
459.918	89.12
460.138	85.12
460.358	82.12
460.578	84.12
460.798	92.12
461.018	86.12
461.238	87.12
461.458	99.12
461.678	92.12
461.898	83.12
462.118	84.12
462.338	94.12
462.558	93.12
462.777	83.12
462.997	83.12
463.217	67.12
463.437	80.12
463.657	87.12
463.876	78.12
464.096	93.12
464.316	93.12
464.536	92.12
464.755	95.12
464.975	109.12
465.195	115.12
465.414	119.12
465.634	99.12
465.854	88.12
466.073	93.12
466.293	86.12
466.512	93.12
466.732	84.12
466.951	93.12
467.171	92.12
467.391	97.12
467.61	103.12
467.829	93.12
468.049	89.12
468.268	83.12
468.488	96.12
468.707	87.12
468.927	99.12
469.146	80.12
469.365	96.12
469.585	83.12
469.804	95.12
470.023	96.12
470.243	89.12
470.462	111.12
470.681	100.12
470.901	88.12
471.12	98.12
471.339	96.12
471.558	92.12
471.777	76.12
471.997	84.12
472.216	93.12
472.435	123.12
472.654	103.12
472.873	87.12
473.092	82.12
473.311	90.12
473.53	96.12
473.749	89.12
473.968	93.12
474.187	100.12
474.406	78.12
474.625	90.12
474.844	92.12
475.063	80.12
475.282	104.12
475.501	97.12
475.72	94.12
475.939	87.12
476.158	80.12
476.377	80.12
476.596	74.12
476.814	93.12
477.033	84.12
477.252	95.12
477.471	72.12
477.69	87.12
477.908	94.12
478.127	94.12
478.346	78.12
478.564	85.12
478.783	98.12
479.002	85.12
479.22	87.12
479.439	93.12
479.658	91.12
479.876	95.12
480.095	102.12
480.313	81.12
480.532	84.12
480.751	100.12
480.969	122.12
481.188	154.12
481.406	93.12
481.624	89.12
481.843	103.12
482.061	96.12
482.28	98.12
482.498	86.12
482.717	82.12
482.935	85.12
483.153	92.12
483.372	89.12
483.59	98.12
483.808	85.12
484.027	79.12
484.245	83.12
484.463	98.12
484.681	84.12
484.9	105.12
485.118	107.12
485.336	100.12
485.554	92.12
485.772	100.12
485.99	92.12
486.209	101.12
486.427	102.12
486.645	102.12
486.863	86.12
487.081	107.12
487.299	112.12
487.517	111.12
487.735	101.12
487.953	99.12
488.171	108.12
488.389	95.12
488.607	99.12
488.825	100.12
489.043	101.12
489.261	80.12
489.479	86.12
489.696	91.12
489.914	79.12
490.132	76.12
490.35	95.12
490.568	90.12
490.786	80.12
491.003	83.12
491.221	97.12
491.439	91.12
491.657	107.12
491.874	88.12
492.092	85.12
492.31	96.12
492.527	96.12
492.745	93.12
492.963	103.12
493.18	73.12
493.398	94.12
493.615	75.12
493.833	97.12
494.05	90.12
494.268	88.12
494.485	87.12
494.703	87.12
494.92	92.12
495.138	92.12
495.355	86.12
495.573	98.12
495.79	89.12
496.008	100.12
496.225	101.12
496.442	95.12
496.66	99.12
496.877	101.12
497.094	82.12
497.312	94.12
497.529	79.12
497.746	89.12
497.963	100.12
498.181	84.12
498.398	89.12
498.615	95.12
498.832	84.12
499.049	101.12
499.267	90.12
499.484	79.12
499.701	97.12
499.918	93.12
500.135	98.12
500.352	90.12
500.569	93.12
500.786	80.12
501.003	88.12
501.22	99.12
501.437	96.12
501.654	105.12
501.871	97.12
502.088	85.12
502.305	104.12
502.522	89.12
502.739	97.12
502.956	88.12
503.172	80.12
503.389	102.12
503.606	91.12
503.823	104.12
504.04	72.12
504.256	67.12
504.473	91.12
504.69	97.12
504.907	80.12
505.123	73.12
505.34	96.12
505.557	97.12
505.773	88.12
505.99	96.12
506.207	91.12
506.423	87.12
506.64	84.12
506.856	92.12
507.073	86.12
507.289	85.12
507.506	102.12
507.722	97.12
507.939	107.12
508.155	96.12
508.372	101.12
508.588	87.12
508.805	97.12
509.021	99.12
509.238	100.12
509.454	96.12
509.67	95.12
509.887	113.12
510.103	125.12
510.319	165.12
510.536	481.12
510.752	1348.12
510.968	379.12
511.184	123.12
511.401	104.12
511.617	100.12
511.833	99.12
512.049	99.12
512.265	102.12
512.481	91.12
512.698	90.12
512.914	93.12
513.13	101.12
513.346	99.12
513.562	106.12
513.778	113.12
513.994	96.12
514.21	109.12
514.426	105.12
514.642	103.12
514.858	105.12
515.074	135.12
515.29	293.12
515.506	808.12
