Data from Uncirc_1981_H10_HRD10591_00021.txt Node
Date: Wed Jan 03 12:33:12 EST 2024
User: Yrep
Spectrometer: HR+D1059
Trigger mode: 1
Integration Time (sec): 1.000000E-1
Scans to average: 1
Electric dark correction enabled: true
Nonlinearity correction enabled: false
Boxcar width: 0
XAxis mode: Wavelengths
Number of Pixels in Spectrum: 2048
>>>>>Begin Spectral Data<<<<<
223.165	-17.62
223.4	-17.62
223.635	-17.62
223.869	-16.62
224.104	-23.62
224.338	-18.62
224.573	-10.62
224.808	-15.62
225.042	-4.62
225.277	-10.62
225.511	8.38
225.746	7.38
225.98	16.38
226.215	3.38
226.449	17.38
226.683	16.38
226.918	15.38
227.152	33.38
227.387	38.38
227.621	32.38
227.856	49.38
228.09	48.38
228.324	36.38
228.559	52.38
228.793	64.38
229.027	61.38
229.262	65.38
229.496	57.38
229.73	60.38
229.964	74.38
230.199	63.38
230.433	61.38
230.667	82.38
230.901	73.38
231.136	79.38
231.37	68.38
231.604	82.38
231.838	75.38
232.072	67.38
232.306	81.38
232.541	75.38
232.775	73.38
233.009	83.38
233.243	77.38
233.477	79.38
233.711	88.38
233.945	57.38
234.179	70.38
234.413	79.38
234.647	52.38
234.881	59.38
235.115	72.38
235.349	75.38
235.583	79.38
235.817	91.38
236.051	69.38
236.285	68.38
236.519	56.38
236.753	72.38
236.987	87.38
237.221	73.38
237.455	65.38
237.689	66.38
237.922	76.38
238.156	62.38
238.39	63.38
238.624	95.38
238.858	50.38
239.091	72.38
239.325	73.38
239.559	76.38
239.793	65.38
240.027	68.38
240.26	87.38
240.494	73.38
240.728	83.38
240.961	70.38
241.195	71.38
241.429	80.38
241.662	61.38
241.896	68.38
242.13	66.38
242.363	77.38
242.597	75.38
242.83	65.38
243.064	63.38
243.298	78.38
243.531	71.38
243.765	71.38
243.998	86.38
244.232	79.38
244.465	83.38
244.699	76.38
244.932	92.38
245.166	71.38
245.399	79.38
245.633	75.38
245.866	80.38
246.099	67.38
246.333	78.38
246.566	72.38
246.8	66.38
247.033	73.38
247.266	74.38
247.5	85.38
247.733	71.38
247.966	80.38
248.2	65.38
248.433	75.38
248.666	85.38
248.899	68.38
249.133	75.38
249.366	91.38
249.599	71.38
249.832	75.38
250.066	68.38
250.299	64.38
250.532	62.38
250.765	77.38
250.998	69.38
251.231	72.38
251.465	76.38
251.698	63.38
251.931	79.38
252.164	58.38
252.397	63.38
252.63	84.38
252.863	73.38
253.096	72.38
253.329	66.38
253.562	80.38
253.795	71.38
254.028	76.38
254.261	65.38
254.494	76.38
254.727	81.38
254.96	81.38
255.193	64.38
255.426	67.38
255.659	76.38
255.892	70.38
256.124	79.38
256.357	82.38
256.59	68.38
256.823	72.38
257.056	84.38
257.289	80.38
257.521	61.38
257.754	80.38
257.987	88.38
258.22	96.38
258.452	85.38
258.685	79.38
258.918	63.38
259.151	72.38
259.383	77.38
259.616	70.38
259.849	87.38
260.081	82.38
260.314	71.38
260.547	70.38
260.779	78.38
261.012	71.38
261.244	75.38
261.477	67.38
261.71	97.38
261.942	88.38
262.175	95.38
262.407	98.38
262.64	77.38
262.872	69.38
263.105	78.38
263.337	86.38
263.57	77.38
263.802	83.38
264.035	81.38
264.267	70.38
264.499	71.38
264.732	77.38
264.964	79.38
265.197	63.38
265.429	84.38
265.661	83.38
265.894	81.38
266.126	91.38
266.358	86.38
266.591	70.38
266.823	81.38
267.055	77.38
267.287	83.38
267.52	72.38
267.752	68.38
267.984	73.38
268.216	79.38
268.448	83.38
268.681	92.38
268.913	80.38
269.145	61.38
269.377	64.38
269.609	85.38
269.841	57.38
270.073	71.38
270.306	75.38
270.538	83.38
270.77	86.38
271.002	84.38
271.234	83.38
271.466	81.38
271.698	83.38
271.93	82.38
272.162	64.38
272.394	90.38
272.626	73.38
272.858	78.38
273.09	78.38
273.322	85.38
273.553	89.38
273.785	72.38
274.017	81.38
274.249	77.38
274.481	60.38
274.713	75.38
274.945	82.38
275.176	78.38
275.408	76.38
275.64	86.38
275.872	78.38
276.104	75.38
276.335	87.38
276.567	79.38
276.799	94.38
277.031	80.38
277.262	94.38
277.494	94.38
277.726	89.38
277.957	79.38
278.189	75.38
278.421	63.38
278.652	66.38
278.884	83.38
279.115	87.38
279.347	87.38
279.579	64.38
279.81	72.38
280.042	65.38
280.273	73.38
280.505	82.38
280.736	82.38
280.968	81.38
281.199	78.38
281.431	79.38
281.662	77.38
281.894	73.38
282.125	80.38
282.356	92.38
282.588	104.38
282.819	81.38
283.051	87.38
283.282	84.38
283.513	76.38
283.745	87.38
283.976	77.38
284.207	84.38
284.439	83.38
284.67	81.38
284.901	80.38
285.132	87.38
285.364	71.38
285.595	82.38
285.826	89.38
286.057	90.38
286.288	86.38
286.52	85.38
286.751	84.38
286.982	85.38
287.213	80.38
287.444	86.38
287.675	76.38
287.906	95.38
288.138	82.38
288.369	83.38
288.6	75.38
288.831	86.38
289.062	75.38
289.293	80.38
289.524	78.38
289.755	93.38
289.986	81.38
290.217	71.38
290.448	70.38
290.679	88.38
290.91	79.38
291.141	84.38
291.371	90.38
291.602	81.38
291.833	81.38
292.064	70.38
292.295	69.38
292.526	86.38
292.757	72.38
292.987	83.38
293.218	81.38
293.449	91.38
293.68	95.38
293.91	76.38
294.141	85.38
294.372	94.38
294.603	75.38
294.833	89.38
295.064	73.38
295.295	80.38
295.525	93.38
295.756	101.38
295.987	93.38
296.217	98.38
296.448	107.38
296.679	65.38
296.909	87.38
297.14	82.38
297.37	78.38
297.601	83.38
297.831	83.38
298.062	89.38
298.292	81.38
298.523	84.38
298.753	96.38
298.984	80.38
299.214	73.38
299.445	81.38
299.675	94.38
299.905	101.38
300.136	82.38
300.366	79.38
300.597	78.38
300.827	93.38
301.057	92.38
301.288	86.38
301.518	88.38
301.748	77.38
301.979	97.38
302.209	86.38
302.439	70.38
302.669	79.38
302.9	80.38
303.13	83.38
303.36	98.38
303.59	75.38
303.82	85.38
304.051	86.38
304.281	85.38
304.511	72.38
304.741	91.38
304.971	86.38
305.201	71.38
305.431	83.38
305.661	83.38
305.891	95.38
306.121	93.38
306.352	98.38
306.582	87.38
306.812	92.38
307.042	79.38
307.272	82.38
307.502	86.38
307.731	82.38
307.961	86.38
308.191	80.38
308.421	83.38
308.651	91.38
308.881	79.38
309.111	97.38
309.341	91.38
309.571	99.38
309.8	93.38
310.03	85.38
310.26	91.38
310.49	88.38
310.72	95.38
310.949	77.38
311.179	76.38
311.409	97.38
311.639	79.38
311.868	94.38
312.098	83.38
312.328	95.38
312.557	103.38
312.787	90.38
313.017	91.38
313.246	93.38
313.476	82.38
313.706	87.38
313.935	85.38
314.165	85.38
314.394	90.38
314.624	92.38
314.853	76.38
315.083	87.38
315.312	86.38
315.542	88.38
315.771	86.38
316.001	88.38
316.23	78.38
316.46	82.38
316.689	86.38
316.919	82.38
317.148	73.38
317.377	86.38
317.607	75.38
317.836	79.38
318.065	93.38
318.295	78.38
318.524	83.38
318.753	79.38
318.983	83.38
319.212	84.38
319.441	88.38
319.67	95.38
319.9	80.38
320.129	77.38
320.358	80.38
320.587	93.38
320.816	91.38
321.046	95.38
321.275	92.38
321.504	86.38
321.733	89.38
321.962	87.38
322.191	92.38
322.42	94.38
322.649	98.38
322.878	104.38
323.108	109.38
323.337	95.38
323.566	99.38
323.795	120.38
324.024	164.38
324.253	301.38
324.482	634.38
324.71	1355.38
324.939	1701.38
325.168	621.38
325.397	188.38
325.626	119.38
325.855	121.38
326.084	120.38
326.313	115.38
326.542	119.38
326.77	189.38
326.999	388.38
327.228	767.38
327.457	1374.38
327.686	1101.38
327.914	298.38
328.143	145.38
328.372	119.38
328.6	110.38
328.829	99.38
329.058	99.38
329.287	111.38
329.515	92.38
329.744	91.38
329.972	94.38
330.201	89.38
330.43	105.38
330.658	105.38
330.887	111.38
331.115	106.38
331.344	89.38
331.572	95.38
331.801	91.38
332.03	84.38
332.258	86.38
332.486	92.38
332.715	83.38
332.943	81.38
333.172	100.38
333.4	103.38
333.629	93.38
333.857	87.38
334.085	107.38
334.314	93.38
334.542	101.38
334.771	112.38
334.999	94.38
335.227	75.38
335.455	93.38
335.684	90.38
335.912	90.38
336.14	98.38
336.369	84.38
336.597	95.38
336.825	93.38
337.053	65.38
337.281	86.38
337.51	83.38
337.738	85.38
337.966	96.38
338.194	90.38
338.422	83.38
338.65	83.38
338.878	90.38
339.106	95.38
339.334	90.38
339.562	89.38
339.79	83.38
340.018	91.38
340.246	94.38
340.474	78.38
340.702	76.38
340.93	85.38
341.158	83.38
341.386	83.38
341.614	90.38
341.842	92.38
342.07	94.38
342.298	92.38
342.526	79.38
342.754	99.38
342.981	87.38
343.209	102.38
343.437	92.38
343.665	91.38
343.893	83.38
344.12	78.38
344.348	66.38
344.576	91.38
344.804	88.38
345.031	84.38
345.259	91.38
345.487	83.38
345.714	98.38
345.942	81.38
346.17	79.38
346.397	95.38
346.625	87.38
346.853	83.38
347.08	86.38
347.308	99.38
347.535	91.38
347.763	92.38
347.99	85.38
348.218	97.38
348.445	101.38
348.673	93.38
348.9	89.38
349.128	96.38
349.355	65.38
349.583	85.38
349.81	90.38
350.037	85.38
350.265	99.38
350.492	87.38
350.72	88.38
350.947	98.38
351.174	96.38
351.402	99.38
351.629	94.38
351.856	99.38
352.083	94.38
352.311	86.38
352.538	94.38
352.765	80.38
352.992	114.38
353.22	96.38
353.447	86.38
353.674	98.38
353.901	77.38
354.128	86.38
354.355	94.38
354.583	102.38
354.81	81.38
355.037	92.38
355.264	81.38
355.491	93.38
355.718	83.38
355.945	93.38
356.172	100.38
356.399	89.38
356.626	85.38
356.853	85.38
357.08	104.38
357.307	87.38
357.534	94.38
357.761	97.38
357.988	83.38
358.215	101.38
358.441	95.38
358.668	96.38
358.895	88.38
359.122	80.38
359.349	98.38
359.576	95.38
359.802	83.38
360.029	87.38
360.256	91.38
360.483	72.38
360.709	93.38
360.936	91.38
361.163	85.38
361.39	87.38
361.616	72.38
361.843	69.38
362.07	92.38
362.296	76.38
362.523	81.38
362.749	81.38
362.976	84.38
363.203	76.38
363.429	79.38
363.656	80.38
363.882	70.38
364.109	80.38
364.335	95.38
364.562	73.38
364.788	77.38
365.015	93.38
365.241	90.38
365.468	78.38
365.694	109.38
365.92	88.38
366.147	91.38
366.373	84.38
366.599	78.38
366.826	89.38
367.052	89.38
367.278	75.38
367.505	80.38
367.731	84.38
367.957	90.38
368.184	87.38
368.41	88.38
368.636	95.38
368.862	92.38
369.089	81.38
369.315	86.38
369.541	105.38
369.767	85.38
369.993	91.38
370.219	91.38
370.445	86.38
370.672	80.38
370.898	73.38
371.124	75.38
371.35	77.38
371.576	89.38
371.802	85.38
372.028	96.38
372.254	103.38
372.48	96.38
372.706	85.38
372.932	79.38
373.158	82.38
373.384	83.38
373.61	79.38
373.835	89.38
374.061	90.38
374.287	79.38
374.513	84.38
374.739	88.38
374.965	99.38
375.191	81.38
375.416	77.38
375.642	82.38
375.868	80.38
376.094	96.38
376.319	84.38
376.545	70.38
376.771	84.38
376.997	76.38
377.222	80.38
377.448	83.38
377.674	75.38
377.899	80.38
378.125	91.38
378.35	99.38
378.576	92.38
378.802	92.38
379.027	68.38
379.253	94.38
379.478	89.38
379.704	90.38
379.929	96.38
380.155	95.38
380.38	108.38
380.606	97.38
380.831	95.38
381.057	114.38
381.282	91.38
381.507	101.38
381.733	107.38
381.958	99.38
382.184	97.38
382.409	109.38
382.634	112.38
382.86	105.38
383.085	119.38
383.31	112.38
383.535	103.38
383.761	111.38
383.986	115.38
384.211	108.38
384.436	109.38
384.662	119.38
384.887	115.38
385.112	110.38
385.337	132.38
385.562	111.38
385.787	127.38
386.013	119.38
386.238	111.38
386.463	109.38
386.688	114.38
386.913	125.38
387.138	126.38
387.363	113.38
387.588	99.38
387.813	101.38
388.038	107.38
388.263	127.38
388.488	120.38
388.713	94.38
388.938	90.38
389.163	89.38
389.387	87.38
389.612	78.38
389.837	91.38
390.062	89.38
390.287	85.38
390.512	77.38
390.736	95.38
390.961	96.38
391.186	99.38
391.411	97.38
391.636	93.38
391.86	83.38
392.085	83.38
392.31	79.38
392.534	72.38
392.759	86.38
392.984	87.38
393.208	81.38
393.433	76.38
393.658	79.38
393.882	87.38
394.107	83.38
394.331	100.38
394.556	79.38
394.78	95.38
395.005	91.38
395.229	81.38
395.454	82.38
395.678	91.38
395.903	90.38
396.127	85.38
396.352	82.38
396.576	85.38
396.801	96.38
397.025	77.38
397.249	79.38
397.474	91.38
397.698	69.38
397.922	70.38
398.147	77.38
398.371	73.38
398.595	81.38
398.82	82.38
399.044	72.38
399.268	75.38
399.492	82.38
399.717	94.38
399.941	76.38
400.165	67.38
400.389	79.38
400.613	66.38
400.837	86.38
401.062	91.38
401.286	64.38
401.51	77.38
401.734	87.38
401.958	83.38
402.182	106.38
402.406	127.38
402.63	80.38
402.854	84.38
403.078	80.38
403.302	70.38
403.526	92.38
403.75	85.38
403.974	84.38
404.198	62.38
404.422	62.38
404.645	84.38
404.869	81.38
405.093	71.38
405.317	86.38
405.541	94.38
405.765	90.38
405.988	101.38
406.212	130.38
406.436	163.38
406.66	111.38
406.883	83.38
407.107	99.38
407.331	89.38
407.555	68.38
407.778	75.38
408.002	76.38
408.226	76.38
408.449	79.38
408.673	82.38
408.896	90.38
409.12	101.38
409.344	79.38
409.567	79.38
409.791	82.38
410.014	95.38
410.238	96.38
410.461	85.38
410.685	85.38
410.908	88.38
411.132	98.38
411.355	89.38
411.578	85.38
411.802	78.38
412.025	86.38
412.249	91.38
412.472	79.38
412.695	77.38
412.919	73.38
413.142	77.38
413.365	75.38
413.589	97.38
413.812	79.38
414.035	77.38
414.258	87.38
414.482	80.38
414.705	81.38
414.928	88.38
415.151	76.38
415.374	82.38
415.597	84.38
415.821	88.38
416.044	84.38
416.267	77.38
416.49	87.38
416.713	81.38
416.936	81.38
417.159	79.38
417.382	99.38
417.605	79.38
417.828	94.38
418.051	95.38
418.274	88.38
418.497	92.38
418.72	79.38
418.943	69.38
419.166	96.38
419.389	80.38
419.611	89.38
419.834	70.38
420.057	77.38
420.28	86.38
420.503	88.38
420.726	81.38
420.948	73.38
421.171	87.38
421.394	95.38
421.617	97.38
421.839	92.38
422.062	90.38
422.285	94.38
422.507	101.38
422.73	85.38
422.953	65.38
423.175	65.38
423.398	88.38
423.621	88.38
423.843	83.38
424.066	89.38
424.288	85.38
424.511	82.38
424.733	82.38
424.956	80.38
425.178	84.38
425.401	101.38
425.623	90.38
425.846	82.38
426.068	83.38
426.291	76.38
426.513	75.38
426.735	84.38
426.958	93.38
427.18	99.38
427.402	106.38
427.625	128.38
427.847	102.38
428.069	105.38
428.292	83.38
428.514	75.38
428.736	76.38
428.958	75.38
429.181	77.38
429.403	73.38
429.625	69.38
429.847	85.38
430.069	86.38
430.292	86.38
430.514	72.38
430.736	93.38
430.958	72.38
431.18	73.38
431.402	80.38
431.624	90.38
431.846	85.38
432.068	77.38
432.29	71.38
432.512	86.38
432.734	94.38
432.956	75.38
433.178	86.38
433.4	85.38
433.622	82.38
433.844	79.38
434.066	93.38
434.287	86.38
434.509	75.38
434.731	76.38
434.953	81.38
435.175	76.38
435.397	86.38
435.618	86.38
435.84	89.38
436.062	90.38
436.284	89.38
436.505	83.38
436.727	71.38
436.949	72.38
437.17	84.38
437.392	61.38
437.614	79.38
437.835	96.38
438.057	75.38
438.278	87.38
438.5	92.38
438.721	95.38
438.943	99.38
439.165	86.38
439.386	91.38
439.608	88.38
439.829	91.38
440.05	85.38
440.272	119.38
440.493	72.38
440.715	77.38
440.936	83.38
441.158	76.38
441.379	87.38
441.6	84.38
441.822	85.38
442.043	89.38
442.264	80.38
442.486	84.38
442.707	77.38
442.928	87.38
443.149	107.38
443.371	101.38
443.592	91.38
443.813	85.38
444.034	87.38
444.255	71.38
444.476	69.38
444.698	96.38
444.919	72.38
445.14	126.38
445.361	113.38
445.582	100.38
445.803	101.38
446.024	99.38
446.245	116.38
446.466	94.38
446.687	81.38
446.908	85.38
447.129	79.38
447.35	82.38
447.571	79.38
447.792	94.38
448.013	85.38
448.234	79.38
448.455	85.38
448.675	102.38
448.896	98.38
449.117	96.38
449.338	73.38
449.559	115.38
449.779	108.38
450	81.38
450.221	83.38
450.442	70.38
450.662	96.38
450.883	92.38
451.104	97.38
451.324	73.38
451.545	92.38
451.766	78.38
451.986	82.38
452.207	92.38
452.428	91.38
452.648	83.38
452.869	104.38
453.089	95.38
453.31	98.38
453.53	72.38
453.751	82.38
453.971	91.38
454.192	101.38
454.412	79.38
454.633	85.38
454.853	78.38
455.073	71.38
455.294	91.38
455.514	73.38
455.734	81.38
455.955	91.38
456.175	68.38
456.395	78.38
456.616	85.38
456.836	72.38
457.056	86.38
457.276	79.38
457.497	78.38
457.717	73.38
457.937	70.38
458.157	67.38
458.377	83.38
458.598	81.38
458.818	116.38
459.038	102.38
459.258	89.38
459.478	85.38
459.698	92.38
459.918	70.38
460.138	81.38
460.358	77.38
460.578	89.38
460.798	95.38
461.018	73.38
461.238	88.38
461.458	79.38
461.678	81.38
461.898	73.38
462.118	71.38
462.338	77.38
462.558	71.38
462.777	79.38
462.997	88.38
463.217	84.38
463.437	101.38
463.657	78.38
463.876	74.38
464.096	82.38
464.316	94.38
464.536	81.38
464.755	89.38
464.975	76.38
465.195	91.38
465.414	101.38
465.634	87.38
465.854	84.38
466.073	79.38
466.293	84.38
466.512	89.38
466.732	88.38
466.951	95.38
467.171	96.38
467.391	98.38
467.61	79.38
467.829	88.38
468.049	73.38
468.268	82.38
468.488	70.38
468.707	79.38
468.927	94.38
469.146	75.38
469.365	86.38
469.585	85.38
469.804	72.38
470.023	86.38
470.243	68.38
470.462	88.38
470.681	80.38
470.901	90.38
471.12	80.38
471.339	89.38
471.558	92.38
471.777	83.38
471.997	85.38
472.216	89.38
472.435	124.38
472.654	89.38
472.873	93.38
473.092	86.38
473.311	87.38
473.53	78.38
473.749	84.38
473.968	90.38
474.187	97.38
474.406	95.38
474.625	75.38
474.844	92.38
475.063	69.38
475.282	73.38
475.501	78.38
475.72	83.38
475.939	72.38
476.158	85.38
476.377	101.38
476.596	67.38
476.814	65.38
477.033	80.38
477.252	89.38
477.471	76.38
477.69	82.38
477.908	70.38
478.127	79.38
478.346	91.38
478.564	85.38
478.783	94.38
479.002	82.38
479.22	81.38
479.439	77.38
479.658	89.38
479.876	87.38
480.095	84.38
480.313	89.38
480.532	89.38
480.751	78.38
480.969	99.38
481.188	145.38
481.406	123.38
481.624	77.38
481.843	86.38
482.061	80.38
482.28	84.38
482.498	89.38
482.717	90.38
482.935	97.38
483.153	95.38
483.372	86.38
483.59	84.38
483.808	92.38
484.027	85.38
484.245	83.38
484.463	84.38
484.681	85.38
484.9	85.38
485.118	71.38
485.336	103.38
485.554	94.38
485.772	89.38
485.99	104.38
486.209	103.38
486.427	99.38
486.645	118.38
486.863	102.38
487.081	90.38
487.299	93.38
487.517	104.38
487.735	84.38
487.953	85.38
488.171	96.38
488.389	91.38
488.607	89.38
488.825	74.38
489.043	87.38
489.261	91.38
489.479	88.38
489.696	91.38
489.914	83.38
490.132	82.38
490.35	88.38
490.568	91.38
490.786	77.38
491.003	71.38
491.221	87.38
491.439	88.38
491.657	81.38
491.874	83.38
492.092	89.38
492.31	92.38
492.527	72.38
492.745	87.38
492.963	75.38
493.18	94.38
493.398	84.38
493.615	95.38
493.833	82.38
494.05	83.38
494.268	92.38
494.485	87.38
494.703	87.38
494.92	76.38
495.138	81.38
495.355	75.38
495.573	86.38
495.79	83.38
496.008	81.38
496.225	72.38
496.442	91.38
496.66	75.38
496.877	83.38
497.094	88.38
497.312	99.38
497.529	83.38
497.746	75.38
497.963	105.38
498.181	87.38
498.398	72.38
498.615	80.38
498.832	89.38
499.049	68.38
499.267	91.38
499.484	85.38
499.701	84.38
499.918	88.38
500.135	88.38
500.352	83.38
500.569	93.38
500.786	93.38
501.003	68.38
501.22	79.38
501.437	76.38
501.654	90.38
501.871	99.38
502.088	86.38
502.305	81.38
502.522	83.38
502.739	75.38
502.956	87.38
503.172	87.38
503.389	94.38
503.606	97.38
503.823	83.38
504.04	82.38
504.256	80.38
504.473	90.38
504.69	84.38
504.907	85.38
505.123	85.38
505.34	98.38
505.557	72.38
505.773	84.38
505.99	79.38
506.207	69.38
506.423	84.38
506.64	83.38
506.856	84.38
507.073	87.38
507.289	86.38
507.506	101.38
507.722	93.38
507.939	95.38
508.155	77.38
508.372	76.38
508.588	84.38
508.805	88.38
509.021	82.38
509.238	91.38
509.454	79.38
509.67	97.38
509.887	91.38
510.103	100.38
510.319	136.38
510.536	497.38
510.752	1360.38
510.968	401.38
511.184	123.38
511.401	101.38
511.617	96.38
511.833	84.38
512.049	62.38
512.265	76.38
512.481	75.38
512.698	76.38
512.914	97.38
513.13	70.38
513.346	91.38
513.562	94.38
513.778	96.38
513.994	87.38
514.21	90.38
514.426	101.38
514.642	101.38
514.858	103.38
515.074	128.38
515.29	288.38
515.506	805.38
515.721	322.38
515.937	109.38
516.153	86.38
516.369	83.38
516.585	88.38
516.801	87.38
517.016	86.38
517.232	91.38
517.448	96.38
517.664	82.38
517.879	93.38
518.095	76.38
