Data from Uncirc_1981_H10_HRD10591_00001.txt Node
Date: Wed Jan 03 12:33:08 EST 2024
User: Yrep
Spectrometer: HR+D1059
Trigger mode: 1
Integration Time (sec): 1.000000E-1
Scans to average: 1
Electric dark correction enabled: true
Nonlinearity correction enabled: false
Boxcar width: 0
XAxis mode: Wavelengths
Number of Pixels in Spectrum: 2048
>>>>>Begin Spectral Data<<<<<
223.165	-12.25
223.4	-12.25
223.635	-12.25
223.869	-20.25
224.104	-19.25
224.338	-4.25
224.573	-9.25
224.808	-21.25
225.042	-21.25
225.277	-4.25
225.511	-7.25
225.746	0.75
225.98	7.75
226.215	5.75
226.449	17.75
226.683	30.75
226.918	18.75
227.152	37.75
227.387	41.75
227.621	40.75
227.856	55.75
228.09	50.75
228.324	32.75
228.559	65.75
228.793	62.75
229.027	60.75
229.262	60.75
229.496	62.75
229.73	62.75
229.964	87.75
230.199	78.75
230.433	65.75
230.667	91.75
230.901	75.75
231.136	77.75
231.37	66.75
231.604	87.75
231.838	78.75
232.072	70.75
232.306	81.75
232.541	74.75
232.775	78.75
233.009	78.75
233.243	92.75
233.477	68.75
233.711	83.75
233.945	67.75
234.179	76.75
234.413	74.75
234.647	82.75
234.881	67.75
235.115	82.75
235.349	85.75
235.583	80.75
235.817	73.75
236.051	70.75
236.285	72.75
236.519	81.75
236.753	86.75
236.987	70.75
237.221	78.75
237.455	71.75
237.689	80.75
237.922	82.75
238.156	75.75
238.39	81.75
238.624	71.75
238.858	71.75
239.091	87.75
239.325	85.75
239.559	83.75
239.793	87.75
240.027	74.75
240.26	78.75
240.494	79.75
240.728	69.75
240.961	68.75
241.195	74.75
241.429	66.75
241.662	64.75
241.896	75.75
242.13	69.75
242.363	81.75
242.597	78.75
242.83	79.75
243.064	78.75
243.298	66.75
243.531	80.75
243.765	83.75
243.998	67.75
244.232	78.75
244.465	98.75
244.699	67.75
244.932	87.75
245.166	81.75
245.399	88.75
245.633	63.75
245.866	66.75
246.099	74.75
246.333	71.75
246.566	72.75
246.8	102.75
247.033	66.75
247.266	70.75
247.5	76.75
247.733	83.75
247.966	81.75
248.2	76.75
248.433	69.75
248.666	67.75
248.899	76.75
249.133	73.75
249.366	89.75
249.599	80.75
249.832	86.75
250.066	85.75
250.299	71.75
250.532	86.75
250.765	86.75
250.998	62.75
251.231	72.75
251.465	74.75
251.698	74.75
251.931	64.75
252.164	84.75
252.397	68.75
252.63	73.75
252.863	83.75
253.096	85.75
253.329	82.75
253.562	81.75
253.795	89.75
254.028	79.75
254.261	82.75
254.494	81.75
254.727	79.75
254.96	80.75
255.193	74.75
255.426	73.75
255.659	70.75
255.892	73.75
256.124	70.75
256.357	71.75
256.59	84.75
256.823	78.75
257.056	86.75
257.289	88.75
257.521	78.75
257.754	81.75
257.987	83.75
258.22	82.75
258.452	82.75
258.685	82.75
258.918	75.75
259.151	87.75
259.383	74.75
259.616	82.75
259.849	82.75
260.081	72.75
260.314	85.75
260.547	80.75
260.779	96.75
261.012	83.75
261.244	89.75
261.477	91.75
261.71	89.75
261.942	86.75
262.175	87.75
262.407	84.75
262.64	74.75
262.872	86.75
263.105	91.75
263.337	99.75
263.57	88.75
263.802	80.75
264.035	88.75
264.267	84.75
264.499	72.75
264.732	72.75
264.964	71.75
265.197	84.75
265.429	82.75
265.661	82.75
265.894	86.75
266.126	91.75
266.358	86.75
266.591	67.75
266.823	73.75
267.055	87.75
267.287	92.75
267.52	86.75
267.752	92.75
267.984	83.75
268.216	85.75
268.448	87.75
268.681	87.75
268.913	84.75
269.145	87.75
269.377	99.75
269.609	89.75
269.841	83.75
270.073	81.75
270.306	82.75
270.538	73.75
270.77	81.75
271.002	70.75
271.234	82.75
271.466	78.75
271.698	78.75
271.93	84.75
272.162	85.75
272.394	77.75
272.626	64.75
272.858	73.75
273.09	70.75
273.322	88.75
273.553	76.75
273.785	88.75
274.017	80.75
274.249	86.75
274.481	100.75
274.713	92.75
274.945	72.75
275.176	80.75
275.408	87.75
275.64	74.75
275.872	87.75
276.104	76.75
276.335	91.75
276.567	96.75
276.799	96.75
277.031	89.75
277.262	82.75
277.494	94.75
277.726	71.75
277.957	68.75
278.189	90.75
278.421	111.75
278.652	86.75
278.884	74.75
279.115	91.75
279.347	98.75
279.579	94.75
279.81	85.75
280.042	89.75
280.273	79.75
280.505	74.75
280.736	90.75
280.968	73.75
281.199	86.75
281.431	80.75
281.662	88.75
281.894	90.75
282.125	96.75
282.356	99.75
282.588	93.75
282.819	91.75
283.051	90.75
283.282	83.75
283.513	88.75
283.745	83.75
283.976	78.75
284.207	85.75
284.439	80.75
284.67	77.75
284.901	102.75
285.132	83.75
285.364	72.75
285.595	92.75
285.826	90.75
286.057	80.75
286.288	85.75
286.52	71.75
286.751	83.75
286.982	89.75
287.213	68.75
287.444	79.75
287.675	80.75
287.906	82.75
288.138	89.75
288.369	85.75
288.6	89.75
288.831	91.75
289.062	91.75
289.293	90.75
289.524	87.75
289.755	98.75
289.986	80.75
290.217	86.75
290.448	85.75
290.679	75.75
290.91	83.75
291.141	73.75
291.371	95.75
291.602	80.75
291.833	81.75
292.064	83.75
292.295	91.75
292.526	89.75
292.757	86.75
292.987	87.75
293.218	77.75
293.449	88.75
293.68	95.75
293.91	73.75
294.141	94.75
294.372	85.75
294.603	96.75
294.833	101.75
295.064	90.75
295.295	69.75
295.525	83.75
295.756	82.75
295.987	90.75
296.217	91.75
296.448	91.75
296.679	85.75
296.909	95.75
297.14	88.75
297.37	78.75
297.601	80.75
297.831	80.75
298.062	79.75
298.292	89.75
298.523	91.75
298.753	78.75
298.984	82.75
299.214	68.75
299.445	87.75
299.675	93.75
299.905	86.75
300.136	90.75
300.366	76.75
300.597	95.75
300.827	83.75
301.057	87.75
301.288	96.75
301.518	87.75
301.748	89.75
301.979	99.75
302.209	95.75
302.439	99.75
302.669	94.75
302.9	91.75
303.13	90.75
303.36	83.75
303.59	90.75
303.82	82.75
304.051	82.75
304.281	80.75
304.511	80.75
304.741	88.75
304.971	80.75
305.201	103.75
305.431	80.75
305.661	79.75
305.891	88.75
306.121	82.75
306.352	90.75
306.582	104.75
306.812	85.75
307.042	82.75
307.272	94.75
307.502	84.75
307.731	81.75
307.961	82.75
308.191	87.75
308.421	88.75
308.651	81.75
308.881	89.75
309.111	95.75
309.341	88.75
309.571	87.75
309.8	96.75
310.03	98.75
310.26	91.75
310.49	91.75
310.72	83.75
310.949	97.75
311.179	87.75
311.409	87.75
311.639	79.75
311.868	87.75
312.098	99.75
312.328	86.75
312.557	89.75
312.787	86.75
313.017	100.75
313.246	84.75
313.476	76.75
313.706	93.75
313.935	90.75
314.165	86.75
314.394	86.75
314.624	94.75
314.853	92.75
315.083	90.75
315.312	88.75
315.542	66.75
315.771	93.75
316.001	89.75
316.23	80.75
316.46	90.75
316.689	87.75
316.919	84.75
317.148	95.75
317.377	101.75
317.607	84.75
317.836	94.75
318.065	86.75
318.295	70.75
318.524	89.75
318.753	92.75
318.983	103.75
319.212	103.75
319.441	106.75
319.67	79.75
319.9	99.75
320.129	98.75
320.358	96.75
320.587	84.75
320.816	81.75
321.046	86.75
321.275	84.75
321.504	90.75
321.733	88.75
321.962	99.75
322.191	74.75
322.42	88.75
322.649	92.75
322.878	101.75
323.108	114.75
323.337	101.75
323.566	126.75
323.795	118.75
324.024	149.75
324.253	254.75
324.482	519.75
324.71	1023.75
324.939	1326.75
325.168	502.75
325.397	173.75
325.626	121.75
325.855	103.75
326.084	125.75
326.313	119.75
326.542	133.75
326.77	184.75
326.999	309.75
327.228	614.75
327.457	1079.75
327.686	845.75
327.914	263.75
328.143	148.75
328.372	111.75
328.6	108.75
328.829	97.75
329.058	121.75
329.287	91.75
329.515	91.75
329.744	85.75
329.972	90.75
330.201	99.75
330.43	105.75
330.658	109.75
330.887	113.75
331.115	106.75
331.344	90.75
331.572	91.75
331.801	93.75
332.03	87.75
332.258	91.75
332.486	94.75
332.715	69.75
332.943	103.75
333.172	85.75
333.4	108.75
333.629	107.75
333.857	83.75
334.085	92.75
334.314	101.75
334.542	106.75
334.771	104.75
334.999	99.75
335.227	95.75
335.455	88.75
335.684	91.75
335.912	78.75
336.14	100.75
336.369	89.75
336.597	103.75
336.825	94.75
337.053	87.75
337.281	101.75
337.51	94.75
337.738	92.75
337.966	75.75
338.194	90.75
338.422	81.75
338.65	80.75
338.878	87.75
339.106	79.75
339.334	86.75
339.562	84.75
339.79	101.75
340.018	80.75
340.246	84.75
340.474	97.75
340.702	91.75
340.93	86.75
341.158	88.75
341.386	95.75
341.614	85.75
341.842	78.75
342.07	94.75
342.298	95.75
342.526	75.75
342.754	96.75
342.981	99.75
343.209	83.75
343.437	94.75
343.665	87.75
343.893	96.75
344.12	92.75
344.348	89.75
344.576	83.75
344.804	98.75
345.031	84.75
345.259	90.75
345.487	87.75
345.714	97.75
345.942	99.75
346.17	95.75
346.397	78.75
346.625	99.75
346.853	87.75
347.08	104.75
347.308	84.75
347.535	78.75
347.763	98.75
347.99	80.75
348.218	95.75
348.445	101.75
348.673	91.75
348.9	96.75
349.128	84.75
349.355	101.75
349.583	100.75
349.81	103.75
350.037	79.75
350.265	95.75
350.492	98.75
350.72	94.75
350.947	107.75
351.174	118.75
351.402	102.75
351.629	95.75
351.856	113.75
352.083	74.75
352.311	88.75
352.538	100.75
352.765	83.75
352.992	106.75
353.22	111.75
353.447	94.75
353.674	114.75
353.901	98.75
354.128	97.75
354.355	91.75
354.583	108.75
354.81	105.75
355.037	101.75
355.264	102.75
355.491	117.75
355.718	90.75
355.945	100.75
356.172	118.75
356.399	105.75
356.626	92.75
356.853	99.75
357.08	82.75
357.307	90.75
357.534	99.75
357.761	92.75
357.988	109.75
358.215	116.75
358.441	114.75
358.668	105.75
358.895	103.75
359.122	87.75
359.349	98.75
359.576	80.75
359.802	101.75
360.029	99.75
360.256	92.75
360.483	91.75
360.709	94.75
360.936	93.75
361.163	78.75
361.39	103.75
361.616	87.75
361.843	86.75
362.07	89.75
362.296	79.75
362.523	93.75
362.749	90.75
362.976	82.75
363.203	94.75
363.429	91.75
363.656	90.75
363.882	85.75
364.109	84.75
364.335	71.75
364.562	78.75
364.788	82.75
365.015	89.75
365.241	81.75
365.468	87.75
365.694	91.75
365.92	87.75
366.147	81.75
366.373	98.75
366.599	88.75
366.826	95.75
367.052	73.75
367.278	82.75
367.505	96.75
367.731	90.75
367.957	84.75
368.184	71.75
368.41	94.75
368.636	105.75
368.862	88.75
369.089	84.75
369.315	95.75
369.541	88.75
369.767	100.75
369.993	86.75
370.219	83.75
370.445	82.75
370.672	93.75
370.898	85.75
371.124	97.75
371.35	82.75
371.576	92.75
371.802	90.75
372.028	80.75
372.254	102.75
372.48	98.75
372.706	72.75
372.932	94.75
373.158	78.75
373.384	96.75
373.61	107.75
373.835	96.75
374.061	88.75
374.287	98.75
374.513	107.75
374.739	89.75
374.965	98.75
375.191	91.75
375.416	89.75
375.642	101.75
375.868	83.75
376.094	102.75
376.319	86.75
376.545	101.75
376.771	94.75
376.997	99.75
377.222	113.75
377.448	98.75
377.674	101.75
377.899	99.75
378.125	95.75
378.35	108.75
378.576	97.75
378.802	96.75
379.027	116.75
379.253	105.75
379.478	98.75
379.704	120.75
379.929	108.75
380.155	100.75
380.38	123.75
380.606	116.75
380.831	119.75
381.057	122.75
381.282	126.75
381.507	122.75
381.733	126.75
381.958	138.75
382.184	139.75
382.409	125.75
382.634	134.75
382.86	132.75
383.085	136.75
383.31	131.75
383.535	147.75
383.761	126.75
383.986	145.75
384.211	148.75
384.436	130.75
384.662	162.75
384.887	163.75
385.112	194.75
385.337	180.75
385.562	190.75
385.787	156.75
386.013	176.75
386.238	177.75
386.463	161.75
386.688	174.75
386.913	169.75
387.138	185.75
387.363	167.75
387.588	143.75
387.813	146.75
388.038	188.75
388.263	206.75
388.488	197.75
388.713	112.75
388.938	105.75
389.163	84.75
389.387	95.75
389.612	86.75
389.837	103.75
390.062	95.75
390.287	81.75
390.512	97.75
390.736	90.75
390.961	92.75
391.186	88.75
391.411	96.75
391.636	95.75
391.86	94.75
392.085	75.75
392.31	80.75
392.534	86.75
392.759	87.75
392.984	83.75
393.208	87.75
393.433	85.75
393.658	87.75
393.882	86.75
394.107	76.75
394.331	70.75
394.556	76.75
394.78	86.75
395.005	94.75
395.229	73.75
395.454	91.75
395.678	90.75
395.903	89.75
396.127	87.75
396.352	73.75
396.576	72.75
396.801	92.75
397.025	79.75
397.249	86.75
397.474	81.75
397.698	92.75
397.922	84.75
398.147	87.75
398.371	89.75
398.595	100.75
398.82	90.75
399.044	82.75
399.268	89.75
399.492	80.75
399.717	92.75
399.941	89.75
400.165	83.75
400.389	87.75
400.613	88.75
400.837	66.75
401.062	83.75
401.286	87.75
401.51	93.75
401.734	75.75
401.958	95.75
402.182	82.75
402.406	90.75
402.63	94.75
402.854	108.75
403.078	82.75
403.302	82.75
403.526	80.75
403.75	85.75
403.974	68.75
404.198	80.75
404.422	84.75
404.645	88.75
404.869	64.75
405.093	92.75
405.317	86.75
405.541	76.75
405.765	79.75
405.988	102.75
406.212	98.75
406.436	121.75
406.66	87.75
406.883	99.75
407.107	86.75
407.331	96.75
407.555	97.75
407.778	101.75
408.002	87.75
408.226	90.75
408.449	90.75
408.673	100.75
408.896	72.75
409.12	87.75
409.344	95.75
409.567	90.75
409.791	100.75
410.014	87.75
410.238	94.75
410.461	92.75
410.685	101.75
410.908	87.75
411.132	113.75
411.355	107.75
411.578	84.75
411.802	107.75
412.025	87.75
412.249	90.75
412.472	103.75
412.695	86.75
412.919	86.75
413.142	101.75
413.365	89.75
413.589	94.75
413.812	87.75
414.035	104.75
414.258	99.75
414.482	94.75
414.705	97.75
414.928	92.75
415.151	104.75
415.374	104.75
415.597	87.75
415.821	104.75
416.044	107.75
416.267	88.75
416.49	100.75
416.713	87.75
416.936	89.75
417.159	93.75
417.382	87.75
417.605	92.75
417.828	87.75
418.051	88.75
418.274	94.75
418.497	82.75
418.72	86.75
418.943	94.75
419.166	78.75
419.389	94.75
419.611	98.75
419.834	88.75
420.057	93.75
420.28	81.75
420.503	86.75
420.726	88.75
420.948	91.75
421.171	103.75
421.394	100.75
421.617	82.75
421.839	91.75
422.062	96.75
422.285	87.75
422.507	97.75
422.73	91.75
422.953	91.75
423.175	87.75
423.398	96.75
423.621	73.75
423.843	86.75
424.066	82.75
424.288	74.75
424.511	96.75
424.733	96.75
424.956	100.75
425.178	84.75
425.401	85.75
425.623	95.75
425.846	96.75
426.068	97.75
426.291	83.75
426.513	82.75
426.735	82.75
426.958	98.75
427.18	99.75
427.402	102.75
427.625	117.75
427.847	89.75
428.069	99.75
428.292	88.75
428.514	81.75
428.736	92.75
428.958	93.75
429.181	82.75
429.403	79.75
429.625	73.75
429.847	76.75
430.069	90.75
430.292	89.75
430.514	91.75
430.736	91.75
430.958	82.75
431.18	86.75
431.402	86.75
431.624	83.75
431.846	89.75
432.068	81.75
432.29	79.75
432.512	101.75
432.734	73.75
432.956	88.75
433.178	92.75
433.4	84.75
433.622	81.75
433.844	80.75
434.066	88.75
434.287	89.75
434.509	86.75
434.731	89.75
434.953	75.75
435.175	72.75
435.397	88.75
435.618	89.75
435.84	86.75
436.062	95.75
436.284	100.75
436.505	99.75
436.727	90.75
436.949	87.75
437.17	71.75
437.392	79.75
437.614	78.75
437.835	85.75
438.057	106.75
438.278	96.75
438.5	102.75
438.721	105.75
438.943	88.75
439.165	81.75
439.386	90.75
439.608	91.75
439.829	76.75
440.05	90.75
440.272	106.75
440.493	95.75
440.715	88.75
440.936	91.75
441.158	69.75
441.379	68.75
441.6	84.75
441.822	100.75
442.043	107.75
442.264	86.75
442.486	75.75
442.707	73.75
442.928	79.75
443.149	90.75
443.371	104.75
443.592	86.75
443.813	88.75
444.034	93.75
444.255	94.75
444.476	68.75
444.698	83.75
444.919	99.75
445.14	134.75
445.361	108.75
445.582	90.75
445.803	107.75
446.024	99.75
446.245	113.75
446.466	87.75
446.687	89.75
446.908	90.75
447.129	83.75
447.35	82.75
447.571	86.75
447.792	84.75
448.013	93.75
448.234	101.75
448.455	92.75
448.675	99.75
448.896	94.75
449.117	101.75
449.338	91.75
449.559	107.75
449.779	116.75
450	87.75
450.221	80.75
450.442	90.75
450.662	78.75
450.883	101.75
451.104	82.75
451.324	85.75
451.545	78.75
451.766	65.75
451.986	78.75
452.207	80.75
452.428	71.75
452.648	87.75
452.869	108.75
453.089	101.75
453.31	99.75
453.53	75.75
453.751	86.75
453.971	87.75
454.192	86.75
454.412	84.75
454.633	68.75
454.853	88.75
455.073	80.75
455.294	76.75
455.514	84.75
455.734	82.75
455.955	66.75
456.175	93.75
456.395	89.75
456.616	75.75
456.836	88.75
457.056	87.75
457.276	81.75
457.497	85.75
457.717	83.75
457.937	98.75
458.157	94.75
458.377	83.75
458.598	86.75
458.818	112.75
459.038	115.75
459.258	89.75
459.478	83.75
459.698	73.75
459.918	90.75
460.138	88.75
460.358	89.75
460.578	87.75
460.798	79.75
461.018	90.75
461.238	84.75
461.458	88.75
461.678	79.75
461.898	89.75
462.118	84.75
462.338	81.75
462.558	86.75
462.777	79.75
462.997	87.75
463.217	88.75
463.437	76.75
463.657	87.75
463.876	66.75
464.096	91.75
464.316	89.75
464.536	91.75
464.755	97.75
464.975	100.75
465.195	94.75
465.414	88.75
465.634	84.75
465.854	86.75
466.073	88.75
466.293	83.75
466.512	91.75
466.732	82.75
466.951	81.75
467.171	81.75
467.391	92.75
467.61	92.75
467.829	97.75
468.049	91.75
468.268	99.75
468.488	84.75
468.707	100.75
468.927	78.75
469.146	75.75
469.365	96.75
469.585	80.75
469.804	96.75
470.023	85.75
470.243	82.75
470.462	86.75
470.681	87.75
470.901	78.75
471.12	78.75
471.339	78.75
471.558	97.75
471.777	91.75
471.997	68.75
472.216	104.75
472.435	106.75
472.654	74.75
472.873	77.75
473.092	84.75
473.311	87.75
473.53	88.75
473.749	84.75
473.968	87.75
474.187	72.75
474.406	79.75
474.625	102.75
474.844	94.75
475.063	65.75
475.282	106.75
475.501	84.75
475.72	74.75
475.939	72.75
476.158	102.75
476.377	83.75
476.596	71.75
476.814	87.75
477.033	91.75
477.252	89.75
477.471	95.75
477.69	88.75
477.908	94.75
478.127	83.75
478.346	88.75
478.564	76.75
478.783	105.75
479.002	97.75
479.22	94.75
479.439	97.75
479.658	92.75
479.876	83.75
480.095	81.75
480.313	70.75
480.532	90.75
480.751	90.75
480.969	102.75
481.188	117.75
481.406	117.75
481.624	100.75
481.843	96.75
482.061	85.75
482.28	76.75
482.498	86.75
482.717	90.75
482.935	66.75
483.153	84.75
483.372	75.75
483.59	92.75
483.808	89.75
484.027	94.75
484.245	91.75
484.463	84.75
484.681	107.75
484.9	99.75
485.118	97.75
485.336	82.75
485.554	94.75
485.772	98.75
485.99	114.75
486.209	101.75
486.427	98.75
486.645	120.75
486.863	113.75
487.081	106.75
487.299	105.75
487.517	91.75
487.735	81.75
487.953	83.75
488.171	92.75
488.389	94.75
488.607	90.75
488.825	87.75
489.043	82.75
489.261	88.75
489.479	78.75
489.696	81.75
489.914	84.75
490.132	93.75
490.35	83.75
490.568	98.75
490.786	84.75
491.003	94.75
491.221	94.75
491.439	99.75
491.657	87.75
491.874	82.75
492.092	82.75
492.31	66.75
492.527	81.75
492.745	84.75
492.963	87.75
493.18	101.75
493.398	99.75
493.615	98.75
493.833	90.75
494.05	81.75
494.268	87.75
494.485	93.75
494.703	88.75
494.92	83.75
495.138	92.75
495.355	82.75
495.573	88.75
495.79	89.75
496.008	99.75
496.225	85.75
496.442	83.75
496.66	92.75
496.877	79.75
497.094	84.75
497.312	86.75
497.529	97.75
497.746	92.75
497.963	94.75
498.181	88.75
498.398	103.75
498.615	90.75
498.832	78.75
499.049	82.75
499.267	89.75
499.484	89.75
499.701	86.75
499.918	87.75
500.135	84.75
500.352	98.75
500.569	77.75
500.786	106.75
501.003	84.75
501.22	97.75
501.437	91.75
501.654	94.75
501.871	95.75
502.088	90.75
502.305	90.75
502.522	75.75
502.739	88.75
502.956	81.75
503.172	88.75
503.389	91.75
503.606	95.75
503.823	99.75
504.04	96.75
504.256	82.75
504.473	87.75
504.69	76.75
504.907	70.75
505.123	80.75
505.34	88.75
505.557	80.75
505.773	83.75
505.99	86.75
506.207	72.75
506.423	81.75
506.64	93.75
506.856	88.75
507.073	105.75
507.289	104.75
507.506	86.75
507.722	90.75
507.939	82.75
508.155	90.75
508.372	91.75
508.588	83.75
508.805	82.75
509.021	87.75
509.238	100.75
509.454	75.75
509.67	108.75
509.887	85.75
510.103	105.75
510.319	139.75
510.536	362.75
510.752	918.75
510.968	295.75
511.184	114.75
511.401	102.75
511.617	92.75
511.833	82.75
512.049	83.75
512.265	88.75
512.481	92.75
512.698	92.75
512.914	96.75
513.13	81.75
513.346	87.75
513.562	88.75
513.778	96.75
513.994	75.75
514.21	78.75
514.426	96.75
514.642	89.75
514.858	103.75
515.074	106.75
515.29	212.75
515.506	530.75
515.721	234.75
515.937	110.75
516.153	91.75
516.369	90.75
516.585	93.75
516.801	97.75
517.016	111.75
