Data from Uncirc_1981_H10_HRD10591_00087.txt Node
Date: Wed Jan 03 12:33:25 EST 2024
User: Yrep
Spectrometer: HR+D1059
Trigger mode: 1
Integration Time (sec): 1.000000E-1
Scans to average: 1
Electric dark correction enabled: true
Nonlinearity correction enabled: false
Boxcar width: 0
XAxis mode: Wavelengths
Number of Pixels in Spectrum: 2048
>>>>>Begin Spectral Data<<<<<
223.165	-23.25
223.4	-23.25
223.635	-23.25
223.869	-18.25
224.104	-28.25
224.338	-13.25
224.573	-21.25
224.808	-7.25
225.042	-5.25
225.277	-5.25
225.511	8.75
225.746	-1.25
225.98	-2.25
226.215	17.75
226.449	6.75
226.683	34.75
226.918	22.75
227.152	34.75
227.387	27.75
227.621	45.75
227.856	31.75
228.09	48.75
228.324	46.75
228.559	50.75
228.793	62.75
229.027	62.75
229.262	75.75
229.496	80.75
229.73	84.75
229.964	90.75
230.199	73.75
230.433	68.75
230.667	88.75
230.901	87.75
231.136	85.75
231.37	86.75
231.604	85.75
231.838	95.75
232.072	91.75
232.306	88.75
232.541	71.75
232.775	91.75
233.009	70.75
233.243	66.75
233.477	72.75
233.711	92.75
233.945	66.75
234.179	65.75
234.413	84.75
234.647	85.75
234.881	85.75
235.115	74.75
235.349	88.75
235.583	76.75
235.817	90.75
236.051	78.75
236.285	86.75
236.519	71.75
236.753	84.75
236.987	71.75
237.221	84.75
237.455	90.75
237.689	77.75
237.922	71.75
238.156	90.75
238.39	73.75
238.624	85.75
238.858	69.75
239.091	86.75
239.325	85.75
239.559	77.75
239.793	78.75
240.027	77.75
240.26	83.75
240.494	72.75
240.728	77.75
240.961	88.75
241.195	76.75
241.429	73.75
241.662	76.75
241.896	74.75
242.13	84.75
242.363	74.75
242.597	63.75
242.83	84.75
243.064	84.75
243.298	71.75
243.531	80.75
243.765	76.75
243.998	80.75
244.232	88.75
244.465	80.75
244.699	83.75
244.932	92.75
245.166	80.75
245.399	76.75
245.633	89.75
245.866	71.75
246.099	62.75
246.333	90.75
246.566	90.75
246.8	82.75
247.033	84.75
247.266	93.75
247.5	71.75
247.733	84.75
247.966	96.75
248.2	75.75
248.433	75.75
248.666	83.75
248.899	86.75
249.133	88.75
249.366	104.75
249.599	93.75
249.832	70.75
250.066	86.75
250.299	85.75
250.532	83.75
250.765	78.75
250.998	76.75
251.231	94.75
251.465	64.75
251.698	73.75
251.931	82.75
252.164	87.75
252.397	86.75
252.63	81.75
252.863	73.75
253.096	92.75
253.329	87.75
253.562	84.75
253.795	77.75
254.028	78.75
254.261	80.75
254.494	83.75
254.727	78.75
254.96	88.75
255.193	85.75
255.426	88.75
255.659	69.75
255.892	82.75
256.124	86.75
256.357	88.75
256.59	85.75
256.823	83.75
257.056	77.75
257.289	91.75
257.521	87.75
257.754	75.75
257.987	79.75
258.22	81.75
258.452	82.75
258.685	88.75
258.918	86.75
259.151	87.75
259.383	80.75
259.616	77.75
259.849	89.75
260.081	85.75
260.314	76.75
260.547	90.75
260.779	71.75
261.012	88.75
261.244	87.75
261.477	82.75
261.71	84.75
261.942	94.75
262.175	106.75
262.407	78.75
262.64	96.75
262.872	90.75
263.105	82.75
263.337	74.75
263.57	82.75
263.802	92.75
264.035	92.75
264.267	89.75
264.499	90.75
264.732	84.75
264.964	90.75
265.197	90.75
265.429	85.75
265.661	99.75
265.894	88.75
266.126	85.75
266.358	90.75
266.591	90.75
266.823	104.75
267.055	79.75
267.287	85.75
267.52	70.75
267.752	72.75
267.984	90.75
268.216	88.75
268.448	103.75
268.681	78.75
268.913	85.75
269.145	92.75
269.377	80.75
269.609	98.75
269.841	95.75
270.073	90.75
270.306	75.75
270.538	66.75
270.77	96.75
271.002	92.75
271.234	93.75
271.466	92.75
271.698	105.75
271.93	90.75
272.162	108.75
272.394	81.75
272.626	90.75
272.858	80.75
273.09	91.75
273.322	98.75
273.553	75.75
273.785	84.75
274.017	86.75
274.249	84.75
274.481	86.75
274.713	88.75
274.945	85.75
275.176	92.75
275.408	99.75
275.64	82.75
275.872	79.75
276.104	73.75
276.335	101.75
276.567	106.75
276.799	111.75
277.031	89.75
277.262	88.75
277.494	85.75
277.726	83.75
277.957	92.75
278.189	85.75
278.421	84.75
278.652	105.75
278.884	75.75
279.115	78.75
279.347	80.75
279.579	87.75
279.81	92.75
280.042	95.75
280.273	95.75
280.505	83.75
280.736	92.75
280.968	92.75
281.199	91.75
281.431	68.75
281.662	79.75
281.894	83.75
282.125	93.75
282.356	107.75
282.588	120.75
282.819	98.75
283.051	96.75
283.282	78.75
283.513	101.75
283.745	91.75
283.976	82.75
284.207	80.75
284.439	83.75
284.67	86.75
284.901	83.75
285.132	90.75
285.364	89.75
285.595	88.75
285.826	93.75
286.057	75.75
286.288	89.75
286.52	81.75
286.751	101.75
286.982	97.75
287.213	84.75
287.444	74.75
287.675	99.75
287.906	95.75
288.138	90.75
288.369	102.75
288.6	79.75
288.831	79.75
289.062	78.75
289.293	102.75
289.524	76.75
289.755	100.75
289.986	87.75
290.217	89.75
290.448	96.75
290.679	108.75
290.91	68.75
291.141	75.75
291.371	87.75
291.602	95.75
291.833	95.75
292.064	90.75
292.295	90.75
292.526	71.75
292.757	84.75
292.987	94.75
293.218	88.75
293.449	87.75
293.68	95.75
293.91	83.75
294.141	88.75
294.372	98.75
294.603	90.75
294.833	94.75
295.064	97.75
295.295	96.75
295.525	72.75
295.756	111.75
295.987	109.75
296.217	113.75
296.448	99.75
296.679	94.75
296.909	102.75
297.14	96.75
297.37	87.75
297.601	77.75
297.831	97.75
298.062	91.75
298.292	100.75
298.523	88.75
298.753	99.75
298.984	99.75
299.214	95.75
299.445	88.75
299.675	83.75
299.905	92.75
300.136	72.75
300.366	88.75
300.597	83.75
300.827	98.75
301.057	95.75
301.288	95.75
301.518	86.75
301.748	93.75
301.979	98.75
302.209	103.75
302.439	91.75
302.669	90.75
302.9	87.75
303.13	88.75
303.36	93.75
303.59	98.75
303.82	92.75
304.051	89.75
304.281	90.75
304.511	77.75
304.741	73.75
304.971	97.75
305.201	102.75
305.431	85.75
305.661	87.75
305.891	94.75
306.121	92.75
306.352	100.75
306.582	95.75
306.812	97.75
307.042	86.75
307.272	103.75
307.502	104.75
307.731	111.75
307.961	94.75
308.191	98.75
308.421	78.75
308.651	91.75
308.881	85.75
309.111	84.75
309.341	82.75
309.571	109.75
309.8	98.75
310.03	84.75
310.26	105.75
310.49	94.75
310.72	91.75
310.949	100.75
311.179	100.75
311.409	95.75
311.639	95.75
311.868	93.75
312.098	91.75
312.328	84.75
312.557	92.75
312.787	100.75
313.017	104.75
313.246	92.75
313.476	86.75
313.706	80.75
313.935	97.75
314.165	98.75
314.394	86.75
314.624	96.75
314.853	97.75
315.083	85.75
315.312	102.75
315.542	84.75
315.771	109.75
316.001	93.75
316.23	86.75
316.46	91.75
316.689	100.75
316.919	97.75
317.148	95.75
317.377	98.75
317.607	102.75
317.836	90.75
318.065	94.75
318.295	98.75
318.524	104.75
318.753	97.75
318.983	92.75
319.212	96.75
319.441	109.75
319.67	110.75
319.9	97.75
320.129	99.75
320.358	93.75
320.587	83.75
320.816	93.75
321.046	93.75
321.275	127.75
321.504	95.75
321.733	103.75
321.962	109.75
322.191	94.75
322.42	90.75
322.649	92.75
322.878	109.75
323.108	116.75
323.337	106.75
323.566	129.75
323.795	126.75
324.024	177.75
324.253	353.75
324.482	695.75
324.71	1478.75
324.939	1984.75
325.168	714.75
325.397	222.75
325.626	127.75
325.855	118.75
326.084	141.75
326.313	131.75
326.542	131.75
326.77	198.75
326.999	384.75
327.228	838.75
327.457	1559.75
327.686	1246.75
327.914	325.75
328.143	174.75
328.372	130.75
328.6	116.75
328.829	103.75
329.058	101.75
329.287	112.75
329.515	89.75
329.744	107.75
329.972	102.75
330.201	109.75
330.43	122.75
330.658	111.75
330.887	118.75
331.115	101.75
331.344	110.75
331.572	86.75
331.801	112.75
332.03	97.75
332.258	89.75
332.486	96.75
332.715	97.75
332.943	86.75
333.172	94.75
333.4	94.75
333.629	94.75
333.857	103.75
334.085	107.75
334.314	118.75
334.542	110.75
334.771	115.75
334.999	100.75
335.227	98.75
335.455	103.75
335.684	108.75
335.912	96.75
336.14	88.75
336.369	83.75
336.597	99.75
336.825	95.75
337.053	99.75
337.281	83.75
337.51	101.75
337.738	94.75
337.966	97.75
338.194	94.75
338.422	82.75
338.65	95.75
338.878	102.75
339.106	83.75
339.334	93.75
339.562	97.75
339.79	90.75
340.018	76.75
340.246	89.75
340.474	90.75
340.702	95.75
340.93	91.75
341.158	92.75
341.386	100.75
341.614	95.75
341.842	79.75
342.07	98.75
342.298	100.75
342.526	93.75
342.754	98.75
342.981	98.75
343.209	101.75
343.437	117.75
343.665	91.75
343.893	99.75
344.12	114.75
344.348	94.75
344.576	75.75
344.804	83.75
345.031	102.75
345.259	91.75
345.487	103.75
345.714	86.75
345.942	87.75
346.17	104.75
346.397	116.75
346.625	91.75
346.853	107.75
347.08	91.75
347.308	93.75
347.535	114.75
347.763	92.75
347.99	91.75
348.218	89.75
348.445	90.75
348.673	89.75
348.9	91.75
349.128	70.75
349.355	94.75
349.583	95.75
349.81	109.75
350.037	95.75
350.265	88.75
350.492	80.75
350.72	103.75
350.947	101.75
351.174	102.75
351.402	97.75
351.629	101.75
351.856	101.75
352.083	116.75
352.311	109.75
352.538	110.75
352.765	100.75
352.992	115.75
353.22	109.75
353.447	117.75
353.674	117.75
353.901	104.75
354.128	108.75
354.355	108.75
354.583	88.75
354.81	98.75
355.037	105.75
355.264	96.75
355.491	106.75
355.718	88.75
355.945	118.75
356.172	95.75
356.399	103.75
356.626	109.75
356.853	101.75
357.08	95.75
357.307	92.75
357.534	101.75
357.761	88.75
357.988	103.75
358.215	100.75
358.441	99.75
358.668	85.75
358.895	91.75
359.122	98.75
359.349	87.75
359.576	96.75
359.802	99.75
360.029	116.75
360.256	91.75
360.483	94.75
360.709	95.75
360.936	95.75
361.163	86.75
361.39	95.75
361.616	89.75
361.843	100.75
362.07	111.75
362.296	98.75
362.523	99.75
362.749	95.75
362.976	90.75
363.203	87.75
363.429	95.75
363.656	101.75
363.882	87.75
364.109	94.75
364.335	87.75
364.562	90.75
364.788	91.75
365.015	101.75
365.241	99.75
365.468	114.75
365.694	104.75
365.92	80.75
366.147	75.75
366.373	87.75
366.599	82.75
366.826	88.75
367.052	88.75
367.278	75.75
367.505	87.75
367.731	91.75
367.957	83.75
368.184	86.75
368.41	92.75
368.636	102.75
368.862	104.75
369.089	102.75
369.315	82.75
369.541	103.75
369.767	90.75
369.993	78.75
370.219	99.75
370.445	90.75
370.672	70.75
370.898	75.75
371.124	86.75
371.35	78.75
371.576	93.75
371.802	92.75
372.028	87.75
372.254	93.75
372.48	89.75
372.706	85.75
372.932	104.75
373.158	98.75
373.384	91.75
373.61	90.75
373.835	89.75
374.061	106.75
374.287	79.75
374.513	97.75
374.739	70.75
374.965	109.75
375.191	90.75
375.416	87.75
375.642	93.75
375.868	78.75
376.094	86.75
376.319	95.75
376.545	98.75
376.771	74.75
376.997	86.75
377.222	94.75
377.448	80.75
377.674	91.75
377.899	94.75
378.125	96.75
378.35	92.75
378.576	91.75
378.802	90.75
379.027	82.75
379.253	95.75
379.478	93.75
379.704	101.75
379.929	83.75
380.155	106.75
380.38	92.75
380.606	104.75
380.831	100.75
381.057	111.75
381.282	94.75
381.507	82.75
381.733	95.75
381.958	99.75
382.184	101.75
382.409	99.75
382.634	104.75
382.86	103.75
383.085	99.75
383.31	78.75
383.535	92.75
383.761	89.75
383.986	106.75
384.211	82.75
384.436	87.75
384.662	96.75
384.887	117.75
385.112	101.75
385.337	98.75
385.562	88.75
385.787	103.75
386.013	98.75
386.238	104.75
386.463	113.75
386.688	105.75
386.913	95.75
387.138	105.75
387.363	91.75
387.588	101.75
387.813	106.75
388.038	100.75
388.263	103.75
388.488	96.75
388.713	96.75
388.938	99.75
389.163	106.75
389.387	101.75
389.612	86.75
389.837	91.75
390.062	90.75
390.287	110.75
390.512	96.75
390.736	76.75
390.961	90.75
391.186	97.75
391.411	99.75
391.636	95.75
391.86	92.75
392.085	90.75
392.31	86.75
392.534	80.75
392.759	95.75
392.984	87.75
393.208	89.75
393.433	95.75
393.658	85.75
393.882	74.75
394.107	83.75
394.331	92.75
394.556	87.75
394.78	86.75
395.005	90.75
395.229	96.75
395.454	85.75
395.678	88.75
395.903	87.75
396.127	93.75
396.352	101.75
396.576	76.75
396.801	70.75
397.025	85.75
397.249	88.75
397.474	79.75
397.698	104.75
397.922	100.75
398.147	71.75
398.371	86.75
398.595	93.75
398.82	107.75
399.044	85.75
399.268	96.75
399.492	77.75
399.717	84.75
399.941	82.75
400.165	85.75
400.389	96.75
400.613	87.75
400.837	97.75
401.062	99.75
401.286	84.75
401.51	92.75
401.734	89.75
401.958	92.75
402.182	107.75
402.406	133.75
402.63	102.75
402.854	88.75
403.078	71.75
403.302	82.75
403.526	92.75
403.75	93.75
403.974	75.75
404.198	88.75
404.422	90.75
404.645	82.75
404.869	98.75
405.093	104.75
405.317	104.75
405.541	106.75
405.765	106.75
405.988	102.75
406.212	135.75
406.436	161.75
406.66	122.75
406.883	108.75
407.107	92.75
407.331	96.75
407.555	98.75
407.778	92.75
408.002	74.75
408.226	81.75
408.449	85.75
408.673	98.75
408.896	85.75
409.12	101.75
409.344	98.75
409.567	87.75
409.791	104.75
410.014	92.75
410.238	85.75
410.461	97.75
410.685	92.75
410.908	96.75
411.132	104.75
411.355	99.75
411.578	88.75
411.802	92.75
412.025	89.75
412.249	88.75
412.472	95.75
412.695	94.75
412.919	76.75
413.142	92.75
413.365	104.75
413.589	93.75
413.812	88.75
414.035	95.75
414.258	69.75
414.482	102.75
414.705	88.75
414.928	103.75
415.151	85.75
415.374	96.75
415.597	90.75
415.821	103.75
416.044	93.75
416.267	89.75
416.49	96.75
416.713	105.75
416.936	77.75
417.159	84.75
417.382	80.75
417.605	97.75
417.828	110.75
418.051	70.75
418.274	84.75
418.497	81.75
418.72	90.75
418.943	104.75
419.166	92.75
419.389	87.75
419.611	83.75
419.834	87.75
420.057	95.75
420.28	87.75
420.503	79.75
420.726	88.75
420.948	76.75
421.171	86.75
421.394	94.75
421.617	102.75
421.839	100.75
422.062	105.75
422.285	91.75
422.507	104.75
422.73	88.75
422.953	87.75
423.175	94.75
423.398	98.75
423.621	90.75
423.843	98.75
424.066	90.75
424.288	86.75
424.511	94.75
424.733	87.75
424.956	115.75
425.178	91.75
425.401	102.75
425.623	84.75
425.846	91.75
426.068	104.75
426.291	70.75
426.513	78.75
426.735	84.75
426.958	82.75
427.18	110.75
427.402	119.75
427.625	127.75
427.847	120.75
428.069	110.75
428.292	82.75
428.514	91.75
428.736	99.75
428.958	96.75
429.181	86.75
429.403	86.75
429.625	82.75
429.847	97.75
430.069	101.75
430.292	83.75
430.514	96.75
430.736	86.75
430.958	92.75
431.18	86.75
431.402	84.75
431.624	84.75
431.846	88.75
432.068	86.75
432.29	95.75
432.512	72.75
432.734	98.75
432.956	97.75
433.178	100.75
433.4	99.75
433.622	93.75
433.844	82.75
434.066	86.75
434.287	98.75
434.509	75.75
434.731	83.75
434.953	94.75
435.175	98.75
435.397	90.75
435.618	90.75
435.84	91.75
436.062	108.75
436.284	107.75
436.505	99.75
436.727	102.75
436.949	86.75
437.17	74.75
437.392	95.75
437.614	92.75
437.835	95.75
438.057	90.75
438.278	95.75
438.5	107.75
438.721	111.75
438.943	107.75
439.165	100.75
439.386	73.75
439.608	93.75
439.829	97.75
440.05	100.75
440.272	116.75
440.493	104.75
440.715	92.75
440.936	86.75
441.158	89.75
441.379	91.75
441.6	88.75
441.822	87.75
442.043	96.75
442.264	86.75
442.486	98.75
442.707	95.75
442.928	92.75
443.149	120.75
443.371	123.75
443.592	103.75
443.813	93.75
444.034	107.75
444.255	99.75
444.476	96.75
444.698	85.75
444.919	100.75
445.14	133.75
445.361	111.75
445.582	112.75
445.803	116.75
446.024	129.75
446.245	138.75
446.466	117.75
446.687	92.75
446.908	80.75
447.129	87.75
447.35	79.75
447.571	88.75
447.792	92.75
448.013	85.75
448.234	112.75
448.455	103.75
448.675	101.75
448.896	105.75
449.117	96.75
449.338	98.75
449.559	126.75
449.779	126.75
450	77.75
450.221	88.75
450.442	87.75
450.662	83.75
450.883	102.75
451.104	90.75
451.324	92.75
451.545	97.75
451.766	97.75
451.986	80.75
452.207	98.75
452.428	83.75
452.648	98.75
452.869	106.75
453.089	107.75
453.31	108.75
453.53	80.75
453.751	76.75
453.971	97.75
454.192	87.75
454.412	95.75
454.633	68.75
454.853	98.75
455.073	87.75
455.294	90.75
455.514	87.75
455.734	71.75
455.955	96.75
456.175	91.75
456.395	87.75
456.616	90.75
456.836	93.75
457.056	82.75
457.276	83.75
457.497	102.75
457.717	77.75
457.937	86.75
458.157	85.75
458.377	85.75
458.598	104.75
458.818	105.75
459.038	128.75
459.258	105.75
459.478	94.75
459.698	84.75
459.918	90.75
460.138	89.75
460.358	90.75
460.578	95.75
460.798	90.75
461.018	89.75
461.238	87.75
461.458	87.75
461.678	91.75
461.898	73.75
462.118	99.75
462.338	91.75
462.558	93.75
462.777	100.75
462.997	88.75
463.217	93.75
463.437	90.75
463.657	92.75
463.876	94.75
464.096	97.75
464.316	86.75
464.536	94.75
464.755	95.75
464.975	115.75
465.195	126.75
465.414	124.75
465.634	88.75
465.854	91.75
466.073	98.75
466.293	86.75
466.512	91.75
466.732	112.75
466.951	82.75
467.171	91.75
467.391	88.75
467.61	105.75
467.829	100.75
468.049	107.75
468.268	95.75
468.488	84.75
468.707	88.75
468.927	84.75
469.146	74.75
469.365	86.75
469.585	86.75
469.804	87.75
470.023	80.75
470.243	91.75
470.462	101.75
470.681	103.75
470.901	74.75
471.12	91.75
471.339	101.75
471.558	96.75
471.777	86.75
471.997	94.75
472.216	106.75
472.435	125.75
472.654	106.75
472.873	78.75
473.092	84.75
473.311	95.75
473.53	79.75
473.749	99.75
473.968	100.75
474.187	104.75
474.406	108.75
474.625	103.75
474.844	99.75
475.063	90.75
475.282	81.75
475.501	77.75
475.72	72.75
475.939	74.75
476.158	95.75
476.377	91.75
476.596	79.75
476.814	98.75
477.033	83.75
477.252	90.75
477.471	81.75
477.69	87.75
477.908	92.75
478.127	88.75
478.346	92.75
478.564	98.75
478.783	92.75
479.002	91.75
479.22	88.75
479.439	79.75
479.658	94.75
479.876	91.75
480.095	91.75
480.313	90.75
480.532	101.75
480.751	93.75
480.969	108.75
481.188	180.75
481.406	128.75
481.624	94.75
481.843	79.75
482.061	95.75
482.28	81.75
482.498	87.75
482.717	91.75
482.935	83.75
483.153	76.75
483.372	96.75
483.59	92.75
483.808	93.75
484.027	91.75
484.245	101.75
484.463	98.75
484.681	100.75
484.9	86.75
485.118	98.75
485.336	90.75
485.554	102.75
485.772	103.75
485.99	111.75
486.209	99.75
486.427	108.75
486.645	103.75
486.863	92.75
487.081	115.75
487.299	96.75
487.517	114.75
487.735	87.75
487.953	86.75
488.171	96.75
488.389	92.75
488.607	99.75
488.825	95.75
489.043	84.75
489.261	108.75
489.479	93.75
489.696	91.75
489.914	99.75
490.132	78.75
490.35	92.75
490.568	84.75
490.786	96.75
491.003	109.75
491.221	86.75
491.439	112.75
491.657	103.75
491.874	94.75
492.092	86.75
492.31	98.75
492.527	97.75
492.745	101.75
492.963	98.75
493.18	96.75
493.398	108.75
493.615	106.75
493.833	89.75
494.05	84.75
494.268	74.75
494.485	90.75
494.703	93.75
494.92	91.75
495.138	105.75
495.355	104.75
495.573	80.75
495.79	77.75
496.008	82.75
496.225	94.75
496.442	90.75
496.66	100.75
496.877	101.75
497.094	99.75
497.312	101.75
497.529	100.75
497.746	89.75
497.963	90.75
498.181	93.75
498.398	91.75
498.615	98.75
498.832	100.75
499.049	95.75
499.267	94.75
499.484	102.75
499.701	84.75
499.918	82.75
500.135	98.75
500.352	87.75
500.569	105.75
500.786	103.75
501.003	91.75
501.22	98.75
501.437	98.75
501.654	72.75
501.871	90.75
502.088	89.75
502.305	98.75
502.522	87.75
502.739	96.75
502.956	92.75
503.172	89.75
503.389	92.75
503.606	83.75
503.823	104.75
504.04	98.75
504.256	103.75
504.473	79.75
504.69	100.75
504.907	97.75
505.123	92.75
505.34	91.75
505.557	90.75
505.773	102.75
505.99	90.75
506.207	104.75
506.423	97.75
506.64	93.75
506.856	87.75
507.073	84.75
507.289	88.75
507.506	91.75
507.722	98.75
507.939	98.75
508.155	102.75
508.372	99.75
508.588	92.75
508.805	85.75
509.021	102.75
509.238	120.75
509.454	90.75
509.67	97.75
509.887	102.75
510.103	104.75
510.319	200.75
510.536	554.75
510.752	1607.75
510.968	464.75
511.184	137.75
511.401	106.75
511.617	100.75
511.833	93.75
512.049	84.75
512.265	80.75
512.481	90.75
512.698	97.75
512.914	99.75
513.13	92.75
513.346	92.75
513.562	99.75
513.778	110.75
513.994	103.75
514.21	100.75
514.426	115.75
514.642	118.75
514.858	113.75
515.074	154.75
515.29	311.75
515.506	962.75
