Data from Uncirc_1981_H10_HRD10591_00065.txt Node
Date: Wed Jan 03 12:33:21 EST 2024
User: Yrep
Spectrometer: HR+D1059
Trigger mode: 1
Integration Time (sec): 1.000000E-1
Scans to average: 1
Electric dark correction enabled: true
Nonlinearity correction enabled: false
Boxcar width: 0
XAxis mode: Wavelengths
Number of Pixels in Spectrum: 2048
>>>>>Begin Spectral Data<<<<<
223.165	-20.44
223.4	-20.44
223.635	-20.44
223.869	-14.44
224.104	-18.44
224.338	-8.44
224.573	-18.44
224.808	-25.44
225.042	13.56
225.277	2.56
225.511	-15.44
225.746	-2.44
225.98	5.56
226.215	11.56
226.449	17.56
226.683	23.56
226.918	19.56
227.152	29.56
227.387	33.56
227.621	45.56
227.856	54.56
228.09	52.56
228.324	41.56
228.559	67.56
228.793	55.56
229.027	62.56
229.262	73.56
229.496	59.56
229.73	79.56
229.964	80.56
230.199	71.56
230.433	72.56
230.667	74.56
230.901	77.56
231.136	77.56
231.37	56.56
231.604	82.56
231.838	88.56
232.072	93.56
232.306	83.56
232.541	87.56
232.775	76.56
233.009	68.56
233.243	75.56
233.477	93.56
233.711	86.56
233.945	85.56
234.179	74.56
234.413	76.56
234.647	63.56
234.881	79.56
235.115	76.56
235.349	93.56
235.583	101.56
235.817	76.56
236.051	77.56
236.285	75.56
236.519	70.56
236.753	74.56
236.987	72.56
237.221	71.56
237.455	69.56
237.689	84.56
237.922	72.56
238.156	80.56
238.39	68.56
238.624	60.56
238.858	71.56
239.091	91.56
239.325	80.56
239.559	76.56
239.793	76.56
240.027	90.56
240.26	81.56
240.494	79.56
240.728	68.56
240.961	72.56
241.195	96.56
241.429	76.56
241.662	78.56
241.896	81.56
242.13	89.56
242.363	76.56
242.597	66.56
242.83	82.56
243.064	74.56
243.298	76.56
243.531	80.56
243.765	83.56
243.998	94.56
244.232	79.56
244.465	83.56
244.699	81.56
244.932	73.56
245.166	82.56
245.399	84.56
245.633	75.56
245.866	79.56
246.099	74.56
246.333	68.56
246.566	70.56
246.8	62.56
247.033	89.56
247.266	66.56
247.5	85.56
247.733	74.56
247.966	83.56
248.2	57.56
248.433	87.56
248.666	76.56
248.899	89.56
249.133	71.56
249.366	103.56
249.599	98.56
249.832	89.56
250.066	87.56
250.299	83.56
250.532	79.56
250.765	85.56
250.998	71.56
251.231	81.56
251.465	72.56
251.698	83.56
251.931	86.56
252.164	83.56
252.397	72.56
252.63	61.56
252.863	88.56
253.096	70.56
253.329	76.56
253.562	80.56
253.795	76.56
254.028	80.56
254.261	93.56
254.494	74.56
254.727	79.56
254.96	81.56
255.193	84.56
255.426	80.56
255.659	90.56
255.892	83.56
256.124	85.56
256.357	79.56
256.59	99.56
256.823	73.56
257.056	86.56
257.289	80.56
257.521	102.56
257.754	88.56
257.987	74.56
258.22	97.56
258.452	88.56
258.685	79.56
258.918	82.56
259.151	80.56
259.383	56.56
259.616	77.56
259.849	88.56
260.081	83.56
260.314	75.56
260.547	69.56
260.779	81.56
261.012	84.56
261.244	77.56
261.477	88.56
261.71	72.56
261.942	95.56
262.175	105.56
262.407	86.56
262.64	82.56
262.872	95.56
263.105	84.56
263.337	85.56
263.57	91.56
263.802	75.56
264.035	93.56
264.267	81.56
264.499	87.56
264.732	88.56
264.964	74.56
265.197	79.56
265.429	101.56
265.661	77.56
265.894	89.56
266.126	86.56
266.358	87.56
266.591	84.56
266.823	88.56
267.055	93.56
267.287	76.56
267.52	82.56
267.752	67.56
267.984	72.56
268.216	81.56
268.448	79.56
268.681	78.56
268.913	83.56
269.145	73.56
269.377	76.56
269.609	77.56
269.841	84.56
270.073	67.56
270.306	91.56
270.538	76.56
270.77	87.56
271.002	81.56
271.234	82.56
271.466	88.56
271.698	88.56
271.93	87.56
272.162	68.56
272.394	90.56
272.626	87.56
272.858	85.56
273.09	90.56
273.322	94.56
273.553	76.56
273.785	79.56
274.017	83.56
274.249	98.56
274.481	93.56
274.713	81.56
274.945	85.56
275.176	87.56
275.408	89.56
275.64	90.56
275.872	81.56
276.104	83.56
276.335	81.56
276.567	79.56
276.799	84.56
277.031	98.56
277.262	87.56
277.494	94.56
277.726	82.56
277.957	75.56
278.189	81.56
278.421	87.56
278.652	76.56
278.884	85.56
279.115	76.56
279.347	75.56
279.579	82.56
279.81	83.56
280.042	91.56
280.273	98.56
280.505	76.56
280.736	87.56
280.968	88.56
281.199	87.56
281.431	89.56
281.662	81.56
281.894	86.56
282.125	88.56
282.356	105.56
282.588	116.56
282.819	102.56
283.051	101.56
283.282	84.56
283.513	96.56
283.745	94.56
283.976	76.56
284.207	85.56
284.439	87.56
284.67	83.56
284.901	72.56
285.132	95.56
285.364	84.56
285.595	96.56
285.826	79.56
286.057	99.56
286.288	82.56
286.52	104.56
286.751	92.56
286.982	87.56
287.213	79.56
287.444	76.56
287.675	79.56
287.906	96.56
288.138	88.56
288.369	91.56
288.6	90.56
288.831	85.56
289.062	74.56
289.293	85.56
289.524	89.56
289.755	72.56
289.986	86.56
290.217	87.56
290.448	77.56
290.679	107.56
290.91	99.56
291.141	88.56
291.371	79.56
291.602	88.56
291.833	81.56
292.064	80.56
292.295	97.56
292.526	91.56
292.757	95.56
292.987	98.56
293.218	88.56
293.449	92.56
293.68	85.56
293.91	74.56
294.141	104.56
294.372	102.56
294.603	102.56
294.833	94.56
295.064	86.56
295.295	92.56
295.525	83.56
295.756	88.56
295.987	91.56
296.217	123.56
296.448	108.56
296.679	90.56
296.909	99.56
297.14	96.56
297.37	96.56
297.601	89.56
297.831	73.56
298.062	83.56
298.292	95.56
298.523	85.56
298.753	95.56
298.984	76.56
299.214	100.56
299.445	84.56
299.675	80.56
299.905	85.56
300.136	85.56
300.366	84.56
300.597	87.56
300.827	80.56
301.057	103.56
301.288	96.56
301.518	76.56
301.748	90.56
301.979	93.56
302.209	93.56
302.439	85.56
302.669	87.56
302.9	77.56
303.13	91.56
303.36	111.56
303.59	84.56
303.82	91.56
304.051	85.56
304.281	89.56
304.511	91.56
304.741	93.56
304.971	82.56
305.201	84.56
305.431	105.56
305.661	75.56
305.891	92.56
306.121	91.56
306.352	109.56
306.582	94.56
306.812	83.56
307.042	81.56
307.272	84.56
307.502	101.56
307.731	91.56
307.961	84.56
308.191	76.56
308.421	107.56
308.651	86.56
308.881	87.56
309.111	92.56
309.341	98.56
309.571	85.56
309.8	79.56
310.03	83.56
310.26	93.56
310.49	82.56
310.72	104.56
310.949	99.56
311.179	95.56
311.409	97.56
311.639	98.56
311.868	96.56
312.098	96.56
312.328	87.56
312.557	89.56
312.787	100.56
313.017	87.56
313.246	90.56
313.476	103.56
313.706	80.56
313.935	87.56
314.165	85.56
314.394	87.56
314.624	95.56
314.853	84.56
315.083	101.56
315.312	69.56
315.542	87.56
315.771	92.56
316.001	93.56
316.23	91.56
316.46	84.56
316.689	73.56
316.919	94.56
317.148	92.56
317.377	86.56
317.607	93.56
317.836	102.56
318.065	88.56
318.295	79.56
318.524	83.56
318.753	86.56
318.983	80.56
319.212	97.56
319.441	92.56
319.67	97.56
319.9	111.56
320.129	93.56
320.358	90.56
320.587	103.56
320.816	86.56
321.046	96.56
321.275	89.56
321.504	98.56
321.733	109.56
321.962	97.56
322.191	87.56
322.42	85.56
322.649	107.56
322.878	93.56
323.108	123.56
323.337	113.56
323.566	123.56
323.795	132.56
324.024	164.56
324.253	323.56
324.482	716.56
324.71	1460.56
324.939	1903.56
325.168	691.56
325.397	221.56
325.626	140.56
325.855	124.56
326.084	117.56
326.313	122.56
326.542	138.56
326.77	196.56
326.999	424.56
327.228	827.56
327.457	1534.56
327.686	1227.56
327.914	320.56
328.143	164.56
328.372	130.56
328.6	113.56
328.829	118.56
329.058	116.56
329.287	109.56
329.515	92.56
329.744	96.56
329.972	109.56
330.201	108.56
330.43	133.56
330.658	111.56
330.887	121.56
331.115	113.56
331.344	91.56
331.572	97.56
331.801	92.56
332.03	100.56
332.258	90.56
332.486	83.56
332.715	79.56
332.943	97.56
333.172	85.56
333.4	99.56
333.629	91.56
333.857	104.56
334.085	112.56
334.314	109.56
334.542	113.56
334.771	107.56
334.999	96.56
335.227	83.56
335.455	100.56
335.684	89.56
335.912	97.56
336.14	91.56
336.369	105.56
336.597	99.56
336.825	91.56
337.053	84.56
337.281	76.56
337.51	84.56
337.738	87.56
337.966	100.56
338.194	94.56
338.422	88.56
338.65	95.56
338.878	89.56
339.106	95.56
339.334	92.56
339.562	89.56
339.79	98.56
340.018	85.56
340.246	94.56
340.474	82.56
340.702	106.56
340.93	86.56
341.158	90.56
341.386	97.56
341.614	100.56
341.842	76.56
342.07	83.56
342.298	88.56
342.526	71.56
342.754	85.56
342.981	87.56
343.209	93.56
343.437	104.56
343.665	102.56
343.893	96.56
344.12	77.56
344.348	87.56
344.576	86.56
344.804	89.56
345.031	98.56
345.259	97.56
345.487	95.56
345.714	80.56
345.942	72.56
346.17	88.56
346.397	99.56
346.625	83.56
346.853	79.56
347.08	81.56
347.308	89.56
347.535	83.56
347.763	104.56
347.99	88.56
348.218	89.56
348.445	96.56
348.673	90.56
348.9	91.56
349.128	79.56
349.355	101.56
349.583	96.56
349.81	91.56
350.037	90.56
350.265	84.56
350.492	92.56
350.72	71.56
350.947	89.56
351.174	109.56
351.402	98.56
351.629	96.56
351.856	91.56
352.083	101.56
352.311	107.56
352.538	104.56
352.765	99.56
352.992	112.56
353.22	97.56
353.447	103.56
353.674	110.56
353.901	101.56
354.128	103.56
354.355	108.56
354.583	92.56
354.81	96.56
355.037	103.56
355.264	80.56
355.491	91.56
355.718	95.56
355.945	99.56
356.172	105.56
356.399	90.56
356.626	84.56
356.853	91.56
357.08	79.56
357.307	97.56
357.534	85.56
357.761	91.56
357.988	99.56
358.215	113.56
358.441	79.56
358.668	101.56
358.895	87.56
359.122	96.56
359.349	95.56
359.576	105.56
359.802	85.56
360.029	91.56
360.256	105.56
360.483	91.56
360.709	76.56
360.936	84.56
361.163	91.56
361.39	97.56
361.616	89.56
361.843	92.56
362.07	96.56
362.296	79.56
362.523	103.56
362.749	95.56
362.976	84.56
363.203	86.56
363.429	81.56
363.656	94.56
363.882	81.56
364.109	83.56
364.335	83.56
364.562	98.56
364.788	98.56
365.015	83.56
365.241	86.56
365.468	102.56
365.694	94.56
365.92	84.56
366.147	96.56
366.373	82.56
366.599	90.56
366.826	77.56
367.052	77.56
367.278	92.56
367.505	104.56
367.731	100.56
367.957	88.56
368.184	96.56
368.41	89.56
368.636	95.56
368.862	106.56
369.089	96.56
369.315	85.56
369.541	110.56
369.767	104.56
369.993	104.56
370.219	85.56
370.445	98.56
370.672	68.56
370.898	72.56
371.124	80.56
371.35	80.56
371.576	88.56
371.802	96.56
372.028	83.56
372.254	95.56
372.48	103.56
372.706	97.56
372.932	87.56
373.158	73.56
373.384	91.56
373.61	88.56
373.835	77.56
374.061	102.56
374.287	83.56
374.513	76.56
374.739	83.56
374.965	93.56
375.191	91.56
375.416	83.56
375.642	110.56
375.868	81.56
376.094	81.56
376.319	84.56
376.545	86.56
376.771	76.56
376.997	89.56
377.222	93.56
377.448	106.56
377.674	94.56
377.899	94.56
378.125	95.56
378.35	92.56
378.576	93.56
378.802	84.56
379.027	86.56
379.253	84.56
379.478	94.56
379.704	89.56
379.929	81.56
380.155	80.56
380.38	100.56
380.606	92.56
380.831	98.56
381.057	98.56
381.282	99.56
381.507	90.56
381.733	94.56
381.958	99.56
382.184	96.56
382.409	86.56
382.634	98.56
382.86	98.56
383.085	91.56
383.31	103.56
383.535	87.56
383.761	103.56
383.986	94.56
384.211	103.56
384.436	92.56
384.662	98.56
384.887	91.56
385.112	103.56
385.337	106.56
385.562	97.56
385.787	94.56
386.013	100.56
386.238	97.56
386.463	119.56
386.688	105.56
386.913	100.56
387.138	102.56
387.363	98.56
387.588	103.56
387.813	105.56
388.038	105.56
388.263	103.56
388.488	117.56
388.713	96.56
388.938	97.56
389.163	98.56
389.387	107.56
389.612	92.56
389.837	85.56
390.062	95.56
390.287	97.56
390.512	73.56
390.736	85.56
390.961	93.56
391.186	98.56
391.411	105.56
391.636	87.56
391.86	75.56
392.085	81.56
392.31	92.56
392.534	83.56
392.759	91.56
392.984	83.56
393.208	80.56
393.433	91.56
393.658	89.56
393.882	77.56
394.107	72.56
394.331	83.56
394.556	86.56
394.78	84.56
395.005	74.56
395.229	97.56
395.454	93.56
395.678	75.56
395.903	91.56
396.127	83.56
396.352	81.56
396.576	75.56
396.801	87.56
397.025	90.56
397.249	77.56
397.474	75.56
397.698	74.56
397.922	77.56
398.147	92.56
398.371	100.56
398.595	91.56
398.82	90.56
399.044	78.56
399.268	95.56
399.492	87.56
399.717	92.56
399.941	73.56
400.165	95.56
400.389	96.56
400.613	72.56
400.837	82.56
401.062	81.56
401.286	92.56
401.51	89.56
401.734	95.56
401.958	82.56
402.182	111.56
402.406	128.56
402.63	100.56
402.854	79.56
403.078	81.56
403.302	90.56
403.526	83.56
403.75	92.56
403.974	79.56
404.198	87.56
404.422	89.56
404.645	93.56
404.869	88.56
405.093	89.56
405.317	91.56
405.541	95.56
405.765	103.56
405.988	109.56
406.212	138.56
406.436	166.56
406.66	133.56
406.883	88.56
407.107	91.56
407.331	95.56
407.555	85.56
407.778	93.56
408.002	83.56
408.226	97.56
408.449	90.56
408.673	87.56
408.896	82.56
409.12	102.56
409.344	91.56
409.567	99.56
409.791	97.56
410.014	112.56
410.238	95.56
410.461	94.56
410.685	86.56
410.908	96.56
411.132	104.56
411.355	83.56
411.578	95.56
411.802	89.56
412.025	90.56
412.249	97.56
412.472	99.56
412.695	95.56
412.919	75.56
413.142	81.56
413.365	93.56
413.589	99.56
413.812	107.56
414.035	86.56
414.258	97.56
414.482	85.56
414.705	68.56
414.928	99.56
415.151	73.56
415.374	88.56
415.597	89.56
415.821	90.56
416.044	82.56
416.267	88.56
416.49	95.56
416.713	94.56
416.936	90.56
417.159	83.56
417.382	86.56
417.605	86.56
417.828	104.56
418.051	95.56
418.274	84.56
418.497	80.56
418.72	90.56
418.943	72.56
419.166	88.56
419.389	85.56
419.611	72.56
419.834	101.56
420.057	87.56
420.28	76.56
420.503	88.56
420.726	82.56
420.948	80.56
421.171	89.56
421.394	108.56
421.617	90.56
421.839	84.56
422.062	89.56
422.285	88.56
422.507	94.56
422.73	93.56
422.953	89.56
423.175	91.56
423.398	93.56
423.621	87.56
423.843	94.56
424.066	87.56
424.288	89.56
424.511	90.56
424.733	88.56
424.956	89.56
425.178	74.56
425.401	91.56
425.623	93.56
425.846	96.56
426.068	81.56
426.291	83.56
426.513	88.56
426.735	93.56
426.958	77.56
427.18	91.56
427.402	115.56
427.625	138.56
427.847	106.56
428.069	107.56
428.292	74.56
428.514	98.56
428.736	71.56
428.958	99.56
429.181	79.56
429.403	74.56
429.625	91.56
429.847	99.56
430.069	96.56
430.292	100.56
430.514	72.56
430.736	83.56
430.958	81.56
431.18	91.56
431.402	90.56
431.624	85.56
431.846	79.56
432.068	84.56
432.29	80.56
432.512	66.56
432.734	79.56
432.956	88.56
433.178	103.56
433.4	92.56
433.622	95.56
433.844	95.56
434.066	84.56
434.287	75.56
434.509	88.56
434.731	97.56
434.953	80.56
435.175	76.56
435.397	85.56
435.618	96.56
435.84	91.56
436.062	111.56
436.284	96.56
436.505	91.56
436.727	100.56
436.949	99.56
437.17	86.56
437.392	87.56
437.614	66.56
437.835	81.56
438.057	98.56
438.278	85.56
438.5	92.56
438.721	112.56
438.943	89.56
439.165	81.56
439.386	82.56
439.608	95.56
439.829	89.56
440.05	112.56
440.272	126.56
440.493	98.56
440.715	92.56
440.936	87.56
441.158	91.56
441.379	83.56
441.6	105.56
441.822	76.56
442.043	91.56
442.264	70.56
442.486	96.56
442.707	88.56
442.928	110.56
443.149	117.56
443.371	120.56
443.592	84.56
443.813	88.56
444.034	95.56
444.255	85.56
444.476	86.56
444.698	83.56
444.919	88.56
445.14	131.56
445.361	125.56
445.582	100.56
445.803	126.56
446.024	117.56
446.245	98.56
446.466	97.56
446.687	74.56
446.908	76.56
447.129	86.56
447.35	98.56
447.571	91.56
447.792	92.56
448.013	91.56
448.234	95.56
448.455	83.56
448.675	103.56
448.896	103.56
449.117	87.56
449.338	92.56
449.559	130.56
449.779	108.56
450	100.56
450.221	84.56
450.442	89.56
450.662	82.56
450.883	80.56
451.104	107.56
451.324	87.56
451.545	77.56
451.766	85.56
451.986	87.56
452.207	84.56
452.428	93.56
452.648	113.56
452.869	89.56
453.089	106.56
453.31	93.56
453.53	98.56
453.751	88.56
453.971	106.56
454.192	92.56
454.412	94.56
454.633	94.56
454.853	91.56
455.073	79.56
455.294	94.56
455.514	109.56
455.734	68.56
455.955	88.56
456.175	77.56
456.395	92.56
456.616	81.56
456.836	90.56
457.056	87.56
457.276	80.56
457.497	79.56
457.717	89.56
457.937	91.56
458.157	79.56
458.377	89.56
458.598	95.56
458.818	127.56
459.038	114.56
459.258	111.56
459.478	86.56
459.698	93.56
459.918	90.56
460.138	73.56
460.358	87.56
460.578	91.56
460.798	83.56
461.018	89.56
461.238	103.56
461.458	89.56
461.678	88.56
461.898	95.56
462.118	81.56
462.338	95.56
462.558	88.56
462.777	83.56
462.997	87.56
463.217	72.56
463.437	85.56
463.657	90.56
463.876	100.56
464.096	87.56
464.316	76.56
464.536	89.56
464.755	93.56
464.975	87.56
465.195	108.56
465.414	113.56
465.634	84.56
465.854	89.56
466.073	88.56
466.293	77.56
466.512	70.56
466.732	81.56
466.951	97.56
467.171	76.56
467.391	98.56
467.61	95.56
467.829	79.56
468.049	89.56
468.268	81.56
468.488	84.56
468.707	85.56
468.927	85.56
469.146	69.56
469.365	76.56
469.585	90.56
469.804	95.56
470.023	105.56
470.243	81.56
470.462	88.56
470.681	89.56
470.901	87.56
471.12	68.56
471.339	93.56
471.558	101.56
471.777	102.56
471.997	89.56
472.216	116.56
472.435	117.56
472.654	103.56
472.873	87.56
473.092	90.56
473.311	77.56
473.53	87.56
473.749	84.56
473.968	87.56
474.187	93.56
474.406	82.56
474.625	87.56
474.844	98.56
475.063	71.56
475.282	85.56
475.501	88.56
475.72	87.56
475.939	84.56
476.158	80.56
476.377	93.56
476.596	77.56
476.814	93.56
477.033	90.56
477.252	83.56
477.471	77.56
477.69	73.56
477.908	83.56
478.127	89.56
478.346	86.56
478.564	91.56
478.783	92.56
479.002	86.56
479.22	94.56
479.439	84.56
479.658	102.56
479.876	97.56
480.095	86.56
480.313	90.56
480.532	84.56
480.751	87.56
480.969	106.56
481.188	159.56
481.406	114.56
481.624	96.56
481.843	92.56
482.061	96.56
482.28	81.56
482.498	90.56
482.717	81.56
482.935	100.56
483.153	88.56
483.372	86.56
483.59	82.56
483.808	79.56
484.027	89.56
484.245	87.56
484.463	91.56
484.681	96.56
484.9	92.56
485.118	83.56
485.336	112.56
485.554	94.56
485.772	105.56
485.99	102.56
486.209	99.56
486.427	101.56
486.645	105.56
486.863	91.56
487.081	94.56
487.299	97.56
487.517	80.56
487.735	76.56
487.953	100.56
488.171	97.56
488.389	93.56
488.607	100.56
488.825	100.56
489.043	91.56
489.261	89.56
489.479	83.56
489.696	99.56
489.914	86.56
490.132	74.56
490.35	72.56
490.568	77.56
490.786	80.56
491.003	98.56
491.221	87.56
491.439	98.56
491.657	97.56
491.874	82.56
492.092	83.56
492.31	92.56
492.527	101.56
492.745	93.56
492.963	87.56
493.18	83.56
493.398	92.56
493.615	103.56
493.833	75.56
494.05	83.56
494.268	97.56
494.485	77.56
494.703	84.56
494.92	91.56
495.138	85.56
495.355	96.56
495.573	91.56
495.79	92.56
496.008	84.56
496.225	87.56
496.442	98.56
496.66	86.56
496.877	92.56
497.094	85.56
497.312	96.56
497.529	92.56
497.746	82.56
497.963	93.56
498.181	97.56
498.398	95.56
498.615	104.56
498.832	93.56
499.049	96.56
499.267	100.56
499.484	82.56
499.701	94.56
499.918	101.56
500.135	106.56
500.352	86.56
500.569	93.56
500.786	76.56
501.003	85.56
501.22	88.56
501.437	102.56
501.654	105.56
501.871	108.56
502.088	97.56
502.305	85.56
502.522	90.56
502.739	83.56
502.956	84.56
503.172	76.56
503.389	101.56
503.606	87.56
503.823	92.56
504.04	109.56
504.256	92.56
504.473	70.56
504.69	77.56
504.907	86.56
505.123	95.56
505.34	101.56
505.557	95.56
505.773	83.56
505.99	94.56
506.207	94.56
506.423	89.56
506.64	100.56
506.856	90.56
507.073	87.56
507.289	84.56
507.506	107.56
507.722	106.56
507.939	91.56
508.155	109.56
508.372	81.56
508.588	83.56
508.805	77.56
509.021	104.56
509.238	98.56
509.454	104.56
509.67	100.56
509.887	92.56
510.103	129.56
510.319	190.56
510.536	551.56
510.752	1661.56
510.968	458.56
511.184	117.56
511.401	101.56
511.617	107.56
511.833	96.56
512.049	95.56
512.265	97.56
512.481	63.56
512.698	80.56
512.914	82.56
513.13	83.56
513.346	75.56
513.562	87.56
513.778	93.56
513.994	91.56
514.21	107.56
514.426	123.56
514.642	125.56
514.858	118.56
515.074	132.56
515.29	293.56
515.506	946.56
515.721	347.56
515.937	125.56
516.153	99.56
516.369	101.56
516.585	92.56
516.801	85.56
