Data from Uncirc_1981_H10_HRD10591_00007.txt Node
Date: Wed Jan 03 12:33:09 EST 2024
User: Yrep
Spectrometer: HR+D1059
Trigger mode: 1
Integration Time (sec): 1.000000E-1
Scans to average: 1
Electric dark correction enabled: true
Nonlinearity correction enabled: false
Boxcar width: 0
XAxis mode: Wavelengths
Number of Pixels in Spectrum: 2048
>>>>>Begin Spectral Data<<<<<
223.165	-13.12
223.4	-13.12
223.635	-13.12
223.869	-24.12
224.104	-8.12
224.338	-18.12
224.573	-18.12
224.808	-3.12
225.042	-6.12
225.277	-11.12
225.511	-10.12
225.746	2.88
225.98	20.88
226.215	6.88
226.449	12.88
226.683	10.88
226.918	32.88
227.152	24.88
227.387	34.88
227.621	47.88
227.856	46.88
228.09	56.88
228.324	49.88
228.559	68.88
228.793	55.88
229.027	56.88
229.262	80.88
229.496	69.88
229.73	82.88
229.964	92.88
230.199	69.88
230.433	71.88
230.667	70.88
230.901	79.88
231.136	71.88
231.37	88.88
231.604	80.88
231.838	86.88
232.072	81.88
232.306	76.88
232.541	69.88
232.775	76.88
233.009	61.88
233.243	86.88
233.477	100.88
233.711	100.88
233.945	95.88
234.179	95.88
234.413	90.88
234.647	87.88
234.881	82.88
235.115	86.88
235.349	79.88
235.583	75.88
235.817	89.88
236.051	86.88
236.285	72.88
236.519	88.88
236.753	72.88
236.987	70.88
237.221	82.88
237.455	92.88
237.689	88.88
237.922	84.88
238.156	77.88
238.39	86.88
238.624	73.88
238.858	72.88
239.091	80.88
239.325	74.88
239.559	92.88
239.793	84.88
240.027	88.88
240.26	73.88
240.494	87.88
240.728	81.88
240.961	86.88
241.195	84.88
241.429	77.88
241.662	86.88
241.896	81.88
242.13	85.88
242.363	88.88
242.597	74.88
242.83	76.88
243.064	75.88
243.298	79.88
243.531	85.88
243.765	69.88
243.998	80.88
244.232	78.88
244.465	86.88
244.699	88.88
244.932	92.88
245.166	73.88
245.399	94.88
245.633	90.88
245.866	92.88
246.099	73.88
246.333	81.88
246.566	69.88
246.8	82.88
247.033	89.88
247.266	84.88
247.5	84.88
247.733	86.88
247.966	88.88
248.2	93.88
248.433	76.88
248.666	86.88
248.899	79.88
249.133	101.88
249.366	91.88
249.599	96.88
249.832	94.88
250.066	95.88
250.299	85.88
250.532	80.88
250.765	64.88
250.998	79.88
251.231	96.88
251.465	72.88
251.698	94.88
251.931	81.88
252.164	81.88
252.397	82.88
252.63	79.88
252.863	89.88
253.096	90.88
253.329	81.88
253.562	80.88
253.795	73.88
254.028	92.88
254.261	91.88
254.494	81.88
254.727	101.88
254.96	84.88
255.193	78.88
255.426	77.88
255.659	73.88
255.892	82.88
256.124	92.88
256.357	84.88
256.59	86.88
256.823	97.88
257.056	84.88
257.289	94.88
257.521	89.88
257.754	88.88
257.987	93.88
258.22	89.88
258.452	80.88
258.685	90.88
258.918	86.88
259.151	86.88
259.383	81.88
259.616	94.88
259.849	85.88
260.081	92.88
260.314	107.88
260.547	92.88
260.779	78.88
261.012	86.88
261.244	94.88
261.477	93.88
261.71	95.88
261.942	103.88
262.175	101.88
262.407	87.88
262.64	97.88
262.872	97.88
263.105	88.88
263.337	76.88
263.57	77.88
263.802	77.88
264.035	89.88
264.267	75.88
264.499	77.88
264.732	90.88
264.964	84.88
265.197	82.88
265.429	92.88
265.661	73.88
265.894	88.88
266.126	83.88
266.358	85.88
266.591	80.88
266.823	78.88
267.055	89.88
267.287	96.88
267.52	91.88
267.752	78.88
267.984	73.88
268.216	81.88
268.448	92.88
268.681	93.88
268.913	85.88
269.145	81.88
269.377	80.88
269.609	90.88
269.841	79.88
270.073	91.88
270.306	95.88
270.538	88.88
270.77	93.88
271.002	99.88
271.234	104.88
271.466	87.88
271.698	106.88
271.93	85.88
272.162	96.88
272.394	98.88
272.626	94.88
272.858	95.88
273.09	97.88
273.322	85.88
273.553	101.88
273.785	95.88
274.017	84.88
274.249	68.88
274.481	84.88
274.713	78.88
274.945	75.88
275.176	83.88
275.408	88.88
275.64	87.88
275.872	96.88
276.104	99.88
276.335	96.88
276.567	97.88
276.799	100.88
277.031	85.88
277.262	97.88
277.494	94.88
277.726	93.88
277.957	104.88
278.189	86.88
278.421	96.88
278.652	101.88
278.884	84.88
279.115	88.88
279.347	82.88
279.579	93.88
279.81	88.88
280.042	94.88
280.273	92.88
280.505	89.88
280.736	95.88
280.968	93.88
281.199	78.88
281.431	96.88
281.662	88.88
281.894	74.88
282.125	80.88
282.356	104.88
282.588	100.88
282.819	93.88
283.051	93.88
283.282	97.88
283.513	113.88
283.745	78.88
283.976	84.88
284.207	89.88
284.439	86.88
284.67	91.88
284.901	88.88
285.132	81.88
285.364	94.88
285.595	85.88
285.826	86.88
286.057	89.88
286.288	98.88
286.52	94.88
286.751	93.88
286.982	87.88
287.213	74.88
287.444	76.88
287.675	101.88
287.906	93.88
288.138	95.88
288.369	86.88
288.6	91.88
288.831	90.88
289.062	90.88
289.293	99.88
289.524	92.88
289.755	91.88
289.986	96.88
290.217	78.88
290.448	89.88
290.679	105.88
290.91	91.88
291.141	99.88
291.371	89.88
291.602	104.88
291.833	88.88
292.064	89.88
292.295	91.88
292.526	92.88
292.757	103.88
292.987	104.88
293.218	103.88
293.449	111.88
293.68	82.88
293.91	96.88
294.141	92.88
294.372	98.88
294.603	90.88
294.833	92.88
295.064	95.88
295.295	88.88
295.525	95.88
295.756	88.88
295.987	96.88
296.217	112.88
296.448	99.88
296.679	111.88
296.909	95.88
297.14	95.88
297.37	92.88
297.601	86.88
297.831	95.88
298.062	105.88
298.292	86.88
298.523	101.88
298.753	80.88
298.984	94.88
299.214	88.88
299.445	99.88
299.675	93.88
299.905	97.88
300.136	84.88
300.366	93.88
300.597	90.88
300.827	89.88
301.057	96.88
301.288	81.88
301.518	80.88
301.748	94.88
301.979	100.88
302.209	94.88
302.439	87.88
302.669	87.88
302.9	89.88
303.13	106.88
303.36	88.88
303.59	96.88
303.82	105.88
304.051	103.88
304.281	93.88
304.511	93.88
304.741	96.88
304.971	100.88
305.201	94.88
305.431	94.88
305.661	101.88
305.891	89.88
306.121	82.88
306.352	85.88
306.582	94.88
306.812	97.88
307.042	105.88
307.272	77.88
307.502	94.88
307.731	92.88
307.961	100.88
308.191	112.88
308.421	84.88
308.651	98.88
308.881	90.88
309.111	104.88
309.341	87.88
309.571	108.88
309.8	100.88
310.03	106.88
310.26	92.88
310.49	82.88
310.72	98.88
310.949	108.88
311.179	98.88
311.409	86.88
311.639	107.88
311.868	88.88
312.098	100.88
312.328	96.88
312.557	90.88
312.787	102.88
313.017	102.88
313.246	93.88
313.476	90.88
313.706	88.88
313.935	105.88
314.165	99.88
314.394	98.88
314.624	91.88
314.853	80.88
315.083	103.88
315.312	78.88
315.542	100.88
315.771	104.88
316.001	94.88
316.23	82.88
316.46	96.88
316.689	103.88
316.919	83.88
317.148	100.88
317.377	94.88
317.607	95.88
317.836	92.88
318.065	90.88
318.295	110.88
318.524	88.88
318.753	106.88
318.983	85.88
319.212	90.88
319.441	94.88
319.67	94.88
319.9	100.88
320.129	96.88
320.358	92.88
320.587	101.88
320.816	93.88
321.046	109.88
321.275	101.88
321.504	103.88
321.733	93.88
321.962	103.88
322.191	92.88
322.42	94.88
322.649	111.88
322.878	105.88
323.108	103.88
323.337	112.88
323.566	106.88
323.795	132.88
324.024	180.88
324.253	253.88
324.482	556.88
324.71	1122.88
324.939	1433.88
325.168	544.88
325.397	179.88
325.626	146.88
325.855	124.88
326.084	124.88
326.313	123.88
326.542	123.88
326.77	174.88
326.999	339.88
327.228	653.88
327.457	1203.88
327.686	961.88
327.914	269.88
328.143	146.88
328.372	121.88
328.6	109.88
328.829	118.88
329.058	108.88
329.287	94.88
329.515	101.88
329.744	110.88
329.972	100.88
330.201	105.88
330.43	114.88
330.658	107.88
330.887	93.88
331.115	108.88
331.344	119.88
331.572	113.88
331.801	101.88
332.03	108.88
332.258	103.88
332.486	107.88
332.715	85.88
332.943	96.88
333.172	94.88
333.4	91.88
333.629	100.88
333.857	99.88
334.085	104.88
334.314	99.88
334.542	121.88
334.771	101.88
334.999	96.88
335.227	92.88
335.455	87.88
335.684	87.88
335.912	114.88
336.14	90.88
336.369	102.88
336.597	90.88
336.825	79.88
337.053	114.88
337.281	88.88
337.51	106.88
337.738	85.88
337.966	97.88
338.194	86.88
338.422	100.88
338.65	100.88
338.878	90.88
339.106	96.88
339.334	94.88
339.562	91.88
339.79	88.88
340.018	92.88
340.246	93.88
340.474	109.88
340.702	98.88
340.93	91.88
341.158	88.88
341.386	84.88
341.614	102.88
341.842	97.88
342.07	89.88
342.298	95.88
342.526	80.88
342.754	93.88
342.981	93.88
343.209	96.88
343.437	104.88
343.665	89.88
343.893	103.88
344.12	98.88
344.348	97.88
344.576	78.88
344.804	99.88
345.031	102.88
345.259	98.88
345.487	104.88
345.714	99.88
345.942	94.88
346.17	101.88
346.397	103.88
346.625	84.88
346.853	96.88
347.08	102.88
347.308	88.88
347.535	106.88
347.763	95.88
347.99	103.88
348.218	112.88
348.445	93.88
348.673	94.88
348.9	116.88
349.128	96.88
349.355	106.88
349.583	98.88
349.81	104.88
350.037	94.88
350.265	114.88
350.492	104.88
350.72	105.88
350.947	96.88
351.174	92.88
351.402	100.88
351.629	94.88
351.856	105.88
352.083	102.88
352.311	115.88
352.538	115.88
352.765	92.88
352.992	107.88
353.22	103.88
353.447	94.88
353.674	96.88
353.901	100.88
354.128	112.88
354.355	98.88
354.583	104.88
354.81	111.88
355.037	103.88
355.264	98.88
355.491	104.88
355.718	105.88
355.945	102.88
356.172	106.88
356.399	92.88
356.626	91.88
356.853	92.88
357.08	91.88
357.307	97.88
357.534	101.88
357.761	109.88
357.988	117.88
358.215	127.88
358.441	111.88
358.668	108.88
358.895	93.88
359.122	90.88
359.349	101.88
359.576	96.88
359.802	97.88
360.029	104.88
360.256	103.88
360.483	101.88
360.709	84.88
360.936	108.88
361.163	89.88
361.39	69.88
361.616	93.88
361.843	97.88
362.07	88.88
362.296	89.88
362.523	93.88
362.749	108.88
362.976	96.88
363.203	106.88
363.429	100.88
363.656	92.88
363.882	103.88
364.109	110.88
364.335	79.88
364.562	81.88
364.788	102.88
365.015	102.88
365.241	89.88
365.468	91.88
365.694	77.88
365.92	88.88
366.147	92.88
366.373	83.88
366.599	80.88
366.826	96.88
367.052	92.88
367.278	106.88
367.505	91.88
367.731	96.88
367.957	87.88
368.184	105.88
368.41	91.88
368.636	108.88
368.862	103.88
369.089	79.88
369.315	74.88
369.541	92.88
369.767	86.88
369.993	101.88
370.219	97.88
370.445	94.88
370.672	88.88
370.898	83.88
371.124	91.88
371.35	91.88
371.576	102.88
371.802	96.88
372.028	97.88
372.254	88.88
372.48	96.88
372.706	79.88
372.932	109.88
373.158	94.88
373.384	98.88
373.61	108.88
373.835	89.88
374.061	110.88
374.287	105.88
374.513	93.88
374.739	90.88
374.965	93.88
375.191	97.88
375.416	104.88
375.642	105.88
375.868	104.88
376.094	111.88
376.319	89.88
376.545	112.88
376.771	85.88
376.997	104.88
377.222	102.88
377.448	97.88
377.674	105.88
377.899	102.88
378.125	107.88
378.35	100.88
378.576	107.88
378.802	98.88
379.027	101.88
379.253	87.88
379.478	100.88
379.704	106.88
379.929	117.88
380.155	118.88
380.38	112.88
380.606	112.88
380.831	110.88
381.057	110.88
381.282	113.88
381.507	119.88
381.733	111.88
381.958	109.88
382.184	129.88
382.409	124.88
382.634	130.88
382.86	122.88
383.085	116.88
383.31	119.88
383.535	132.88
383.761	125.88
383.986	129.88
384.211	121.88
384.436	144.88
384.662	138.88
384.887	140.88
385.112	145.88
385.337	150.88
385.562	150.88
385.787	145.88
386.013	146.88
386.238	162.88
386.463	141.88
386.688	140.88
386.913	150.88
387.138	142.88
387.363	158.88
387.588	141.88
387.813	136.88
388.038	165.88
388.263	166.88
388.488	152.88
388.713	107.88
388.938	85.88
389.163	97.88
389.387	103.88
389.612	104.88
389.837	89.88
390.062	103.88
390.287	102.88
390.512	92.88
390.736	94.88
390.961	102.88
391.186	90.88
391.411	104.88
391.636	95.88
391.86	87.88
392.085	103.88
392.31	96.88
392.534	93.88
392.759	80.88
392.984	86.88
393.208	94.88
393.433	88.88
393.658	104.88
393.882	93.88
394.107	89.88
394.331	93.88
394.556	76.88
394.78	86.88
395.005	86.88
395.229	92.88
395.454	102.88
395.678	85.88
395.903	84.88
396.127	85.88
396.352	85.88
396.576	95.88
396.801	96.88
397.025	90.88
397.249	93.88
397.474	86.88
397.698	94.88
397.922	93.88
398.147	103.88
398.371	84.88
398.595	84.88
398.82	95.88
399.044	97.88
399.268	92.88
399.492	105.88
399.717	86.88
399.941	109.88
400.165	104.88
400.389	105.88
400.613	70.88
400.837	87.88
401.062	93.88
401.286	92.88
401.51	96.88
401.734	93.88
401.958	72.88
402.182	95.88
402.406	110.88
402.63	96.88
402.854	86.88
403.078	79.88
403.302	90.88
403.526	96.88
403.75	90.88
403.974	86.88
404.198	98.88
404.422	101.88
404.645	82.88
404.869	97.88
405.093	103.88
405.317	107.88
405.541	97.88
405.765	101.88
405.988	108.88
406.212	115.88
406.436	138.88
406.66	106.88
406.883	94.88
407.107	103.88
407.331	108.88
407.555	105.88
407.778	85.88
408.002	97.88
408.226	92.88
408.449	101.88
408.673	94.88
408.896	101.88
409.12	99.88
409.344	87.88
409.567	98.88
409.791	92.88
410.014	97.88
410.238	100.88
410.461	104.88
410.685	91.88
410.908	86.88
411.132	114.88
411.355	107.88
411.578	98.88
411.802	95.88
412.025	87.88
412.249	104.88
412.472	118.88
412.695	94.88
412.919	83.88
413.142	96.88
413.365	105.88
413.589	94.88
413.812	96.88
414.035	94.88
414.258	102.88
414.482	114.88
414.705	104.88
414.928	97.88
415.151	104.88
415.374	101.88
415.597	89.88
415.821	100.88
416.044	114.88
416.267	130.88
416.49	98.88
416.713	96.88
416.936	96.88
417.159	92.88
417.382	93.88
417.605	100.88
417.828	117.88
418.051	96.88
418.274	109.88
418.497	94.88
418.72	93.88
418.943	87.88
419.166	101.88
419.389	96.88
419.611	73.88
419.834	106.88
420.057	88.88
420.28	91.88
420.503	100.88
420.726	86.88
420.948	90.88
421.171	102.88
421.394	105.88
421.617	97.88
421.839	109.88
422.062	81.88
422.285	75.88
422.507	106.88
422.73	96.88
422.953	96.88
423.175	95.88
423.398	95.88
423.621	93.88
423.843	100.88
424.066	86.88
424.288	103.88
424.511	86.88
424.733	94.88
424.956	102.88
425.178	88.88
425.401	84.88
425.623	94.88
425.846	91.88
426.068	94.88
426.291	74.88
426.513	93.88
426.735	86.88
426.958	84.88
427.18	98.88
427.402	120.88
427.625	123.88
427.847	100.88
428.069	86.88
428.292	94.88
428.514	98.88
428.736	109.88
428.958	88.88
429.181	99.88
429.403	96.88
429.625	81.88
429.847	80.88
430.069	80.88
430.292	93.88
430.514	94.88
430.736	90.88
430.958	87.88
431.18	93.88
431.402	93.88
431.624	86.88
431.846	91.88
432.068	93.88
432.29	90.88
432.512	88.88
432.734	87.88
432.956	88.88
433.178	81.88
433.4	85.88
433.622	93.88
433.844	89.88
434.066	102.88
434.287	82.88
434.509	94.88
434.731	86.88
434.953	94.88
435.175	92.88
435.397	104.88
435.618	86.88
435.84	97.88
436.062	110.88
436.284	90.88
436.505	105.88
436.727	77.88
436.949	110.88
437.17	97.88
437.392	92.88
437.614	99.88
437.835	91.88
438.057	96.88
438.278	113.88
438.5	84.88
438.721	105.88
438.943	95.88
439.165	105.88
439.386	84.88
439.608	97.88
439.829	96.88
440.05	109.88
440.272	110.88
440.493	97.88
440.715	88.88
440.936	84.88
441.158	97.88
441.379	98.88
441.6	81.88
441.822	86.88
442.043	102.88
442.264	99.88
442.486	99.88
442.707	104.88
442.928	99.88
443.149	98.88
443.371	110.88
443.592	99.88
443.813	89.88
444.034	100.88
444.255	87.88
444.476	92.88
444.698	91.88
444.919	79.88
445.14	124.88
445.361	110.88
445.582	118.88
445.803	112.88
446.024	120.88
446.245	119.88
446.466	104.88
446.687	98.88
446.908	89.88
447.129	72.88
447.35	82.88
447.571	98.88
447.792	92.88
448.013	93.88
448.234	84.88
448.455	92.88
448.675	110.88
448.896	110.88
449.117	87.88
449.338	90.88
449.559	117.88
449.779	109.88
450	104.88
450.221	103.88
450.442	78.88
450.662	104.88
450.883	100.88
451.104	105.88
451.324	95.88
451.545	94.88
451.766	86.88
451.986	98.88
452.207	86.88
452.428	93.88
452.648	104.88
452.869	92.88
453.089	103.88
453.31	102.88
453.53	89.88
453.751	101.88
453.971	100.88
454.192	101.88
454.412	94.88
454.633	102.88
454.853	96.88
455.073	92.88
455.294	99.88
455.514	95.88
455.734	72.88
455.955	89.88
456.175	81.88
456.395	89.88
456.616	90.88
456.836	88.88
457.056	92.88
457.276	88.88
457.497	99.88
457.717	81.88
457.937	85.88
458.157	84.88
458.377	98.88
458.598	97.88
458.818	109.88
459.038	120.88
459.258	103.88
459.478	93.88
459.698	90.88
459.918	100.88
460.138	81.88
460.358	96.88
460.578	93.88
460.798	86.88
461.018	91.88
461.238	89.88
461.458	102.88
461.678	86.88
461.898	91.88
462.118	92.88
462.338	78.88
462.558	81.88
462.777	81.88
462.997	93.88
463.217	95.88
463.437	101.88
463.657	103.88
463.876	86.88
464.096	108.88
464.316	94.88
464.536	94.88
464.755	87.88
464.975	92.88
465.195	122.88
465.414	122.88
465.634	93.88
465.854	95.88
466.073	110.88
466.293	98.88
466.512	97.88
466.732	101.88
466.951	95.88
467.171	95.88
467.391	102.88
467.61	90.88
467.829	92.88
468.049	94.88
468.268	103.88
468.488	84.88
468.707	99.88
468.927	80.88
469.146	89.88
469.365	108.88
469.585	92.88
469.804	90.88
470.023	96.88
470.243	82.88
470.462	97.88
470.681	85.88
470.901	96.88
471.12	94.88
471.339	96.88
471.558	104.88
471.777	93.88
471.997	97.88
472.216	106.88
472.435	104.88
472.654	100.88
472.873	100.88
473.092	86.88
473.311	96.88
473.53	94.88
473.749	98.88
473.968	90.88
474.187	105.88
474.406	93.88
474.625	84.88
474.844	99.88
475.063	89.88
475.282	91.88
475.501	100.88
475.72	98.88
475.939	104.88
476.158	94.88
476.377	84.88
476.596	102.88
476.814	99.88
477.033	84.88
477.252	84.88
477.471	78.88
477.69	92.88
477.908	95.88
478.127	96.88
478.346	78.88
478.564	96.88
478.783	97.88
479.002	91.88
479.22	89.88
479.439	88.88
479.658	96.88
479.876	89.88
480.095	94.88
480.313	95.88
480.532	90.88
480.751	100.88
480.969	93.88
481.188	143.88
481.406	130.88
481.624	98.88
481.843	100.88
482.061	97.88
482.28	86.88
482.498	99.88
482.717	96.88
482.935	94.88
483.153	104.88
483.372	114.88
483.59	101.88
483.808	87.88
484.027	98.88
484.245	104.88
484.463	102.88
484.681	98.88
484.9	86.88
485.118	97.88
485.336	104.88
485.554	108.88
485.772	111.88
485.99	108.88
486.209	98.88
486.427	96.88
486.645	123.88
486.863	104.88
487.081	110.88
487.299	106.88
487.517	114.88
487.735	101.88
487.953	100.88
488.171	106.88
488.389	94.88
488.607	108.88
488.825	87.88
489.043	87.88
489.261	93.88
489.479	80.88
489.696	100.88
489.914	88.88
490.132	90.88
490.35	91.88
490.568	99.88
490.786	96.88
491.003	92.88
491.221	73.88
491.439	106.88
491.657	89.88
491.874	106.88
492.092	106.88
492.31	96.88
492.527	99.88
492.745	101.88
492.963	104.88
493.18	106.88
493.398	90.88
493.615	95.88
493.833	97.88
494.05	107.88
494.268	92.88
494.485	105.88
494.703	87.88
494.92	103.88
495.138	98.88
495.355	94.88
495.573	98.88
495.79	101.88
496.008	101.88
496.225	93.88
496.442	90.88
496.66	101.88
496.877	105.88
497.094	111.88
497.312	100.88
497.529	109.88
497.746	92.88
497.963	111.88
498.181	87.88
498.398	100.88
498.615	99.88
498.832	99.88
499.049	100.88
499.267	102.88
499.484	95.88
499.701	79.88
499.918	84.88
500.135	84.88
500.352	92.88
500.569	98.88
500.786	90.88
501.003	91.88
501.22	100.88
501.437	103.88
501.654	100.88
501.871	95.88
502.088	91.88
502.305	100.88
502.522	92.88
502.739	102.88
502.956	88.88
503.172	101.88
503.389	84.88
503.606	100.88
503.823	98.88
504.04	87.88
504.256	110.88
504.473	103.88
504.69	105.88
504.907	92.88
505.123	96.88
505.34	100.88
505.557	100.88
505.773	107.88
505.99	108.88
506.207	86.88
506.423	86.88
506.64	97.88
506.856	78.88
507.073	96.88
507.289	98.88
507.506	87.88
507.722	80.88
507.939	104.88
508.155	103.88
508.372	93.88
508.588	96.88
508.805	92.88
509.021	94.88
509.238	95.88
509.454	89.88
509.67	110.88
509.887	104.88
510.103	124.88
510.319	151.88
510.536	375.88
510.752	959.88
510.968	316.88
511.184	104.88
511.401	98.88
511.617	91.88
511.833	95.88
512.049	85.88
512.265	89.88
512.481	90.88
512.698	107.88
512.914	95.88
513.13	88.88
513.346	100.88
513.562	106.88
513.778	91.88
513.994	97.88
