Data from Uncirc_1981_H10_HRD10591_00004.txt Node
Date: Wed Jan 03 12:33:08 EST 2024
User: Yrep
Spectrometer: HR+D1059
Trigger mode: 1
Integration Time (sec): 1.000000E-1
Scans to average: 1
Electric dark correction enabled: true
Nonlinearity correction enabled: false
Boxcar width: 0
XAxis mode: Wavelengths
Number of Pixels in Spectrum: 2048
>>>>>Begin Spectral Data<<<<<
223.165	-18.75
223.4	-18.75
223.635	-18.75
223.869	-29.75
224.104	-21.75
224.338	-22.75
224.573	-2.75
224.808	2.25
225.042	-14.75
225.277	10.25
225.511	3.25
225.746	-7.75
225.98	9.25
226.215	22.25
226.449	16.25
226.683	20.25
226.918	12.25
227.152	22.25
227.387	22.25
227.621	44.25
227.856	39.25
228.09	53.25
228.324	51.25
228.559	58.25
228.793	69.25
229.027	65.25
229.262	62.25
229.496	65.25
229.73	75.25
229.964	61.25
230.199	83.25
230.433	85.25
230.667	75.25
230.901	69.25
231.136	73.25
231.37	77.25
231.604	82.25
231.838	80.25
232.072	92.25
232.306	69.25
232.541	77.25
232.775	76.25
233.009	77.25
233.243	85.25
233.477	84.25
233.711	92.25
233.945	71.25
234.179	80.25
234.413	71.25
234.647	62.25
234.881	81.25
235.115	84.25
235.349	82.25
235.583	80.25
235.817	83.25
236.051	81.25
236.285	86.25
236.519	86.25
236.753	67.25
236.987	64.25
237.221	88.25
237.455	85.25
237.689	76.25
237.922	82.25
238.156	70.25
238.39	76.25
238.624	81.25
238.858	86.25
239.091	73.25
239.325	78.25
239.559	85.25
239.793	67.25
240.027	83.25
240.26	67.25
240.494	80.25
240.728	82.25
240.961	80.25
241.195	72.25
241.429	76.25
241.662	69.25
241.896	66.25
242.13	79.25
242.363	75.25
242.597	77.25
242.83	70.25
243.064	76.25
243.298	80.25
243.531	77.25
243.765	62.25
243.998	77.25
244.232	70.25
244.465	91.25
244.699	87.25
244.932	88.25
245.166	80.25
245.399	92.25
245.633	66.25
245.866	82.25
246.099	82.25
246.333	74.25
246.566	88.25
246.8	68.25
247.033	84.25
247.266	78.25
247.5	73.25
247.733	96.25
247.966	84.25
248.2	73.25
248.433	80.25
248.666	80.25
248.899	92.25
249.133	69.25
249.366	83.25
249.599	75.25
249.832	82.25
250.066	87.25
250.299	82.25
250.532	88.25
250.765	85.25
250.998	76.25
251.231	78.25
251.465	88.25
251.698	80.25
251.931	92.25
252.164	84.25
252.397	80.25
252.63	87.25
252.863	83.25
253.096	75.25
253.329	77.25
253.562	77.25
253.795	87.25
254.028	81.25
254.261	86.25
254.494	74.25
254.727	92.25
254.96	75.25
255.193	87.25
255.426	97.25
255.659	83.25
255.892	68.25
256.124	86.25
256.357	86.25
256.59	94.25
256.823	67.25
257.056	80.25
257.289	75.25
257.521	86.25
257.754	80.25
257.987	82.25
258.22	59.25
258.452	82.25
258.685	80.25
258.918	91.25
259.151	96.25
259.383	74.25
259.616	73.25
259.849	87.25
260.081	81.25
260.314	92.25
260.547	83.25
260.779	65.25
261.012	73.25
261.244	74.25
261.477	85.25
261.71	80.25
261.942	107.25
262.175	105.25
262.407	94.25
262.64	88.25
262.872	76.25
263.105	79.25
263.337	84.25
263.57	85.25
263.802	70.25
264.035	80.25
264.267	90.25
264.499	88.25
264.732	90.25
264.964	88.25
265.197	77.25
265.429	75.25
265.661	97.25
265.894	86.25
266.126	78.25
266.358	93.25
266.591	92.25
266.823	81.25
267.055	66.25
267.287	82.25
267.52	93.25
267.752	78.25
267.984	79.25
268.216	105.25
268.448	81.25
268.681	82.25
268.913	73.25
269.145	87.25
269.377	92.25
269.609	85.25
269.841	71.25
270.073	75.25
270.306	85.25
270.538	85.25
270.77	82.25
271.002	75.25
271.234	82.25
271.466	88.25
271.698	76.25
271.93	82.25
272.162	101.25
272.394	97.25
272.626	87.25
272.858	85.25
273.09	69.25
273.322	94.25
273.553	75.25
273.785	91.25
274.017	89.25
274.249	78.25
274.481	85.25
274.713	77.25
274.945	81.25
275.176	69.25
275.408	94.25
275.64	83.25
275.872	69.25
276.104	99.25
276.335	84.25
276.567	102.25
276.799	84.25
277.031	81.25
277.262	88.25
277.494	91.25
277.726	83.25
277.957	81.25
278.189	84.25
278.421	89.25
278.652	87.25
278.884	83.25
279.115	75.25
279.347	96.25
279.579	85.25
279.81	76.25
280.042	100.25
280.273	91.25
280.505	85.25
280.736	92.25
280.968	93.25
281.199	94.25
281.431	76.25
281.662	82.25
281.894	87.25
282.125	94.25
282.356	96.25
282.588	107.25
282.819	93.25
283.051	85.25
283.282	84.25
283.513	91.25
283.745	92.25
283.976	98.25
284.207	92.25
284.439	80.25
284.67	93.25
284.901	82.25
285.132	86.25
285.364	97.25
285.595	86.25
285.826	76.25
286.057	84.25
286.288	78.25
286.52	74.25
286.751	98.25
286.982	74.25
287.213	80.25
287.444	82.25
287.675	89.25
287.906	92.25
288.138	75.25
288.369	88.25
288.6	86.25
288.831	81.25
289.062	86.25
289.293	101.25
289.524	83.25
289.755	91.25
289.986	90.25
290.217	74.25
290.448	80.25
290.679	93.25
290.91	80.25
291.141	88.25
291.371	91.25
291.602	91.25
291.833	90.25
292.064	90.25
292.295	88.25
292.526	90.25
292.757	75.25
292.987	87.25
293.218	101.25
293.449	85.25
293.68	88.25
293.91	100.25
294.141	98.25
294.372	92.25
294.603	89.25
294.833	88.25
295.064	84.25
295.295	93.25
295.525	92.25
295.756	87.25
295.987	93.25
296.217	110.25
296.448	102.25
296.679	99.25
296.909	89.25
297.14	85.25
297.37	96.25
297.601	98.25
297.831	90.25
298.062	104.25
298.292	82.25
298.523	76.25
298.753	90.25
298.984	87.25
299.214	97.25
299.445	88.25
299.675	88.25
299.905	98.25
300.136	85.25
300.366	85.25
300.597	95.25
300.827	88.25
301.057	79.25
301.288	92.25
301.518	90.25
301.748	92.25
301.979	104.25
302.209	84.25
302.439	86.25
302.669	88.25
302.9	88.25
303.13	91.25
303.36	102.25
303.59	97.25
303.82	88.25
304.051	84.25
304.281	97.25
304.511	93.25
304.741	93.25
304.971	78.25
305.201	96.25
305.431	113.25
305.661	91.25
305.891	84.25
306.121	89.25
306.352	86.25
306.582	102.25
306.812	89.25
307.042	93.25
307.272	93.25
307.502	78.25
307.731	94.25
307.961	93.25
308.191	90.25
308.421	98.25
308.651	84.25
308.881	103.25
309.111	92.25
309.341	94.25
309.571	93.25
309.8	105.25
310.03	99.25
310.26	100.25
310.49	96.25
310.72	82.25
310.949	89.25
311.179	82.25
311.409	85.25
311.639	92.25
311.868	95.25
312.098	102.25
312.328	109.25
312.557	87.25
312.787	81.25
313.017	86.25
313.246	86.25
313.476	105.25
313.706	93.25
313.935	100.25
314.165	87.25
314.394	99.25
314.624	80.25
314.853	86.25
315.083	107.25
315.312	100.25
315.542	93.25
315.771	92.25
316.001	86.25
316.23	90.25
316.46	81.25
316.689	92.25
316.919	82.25
317.148	84.25
317.377	76.25
317.607	101.25
317.836	102.25
318.065	89.25
318.295	90.25
318.524	87.25
318.753	97.25
318.983	88.25
319.212	93.25
319.441	89.25
319.67	97.25
319.9	86.25
320.129	101.25
320.358	101.25
320.587	102.25
320.816	99.25
321.046	101.25
321.275	98.25
321.504	92.25
321.733	96.25
321.962	99.25
322.191	92.25
322.42	77.25
322.649	107.25
322.878	108.25
323.108	99.25
323.337	121.25
323.566	107.25
323.795	124.25
324.024	156.25
324.253	297.25
324.482	603.25
324.71	1212.25
324.939	1598.25
325.168	570.25
325.397	189.25
325.626	124.25
325.855	123.25
326.084	127.25
326.313	115.25
326.542	132.25
326.77	184.25
326.999	368.25
327.228	708.25
327.457	1278.25
327.686	997.25
327.914	269.25
328.143	139.25
328.372	122.25
328.6	108.25
328.829	105.25
329.058	93.25
329.287	113.25
329.515	115.25
329.744	115.25
329.972	114.25
330.201	109.25
330.43	107.25
330.658	107.25
330.887	101.25
331.115	102.25
331.344	99.25
331.572	100.25
331.801	100.25
332.03	81.25
332.258	91.25
332.486	83.25
332.715	85.25
332.943	88.25
333.172	94.25
333.4	88.25
333.629	106.25
333.857	101.25
334.085	101.25
334.314	106.25
334.542	110.25
334.771	93.25
334.999	93.25
335.227	88.25
335.455	92.25
335.684	94.25
335.912	100.25
336.14	97.25
336.369	93.25
336.597	89.25
336.825	88.25
337.053	67.25
337.281	97.25
337.51	84.25
337.738	101.25
337.966	85.25
338.194	98.25
338.422	85.25
338.65	105.25
338.878	92.25
339.106	96.25
339.334	89.25
339.562	84.25
339.79	101.25
340.018	102.25
340.246	84.25
340.474	91.25
340.702	108.25
340.93	80.25
341.158	96.25
341.386	90.25
341.614	91.25
341.842	103.25
342.07	75.25
342.298	103.25
342.526	94.25
342.754	98.25
342.981	84.25
343.209	92.25
343.437	101.25
343.665	87.25
343.893	89.25
344.12	92.25
344.348	84.25
344.576	84.25
344.804	85.25
345.031	84.25
345.259	87.25
345.487	85.25
345.714	84.25
345.942	83.25
346.17	89.25
346.397	84.25
346.625	107.25
346.853	95.25
347.08	87.25
347.308	93.25
347.535	92.25
347.763	98.25
347.99	91.25
348.218	106.25
348.445	92.25
348.673	97.25
348.9	90.25
349.128	93.25
349.355	89.25
349.583	102.25
349.81	90.25
350.037	77.25
350.265	98.25
350.492	102.25
350.72	103.25
350.947	93.25
351.174	94.25
351.402	103.25
351.629	110.25
351.856	132.25
352.083	100.25
352.311	109.25
352.538	101.25
352.765	101.25
352.992	115.25
353.22	108.25
353.447	114.25
353.674	108.25
353.901	91.25
354.128	108.25
354.355	99.25
354.583	99.25
354.81	105.25
355.037	104.25
355.264	98.25
355.491	107.25
355.718	80.25
355.945	99.25
356.172	99.25
356.399	93.25
356.626	109.25
356.853	101.25
357.08	93.25
357.307	100.25
357.534	90.25
357.761	107.25
357.988	101.25
358.215	124.25
358.441	114.25
358.668	122.25
358.895	108.25
359.122	107.25
359.349	87.25
359.576	89.25
359.802	92.25
360.029	91.25
360.256	101.25
360.483	101.25
360.709	96.25
360.936	82.25
361.163	100.25
361.39	84.25
361.616	85.25
361.843	101.25
362.07	110.25
362.296	98.25
362.523	85.25
362.749	100.25
362.976	83.25
363.203	88.25
363.429	83.25
363.656	93.25
363.882	96.25
364.109	102.25
364.335	92.25
364.562	106.25
364.788	94.25
365.015	102.25
365.241	90.25
365.468	98.25
365.694	97.25
365.92	88.25
366.147	107.25
366.373	95.25
366.599	86.25
366.826	97.25
367.052	80.25
367.278	87.25
367.505	93.25
367.731	103.25
367.957	94.25
368.184	87.25
368.41	96.25
368.636	91.25
368.862	110.25
369.089	105.25
369.315	88.25
369.541	95.25
369.767	100.25
369.993	94.25
370.219	93.25
370.445	83.25
370.672	90.25
370.898	76.25
371.124	90.25
371.35	90.25
371.576	94.25
371.802	81.25
372.028	88.25
372.254	80.25
372.48	82.25
372.706	96.25
372.932	83.25
373.158	91.25
373.384	102.25
373.61	104.25
373.835	112.25
374.061	102.25
374.287	95.25
374.513	86.25
374.739	98.25
374.965	81.25
375.191	93.25
375.416	109.25
375.642	105.25
375.868	111.25
376.094	101.25
376.319	98.25
376.545	94.25
376.771	84.25
376.997	93.25
377.222	108.25
377.448	102.25
377.674	97.25
377.899	94.25
378.125	103.25
378.35	105.25
378.576	112.25
378.802	112.25
379.027	105.25
379.253	105.25
379.478	96.25
379.704	103.25
379.929	113.25
380.155	103.25
380.38	108.25
380.606	120.25
380.831	126.25
381.057	121.25
381.282	113.25
381.507	99.25
381.733	112.25
381.958	132.25
382.184	112.25
382.409	132.25
382.634	136.25
382.86	133.25
383.085	122.25
383.31	135.25
383.535	133.25
383.761	129.25
383.986	133.25
384.211	124.25
384.436	118.25
384.662	130.25
384.887	147.25
385.112	165.25
385.337	181.25
385.562	140.25
385.787	162.25
386.013	141.25
386.238	160.25
386.463	146.25
386.688	154.25
386.913	157.25
387.138	171.25
387.363	149.25
387.588	138.25
387.813	140.25
388.038	167.25
388.263	181.25
388.488	180.25
388.713	94.25
388.938	108.25
389.163	99.25
389.387	99.25
389.612	99.25
389.837	92.25
390.062	83.25
390.287	89.25
390.512	92.25
390.736	90.25
390.961	98.25
391.186	78.25
391.411	97.25
391.636	102.25
391.86	95.25
392.085	94.25
392.31	92.25
392.534	77.25
392.759	92.25
392.984	87.25
393.208	95.25
393.433	99.25
393.658	101.25
393.882	85.25
394.107	94.25
394.331	101.25
394.556	80.25
394.78	87.25
395.005	81.25
395.229	81.25
395.454	86.25
395.678	88.25
395.903	95.25
396.127	100.25
396.352	89.25
396.576	96.25
396.801	80.25
397.025	87.25
397.249	92.25
397.474	92.25
397.698	96.25
397.922	92.25
398.147	90.25
398.371	88.25
398.595	96.25
398.82	84.25
399.044	91.25
399.268	83.25
399.492	97.25
399.717	101.25
399.941	101.25
400.165	78.25
400.389	101.25
400.613	87.25
400.837	92.25
401.062	85.25
401.286	93.25
401.51	94.25
401.734	91.25
401.958	113.25
402.182	101.25
402.406	122.25
402.63	111.25
402.854	96.25
403.078	88.25
403.302	83.25
403.526	84.25
403.75	87.25
403.974	113.25
404.198	93.25
404.422	100.25
404.645	88.25
404.869	88.25
405.093	99.25
405.317	82.25
405.541	84.25
405.765	101.25
405.988	104.25
406.212	116.25
406.436	131.25
406.66	118.25
406.883	100.25
407.107	79.25
407.331	90.25
407.555	94.25
407.778	87.25
408.002	94.25
408.226	102.25
408.449	100.25
408.673	97.25
408.896	101.25
409.12	96.25
409.344	91.25
409.567	94.25
409.791	91.25
410.014	98.25
410.238	98.25
410.461	102.25
410.685	88.25
410.908	93.25
411.132	100.25
411.355	86.25
411.578	102.25
411.802	99.25
412.025	99.25
412.249	97.25
412.472	96.25
412.695	110.25
412.919	99.25
413.142	92.25
413.365	87.25
413.589	99.25
413.812	96.25
414.035	106.25
414.258	102.25
414.482	106.25
414.705	88.25
414.928	97.25
415.151	101.25
415.374	102.25
415.597	101.25
415.821	90.25
416.044	105.25
416.267	93.25
416.49	104.25
416.713	107.25
416.936	91.25
417.159	93.25
417.382	103.25
417.605	99.25
417.828	110.25
418.051	114.25
418.274	91.25
418.497	86.25
418.72	92.25
418.943	92.25
419.166	88.25
419.389	97.25
419.611	110.25
419.834	99.25
420.057	89.25
420.28	82.25
420.503	95.25
420.726	101.25
420.948	85.25
421.171	101.25
421.394	99.25
421.617	93.25
421.839	89.25
422.062	93.25
422.285	88.25
422.507	99.25
422.73	103.25
422.953	92.25
423.175	88.25
423.398	87.25
423.621	98.25
423.843	84.25
424.066	96.25
424.288	87.25
424.511	91.25
424.733	97.25
424.956	100.25
425.178	93.25
425.401	108.25
425.623	99.25
425.846	95.25
426.068	70.25
426.291	86.25
426.513	79.25
426.735	102.25
426.958	91.25
427.18	100.25
427.402	118.25
427.625	131.25
427.847	113.25
428.069	101.25
428.292	96.25
428.514	85.25
428.736	89.25
428.958	84.25
429.181	88.25
429.403	77.25
429.625	88.25
429.847	92.25
430.069	89.25
430.292	109.25
430.514	83.25
430.736	104.25
430.958	92.25
431.18	85.25
431.402	87.25
431.624	72.25
431.846	83.25
432.068	90.25
432.29	73.25
432.512	87.25
432.734	92.25
432.956	97.25
433.178	77.25
433.4	89.25
433.622	99.25
433.844	100.25
434.066	92.25
434.287	89.25
434.509	88.25
434.731	80.25
434.953	81.25
435.175	87.25
435.397	87.25
435.618	101.25
435.84	102.25
436.062	115.25
436.284	102.25
436.505	84.25
436.727	86.25
436.949	90.25
437.17	95.25
437.392	92.25
437.614	102.25
437.835	93.25
438.057	93.25
438.278	96.25
438.5	104.25
438.721	112.25
438.943	94.25
439.165	94.25
439.386	96.25
439.608	93.25
439.829	83.25
440.05	105.25
440.272	106.25
440.493	78.25
440.715	86.25
440.936	96.25
441.158	84.25
441.379	78.25
441.6	97.25
441.822	88.25
442.043	90.25
442.264	95.25
442.486	94.25
442.707	87.25
442.928	90.25
443.149	94.25
443.371	113.25
443.592	109.25
443.813	103.25
444.034	96.25
444.255	84.25
444.476	81.25
444.698	96.25
444.919	93.25
445.14	111.25
445.361	104.25
445.582	101.25
445.803	132.25
446.024	118.25
446.245	109.25
446.466	87.25
446.687	90.25
446.908	93.25
447.129	84.25
447.35	104.25
447.571	77.25
447.792	90.25
448.013	77.25
448.234	84.25
448.455	87.25
448.675	94.25
448.896	122.25
449.117	99.25
449.338	94.25
449.559	122.25
449.779	114.25
450	95.25
450.221	83.25
450.442	89.25
450.662	94.25
450.883	98.25
451.104	103.25
451.324	70.25
451.545	99.25
451.766	95.25
451.986	75.25
452.207	90.25
452.428	105.25
452.648	98.25
452.869	98.25
453.089	86.25
453.31	98.25
453.53	83.25
453.751	88.25
453.971	93.25
454.192	96.25
454.412	85.25
454.633	89.25
454.853	85.25
455.073	92.25
455.294	91.25
455.514	92.25
455.734	83.25
455.955	85.25
456.175	76.25
456.395	93.25
456.616	70.25
456.836	86.25
457.056	94.25
457.276	94.25
457.497	93.25
457.717	83.25
457.937	82.25
458.157	70.25
458.377	93.25
458.598	93.25
458.818	107.25
459.038	114.25
459.258	92.25
459.478	80.25
459.698	78.25
459.918	92.25
460.138	86.25
460.358	78.25
460.578	90.25
460.798	97.25
461.018	92.25
461.238	77.25
461.458	92.25
461.678	99.25
461.898	78.25
462.118	84.25
462.338	90.25
462.558	98.25
462.777	80.25
462.997	95.25
463.217	92.25
463.437	80.25
463.657	70.25
463.876	97.25
464.096	73.25
464.316	84.25
464.536	92.25
464.755	89.25
464.975	107.25
465.195	118.25
465.414	118.25
465.634	87.25
465.854	85.25
466.073	85.25
466.293	108.25
466.512	98.25
466.732	76.25
466.951	79.25
467.171	99.25
467.391	80.25
467.61	80.25
467.829	83.25
468.049	99.25
468.268	90.25
468.488	82.25
468.707	84.25
468.927	88.25
469.146	90.25
469.365	90.25
469.585	70.25
469.804	78.25
470.023	97.25
470.243	80.25
470.462	90.25
470.681	91.25
470.901	92.25
471.12	88.25
471.339	81.25
471.558	84.25
471.777	82.25
471.997	80.25
472.216	91.25
472.435	110.25
472.654	92.25
472.873	85.25
473.092	77.25
473.311	70.25
473.53	74.25
473.749	89.25
473.968	91.25
474.187	93.25
474.406	86.25
474.625	84.25
474.844	87.25
475.063	88.25
475.282	85.25
475.501	64.25
475.72	88.25
475.939	85.25
476.158	84.25
476.377	89.25
476.596	93.25
476.814	94.25
477.033	93.25
477.252	86.25
477.471	93.25
477.69	91.25
477.908	97.25
478.127	80.25
478.346	99.25
478.564	78.25
478.783	79.25
479.002	88.25
479.22	88.25
479.439	94.25
479.658	88.25
479.876	75.25
480.095	79.25
480.313	96.25
480.532	94.25
480.751	96.25
480.969	99.25
481.188	137.25
481.406	107.25
481.624	93.25
481.843	90.25
482.061	102.25
482.28	94.25
482.498	93.25
482.717	84.25
482.935	103.25
483.153	100.25
483.372	88.25
483.59	75.25
483.808	87.25
484.027	98.25
484.245	105.25
484.463	81.25
484.681	81.25
484.9	100.25
485.118	104.25
485.336	102.25
485.554	112.25
485.772	109.25
485.99	106.25
486.209	109.25
486.427	113.25
486.645	101.25
486.863	110.25
487.081	103.25
487.299	107.25
487.517	96.25
487.735	98.25
487.953	104.25
488.171	93.25
488.389	105.25
488.607	75.25
488.825	80.25
489.043	88.25
489.261	92.25
489.479	86.25
489.696	79.25
489.914	76.25
490.132	90.25
490.35	97.25
490.568	90.25
490.786	108.25
491.003	92.25
491.221	82.25
491.439	93.25
491.657	90.25
491.874	94.25
492.092	78.25
492.31	91.25
492.527	101.25
492.745	78.25
492.963	91.25
493.18	85.25
493.398	100.25
493.615	98.25
493.833	85.25
494.05	88.25
494.268	110.25
494.485	92.25
494.703	89.25
494.92	84.25
495.138	92.25
495.355	94.25
495.573	120.25
495.79	92.25
496.008	101.25
496.225	91.25
496.442	98.25
496.66	96.25
496.877	100.25
497.094	107.25
497.312	100.25
497.529	93.25
497.746	99.25
497.963	93.25
498.181	90.25
498.398	95.25
498.615	90.25
498.832	86.25
499.049	75.25
499.267	94.25
499.484	82.25
499.701	86.25
499.918	96.25
500.135	90.25
500.352	95.25
500.569	104.25
500.786	85.25
501.003	92.25
501.22	102.25
501.437	99.25
501.654	94.25
501.871	87.25
502.088	85.25
502.305	77.25
502.522	89.25
502.739	102.25
502.956	93.25
503.172	96.25
503.389	99.25
503.606	89.25
503.823	80.25
504.04	91.25
504.256	87.25
504.473	98.25
504.69	94.25
504.907	85.25
505.123	71.25
505.34	87.25
505.557	82.25
505.773	92.25
505.99	97.25
506.207	86.25
506.423	87.25
506.64	94.25
506.856	100.25
507.073	87.25
507.289	109.25
507.506	86.25
507.722	98.25
507.939	88.25
508.155	80.25
508.372	97.25
508.588	99.25
508.805	89.25
509.021	96.25
509.238	88.25
509.454	85.25
509.67	78.25
509.887	97.25
510.103	117.25
510.319	147.25
510.536	424.25
510.752	1100.25
510.968	341.25
511.184	110.25
511.401	94.25
511.617	106.25
511.833	84.25
512.049	86.25
512.265	75.25
512.481	88.25
512.698	82.25
512.914	81.25
513.13	84.25
513.346	98.25
513.562	91.25
513.778	94.25
513.994	101.25
514.21	85.25
514.426	100.25
514.642	106.25
514.858	107.25
515.074	123.25
515.29	260.25
515.506	637.25
