Data from Uncirc_1981_H10_HRD10591_00070.txt Node
Date: Wed Jan 03 12:33:22 EST 2024
User: Yrep
Spectrometer: HR+D1059
Trigger mode: 1
Integration Time (sec): 1.000000E-1
Scans to average: 1
Electric dark correction enabled: true
Nonlinearity correction enabled: false
Boxcar width: 0
XAxis mode: Wavelengths
Number of Pixels in Spectrum: 2048
>>>>>Begin Spectral Data<<<<<
223.165	-25.38
223.4	-25.38
223.635	-25.38
223.869	-15.38
224.104	-20.38
224.338	-17.38
224.573	-10.38
224.808	-20.38
225.042	-10.38
225.277	-4.38
225.511	-4.38
225.746	5.62
225.98	15.62
226.215	14.62
226.449	11.62
226.683	24.62
226.918	25.62
227.152	30.62
227.387	34.62
227.621	38.62
227.856	38.62
228.09	50.62
228.324	60.62
228.559	44.62
228.793	61.62
229.027	56.62
229.262	65.62
229.496	58.62
229.73	79.62
229.964	89.62
230.199	61.62
230.433	72.62
230.667	75.62
230.901	74.62
231.136	60.62
231.37	68.62
231.604	88.62
231.838	83.62
232.072	80.62
232.306	93.62
232.541	82.62
232.775	78.62
233.009	67.62
233.243	83.62
233.477	87.62
233.711	80.62
233.945	77.62
234.179	71.62
234.413	68.62
234.647	69.62
234.881	83.62
235.115	75.62
235.349	88.62
235.583	73.62
235.817	62.62
236.051	75.62
236.285	71.62
236.519	83.62
236.753	81.62
236.987	75.62
237.221	69.62
237.455	90.62
237.689	86.62
237.922	67.62
238.156	76.62
238.39	84.62
238.624	58.62
238.858	71.62
239.091	73.62
239.325	87.62
239.559	74.62
239.793	73.62
240.027	76.62
240.26	70.62
240.494	70.62
240.728	82.62
240.961	82.62
241.195	82.62
241.429	81.62
241.662	73.62
241.896	65.62
242.13	77.62
242.363	74.62
242.597	88.62
242.83	78.62
243.064	66.62
243.298	72.62
243.531	91.62
243.765	73.62
243.998	81.62
244.232	73.62
244.465	86.62
244.699	74.62
244.932	68.62
245.166	66.62
245.399	86.62
245.633	74.62
245.866	89.62
246.099	73.62
246.333	73.62
246.566	87.62
246.8	84.62
247.033	85.62
247.266	72.62
247.5	90.62
247.733	80.62
247.966	84.62
248.2	76.62
248.433	74.62
248.666	85.62
248.899	79.62
249.133	87.62
249.366	85.62
249.599	84.62
249.832	68.62
250.066	76.62
250.299	84.62
250.532	77.62
250.765	73.62
250.998	85.62
251.231	71.62
251.465	86.62
251.698	78.62
251.931	60.62
252.164	90.62
252.397	72.62
252.63	81.62
252.863	75.62
253.096	75.62
253.329	85.62
253.562	84.62
253.795	73.62
254.028	86.62
254.261	67.62
254.494	80.62
254.727	96.62
254.96	70.62
255.193	70.62
255.426	77.62
255.659	83.62
255.892	98.62
256.124	63.62
256.357	77.62
256.59	79.62
256.823	88.62
257.056	82.62
257.289	84.62
257.521	79.62
257.754	82.62
257.987	76.62
258.22	86.62
258.452	76.62
258.685	67.62
258.918	93.62
259.151	86.62
259.383	83.62
259.616	86.62
259.849	84.62
260.081	84.62
260.314	72.62
260.547	93.62
260.779	76.62
261.012	71.62
261.244	87.62
261.477	81.62
261.71	90.62
261.942	100.62
262.175	103.62
262.407	87.62
262.64	71.62
262.872	85.62
263.105	67.62
263.337	81.62
263.57	87.62
263.802	75.62
264.035	72.62
264.267	80.62
264.499	80.62
264.732	100.62
264.964	92.62
265.197	85.62
265.429	80.62
265.661	80.62
265.894	84.62
266.126	76.62
266.358	68.62
266.591	64.62
266.823	88.62
267.055	84.62
267.287	73.62
267.52	74.62
267.752	69.62
267.984	66.62
268.216	82.62
268.448	82.62
268.681	91.62
268.913	84.62
269.145	78.62
269.377	82.62
269.609	87.62
269.841	74.62
270.073	84.62
270.306	80.62
270.538	79.62
270.77	72.62
271.002	83.62
271.234	88.62
271.466	77.62
271.698	74.62
271.93	76.62
272.162	80.62
272.394	91.62
272.626	85.62
272.858	97.62
273.09	78.62
273.322	73.62
273.553	90.62
273.785	84.62
274.017	80.62
274.249	91.62
274.481	67.62
274.713	80.62
274.945	93.62
275.176	89.62
275.408	76.62
275.64	82.62
275.872	84.62
276.104	82.62
276.335	94.62
276.567	93.62
276.799	97.62
277.031	103.62
277.262	85.62
277.494	100.62
277.726	81.62
277.957	76.62
278.189	84.62
278.421	88.62
278.652	72.62
278.884	73.62
279.115	84.62
279.347	88.62
279.579	87.62
279.81	76.62
280.042	74.62
280.273	103.62
280.505	82.62
280.736	80.62
280.968	78.62
281.199	73.62
281.431	76.62
281.662	76.62
281.894	96.62
282.125	91.62
282.356	102.62
282.588	119.62
282.819	100.62
283.051	75.62
283.282	79.62
283.513	100.62
283.745	86.62
283.976	76.62
284.207	97.62
284.439	86.62
284.67	77.62
284.901	88.62
285.132	77.62
285.364	85.62
285.595	85.62
285.826	94.62
286.057	104.62
286.288	91.62
286.52	95.62
286.751	80.62
286.982	82.62
287.213	81.62
287.444	90.62
287.675	90.62
287.906	96.62
288.138	89.62
288.369	83.62
288.6	90.62
288.831	98.62
289.062	90.62
289.293	84.62
289.524	84.62
289.755	88.62
289.986	72.62
290.217	105.62
290.448	86.62
290.679	83.62
290.91	86.62
291.141	101.62
291.371	75.62
291.602	94.62
291.833	78.62
292.064	76.62
292.295	90.62
292.526	96.62
292.757	92.62
292.987	84.62
293.218	84.62
293.449	83.62
293.68	98.62
293.91	76.62
294.141	76.62
294.372	87.62
294.603	90.62
294.833	92.62
295.064	85.62
295.295	94.62
295.525	90.62
295.756	93.62
295.987	103.62
296.217	128.62
296.448	102.62
296.679	91.62
296.909	99.62
297.14	91.62
297.37	89.62
297.601	91.62
297.831	80.62
298.062	78.62
298.292	74.62
298.523	91.62
298.753	84.62
298.984	88.62
299.214	90.62
299.445	91.62
299.675	89.62
299.905	101.62
300.136	83.62
300.366	87.62
300.597	91.62
300.827	93.62
301.057	95.62
301.288	95.62
301.518	97.62
301.748	85.62
301.979	108.62
302.209	87.62
302.439	76.62
302.669	97.62
302.9	94.62
303.13	87.62
303.36	91.62
303.59	103.62
303.82	104.62
304.051	90.62
304.281	90.62
304.511	95.62
304.741	73.62
304.971	83.62
305.201	98.62
305.431	93.62
305.661	83.62
305.891	82.62
306.121	80.62
306.352	85.62
306.582	106.62
306.812	86.62
307.042	87.62
307.272	81.62
307.502	97.62
307.731	91.62
307.961	88.62
308.191	90.62
308.421	82.62
308.651	71.62
308.881	94.62
309.111	84.62
309.341	90.62
309.571	87.62
309.8	100.62
310.03	106.62
310.26	100.62
310.49	95.62
310.72	91.62
310.949	104.62
311.179	90.62
311.409	87.62
311.639	92.62
311.868	97.62
312.098	92.62
312.328	95.62
312.557	100.62
312.787	100.62
313.017	93.62
313.246	104.62
313.476	96.62
313.706	98.62
313.935	98.62
314.165	85.62
314.394	100.62
314.624	99.62
314.853	84.62
315.083	97.62
315.312	82.62
315.542	89.62
315.771	99.62
316.001	92.62
316.23	98.62
316.46	92.62
316.689	94.62
316.919	99.62
317.148	82.62
317.377	88.62
317.607	98.62
317.836	101.62
318.065	83.62
318.295	92.62
318.524	97.62
318.753	104.62
318.983	94.62
319.212	99.62
319.441	99.62
319.67	109.62
319.9	84.62
320.129	92.62
320.358	82.62
320.587	100.62
320.816	94.62
321.046	91.62
321.275	95.62
321.504	101.62
321.733	97.62
321.962	103.62
322.191	100.62
322.42	103.62
322.649	116.62
322.878	109.62
323.108	119.62
323.337	115.62
323.566	120.62
323.795	142.62
324.024	199.62
324.253	365.62
324.482	797.62
324.71	1652.62
324.939	2303.62
325.168	791.62
325.397	231.62
325.626	134.62
325.855	122.62
326.084	127.62
326.313	140.62
326.542	144.62
326.77	233.62
326.999	458.62
327.228	975.62
327.457	1733.62
327.686	1427.62
327.914	365.62
328.143	201.62
328.372	136.62
328.6	116.62
328.829	103.62
329.058	122.62
329.287	112.62
329.515	118.62
329.744	110.62
329.972	99.62
330.201	101.62
330.43	119.62
330.658	120.62
330.887	123.62
331.115	106.62
331.344	100.62
331.572	114.62
331.801	95.62
332.03	101.62
332.258	99.62
332.486	89.62
332.715	80.62
332.943	90.62
333.172	92.62
333.4	85.62
333.629	99.62
333.857	105.62
334.085	111.62
334.314	98.62
334.542	115.62
334.771	117.62
334.999	100.62
335.227	91.62
335.455	105.62
335.684	93.62
335.912	88.62
336.14	107.62
336.369	89.62
336.597	91.62
336.825	92.62
337.053	97.62
337.281	83.62
337.51	85.62
337.738	106.62
337.966	86.62
338.194	82.62
338.422	96.62
338.65	90.62
338.878	93.62
339.106	109.62
339.334	100.62
339.562	88.62
339.79	90.62
340.018	95.62
340.246	94.62
340.474	90.62
340.702	93.62
340.93	80.62
341.158	72.62
341.386	93.62
341.614	90.62
341.842	99.62
342.07	83.62
342.298	84.62
342.526	86.62
342.754	84.62
342.981	95.62
343.209	92.62
343.437	96.62
343.665	85.62
343.893	90.62
344.12	91.62
344.348	93.62
344.576	97.62
344.804	89.62
345.031	98.62
345.259	89.62
345.487	84.62
345.714	85.62
345.942	98.62
346.17	97.62
346.397	95.62
346.625	106.62
346.853	84.62
347.08	93.62
347.308	89.62
347.535	87.62
347.763	101.62
347.99	97.62
348.218	102.62
348.445	94.62
348.673	101.62
348.9	99.62
349.128	99.62
349.355	86.62
349.583	90.62
349.81	92.62
350.037	91.62
350.265	89.62
350.492	92.62
350.72	96.62
350.947	90.62
351.174	103.62
351.402	96.62
351.629	96.62
351.856	97.62
352.083	102.62
352.311	99.62
352.538	110.62
352.765	108.62
352.992	100.62
353.22	102.62
353.447	90.62
353.674	96.62
353.901	96.62
354.128	96.62
354.355	93.62
354.583	107.62
354.81	88.62
355.037	105.62
355.264	98.62
355.491	92.62
355.718	99.62
355.945	100.62
356.172	99.62
356.399	95.62
356.626	103.62
356.853	90.62
357.08	104.62
357.307	84.62
357.534	89.62
357.761	87.62
357.988	89.62
358.215	89.62
358.441	97.62
358.668	102.62
358.895	94.62
359.122	93.62
359.349	80.62
359.576	87.62
359.802	111.62
360.029	113.62
360.256	99.62
360.483	87.62
360.709	90.62
360.936	109.62
361.163	98.62
361.39	88.62
361.616	83.62
361.843	88.62
362.07	104.62
362.296	81.62
362.523	89.62
362.749	88.62
362.976	86.62
363.203	83.62
363.429	91.62
363.656	97.62
363.882	92.62
364.109	94.62
364.335	110.62
364.562	89.62
364.788	82.62
365.015	77.62
365.241	84.62
365.468	90.62
365.694	96.62
365.92	92.62
366.147	108.62
366.373	98.62
366.599	86.62
366.826	88.62
367.052	100.62
367.278	91.62
367.505	80.62
367.731	93.62
367.957	94.62
368.184	94.62
368.41	98.62
368.636	106.62
368.862	110.62
369.089	100.62
369.315	81.62
369.541	82.62
369.767	94.62
369.993	108.62
370.219	97.62
370.445	80.62
370.672	97.62
370.898	93.62
371.124	78.62
371.35	96.62
371.576	105.62
371.802	96.62
372.028	94.62
372.254	87.62
372.48	76.62
372.706	81.62
372.932	77.62
373.158	80.62
373.384	98.62
373.61	99.62
373.835	100.62
374.061	90.62
374.287	92.62
374.513	97.62
374.739	93.62
374.965	84.62
375.191	86.62
375.416	103.62
375.642	93.62
375.868	104.62
376.094	92.62
376.319	90.62
376.545	92.62
376.771	91.62
376.997	88.62
377.222	99.62
377.448	92.62
377.674	102.62
377.899	87.62
378.125	88.62
378.35	87.62
378.576	97.62
378.802	98.62
379.027	92.62
379.253	103.62
379.478	85.62
379.704	96.62
379.929	105.62
380.155	105.62
380.38	85.62
380.606	96.62
380.831	104.62
381.057	93.62
381.282	98.62
381.507	97.62
381.733	89.62
381.958	96.62
382.184	93.62
382.409	93.62
382.634	92.62
382.86	96.62
383.085	84.62
383.31	93.62
383.535	109.62
383.761	113.62
383.986	94.62
384.211	92.62
384.436	106.62
384.662	89.62
384.887	104.62
385.112	92.62
385.337	114.62
385.562	96.62
385.787	106.62
386.013	117.62
386.238	119.62
386.463	102.62
386.688	107.62
386.913	100.62
387.138	103.62
387.363	97.62
387.588	96.62
387.813	106.62
388.038	113.62
388.263	120.62
388.488	117.62
388.713	89.62
388.938	101.62
389.163	100.62
389.387	105.62
389.612	92.62
389.837	92.62
390.062	93.62
390.287	89.62
390.512	98.62
390.736	101.62
390.961	81.62
391.186	88.62
391.411	102.62
391.636	93.62
391.86	78.62
392.085	76.62
392.31	92.62
392.534	74.62
392.759	93.62
392.984	84.62
393.208	92.62
393.433	82.62
393.658	100.62
393.882	83.62
394.107	91.62
394.331	86.62
394.556	74.62
394.78	89.62
395.005	78.62
395.229	89.62
395.454	89.62
395.678	96.62
395.903	87.62
396.127	91.62
396.352	95.62
396.576	99.62
396.801	94.62
397.025	80.62
397.249	84.62
397.474	91.62
397.698	90.62
397.922	98.62
398.147	94.62
398.371	90.62
398.595	89.62
398.82	91.62
399.044	100.62
399.268	78.62
399.492	86.62
399.717	84.62
399.941	81.62
400.165	103.62
400.389	101.62
400.613	87.62
400.837	82.62
401.062	73.62
401.286	85.62
401.51	92.62
401.734	88.62
401.958	87.62
402.182	108.62
402.406	125.62
402.63	110.62
402.854	68.62
403.078	84.62
403.302	91.62
403.526	91.62
403.75	89.62
403.974	77.62
404.198	85.62
404.422	85.62
404.645	109.62
404.869	93.62
405.093	98.62
405.317	102.62
405.541	93.62
405.765	92.62
405.988	117.62
406.212	149.62
406.436	172.62
406.66	121.62
406.883	115.62
407.107	104.62
407.331	103.62
407.555	94.62
407.778	107.62
408.002	88.62
408.226	79.62
408.449	99.62
408.673	88.62
408.896	106.62
409.12	98.62
409.344	73.62
409.567	92.62
409.791	89.62
410.014	101.62
410.238	101.62
410.461	89.62
410.685	91.62
410.908	100.62
411.132	91.62
411.355	104.62
411.578	93.62
411.802	92.62
412.025	89.62
412.249	86.62
412.472	81.62
412.695	104.62
412.919	102.62
413.142	83.62
413.365	102.62
413.589	97.62
413.812	82.62
414.035	99.62
414.258	98.62
414.482	87.62
414.705	102.62
414.928	90.62
415.151	82.62
415.374	87.62
415.597	88.62
415.821	93.62
416.044	90.62
416.267	81.62
416.49	86.62
416.713	100.62
416.936	74.62
417.159	90.62
417.382	86.62
417.605	83.62
417.828	100.62
418.051	88.62
418.274	96.62
418.497	90.62
418.72	77.62
418.943	100.62
419.166	84.62
419.389	92.62
419.611	86.62
419.834	93.62
420.057	83.62
420.28	96.62
420.503	68.62
420.726	91.62
420.948	90.62
421.171	101.62
421.394	93.62
421.617	90.62
421.839	94.62
422.062	92.62
422.285	89.62
422.507	87.62
422.73	104.62
422.953	88.62
423.175	90.62
423.398	85.62
423.621	97.62
423.843	85.62
424.066	88.62
424.288	85.62
424.511	69.62
424.733	103.62
424.956	90.62
425.178	114.62
425.401	99.62
425.623	110.62
425.846	94.62
426.068	99.62
426.291	79.62
426.513	93.62
426.735	104.62
426.958	97.62
427.18	102.62
427.402	116.62
427.625	150.62
427.847	121.62
428.069	104.62
428.292	73.62
428.514	84.62
428.736	75.62
428.958	94.62
429.181	87.62
429.403	93.62
429.625	88.62
429.847	102.62
430.069	96.62
430.292	91.62
430.514	92.62
430.736	83.62
430.958	87.62
431.18	83.62
431.402	81.62
431.624	88.62
431.846	83.62
432.068	88.62
432.29	86.62
432.512	80.62
432.734	76.62
432.956	84.62
433.178	109.62
433.4	105.62
433.622	82.62
433.844	100.62
434.066	107.62
434.287	96.62
434.509	96.62
434.731	85.62
434.953	89.62
435.175	96.62
435.397	99.62
435.618	101.62
435.84	110.62
436.062	127.62
436.284	114.62
436.505	104.62
436.727	98.62
436.949	93.62
437.17	100.62
437.392	82.62
437.614	92.62
437.835	93.62
438.057	106.62
438.278	104.62
438.5	103.62
438.721	124.62
438.943	97.62
439.165	90.62
439.386	88.62
439.608	86.62
439.829	100.62
440.05	121.62
440.272	133.62
440.493	88.62
440.715	77.62
440.936	88.62
441.158	95.62
441.379	78.62
441.6	92.62
441.822	84.62
442.043	89.62
442.264	104.62
442.486	97.62
442.707	107.62
442.928	108.62
443.149	123.62
443.371	117.62
443.592	97.62
443.813	120.62
444.034	96.62
444.255	89.62
444.476	91.62
444.698	77.62
444.919	93.62
445.14	135.62
445.361	134.62
445.582	114.62
445.803	123.62
446.024	114.62
446.245	121.62
446.466	118.62
446.687	94.62
446.908	82.62
447.129	87.62
447.35	90.62
447.571	89.62
447.792	102.62
448.013	92.62
448.234	102.62
448.455	94.62
448.675	106.62
448.896	129.62
449.117	104.62
449.338	108.62
449.559	131.62
449.779	145.62
450	92.62
450.221	90.62
450.442	87.62
450.662	81.62
450.883	94.62
451.104	107.62
451.324	98.62
451.545	93.62
451.766	89.62
451.986	87.62
452.207	94.62
452.428	97.62
452.648	91.62
452.869	105.62
453.089	115.62
453.31	108.62
453.53	81.62
453.751	83.62
453.971	95.62
454.192	106.62
454.412	95.62
454.633	86.62
454.853	93.62
455.073	92.62
455.294	105.62
455.514	114.62
455.734	80.62
455.955	72.62
456.175	100.62
456.395	86.62
456.616	78.62
456.836	83.62
457.056	90.62
457.276	84.62
457.497	80.62
457.717	87.62
457.937	76.62
458.157	86.62
458.377	85.62
458.598	100.62
458.818	125.62
459.038	137.62
459.258	119.62
459.478	95.62
459.698	80.62
459.918	85.62
460.138	85.62
460.358	91.62
460.578	68.62
460.798	70.62
461.018	87.62
461.238	84.62
461.458	77.62
461.678	82.62
461.898	82.62
462.118	84.62
462.338	85.62
462.558	87.62
462.777	89.62
462.997	85.62
463.217	85.62
463.437	95.62
463.657	77.62
463.876	76.62
464.096	96.62
464.316	90.62
464.536	94.62
464.755	98.62
464.975	96.62
465.195	125.62
465.414	146.62
465.634	96.62
465.854	91.62
466.073	98.62
466.293	86.62
466.512	91.62
466.732	75.62
466.951	81.62
467.171	93.62
467.391	105.62
467.61	94.62
467.829	84.62
468.049	96.62
468.268	114.62
468.488	84.62
468.707	98.62
468.927	95.62
469.146	90.62
469.365	76.62
469.585	82.62
469.804	94.62
470.023	98.62
470.243	83.62
470.462	102.62
470.681	99.62
470.901	89.62
471.12	90.62
471.339	82.62
471.558	81.62
471.777	94.62
471.997	94.62
472.216	114.62
472.435	131.62
472.654	94.62
472.873	104.62
473.092	82.62
473.311	94.62
473.53	94.62
473.749	89.62
473.968	84.62
474.187	100.62
474.406	90.62
474.625	94.62
474.844	83.62
475.063	76.62
475.282	86.62
475.501	94.62
475.72	86.62
475.939	98.62
476.158	83.62
476.377	106.62
476.596	80.62
476.814	98.62
477.033	103.62
477.252	84.62
477.471	88.62
477.69	84.62
477.908	78.62
478.127	113.62
478.346	92.62
478.564	87.62
478.783	92.62
479.002	84.62
479.22	86.62
479.439	95.62
479.658	100.62
479.876	86.62
480.095	94.62
480.313	98.62
480.532	86.62
480.751	79.62
480.969	117.62
481.188	160.62
481.406	130.62
481.624	88.62
481.843	81.62
482.061	82.62
482.28	87.62
482.498	88.62
482.717	88.62
482.935	86.62
483.153	84.62
483.372	82.62
483.59	64.62
483.808	92.62
484.027	89.62
484.245	101.62
484.463	80.62
484.681	106.62
484.9	77.62
485.118	100.62
485.336	105.62
485.554	108.62
485.772	98.62
485.99	106.62
486.209	102.62
486.427	101.62
486.645	112.62
486.863	111.62
487.081	115.62
487.299	93.62
487.517	107.62
487.735	107.62
487.953	94.62
488.171	89.62
488.389	72.62
488.607	77.62
488.825	94.62
489.043	90.62
489.261	97.62
489.479	93.62
489.696	93.62
489.914	104.62
490.132	100.62
490.35	102.62
490.568	74.62
490.786	84.62
491.003	93.62
491.221	80.62
491.439	93.62
491.657	75.62
491.874	96.62
492.092	76.62
492.31	90.62
492.527	82.62
492.745	94.62
492.963	97.62
493.18	99.62
493.398	100.62
493.615	92.62
493.833	85.62
494.05	96.62
494.268	89.62
494.485	69.62
494.703	78.62
494.92	88.62
495.138	82.62
495.355	85.62
495.573	94.62
495.79	88.62
496.008	87.62
496.225	101.62
496.442	76.62
496.66	83.62
496.877	84.62
497.094	96.62
497.312	96.62
497.529	90.62
497.746	91.62
497.963	89.62
498.181	88.62
498.398	82.62
498.615	93.62
498.832	90.62
499.049	81.62
499.267	87.62
499.484	90.62
499.701	90.62
499.918	99.62
500.135	98.62
500.352	97.62
500.569	97.62
500.786	89.62
501.003	99.62
501.22	88.62
501.437	81.62
501.654	94.62
501.871	97.62
502.088	90.62
502.305	85.62
502.522	83.62
502.739	95.62
502.956	100.62
503.172	92.62
503.389	88.62
503.606	100.62
503.823	107.62
504.04	94.62
504.256	90.62
504.473	82.62
504.69	82.62
504.907	96.62
505.123	92.62
505.34	75.62
505.557	102.62
505.773	85.62
505.99	82.62
506.207	82.62
506.423	97.62
506.64	105.62
506.856	81.62
507.073	92.62
507.289	78.62
507.506	97.62
507.722	104.62
507.939	98.62
508.155	92.62
508.372	92.62
508.588	95.62
508.805	86.62
509.021	98.62
509.238	95.62
509.454	84.62
509.67	73.62
509.887	91.62
510.103	110.62
510.319	185.62
510.536	575.62
510.752	1636.62
510.968	484.62
511.184	147.62
511.401	101.62
511.617	100.62
511.833	89.62
512.049	96.62
512.265	98.62
512.481	70.62
512.698	100.62
512.914	96.62
513.13	99.62
513.346	105.62
513.562	103.62
513.778	74.62
513.994	92.62
514.21	108.62
514.426	101.62
514.642	122.62
514.858	118.62
515.074	162.62
515.29	332.62
515.506	1016.62
515.721	366.62
