Data from Uncirc_1981_H10_HRD10591_00078.txt Node
Date: Wed Jan 03 12:33:23 EST 2024
User: Yrep
Spectrometer: HR+D1059
Trigger mode: 1
Integration Time (sec): 1.000000E-1
Scans to average: 1
Electric dark correction enabled: true
Nonlinearity correction enabled: false
Boxcar width: 0
XAxis mode: Wavelengths
Number of Pixels in Spectrum: 2048
>>>>>Begin Spectral Data<<<<<
223.165	-20.5
223.4	-20.5
223.635	-20.5
223.869	-17.5
224.104	-5.5
224.338	-13.5
224.573	-19.5
224.808	-11.5
225.042	-8.5
225.277	2.5
225.511	3.5
225.746	-7.5
225.98	-2.5
226.215	13.5
226.449	18.5
226.683	13.5
226.918	22.5
227.152	32.5
227.387	27.5
227.621	32.5
227.856	48.5
228.09	42.5
228.324	52.5
228.559	78.5
228.793	66.5
229.027	54.5
229.262	67.5
229.496	60.5
229.73	64.5
229.964	82.5
230.199	74.5
230.433	56.5
230.667	64.5
230.901	76.5
231.136	68.5
231.37	71.5
231.604	74.5
231.838	67.5
232.072	85.5
232.306	82.5
232.541	73.5
232.775	85.5
233.009	80.5
233.243	82.5
233.477	85.5
233.711	77.5
233.945	89.5
234.179	75.5
234.413	82.5
234.647	88.5
234.881	82.5
235.115	77.5
235.349	76.5
235.583	70.5
235.817	77.5
236.051	72.5
236.285	75.5
236.519	76.5
236.753	86.5
236.987	70.5
237.221	89.5
237.455	72.5
237.689	71.5
237.922	84.5
238.156	80.5
238.39	74.5
238.624	75.5
238.858	71.5
239.091	92.5
239.325	78.5
239.559	72.5
239.793	81.5
240.027	72.5
240.26	68.5
240.494	66.5
240.728	68.5
240.961	80.5
241.195	78.5
241.429	90.5
241.662	96.5
241.896	74.5
242.13	72.5
242.363	84.5
242.597	68.5
242.83	91.5
243.064	73.5
243.298	67.5
243.531	71.5
243.765	85.5
243.998	98.5
244.232	89.5
244.465	78.5
244.699	99.5
244.932	72.5
245.166	86.5
245.399	65.5
245.633	80.5
245.866	72.5
246.099	72.5
246.333	68.5
246.566	80.5
246.8	75.5
247.033	69.5
247.266	71.5
247.5	82.5
247.733	60.5
247.966	73.5
248.2	79.5
248.433	75.5
248.666	68.5
248.899	81.5
249.133	88.5
249.366	91.5
249.599	99.5
249.832	84.5
250.066	72.5
250.299	81.5
250.532	80.5
250.765	70.5
250.998	77.5
251.231	66.5
251.465	68.5
251.698	76.5
251.931	85.5
252.164	80.5
252.397	81.5
252.63	76.5
252.863	80.5
253.096	83.5
253.329	80.5
253.562	73.5
253.795	76.5
254.028	98.5
254.261	79.5
254.494	65.5
254.727	86.5
254.96	84.5
255.193	78.5
255.426	91.5
255.659	69.5
255.892	85.5
256.124	80.5
256.357	92.5
256.59	96.5
256.823	82.5
257.056	83.5
257.289	80.5
257.521	82.5
257.754	64.5
257.987	77.5
258.22	70.5
258.452	85.5
258.685	76.5
258.918	88.5
259.151	93.5
259.383	71.5
259.616	80.5
259.849	82.5
260.081	76.5
260.314	89.5
260.547	86.5
260.779	66.5
261.012	81.5
261.244	87.5
261.477	77.5
261.71	82.5
261.942	100.5
262.175	99.5
262.407	91.5
262.64	79.5
262.872	74.5
263.105	86.5
263.337	83.5
263.57	77.5
263.802	85.5
264.035	97.5
264.267	81.5
264.499	100.5
264.732	82.5
264.964	81.5
265.197	85.5
265.429	69.5
265.661	74.5
265.894	80.5
266.126	88.5
266.358	84.5
266.591	84.5
266.823	71.5
267.055	73.5
267.287	68.5
267.52	82.5
267.752	92.5
267.984	90.5
268.216	86.5
268.448	89.5
268.681	83.5
268.913	87.5
269.145	79.5
269.377	85.5
269.609	76.5
269.841	80.5
270.073	75.5
270.306	88.5
270.538	77.5
270.77	84.5
271.002	72.5
271.234	84.5
271.466	85.5
271.698	78.5
271.93	86.5
272.162	84.5
272.394	81.5
272.626	66.5
272.858	87.5
273.09	81.5
273.322	83.5
273.553	76.5
273.785	72.5
274.017	88.5
274.249	88.5
274.481	85.5
274.713	99.5
274.945	86.5
275.176	88.5
275.408	89.5
275.64	101.5
275.872	92.5
276.104	82.5
276.335	93.5
276.567	92.5
276.799	100.5
277.031	88.5
277.262	85.5
277.494	100.5
277.726	83.5
277.957	101.5
278.189	81.5
278.421	76.5
278.652	86.5
278.884	88.5
279.115	82.5
279.347	83.5
279.579	81.5
279.81	83.5
280.042	76.5
280.273	82.5
280.505	86.5
280.736	79.5
280.968	75.5
281.199	81.5
281.431	85.5
281.662	95.5
281.894	91.5
282.125	102.5
282.356	119.5
282.588	129.5
282.819	100.5
283.051	92.5
283.282	77.5
283.513	93.5
283.745	77.5
283.976	89.5
284.207	109.5
284.439	91.5
284.67	94.5
284.901	95.5
285.132	86.5
285.364	88.5
285.595	92.5
285.826	75.5
286.057	74.5
286.288	90.5
286.52	73.5
286.751	75.5
286.982	96.5
287.213	86.5
287.444	90.5
287.675	81.5
287.906	97.5
288.138	81.5
288.369	92.5
288.6	96.5
288.831	85.5
289.062	83.5
289.293	89.5
289.524	96.5
289.755	91.5
289.986	80.5
290.217	71.5
290.448	100.5
290.679	74.5
290.91	86.5
291.141	92.5
291.371	84.5
291.602	86.5
291.833	77.5
292.064	81.5
292.295	76.5
292.526	88.5
292.757	76.5
292.987	90.5
293.218	83.5
293.449	96.5
293.68	80.5
293.91	73.5
294.141	92.5
294.372	89.5
294.603	94.5
294.833	94.5
295.064	87.5
295.295	83.5
295.525	96.5
295.756	81.5
295.987	97.5
296.217	110.5
296.448	114.5
296.679	90.5
296.909	91.5
297.14	84.5
297.37	95.5
297.601	96.5
297.831	98.5
298.062	100.5
298.292	94.5
298.523	87.5
298.753	84.5
298.984	88.5
299.214	102.5
299.445	91.5
299.675	92.5
299.905	78.5
300.136	87.5
300.366	93.5
300.597	81.5
300.827	99.5
301.057	95.5
301.288	81.5
301.518	88.5
301.748	67.5
301.979	105.5
302.209	97.5
302.439	104.5
302.669	97.5
302.9	84.5
303.13	88.5
303.36	92.5
303.59	92.5
303.82	99.5
304.051	96.5
304.281	88.5
304.511	92.5
304.741	92.5
304.971	74.5
305.201	96.5
305.431	92.5
305.661	97.5
305.891	97.5
306.121	105.5
306.352	93.5
306.582	109.5
306.812	77.5
307.042	71.5
307.272	98.5
307.502	90.5
307.731	106.5
307.961	88.5
308.191	78.5
308.421	83.5
308.651	96.5
308.881	94.5
309.111	92.5
309.341	101.5
309.571	97.5
309.8	92.5
310.03	98.5
310.26	92.5
310.49	100.5
310.72	102.5
310.949	99.5
311.179	89.5
311.409	85.5
311.639	96.5
311.868	99.5
312.098	95.5
312.328	83.5
312.557	97.5
312.787	111.5
313.017	88.5
313.246	86.5
313.476	87.5
313.706	95.5
313.935	104.5
314.165	94.5
314.394	88.5
314.624	85.5
314.853	96.5
315.083	98.5
315.312	88.5
315.542	86.5
315.771	103.5
316.001	90.5
316.23	98.5
316.46	98.5
316.689	90.5
316.919	92.5
317.148	93.5
317.377	98.5
317.607	90.5
317.836	93.5
318.065	94.5
318.295	93.5
318.524	112.5
318.753	93.5
318.983	96.5
319.212	100.5
319.441	113.5
319.67	100.5
319.9	94.5
320.129	84.5
320.358	78.5
320.587	98.5
320.816	98.5
321.046	85.5
321.275	103.5
321.504	94.5
321.733	92.5
321.962	94.5
322.191	104.5
322.42	93.5
322.649	106.5
322.878	100.5
323.108	107.5
323.337	138.5
323.566	122.5
323.795	144.5
324.024	197.5
324.253	357.5
324.482	760.5
324.71	1539.5
324.939	2059.5
325.168	741.5
325.397	230.5
325.626	141.5
325.855	131.5
326.084	109.5
326.313	129.5
326.542	137.5
326.77	219.5
326.999	437.5
327.228	855.5
327.457	1596.5
327.686	1268.5
327.914	347.5
328.143	175.5
328.372	125.5
328.6	120.5
328.829	109.5
329.058	112.5
329.287	104.5
329.515	112.5
329.744	91.5
329.972	102.5
330.201	118.5
330.43	128.5
330.658	115.5
330.887	120.5
331.115	101.5
331.344	94.5
331.572	83.5
331.801	101.5
332.03	89.5
332.258	91.5
332.486	82.5
332.715	90.5
332.943	90.5
333.172	99.5
333.4	89.5
333.629	93.5
333.857	112.5
334.085	94.5
334.314	106.5
334.542	108.5
334.771	126.5
334.999	92.5
335.227	100.5
335.455	83.5
335.684	98.5
335.912	91.5
336.14	95.5
336.369	88.5
336.597	114.5
336.825	81.5
337.053	95.5
337.281	91.5
337.51	92.5
337.738	84.5
337.966	89.5
338.194	101.5
338.422	92.5
338.65	84.5
338.878	101.5
339.106	80.5
339.334	99.5
339.562	89.5
339.79	88.5
340.018	72.5
340.246	85.5
340.474	78.5
340.702	83.5
340.93	86.5
341.158	82.5
341.386	90.5
341.614	88.5
341.842	101.5
342.07	96.5
342.298	89.5
342.526	100.5
342.754	88.5
342.981	86.5
343.209	88.5
343.437	87.5
343.665	87.5
343.893	93.5
344.12	95.5
344.348	92.5
344.576	75.5
344.804	92.5
345.031	94.5
345.259	91.5
345.487	104.5
345.714	88.5
345.942	88.5
346.17	100.5
346.397	88.5
346.625	108.5
346.853	89.5
347.08	94.5
347.308	86.5
347.535	99.5
347.763	83.5
347.99	96.5
348.218	94.5
348.445	100.5
348.673	109.5
348.9	102.5
349.128	108.5
349.355	89.5
349.583	93.5
349.81	105.5
350.037	106.5
350.265	88.5
350.492	90.5
350.72	90.5
350.947	92.5
351.174	98.5
351.402	104.5
351.629	110.5
351.856	108.5
352.083	90.5
352.311	92.5
352.538	106.5
352.765	115.5
352.992	98.5
353.22	109.5
353.447	87.5
353.674	104.5
353.901	95.5
354.128	106.5
354.355	113.5
354.583	104.5
354.81	98.5
355.037	98.5
355.264	87.5
355.491	84.5
355.718	90.5
355.945	101.5
356.172	104.5
356.399	110.5
356.626	100.5
356.853	95.5
357.08	109.5
357.307	109.5
357.534	84.5
357.761	99.5
357.988	103.5
358.215	110.5
358.441	92.5
358.668	106.5
358.895	92.5
359.122	89.5
359.349	95.5
359.576	104.5
359.802	99.5
360.029	99.5
360.256	96.5
360.483	91.5
360.709	76.5
360.936	88.5
361.163	91.5
361.39	96.5
361.616	89.5
361.843	97.5
362.07	92.5
362.296	86.5
362.523	96.5
362.749	76.5
362.976	85.5
363.203	96.5
363.429	82.5
363.656	75.5
363.882	77.5
364.109	83.5
364.335	90.5
364.562	89.5
364.788	90.5
365.015	97.5
365.241	92.5
365.468	106.5
365.694	98.5
365.92	97.5
366.147	102.5
366.373	101.5
366.599	85.5
366.826	85.5
367.052	85.5
367.278	87.5
367.505	101.5
367.731	90.5
367.957	88.5
368.184	93.5
368.41	85.5
368.636	103.5
368.862	112.5
369.089	88.5
369.315	85.5
369.541	90.5
369.767	85.5
369.993	86.5
370.219	82.5
370.445	98.5
370.672	90.5
370.898	96.5
371.124	75.5
371.35	82.5
371.576	85.5
371.802	89.5
372.028	88.5
372.254	92.5
372.48	80.5
372.706	93.5
372.932	83.5
373.158	73.5
373.384	96.5
373.61	95.5
373.835	88.5
374.061	89.5
374.287	81.5
374.513	86.5
374.739	76.5
374.965	92.5
375.191	86.5
375.416	90.5
375.642	92.5
375.868	88.5
376.094	84.5
376.319	96.5
376.545	75.5
376.771	98.5
376.997	99.5
377.222	78.5
377.448	75.5
377.674	87.5
377.899	100.5
378.125	104.5
378.35	98.5
378.576	103.5
378.802	81.5
379.027	88.5
379.253	93.5
379.478	91.5
379.704	94.5
379.929	97.5
380.155	103.5
380.38	109.5
380.606	94.5
380.831	84.5
381.057	85.5
381.282	94.5
381.507	92.5
381.733	92.5
381.958	81.5
382.184	89.5
382.409	101.5
382.634	115.5
382.86	102.5
383.085	100.5
383.31	104.5
383.535	89.5
383.761	109.5
383.986	93.5
384.211	92.5
384.436	91.5
384.662	103.5
384.887	97.5
385.112	112.5
385.337	107.5
385.562	103.5
385.787	95.5
386.013	103.5
386.238	108.5
386.463	107.5
386.688	97.5
386.913	95.5
387.138	101.5
387.363	91.5
387.588	95.5
387.813	106.5
388.038	110.5
388.263	104.5
388.488	121.5
388.713	100.5
388.938	102.5
389.163	101.5
389.387	91.5
389.612	93.5
389.837	85.5
390.062	104.5
390.287	90.5
390.512	88.5
390.736	87.5
390.961	85.5
391.186	104.5
391.411	111.5
391.636	93.5
391.86	90.5
392.085	94.5
392.31	98.5
392.534	76.5
392.759	86.5
392.984	88.5
393.208	75.5
393.433	80.5
393.658	100.5
393.882	72.5
394.107	82.5
394.331	76.5
394.556	84.5
394.78	96.5
395.005	84.5
395.229	95.5
395.454	93.5
395.678	90.5
395.903	89.5
396.127	68.5
396.352	88.5
396.576	88.5
396.801	83.5
397.025	86.5
397.249	97.5
397.474	94.5
397.698	102.5
397.922	90.5
398.147	101.5
398.371	76.5
398.595	82.5
398.82	92.5
399.044	102.5
399.268	82.5
399.492	87.5
399.717	96.5
399.941	97.5
400.165	103.5
400.389	93.5
400.613	99.5
400.837	95.5
401.062	88.5
401.286	93.5
401.51	97.5
401.734	87.5
401.958	90.5
402.182	119.5
402.406	120.5
402.63	107.5
402.854	91.5
403.078	82.5
403.302	90.5
403.526	97.5
403.75	87.5
403.974	78.5
404.198	93.5
404.422	84.5
404.645	88.5
404.869	89.5
405.093	97.5
405.317	92.5
405.541	100.5
405.765	91.5
405.988	108.5
406.212	152.5
406.436	179.5
406.66	131.5
406.883	97.5
407.107	88.5
407.331	95.5
407.555	94.5
407.778	95.5
408.002	76.5
408.226	85.5
408.449	88.5
408.673	73.5
408.896	89.5
409.12	101.5
409.344	88.5
409.567	101.5
409.791	95.5
410.014	93.5
410.238	93.5
410.461	99.5
410.685	86.5
410.908	100.5
411.132	111.5
411.355	98.5
411.578	88.5
411.802	93.5
412.025	86.5
412.249	80.5
412.472	96.5
412.695	102.5
412.919	83.5
413.142	101.5
413.365	81.5
413.589	88.5
413.812	97.5
414.035	87.5
414.258	102.5
414.482	88.5
414.705	87.5
414.928	83.5
415.151	93.5
415.374	87.5
415.597	102.5
415.821	94.5
416.044	92.5
416.267	84.5
416.49	78.5
416.713	99.5
416.936	87.5
417.159	86.5
417.382	69.5
417.605	90.5
417.828	93.5
418.051	96.5
418.274	104.5
418.497	87.5
418.72	88.5
418.943	92.5
419.166	83.5
419.389	79.5
419.611	92.5
419.834	81.5
420.057	94.5
420.28	83.5
420.503	85.5
420.726	85.5
420.948	96.5
421.171	100.5
421.394	91.5
421.617	95.5
421.839	95.5
422.062	83.5
422.285	89.5
422.507	112.5
422.73	94.5
422.953	102.5
423.175	99.5
423.398	80.5
423.621	96.5
423.843	86.5
424.066	97.5
424.288	81.5
424.511	75.5
424.733	86.5
424.956	104.5
425.178	88.5
425.401	94.5
425.623	88.5
425.846	90.5
426.068	93.5
426.291	109.5
426.513	92.5
426.735	80.5
426.958	100.5
427.18	102.5
427.402	136.5
427.625	146.5
427.847	123.5
428.069	107.5
428.292	91.5
428.514	105.5
428.736	93.5
428.958	90.5
429.181	92.5
429.403	93.5
429.625	90.5
429.847	87.5
430.069	99.5
430.292	100.5
430.514	83.5
430.736	82.5
430.958	92.5
431.18	90.5
431.402	86.5
431.624	93.5
431.846	91.5
432.068	85.5
432.29	93.5
432.512	89.5
432.734	69.5
432.956	85.5
433.178	109.5
433.4	104.5
433.622	106.5
433.844	91.5
434.066	96.5
434.287	73.5
434.509	89.5
434.731	89.5
434.953	85.5
435.175	85.5
435.397	93.5
435.618	102.5
435.84	106.5
436.062	123.5
436.284	104.5
436.505	91.5
436.727	87.5
436.949	90.5
437.17	88.5
437.392	92.5
437.614	82.5
437.835	94.5
438.057	110.5
438.278	99.5
438.5	111.5
438.721	111.5
438.943	97.5
439.165	88.5
439.386	98.5
439.608	90.5
439.829	101.5
440.05	113.5
440.272	132.5
440.493	113.5
440.715	86.5
440.936	89.5
441.158	94.5
441.379	88.5
441.6	102.5
441.822	94.5
442.043	97.5
442.264	90.5
442.486	87.5
442.707	83.5
442.928	95.5
443.149	108.5
443.371	132.5
443.592	102.5
443.813	123.5
444.034	106.5
444.255	88.5
444.476	72.5
444.698	91.5
444.919	96.5
445.14	128.5
445.361	125.5
445.582	98.5
445.803	110.5
446.024	114.5
446.245	120.5
446.466	110.5
446.687	105.5
446.908	87.5
447.129	87.5
447.35	99.5
447.571	99.5
447.792	102.5
448.013	100.5
448.234	86.5
448.455	98.5
448.675	104.5
448.896	118.5
449.117	110.5
449.338	110.5
449.559	127.5
449.779	123.5
450	83.5
450.221	85.5
450.442	103.5
450.662	98.5
450.883	83.5
451.104	100.5
451.324	90.5
451.545	96.5
451.766	86.5
451.986	91.5
452.207	80.5
452.428	80.5
452.648	104.5
452.869	99.5
453.089	101.5
453.31	106.5
453.53	92.5
453.751	78.5
453.971	90.5
454.192	107.5
454.412	88.5
454.633	90.5
454.853	93.5
455.073	86.5
455.294	92.5
455.514	83.5
455.734	91.5
455.955	94.5
456.175	82.5
456.395	75.5
456.616	73.5
456.836	77.5
457.056	74.5
457.276	72.5
457.497	85.5
457.717	82.5
457.937	88.5
458.157	81.5
458.377	88.5
458.598	86.5
458.818	124.5
459.038	121.5
459.258	111.5
459.478	91.5
459.698	86.5
459.918	85.5
460.138	84.5
460.358	84.5
460.578	77.5
460.798	80.5
461.018	109.5
461.238	94.5
461.458	89.5
461.678	94.5
461.898	86.5
462.118	90.5
462.338	82.5
462.558	83.5
462.777	92.5
462.997	75.5
463.217	91.5
463.437	80.5
463.657	88.5
463.876	113.5
464.096	90.5
464.316	90.5
464.536	77.5
464.755	86.5
464.975	105.5
465.195	134.5
465.414	125.5
465.634	84.5
465.854	77.5
466.073	83.5
466.293	87.5
466.512	75.5
466.732	103.5
466.951	85.5
467.171	90.5
467.391	108.5
467.61	84.5
467.829	96.5
468.049	90.5
468.268	97.5
468.488	90.5
468.707	82.5
468.927	77.5
469.146	86.5
469.365	86.5
469.585	94.5
469.804	87.5
470.023	92.5
470.243	77.5
470.462	96.5
470.681	102.5
470.901	77.5
471.12	80.5
471.339	86.5
471.558	71.5
471.777	84.5
471.997	102.5
472.216	105.5
472.435	126.5
472.654	95.5
472.873	88.5
473.092	89.5
473.311	91.5
473.53	76.5
473.749	74.5
473.968	92.5
474.187	109.5
474.406	97.5
474.625	94.5
474.844	102.5
475.063	98.5
475.282	89.5
475.501	83.5
475.72	83.5
475.939	108.5
476.158	89.5
476.377	67.5
476.596	88.5
476.814	98.5
477.033	76.5
477.252	87.5
477.471	87.5
477.69	91.5
477.908	99.5
478.127	88.5
478.346	98.5
478.564	86.5
478.783	98.5
479.002	82.5
479.22	75.5
479.439	88.5
479.658	100.5
479.876	96.5
480.095	87.5
480.313	89.5
480.532	86.5
480.751	84.5
480.969	102.5
481.188	165.5
481.406	130.5
481.624	91.5
481.843	85.5
482.061	93.5
482.28	91.5
482.498	84.5
482.717	89.5
482.935	89.5
483.153	85.5
483.372	87.5
483.59	91.5
483.808	91.5
484.027	82.5
484.245	105.5
484.463	93.5
484.681	101.5
484.9	91.5
485.118	95.5
485.336	102.5
485.554	100.5
485.772	105.5
485.99	104.5
486.209	111.5
486.427	112.5
486.645	106.5
486.863	105.5
487.081	101.5
487.299	86.5
487.517	93.5
487.735	97.5
487.953	109.5
488.171	92.5
488.389	107.5
488.607	111.5
488.825	90.5
489.043	82.5
489.261	97.5
489.479	90.5
489.696	88.5
489.914	94.5
490.132	85.5
490.35	96.5
490.568	88.5
490.786	93.5
491.003	90.5
491.221	86.5
491.439	83.5
491.657	104.5
491.874	87.5
492.092	78.5
492.31	85.5
492.527	88.5
492.745	70.5
492.963	95.5
493.18	89.5
493.398	87.5
493.615	112.5
493.833	102.5
494.05	94.5
494.268	96.5
494.485	96.5
494.703	87.5
494.92	96.5
495.138	100.5
495.355	109.5
495.573	104.5
495.79	90.5
496.008	87.5
496.225	84.5
496.442	80.5
496.66	106.5
496.877	103.5
497.094	102.5
497.312	102.5
497.529	89.5
497.746	89.5
497.963	103.5
498.181	86.5
498.398	90.5
498.615	100.5
498.832	88.5
499.049	97.5
499.267	100.5
499.484	97.5
499.701	85.5
499.918	81.5
500.135	77.5
500.352	88.5
500.569	96.5
500.786	100.5
501.003	94.5
501.22	93.5
501.437	83.5
501.654	96.5
501.871	87.5
502.088	95.5
502.305	85.5
502.522	94.5
502.739	102.5
502.956	100.5
503.172	105.5
503.389	97.5
503.606	106.5
503.823	94.5
504.04	91.5
504.256	98.5
504.473	81.5
504.69	97.5
504.907	91.5
505.123	84.5
505.34	85.5
505.557	101.5
505.773	94.5
505.99	94.5
506.207	84.5
506.423	104.5
506.64	87.5
506.856	91.5
507.073	83.5
507.289	77.5
507.506	98.5
507.722	115.5
507.939	101.5
508.155	108.5
508.372	109.5
508.588	84.5
508.805	83.5
509.021	100.5
509.238	94.5
509.454	91.5
509.67	98.5
509.887	116.5
510.103	108.5
510.319	178.5
510.536	568.5
510.752	1640.5
510.968	466.5
511.184	125.5
511.401	98.5
511.617	87.5
511.833	82.5
512.049	88.5
512.265	101.5
512.481	92.5
512.698	81.5
512.914	96.5
513.13	96.5
513.346	85.5
513.562	86.5
513.778	91.5
513.994	103.5
514.21	97.5
514.426	109.5
514.642	121.5
514.858	128.5
515.074	133.5
515.29	332.5
515.506	966.5
515.721	364.5
515.937	151.5
516.153	96.5
516.369	99.5
516.585	103.5
516.801	102.5
517.016	84.5
517.232	88.5
517.448	84.5
517.664	97.5
517.879	89.5
518.095	101.5
518.311	101.5
518.527	94.5
518.742	94.5
518.958	90.5
519.173	92.5
519.389	93.5
519.605	94.5
519.82	85.5
520.036	103.5
520.251	115.5
520.467	96.5
520.682	104.5
520.898	94.5
521.113	93.5
521.329	129.5
521.544	175.5
521.76	398.5
521.975	1598.5
522.19	950.5
522.406	225.5
522.621	111.5
522.836	103.5
523.052	101.5
523.267	98.5
523.482	98.5
523.698	89.5
523.913	105.5
524.128	96.5
524.343	97.5
524.559	94.5
524.774	91.5
524.989	70.5
525.204	90.5
525.419	97.5
525.634	80.5
525.849	89.5
526.064	90.5
526.28	81.5
526.495	87.5
526.71	90.5
526.925	85.5
527.14	86.5
527.355	85.5
527.57	90.5
527.785	99.5
527.999	94.5
528.214	98.5
528.429	92.5
528.644	96.5
528.859	73.5
529.074	93.5
529.289	116.5
529.503	149.5
529.718	108.5
529.933	88.5
530.148	82.5
530.363	68.5
530.577	86.5
530.792	91.5
531.007	74.5
531.221	98.5
531.436	88.5
531.651	92.5
531.865	98.5
532.08	90.5
532.295	93.5
532.509	101.5
532.724	104.5
532.938	84.5
533.153	94.5
533.367	91.5
533.582	93.5
533.796	98.5
534.011	101.5
534.225	87.5
534.44	92.5
534.654	79.5
534.868	91.5
535.083	97.5
535.297	98.5
535.511	89.5
