Data from Uncirc_1981_H10_HRD10591_00023.txt Node
Date: Wed Jan 03 12:33:12 EST 2024
User: Yrep
Spectrometer: HR+D1059
Trigger mode: 1
Integration Time (sec): 1.000000E-1
Scans to average: 1
Electric dark correction enabled: true
Nonlinearity correction enabled: false
Boxcar width: 0
XAxis mode: Wavelengths
Number of Pixels in Spectrum: 2048
>>>>>Begin Spectral Data<<<<<
223.165	-11.44
223.4	-11.44
223.635	-11.44
223.869	-5.44
224.104	-17.44
224.338	-17.44
224.573	-21.44
224.808	-18.44
225.042	-11.44
225.277	-6.44
225.511	-6.44
225.746	11.56
225.98	7.56
226.215	9.56
226.449	11.56
226.683	23.56
226.918	25.56
227.152	26.56
227.387	25.56
227.621	38.56
227.856	44.56
228.09	33.56
228.324	51.56
228.559	54.56
228.793	57.56
229.027	71.56
229.262	82.56
229.496	71.56
229.73	80.56
229.964	74.56
230.199	84.56
230.433	64.56
230.667	68.56
230.901	73.56
231.136	75.56
231.37	66.56
231.604	72.56
231.838	77.56
232.072	80.56
232.306	80.56
232.541	85.56
232.775	69.56
233.009	84.56
233.243	83.56
233.477	73.56
233.711	74.56
233.945	78.56
234.179	73.56
234.413	73.56
234.647	93.56
234.881	65.56
235.115	84.56
235.349	94.56
235.583	72.56
235.817	74.56
236.051	60.56
236.285	77.56
236.519	86.56
236.753	74.56
236.987	75.56
237.221	75.56
237.455	92.56
237.689	80.56
237.922	68.56
238.156	67.56
238.39	61.56
238.624	75.56
238.858	75.56
239.091	78.56
239.325	72.56
239.559	74.56
239.793	69.56
240.027	91.56
240.26	74.56
240.494	74.56
240.728	71.56
240.961	76.56
241.195	70.56
241.429	66.56
241.662	87.56
241.896	75.56
242.13	76.56
242.363	87.56
242.597	82.56
242.83	77.56
243.064	73.56
243.298	76.56
243.531	80.56
243.765	89.56
243.998	73.56
244.232	68.56
244.465	87.56
244.699	70.56
244.932	77.56
245.166	74.56
245.399	91.56
245.633	72.56
245.866	82.56
246.099	66.56
246.333	74.56
246.566	57.56
246.8	68.56
247.033	86.56
247.266	78.56
247.5	80.56
247.733	68.56
247.966	68.56
248.2	91.56
248.433	52.56
248.666	56.56
248.899	80.56
249.133	72.56
249.366	102.56
249.599	79.56
249.832	75.56
250.066	80.56
250.299	79.56
250.532	68.56
250.765	90.56
250.998	75.56
251.231	87.56
251.465	86.56
251.698	80.56
251.931	72.56
252.164	76.56
252.397	86.56
252.63	75.56
252.863	73.56
253.096	69.56
253.329	78.56
253.562	74.56
253.795	75.56
254.028	80.56
254.261	73.56
254.494	69.56
254.727	72.56
254.96	84.56
255.193	72.56
255.426	80.56
255.659	82.56
255.892	87.56
256.124	97.56
256.357	65.56
256.59	86.56
256.823	84.56
257.056	68.56
257.289	71.56
257.521	76.56
257.754	75.56
257.987	84.56
258.22	76.56
258.452	83.56
258.685	79.56
258.918	73.56
259.151	86.56
259.383	86.56
259.616	81.56
259.849	90.56
260.081	92.56
260.314	78.56
260.547	90.56
260.779	70.56
261.012	82.56
261.244	84.56
261.477	84.56
261.71	87.56
261.942	110.56
262.175	104.56
262.407	88.56
262.64	90.56
262.872	88.56
263.105	89.56
263.337	85.56
263.57	85.56
263.802	89.56
264.035	73.56
264.267	85.56
264.499	89.56
264.732	84.56
264.964	88.56
265.197	82.56
265.429	83.56
265.661	82.56
265.894	88.56
266.126	85.56
266.358	89.56
266.591	82.56
266.823	68.56
267.055	89.56
267.287	89.56
267.52	75.56
267.752	100.56
267.984	83.56
268.216	82.56
268.448	85.56
268.681	81.56
268.913	81.56
269.145	65.56
269.377	92.56
269.609	77.56
269.841	86.56
270.073	76.56
270.306	88.56
270.538	88.56
270.77	74.56
271.002	82.56
271.234	88.56
271.466	73.56
271.698	88.56
271.93	94.56
272.162	82.56
272.394	76.56
272.626	81.56
272.858	74.56
273.09	93.56
273.322	85.56
273.553	81.56
273.785	85.56
274.017	78.56
274.249	84.56
274.481	82.56
274.713	91.56
274.945	86.56
275.176	100.56
275.408	89.56
275.64	76.56
275.872	83.56
276.104	77.56
276.335	90.56
276.567	104.56
276.799	96.56
277.031	77.56
277.262	89.56
277.494	85.56
277.726	76.56
277.957	82.56
278.189	92.56
278.421	95.56
278.652	78.56
278.884	69.56
279.115	99.56
279.347	76.56
279.579	89.56
279.81	82.56
280.042	85.56
280.273	96.56
280.505	82.56
280.736	85.56
280.968	89.56
281.199	89.56
281.431	94.56
281.662	85.56
281.894	85.56
282.125	83.56
282.356	103.56
282.588	128.56
282.819	97.56
283.051	66.56
283.282	92.56
283.513	95.56
283.745	82.56
283.976	84.56
284.207	78.56
284.439	90.56
284.67	94.56
284.901	84.56
285.132	84.56
285.364	76.56
285.595	98.56
285.826	86.56
286.057	91.56
286.288	88.56
286.52	83.56
286.751	80.56
286.982	78.56
287.213	70.56
287.444	82.56
287.675	89.56
287.906	73.56
288.138	99.56
288.369	88.56
288.6	93.56
288.831	85.56
289.062	83.56
289.293	85.56
289.524	80.56
289.755	86.56
289.986	83.56
290.217	82.56
290.448	76.56
290.679	90.56
290.91	99.56
291.141	89.56
291.371	83.56
291.602	90.56
291.833	93.56
292.064	78.56
292.295	78.56
292.526	85.56
292.757	83.56
292.987	87.56
293.218	90.56
293.449	92.56
293.68	69.56
293.91	97.56
294.141	78.56
294.372	88.56
294.603	89.56
294.833	90.56
295.064	93.56
295.295	93.56
295.525	88.56
295.756	98.56
295.987	101.56
296.217	110.56
296.448	110.56
296.679	87.56
296.909	91.56
297.14	92.56
297.37	92.56
297.601	86.56
297.831	75.56
298.062	93.56
298.292	93.56
298.523	92.56
298.753	101.56
298.984	88.56
299.214	91.56
299.445	85.56
299.675	94.56
299.905	97.56
300.136	84.56
300.366	83.56
300.597	101.56
300.827	92.56
301.057	87.56
301.288	99.56
301.518	97.56
301.748	90.56
301.979	93.56
302.209	96.56
302.439	77.56
302.669	84.56
302.9	96.56
303.13	82.56
303.36	89.56
303.59	91.56
303.82	93.56
304.051	91.56
304.281	93.56
304.511	88.56
304.741	74.56
304.971	98.56
305.201	84.56
305.431	92.56
305.661	98.56
305.891	92.56
306.121	92.56
306.352	88.56
306.582	93.56
306.812	85.56
307.042	90.56
307.272	96.56
307.502	82.56
307.731	97.56
307.961	84.56
308.191	100.56
308.421	93.56
308.651	94.56
308.881	91.56
309.111	79.56
309.341	91.56
309.571	95.56
309.8	77.56
310.03	98.56
310.26	94.56
310.49	99.56
310.72	101.56
310.949	95.56
311.179	93.56
311.409	80.56
311.639	95.56
311.868	107.56
312.098	95.56
312.328	101.56
312.557	105.56
312.787	103.56
313.017	91.56
313.246	90.56
313.476	92.56
313.706	87.56
313.935	90.56
314.165	81.56
314.394	75.56
314.624	89.56
314.853	108.56
315.083	89.56
315.312	92.56
315.542	98.56
315.771	100.56
316.001	92.56
316.23	81.56
316.46	80.56
316.689	80.56
316.919	100.56
317.148	87.56
317.377	104.56
317.607	100.56
317.836	78.56
318.065	102.56
318.295	99.56
318.524	88.56
318.753	84.56
318.983	102.56
319.212	92.56
319.441	84.56
319.67	105.56
319.9	99.56
320.129	106.56
320.358	99.56
320.587	92.56
320.816	106.56
321.046	104.56
321.275	97.56
321.504	88.56
321.733	101.56
321.962	89.56
322.191	94.56
322.42	106.56
322.649	91.56
322.878	109.56
323.108	119.56
323.337	133.56
323.566	130.56
323.795	141.56
324.024	203.56
324.253	348.56
324.482	736.56
324.71	1533.56
324.939	2048.56
325.168	728.56
325.397	220.56
325.626	136.56
325.855	120.56
326.084	124.56
326.313	124.56
326.542	122.56
326.77	212.56
326.999	422.56
327.228	860.56
327.457	1619.56
327.686	1306.56
327.914	339.56
328.143	173.56
328.372	123.56
328.6	109.56
328.829	119.56
329.058	118.56
329.287	119.56
329.515	99.56
329.744	95.56
329.972	101.56
330.201	114.56
330.43	115.56
330.658	111.56
330.887	131.56
331.115	120.56
331.344	93.56
331.572	89.56
331.801	102.56
332.03	90.56
332.258	102.56
332.486	101.56
332.715	90.56
332.943	88.56
333.172	88.56
333.4	106.56
333.629	100.56
333.857	113.56
334.085	107.56
334.314	105.56
334.542	114.56
334.771	111.56
334.999	93.56
335.227	90.56
335.455	102.56
335.684	104.56
335.912	93.56
336.14	92.56
336.369	105.56
336.597	100.56
336.825	103.56
337.053	84.56
337.281	89.56
337.51	90.56
337.738	105.56
337.966	106.56
338.194	96.56
338.422	100.56
338.65	84.56
338.878	90.56
339.106	97.56
339.334	99.56
339.562	75.56
339.79	80.56
340.018	85.56
340.246	86.56
340.474	92.56
340.702	100.56
340.93	95.56
341.158	97.56
341.386	106.56
341.614	88.56
341.842	87.56
342.07	74.56
342.298	91.56
342.526	97.56
342.754	102.56
342.981	97.56
343.209	92.56
343.437	92.56
343.665	92.56
343.893	75.56
344.12	86.56
344.348	91.56
344.576	89.56
344.804	101.56
345.031	89.56
345.259	97.56
345.487	91.56
345.714	98.56
345.942	104.56
346.17	71.56
346.397	84.56
346.625	103.56
346.853	89.56
347.08	83.56
347.308	85.56
347.535	91.56
347.763	104.56
347.99	102.56
348.218	108.56
348.445	106.56
348.673	96.56
348.9	106.56
349.128	87.56
349.355	92.56
349.583	106.56
349.81	104.56
350.037	88.56
350.265	94.56
350.492	107.56
350.72	93.56
350.947	108.56
351.174	103.56
351.402	114.56
351.629	115.56
351.856	118.56
352.083	111.56
352.311	100.56
352.538	106.56
352.765	97.56
352.992	117.56
353.22	97.56
353.447	97.56
353.674	93.56
353.901	110.56
354.128	94.56
354.355	95.56
354.583	85.56
354.81	98.56
355.037	90.56
355.264	97.56
355.491	89.56
355.718	88.56
355.945	94.56
356.172	114.56
356.399	91.56
356.626	93.56
356.853	101.56
357.08	100.56
357.307	92.56
357.534	96.56
357.761	96.56
357.988	100.56
358.215	102.56
358.441	112.56
358.668	93.56
358.895	95.56
359.122	96.56
359.349	92.56
359.576	95.56
359.802	92.56
360.029	104.56
360.256	91.56
360.483	85.56
360.709	87.56
360.936	92.56
361.163	92.56
361.39	106.56
361.616	86.56
361.843	82.56
362.07	97.56
362.296	87.56
362.523	92.56
362.749	106.56
362.976	92.56
363.203	101.56
363.429	89.56
363.656	96.56
363.882	76.56
364.109	80.56
364.335	98.56
364.562	93.56
364.788	91.56
365.015	94.56
365.241	91.56
365.468	104.56
365.694	106.56
365.92	88.56
366.147	77.56
366.373	78.56
366.599	90.56
366.826	88.56
367.052	91.56
367.278	85.56
367.505	93.56
367.731	83.56
367.957	103.56
368.184	100.56
368.41	97.56
368.636	98.56
368.862	122.56
369.089	84.56
369.315	94.56
369.541	90.56
369.767	87.56
369.993	90.56
370.219	84.56
370.445	91.56
370.672	89.56
370.898	85.56
371.124	94.56
371.35	91.56
371.576	90.56
371.802	86.56
372.028	96.56
372.254	104.56
372.48	84.56
372.706	100.56
372.932	80.56
373.158	102.56
373.384	94.56
373.61	84.56
373.835	88.56
374.061	88.56
374.287	80.56
374.513	94.56
374.739	95.56
374.965	83.56
375.191	87.56
375.416	91.56
375.642	95.56
375.868	99.56
376.094	103.56
376.319	107.56
376.545	97.56
376.771	95.56
376.997	92.56
377.222	86.56
377.448	88.56
377.674	81.56
377.899	76.56
378.125	83.56
378.35	85.56
378.576	107.56
378.802	103.56
379.027	93.56
379.253	87.56
379.478	94.56
379.704	106.56
379.929	98.56
380.155	102.56
380.38	95.56
380.606	102.56
380.831	99.56
381.057	107.56
381.282	95.56
381.507	98.56
381.733	114.56
381.958	95.56
382.184	96.56
382.409	98.56
382.634	121.56
382.86	113.56
383.085	109.56
383.31	114.56
383.535	102.56
383.761	102.56
383.986	92.56
384.211	110.56
384.436	106.56
384.662	100.56
384.887	105.56
385.112	118.56
385.337	117.56
385.562	122.56
385.787	119.56
386.013	113.56
386.238	132.56
386.463	115.56
386.688	134.56
386.913	107.56
387.138	119.56
387.363	103.56
387.588	99.56
387.813	106.56
388.038	109.56
388.263	116.56
388.488	122.56
388.713	97.56
388.938	101.56
389.163	100.56
389.387	97.56
389.612	92.56
389.837	105.56
390.062	108.56
390.287	92.56
390.512	89.56
390.736	95.56
390.961	85.56
391.186	106.56
391.411	101.56
391.636	85.56
391.86	95.56
392.085	97.56
392.31	93.56
392.534	81.56
392.759	98.56
392.984	95.56
393.208	83.56
393.433	82.56
393.658	77.56
393.882	77.56
394.107	80.56
394.331	82.56
394.556	87.56
394.78	92.56
395.005	92.56
395.229	96.56
395.454	100.56
395.678	84.56
395.903	93.56
396.127	99.56
396.352	85.56
396.576	79.56
396.801	82.56
397.025	89.56
397.249	88.56
397.474	90.56
397.698	84.56
397.922	96.56
398.147	100.56
398.371	93.56
398.595	89.56
398.82	82.56
399.044	90.56
399.268	87.56
399.492	94.56
399.717	86.56
399.941	90.56
400.165	70.56
400.389	108.56
400.613	94.56
400.837	88.56
401.062	90.56
401.286	81.56
401.51	79.56
401.734	98.56
401.958	86.56
402.182	94.56
402.406	133.56
402.63	114.56
402.854	97.56
403.078	86.56
403.302	92.56
403.526	89.56
403.75	63.56
403.974	84.56
404.198	84.56
404.422	99.56
404.645	106.56
404.869	97.56
405.093	92.56
405.317	96.56
405.541	94.56
405.765	77.56
405.988	96.56
406.212	136.56
406.436	164.56
406.66	130.56
406.883	104.56
407.107	97.56
407.331	100.56
407.555	90.56
407.778	88.56
408.002	93.56
408.226	99.56
408.449	91.56
408.673	75.56
408.896	93.56
409.12	89.56
409.344	86.56
409.567	91.56
409.791	93.56
410.014	105.56
410.238	89.56
410.461	91.56
410.685	88.56
410.908	99.56
411.132	116.56
411.355	74.56
411.578	93.56
411.802	90.56
412.025	99.56
412.249	95.56
412.472	88.56
412.695	95.56
412.919	88.56
413.142	92.56
413.365	85.56
413.589	90.56
413.812	87.56
414.035	109.56
414.258	93.56
414.482	96.56
414.705	80.56
414.928	86.56
415.151	110.56
415.374	99.56
415.597	99.56
415.821	99.56
416.044	93.56
416.267	97.56
416.49	92.56
416.713	81.56
416.936	88.56
417.159	88.56
417.382	81.56
417.605	101.56
417.828	100.56
418.051	87.56
418.274	83.56
418.497	98.56
418.72	89.56
418.943	96.56
419.166	86.56
419.389	95.56
419.611	98.56
419.834	96.56
420.057	90.56
420.28	84.56
420.503	90.56
420.726	87.56
420.948	87.56
421.171	97.56
421.394	88.56
421.617	97.56
421.839	92.56
422.062	94.56
422.285	94.56
422.507	109.56
422.73	102.56
422.953	107.56
423.175	82.56
423.398	82.56
423.621	74.56
423.843	94.56
424.066	89.56
424.288	83.56
424.511	87.56
424.733	93.56
424.956	92.56
425.178	94.56
425.401	92.56
425.623	99.56
425.846	87.56
426.068	88.56
426.291	92.56
426.513	92.56
426.735	85.56
426.958	96.56
427.18	98.56
427.402	129.56
427.625	144.56
427.847	120.56
428.069	100.56
428.292	92.56
428.514	103.56
428.736	94.56
428.958	83.56
429.181	88.56
429.403	88.56
429.625	98.56
429.847	87.56
430.069	96.56
430.292	83.56
430.514	80.56
430.736	80.56
430.958	81.56
431.18	89.56
431.402	81.56
431.624	89.56
431.846	82.56
432.068	84.56
432.29	75.56
432.512	100.56
432.734	89.56
432.956	93.56
433.178	105.56
433.4	104.56
433.622	82.56
433.844	81.56
434.066	93.56
434.287	86.56
434.509	85.56
434.731	89.56
434.953	80.56
435.175	86.56
435.397	88.56
435.618	89.56
435.84	100.56
436.062	113.56
436.284	111.56
436.505	106.56
436.727	89.56
436.949	98.56
437.17	92.56
437.392	64.56
437.614	98.56
437.835	94.56
438.057	117.56
438.278	96.56
438.5	100.56
438.721	106.56
438.943	91.56
439.165	88.56
439.386	89.56
439.608	84.56
439.829	111.56
440.05	98.56
440.272	132.56
440.493	105.56
440.715	84.56
440.936	89.56
441.158	92.56
441.379	96.56
441.6	94.56
441.822	91.56
442.043	91.56
442.264	96.56
442.486	96.56
442.707	76.56
442.928	89.56
443.149	120.56
443.371	102.56
443.592	99.56
443.813	114.56
444.034	96.56
444.255	93.56
444.476	88.56
444.698	86.56
444.919	102.56
445.14	133.56
445.361	107.56
445.582	96.56
445.803	109.56
446.024	114.56
446.245	147.56
446.466	115.56
446.687	101.56
446.908	75.56
447.129	87.56
447.35	78.56
447.571	107.56
447.792	89.56
448.013	91.56
448.234	101.56
448.455	88.56
448.675	115.56
448.896	113.56
449.117	92.56
449.338	100.56
449.559	130.56
449.779	110.56
450	108.56
450.221	93.56
450.442	84.56
450.662	80.56
450.883	94.56
451.104	117.56
451.324	96.56
451.545	81.56
451.766	85.56
451.986	83.56
452.207	83.56
452.428	81.56
452.648	91.56
452.869	91.56
453.089	96.56
453.31	110.56
453.53	96.56
453.751	101.56
453.971	96.56
454.192	104.56
454.412	82.56
454.633	80.56
454.853	82.56
455.073	84.56
455.294	81.56
455.514	82.56
455.734	83.56
455.955	86.56
456.175	85.56
456.395	93.56
456.616	92.56
456.836	85.56
457.056	99.56
457.276	81.56
457.497	84.56
457.717	90.56
457.937	81.56
458.157	92.56
458.377	88.56
458.598	102.56
458.818	128.56
459.038	124.56
459.258	107.56
459.478	104.56
459.698	83.56
459.918	82.56
460.138	82.56
460.358	80.56
460.578	82.56
460.798	82.56
461.018	97.56
461.238	75.56
461.458	89.56
461.678	101.56
461.898	97.56
462.118	80.56
462.338	76.56
462.558	86.56
462.777	83.56
462.997	80.56
463.217	87.56
463.437	94.56
463.657	75.56
463.876	75.56
464.096	84.56
464.316	84.56
464.536	83.56
464.755	83.56
464.975	115.56
465.195	143.56
465.414	121.56
465.634	88.56
465.854	85.56
466.073	91.56
466.293	91.56
466.512	91.56
466.732	82.56
466.951	77.56
467.171	80.56
467.391	98.56
467.61	109.56
467.829	100.56
468.049	96.56
468.268	89.56
468.488	81.56
468.707	79.56
468.927	99.56
469.146	86.56
469.365	87.56
469.585	77.56
469.804	98.56
470.023	98.56
470.243	90.56
470.462	90.56
470.681	96.56
470.901	106.56
471.12	83.56
471.339	74.56
471.558	93.56
471.777	69.56
471.997	94.56
472.216	109.56
472.435	115.56
472.654	88.56
472.873	86.56
473.092	88.56
473.311	74.56
473.53	76.56
473.749	90.56
473.968	99.56
474.187	105.56
474.406	87.56
474.625	83.56
474.844	78.56
475.063	85.56
475.282	84.56
475.501	87.56
475.72	80.56
475.939	75.56
476.158	95.56
476.377	93.56
476.596	84.56
476.814	94.56
477.033	100.56
477.252	91.56
477.471	73.56
477.69	93.56
477.908	80.56
478.127	84.56
478.346	90.56
478.564	89.56
478.783	77.56
479.002	83.56
479.22	80.56
479.439	90.56
479.658	75.56
479.876	96.56
480.095	73.56
480.313	90.56
480.532	91.56
480.751	96.56
480.969	111.56
481.188	165.56
481.406	128.56
481.624	81.56
481.843	84.56
482.061	90.56
482.28	86.56
482.498	99.56
482.717	79.56
482.935	86.56
483.153	82.56
483.372	88.56
483.59	93.56
483.808	87.56
484.027	88.56
484.245	83.56
484.463	93.56
484.681	91.56
484.9	99.56
485.118	94.56
485.336	98.56
485.554	89.56
485.772	97.56
485.99	94.56
486.209	99.56
486.427	99.56
486.645	98.56
486.863	113.56
487.081	102.56
487.299	90.56
487.517	105.56
487.735	94.56
487.953	101.56
488.171	101.56
488.389	91.56
488.607	109.56
488.825	90.56
489.043	87.56
489.261	69.56
489.479	100.56
489.696	100.56
489.914	84.56
490.132	93.56
490.35	92.56
490.568	89.56
490.786	105.56
491.003	93.56
491.221	95.56
491.439	80.56
491.657	89.56
491.874	80.56
492.092	89.56
492.31	82.56
492.527	88.56
492.745	77.56
492.963	99.56
493.18	90.56
493.398	90.56
493.615	111.56
493.833	99.56
494.05	90.56
494.268	86.56
494.485	83.56
494.703	88.56
494.92	94.56
495.138	99.56
495.355	88.56
495.573	82.56
495.79	84.56
496.008	87.56
496.225	93.56
496.442	85.56
496.66	89.56
496.877	102.56
497.094	86.56
497.312	87.56
497.529	85.56
497.746	91.56
497.963	76.56
498.181	91.56
498.398	90.56
498.615	110.56
498.832	99.56
499.049	112.56
499.267	84.56
499.484	89.56
499.701	87.56
499.918	96.56
500.135	82.56
500.352	92.56
500.569	88.56
500.786	84.56
501.003	90.56
501.22	80.56
501.437	80.56
501.654	97.56
501.871	107.56
502.088	91.56
502.305	92.56
502.522	97.56
502.739	93.56
502.956	113.56
503.172	88.56
503.389	88.56
503.606	86.56
503.823	99.56
504.04	96.56
504.256	99.56
504.473	96.56
504.69	87.56
504.907	88.56
505.123	85.56
505.34	72.56
505.557	78.56
505.773	91.56
505.99	94.56
506.207	88.56
506.423	89.56
506.64	96.56
506.856	102.56
507.073	99.56
507.289	92.56
507.506	95.56
507.722	96.56
507.939	97.56
508.155	94.56
508.372	92.56
508.588	90.56
508.805	99.56
509.021	93.56
509.238	78.56
509.454	86.56
509.67	93.56
509.887	100.56
510.103	125.56
510.319	167.56
510.536	541.56
510.752	1561.56
510.968	458.56
511.184	118.56
511.401	91.56
511.617	92.56
511.833	91.56
512.049	88.56
512.265	99.56
512.481	84.56
512.698	73.56
512.914	83.56
513.13	104.56
513.346	83.56
513.562	93.56
513.778	93.56
513.994	92.56
514.21	98.56
514.426	118.56
514.642	117.56
514.858	125.56
515.074	133.56
515.29	325.56
515.506	998.56
515.721	390.56
515.937	141.56
516.153	92.56
