Data from Uncirc_1981_H10_HRD10591_00079.txt Node
Date: Wed Jan 03 12:33:23 EST 2024
User: Yrep
Spectrometer: HR+D1059
Trigger mode: 1
Integration Time (sec): 1.000000E-1
Scans to average: 1
Electric dark correction enabled: true
Nonlinearity correction enabled: false
Boxcar width: 0
XAxis mode: Wavelengths
Number of Pixels in Spectrum: 2048
>>>>>Begin Spectral Data<<<<<
223.165	-8.94
223.4	-8.94
223.635	-8.94
223.869	-26.94
224.104	-14.94
224.338	-10.94
224.573	-13.94
224.808	0.06
225.042	-13.94
225.277	-5.94
225.511	-4.94
225.746	6.06
225.98	6.06
226.215	7.06
226.449	4.06
226.683	17.06
226.918	25.06
227.152	35.06
227.387	35.06
227.621	26.06
227.856	40.06
228.09	45.06
228.324	45.06
228.559	67.06
228.793	56.06
229.027	39.06
229.262	46.06
229.496	80.06
229.73	67.06
229.964	69.06
230.199	67.06
230.433	67.06
230.667	81.06
230.901	83.06
231.136	80.06
231.37	87.06
231.604	74.06
231.838	64.06
232.072	91.06
232.306	74.06
232.541	74.06
232.775	79.06
233.009	75.06
233.243	89.06
233.477	89.06
233.711	88.06
233.945	74.06
234.179	76.06
234.413	93.06
234.647	75.06
234.881	91.06
235.115	71.06
235.349	87.06
235.583	80.06
235.817	76.06
236.051	65.06
236.285	74.06
236.519	64.06
236.753	81.06
236.987	81.06
237.221	96.06
237.455	85.06
237.689	69.06
237.922	69.06
238.156	81.06
238.39	76.06
238.624	76.06
238.858	73.06
239.091	72.06
239.325	71.06
239.559	86.06
239.793	67.06
240.027	69.06
240.26	68.06
240.494	76.06
240.728	82.06
240.961	64.06
241.195	65.06
241.429	79.06
241.662	82.06
241.896	80.06
242.13	90.06
242.363	68.06
242.597	67.06
242.83	83.06
243.064	65.06
243.298	87.06
243.531	91.06
243.765	67.06
243.998	77.06
244.232	71.06
244.465	79.06
244.699	75.06
244.932	71.06
245.166	75.06
245.399	77.06
245.633	69.06
245.866	70.06
246.099	77.06
246.333	71.06
246.566	76.06
246.8	81.06
247.033	96.06
247.266	75.06
247.5	79.06
247.733	87.06
247.966	74.06
248.2	80.06
248.433	75.06
248.666	71.06
248.899	90.06
249.133	75.06
249.366	105.06
249.599	99.06
249.832	77.06
250.066	81.06
250.299	85.06
250.532	82.06
250.765	90.06
250.998	86.06
251.231	88.06
251.465	69.06
251.698	88.06
251.931	69.06
252.164	90.06
252.397	91.06
252.63	67.06
252.863	85.06
253.096	86.06
253.329	77.06
253.562	84.06
253.795	76.06
254.028	69.06
254.261	83.06
254.494	73.06
254.727	84.06
254.96	93.06
255.193	76.06
255.426	79.06
255.659	71.06
255.892	72.06
256.124	105.06
256.357	80.06
256.59	69.06
256.823	76.06
257.056	77.06
257.289	92.06
257.521	89.06
257.754	78.06
257.987	88.06
258.22	81.06
258.452	87.06
258.685	73.06
258.918	79.06
259.151	69.06
259.383	87.06
259.616	83.06
259.849	78.06
260.081	81.06
260.314	82.06
260.547	72.06
260.779	66.06
261.012	74.06
261.244	81.06
261.477	87.06
261.71	84.06
261.942	94.06
262.175	94.06
262.407	92.06
262.64	82.06
262.872	81.06
263.105	89.06
263.337	82.06
263.57	79.06
263.802	87.06
264.035	86.06
264.267	70.06
264.499	81.06
264.732	85.06
264.964	69.06
265.197	85.06
265.429	72.06
265.661	78.06
265.894	81.06
266.126	88.06
266.358	74.06
266.591	85.06
266.823	84.06
267.055	85.06
267.287	82.06
267.52	74.06
267.752	94.06
267.984	92.06
268.216	88.06
268.448	97.06
268.681	76.06
268.913	91.06
269.145	88.06
269.377	80.06
269.609	90.06
269.841	77.06
270.073	84.06
270.306	81.06
270.538	82.06
270.77	70.06
271.002	87.06
271.234	85.06
271.466	84.06
271.698	88.06
271.93	77.06
272.162	72.06
272.394	96.06
272.626	73.06
272.858	87.06
273.09	72.06
273.322	72.06
273.553	82.06
273.785	75.06
274.017	89.06
274.249	81.06
274.481	91.06
274.713	81.06
274.945	83.06
275.176	85.06
275.408	84.06
275.64	76.06
275.872	67.06
276.104	80.06
276.335	85.06
276.567	96.06
276.799	100.06
277.031	92.06
277.262	97.06
277.494	90.06
277.726	73.06
277.957	68.06
278.189	90.06
278.421	78.06
278.652	92.06
278.884	84.06
279.115	92.06
279.347	81.06
279.579	87.06
279.81	80.06
280.042	80.06
280.273	98.06
280.505	101.06
280.736	85.06
280.968	90.06
281.199	70.06
281.431	80.06
281.662	100.06
281.894	81.06
282.125	101.06
282.356	96.06
282.588	111.06
282.819	105.06
283.051	76.06
283.282	83.06
283.513	101.06
283.745	76.06
283.976	75.06
284.207	74.06
284.439	88.06
284.67	94.06
284.901	89.06
285.132	84.06
285.364	72.06
285.595	85.06
285.826	76.06
286.057	83.06
286.288	72.06
286.52	93.06
286.751	75.06
286.982	72.06
287.213	72.06
287.444	87.06
287.675	87.06
287.906	94.06
288.138	77.06
288.369	90.06
288.6	94.06
288.831	106.06
289.062	91.06
289.293	80.06
289.524	79.06
289.755	86.06
289.986	90.06
290.217	77.06
290.448	90.06
290.679	83.06
290.91	74.06
291.141	88.06
291.371	87.06
291.602	82.06
291.833	91.06
292.064	90.06
292.295	88.06
292.526	77.06
292.757	93.06
292.987	85.06
293.218	82.06
293.449	86.06
293.68	86.06
293.91	69.06
294.141	97.06
294.372	101.06
294.603	84.06
294.833	90.06
295.064	80.06
295.295	95.06
295.525	90.06
295.756	105.06
295.987	100.06
296.217	132.06
296.448	101.06
296.679	112.06
296.909	95.06
297.14	92.06
297.37	97.06
297.601	107.06
297.831	90.06
298.062	92.06
298.292	89.06
298.523	85.06
298.753	94.06
298.984	93.06
299.214	87.06
299.445	83.06
299.675	106.06
299.905	103.06
300.136	85.06
300.366	96.06
300.597	97.06
300.827	96.06
301.057	92.06
301.288	101.06
301.518	86.06
301.748	82.06
301.979	90.06
302.209	99.06
302.439	100.06
302.669	101.06
302.9	77.06
303.13	92.06
303.36	85.06
303.59	107.06
303.82	95.06
304.051	87.06
304.281	87.06
304.511	86.06
304.741	86.06
304.971	95.06
305.201	88.06
305.431	80.06
305.661	88.06
305.891	95.06
306.121	91.06
306.352	109.06
306.582	96.06
306.812	99.06
307.042	84.06
307.272	92.06
307.502	96.06
307.731	85.06
307.961	85.06
308.191	98.06
308.421	98.06
308.651	74.06
308.881	101.06
309.111	87.06
309.341	81.06
309.571	85.06
309.8	80.06
310.03	93.06
310.26	109.06
310.49	97.06
310.72	104.06
310.949	111.06
311.179	91.06
311.409	83.06
311.639	92.06
311.868	76.06
312.098	83.06
312.328	83.06
312.557	98.06
312.787	102.06
313.017	96.06
313.246	92.06
313.476	89.06
313.706	94.06
313.935	79.06
314.165	68.06
314.394	109.06
314.624	94.06
314.853	97.06
315.083	92.06
315.312	100.06
315.542	84.06
315.771	87.06
316.001	78.06
316.23	82.06
316.46	101.06
316.689	84.06
316.919	101.06
317.148	99.06
317.377	95.06
317.607	99.06
317.836	91.06
318.065	83.06
318.295	91.06
318.524	91.06
318.753	89.06
318.983	92.06
319.212	92.06
319.441	96.06
319.67	104.06
319.9	103.06
320.129	89.06
320.358	97.06
320.587	88.06
320.816	86.06
321.046	104.06
321.275	92.06
321.504	91.06
321.733	86.06
321.962	97.06
322.191	81.06
322.42	94.06
322.649	99.06
322.878	108.06
323.108	112.06
323.337	123.06
323.566	133.06
323.795	146.06
324.024	186.06
324.253	338.06
324.482	681.06
324.71	1416.06
324.939	1890.06
325.168	689.06
325.397	219.06
325.626	151.06
325.855	123.06
326.084	115.06
326.313	130.06
326.542	134.06
326.77	209.06
326.999	407.06
327.228	821.06
327.457	1509.06
327.686	1161.06
327.914	329.06
328.143	181.06
328.372	145.06
328.6	104.06
328.829	113.06
329.058	113.06
329.287	107.06
329.515	93.06
329.744	96.06
329.972	97.06
330.201	120.06
330.43	115.06
330.658	128.06
330.887	122.06
331.115	109.06
331.344	95.06
331.572	96.06
331.801	81.06
332.03	90.06
332.258	90.06
332.486	87.06
332.715	82.06
332.943	103.06
333.172	99.06
333.4	89.06
333.629	90.06
333.857	93.06
334.085	88.06
334.314	114.06
334.542	125.06
334.771	128.06
334.999	88.06
335.227	93.06
335.455	76.06
335.684	90.06
335.912	85.06
336.14	86.06
336.369	106.06
336.597	92.06
336.825	92.06
337.053	80.06
337.281	89.06
337.51	108.06
337.738	101.06
337.966	109.06
338.194	90.06
338.422	106.06
338.65	92.06
338.878	88.06
339.106	88.06
339.334	96.06
339.562	94.06
339.79	96.06
340.018	76.06
340.246	101.06
340.474	96.06
340.702	92.06
340.93	92.06
341.158	83.06
341.386	82.06
341.614	85.06
341.842	106.06
342.07	84.06
342.298	87.06
342.526	96.06
342.754	85.06
342.981	73.06
343.209	86.06
343.437	103.06
343.665	82.06
343.893	90.06
344.12	102.06
344.348	89.06
344.576	99.06
344.804	94.06
345.031	88.06
345.259	81.06
345.487	98.06
345.714	85.06
345.942	106.06
346.17	96.06
346.397	85.06
346.625	79.06
346.853	103.06
347.08	94.06
347.308	98.06
347.535	93.06
347.763	100.06
347.99	85.06
348.218	104.06
348.445	89.06
348.673	104.06
348.9	97.06
349.128	93.06
349.355	91.06
349.583	85.06
349.81	93.06
350.037	92.06
350.265	93.06
350.492	96.06
350.72	104.06
350.947	82.06
351.174	93.06
351.402	117.06
351.629	107.06
351.856	94.06
352.083	104.06
352.311	101.06
352.538	110.06
352.765	108.06
352.992	104.06
353.22	103.06
353.447	102.06
353.674	102.06
353.901	104.06
354.128	94.06
354.355	99.06
354.583	92.06
354.81	99.06
355.037	95.06
355.264	90.06
355.491	89.06
355.718	99.06
355.945	101.06
356.172	76.06
356.399	94.06
356.626	89.06
356.853	99.06
357.08	100.06
357.307	93.06
357.534	76.06
357.761	86.06
357.988	89.06
358.215	93.06
358.441	103.06
358.668	100.06
358.895	91.06
359.122	85.06
359.349	84.06
359.576	90.06
359.802	77.06
360.029	114.06
360.256	98.06
360.483	96.06
360.709	83.06
360.936	84.06
361.163	103.06
361.39	88.06
361.616	109.06
361.843	91.06
362.07	90.06
362.296	103.06
362.523	100.06
362.749	96.06
362.976	86.06
363.203	100.06
363.429	101.06
363.656	92.06
363.882	88.06
364.109	99.06
364.335	83.06
364.562	92.06
364.788	73.06
365.015	99.06
365.241	99.06
365.468	95.06
365.694	84.06
365.92	98.06
366.147	87.06
366.373	95.06
366.599	83.06
366.826	75.06
367.052	69.06
367.278	95.06
367.505	84.06
367.731	86.06
367.957	90.06
368.184	95.06
368.41	90.06
368.636	102.06
368.862	121.06
369.089	110.06
369.315	93.06
369.541	98.06
369.767	87.06
369.993	89.06
370.219	88.06
370.445	87.06
370.672	101.06
370.898	89.06
371.124	86.06
371.35	93.06
371.576	92.06
371.802	76.06
372.028	80.06
372.254	86.06
372.48	84.06
372.706	88.06
372.932	93.06
373.158	99.06
373.384	94.06
373.61	93.06
373.835	83.06
374.061	96.06
374.287	73.06
374.513	76.06
374.739	92.06
374.965	89.06
375.191	94.06
375.416	79.06
375.642	102.06
375.868	87.06
376.094	97.06
376.319	91.06
376.545	82.06
376.771	89.06
376.997	97.06
377.222	88.06
377.448	98.06
377.674	92.06
377.899	80.06
378.125	87.06
378.35	99.06
378.576	77.06
378.802	81.06
379.027	97.06
379.253	91.06
379.478	79.06
379.704	101.06
379.929	95.06
380.155	92.06
380.38	98.06
380.606	97.06
380.831	92.06
381.057	122.06
381.282	95.06
381.507	95.06
381.733	89.06
381.958	91.06
382.184	80.06
382.409	87.06
382.634	101.06
382.86	92.06
383.085	100.06
383.31	101.06
383.535	85.06
383.761	97.06
383.986	106.06
384.211	101.06
384.436	83.06
384.662	93.06
384.887	92.06
385.112	99.06
385.337	116.06
385.562	116.06
385.787	95.06
386.013	115.06
386.238	97.06
386.463	113.06
386.688	120.06
386.913	97.06
387.138	117.06
387.363	91.06
387.588	92.06
387.813	93.06
388.038	111.06
388.263	109.06
388.488	106.06
388.713	93.06
388.938	88.06
389.163	87.06
389.387	104.06
389.612	80.06
389.837	95.06
390.062	95.06
390.287	106.06
390.512	83.06
390.736	88.06
390.961	92.06
391.186	86.06
391.411	99.06
391.636	91.06
391.86	76.06
392.085	98.06
392.31	87.06
392.534	95.06
392.759	92.06
392.984	88.06
393.208	83.06
393.433	99.06
393.658	88.06
393.882	81.06
394.107	85.06
394.331	89.06
394.556	89.06
394.78	93.06
395.005	94.06
395.229	85.06
395.454	81.06
395.678	82.06
395.903	96.06
396.127	90.06
396.352	90.06
396.576	86.06
396.801	89.06
397.025	89.06
397.249	89.06
397.474	85.06
397.698	88.06
397.922	89.06
398.147	70.06
398.371	74.06
398.595	82.06
398.82	85.06
399.044	79.06
399.268	71.06
399.492	81.06
399.717	88.06
399.941	91.06
400.165	97.06
400.389	88.06
400.613	83.06
400.837	79.06
401.062	86.06
401.286	82.06
401.51	91.06
401.734	91.06
401.958	84.06
402.182	99.06
402.406	122.06
402.63	88.06
402.854	87.06
403.078	88.06
403.302	81.06
403.526	89.06
403.75	87.06
403.974	76.06
404.198	76.06
404.422	84.06
404.645	88.06
404.869	85.06
405.093	107.06
405.317	87.06
405.541	90.06
405.765	89.06
405.988	104.06
406.212	135.06
406.436	185.06
406.66	129.06
406.883	105.06
407.107	89.06
407.331	88.06
407.555	79.06
407.778	113.06
408.002	99.06
408.226	80.06
408.449	93.06
408.673	89.06
408.896	91.06
409.12	85.06
409.344	91.06
409.567	72.06
409.791	95.06
410.014	94.06
410.238	95.06
410.461	97.06
410.685	118.06
410.908	103.06
411.132	102.06
411.355	101.06
411.578	85.06
411.802	79.06
412.025	82.06
412.249	89.06
412.472	89.06
412.695	79.06
412.919	91.06
413.142	89.06
413.365	90.06
413.589	82.06
413.812	96.06
414.035	90.06
414.258	79.06
414.482	99.06
414.705	87.06
414.928	81.06
415.151	83.06
415.374	92.06
415.597	91.06
415.821	90.06
416.044	87.06
416.267	81.06
416.49	79.06
416.713	82.06
416.936	93.06
417.159	84.06
417.382	97.06
417.605	73.06
417.828	82.06
418.051	85.06
418.274	97.06
418.497	87.06
418.72	90.06
418.943	85.06
419.166	88.06
419.389	93.06
419.611	81.06
419.834	91.06
420.057	96.06
420.28	83.06
420.503	84.06
420.726	73.06
420.948	84.06
421.171	101.06
421.394	73.06
421.617	75.06
421.839	80.06
422.062	83.06
422.285	82.06
422.507	88.06
422.73	109.06
422.953	83.06
423.175	92.06
423.398	82.06
423.621	88.06
423.843	89.06
424.066	83.06
424.288	87.06
424.511	77.06
424.733	93.06
424.956	106.06
425.178	89.06
425.401	92.06
425.623	87.06
425.846	100.06
426.068	72.06
426.291	80.06
426.513	81.06
426.735	90.06
426.958	96.06
427.18	115.06
427.402	116.06
427.625	133.06
427.847	113.06
428.069	98.06
428.292	99.06
428.514	81.06
428.736	83.06
428.958	84.06
429.181	90.06
429.403	69.06
429.625	82.06
429.847	85.06
430.069	90.06
430.292	76.06
430.514	74.06
430.736	69.06
430.958	83.06
431.18	79.06
431.402	84.06
431.624	84.06
431.846	91.06
432.068	83.06
432.29	81.06
432.512	80.06
432.734	89.06
432.956	104.06
433.178	88.06
433.4	96.06
433.622	75.06
433.844	86.06
434.066	82.06
434.287	90.06
434.509	80.06
434.731	95.06
434.953	86.06
435.175	81.06
435.397	93.06
435.618	96.06
435.84	95.06
436.062	92.06
436.284	95.06
436.505	94.06
436.727	106.06
436.949	83.06
437.17	69.06
437.392	74.06
437.614	105.06
437.835	83.06
438.057	105.06
438.278	117.06
438.5	98.06
438.721	114.06
438.943	91.06
439.165	90.06
439.386	94.06
439.608	91.06
439.829	80.06
440.05	110.06
440.272	120.06
440.493	105.06
440.715	76.06
440.936	83.06
441.158	92.06
441.379	89.06
441.6	90.06
441.822	89.06
442.043	73.06
442.264	100.06
442.486	87.06
442.707	90.06
442.928	82.06
443.149	97.06
443.371	116.06
443.592	109.06
443.813	97.06
444.034	106.06
444.255	95.06
444.476	81.06
444.698	67.06
444.919	91.06
445.14	135.06
445.361	115.06
445.582	100.06
445.803	116.06
446.024	115.06
446.245	116.06
446.466	98.06
446.687	87.06
446.908	93.06
447.129	79.06
447.35	83.06
447.571	99.06
447.792	86.06
448.013	106.06
448.234	95.06
448.455	88.06
448.675	100.06
448.896	104.06
449.117	92.06
449.338	101.06
449.559	116.06
449.779	127.06
450	102.06
450.221	85.06
450.442	89.06
450.662	107.06
450.883	91.06
451.104	96.06
451.324	95.06
451.545	80.06
451.766	82.06
451.986	85.06
452.207	85.06
452.428	82.06
452.648	75.06
452.869	101.06
453.089	102.06
453.31	101.06
453.53	83.06
453.751	101.06
453.971	104.06
454.192	83.06
454.412	95.06
454.633	83.06
454.853	103.06
455.073	75.06
455.294	96.06
455.514	93.06
455.734	91.06
455.955	103.06
456.175	89.06
456.395	65.06
456.616	85.06
456.836	89.06
457.056	76.06
457.276	74.06
457.497	73.06
457.717	93.06
457.937	89.06
458.157	99.06
458.377	89.06
458.598	99.06
458.818	122.06
459.038	119.06
459.258	98.06
459.478	93.06
459.698	80.06
459.918	96.06
460.138	94.06
460.358	86.06
460.578	83.06
460.798	78.06
461.018	80.06
461.238	94.06
461.458	81.06
461.678	71.06
461.898	65.06
462.118	81.06
462.338	86.06
462.558	84.06
462.777	83.06
462.997	71.06
463.217	89.06
463.437	89.06
463.657	72.06
463.876	84.06
464.096	87.06
464.316	100.06
464.536	103.06
464.755	99.06
464.975	104.06
465.195	135.06
465.414	146.06
465.634	89.06
465.854	91.06
466.073	90.06
466.293	75.06
466.512	81.06
466.732	82.06
466.951	82.06
467.171	82.06
467.391	88.06
467.61	87.06
467.829	82.06
468.049	95.06
468.268	92.06
468.488	83.06
468.707	71.06
468.927	65.06
469.146	70.06
469.365	71.06
469.585	96.06
469.804	83.06
470.023	83.06
470.243	80.06
470.462	89.06
470.681	91.06
470.901	92.06
471.12	79.06
471.339	95.06
471.558	89.06
471.777	87.06
471.997	87.06
472.216	99.06
472.435	108.06
472.654	94.06
472.873	90.06
473.092	68.06
473.311	73.06
473.53	81.06
473.749	85.06
473.968	95.06
474.187	81.06
474.406	80.06
474.625	96.06
474.844	78.06
475.063	81.06
475.282	79.06
475.501	74.06
475.72	84.06
475.939	73.06
476.158	91.06
476.377	71.06
476.596	96.06
476.814	90.06
477.033	83.06
477.252	83.06
477.471	84.06
477.69	92.06
477.908	87.06
478.127	89.06
478.346	72.06
478.564	100.06
478.783	83.06
479.002	87.06
479.22	89.06
479.439	95.06
479.658	91.06
479.876	91.06
480.095	95.06
480.313	79.06
480.532	87.06
480.751	85.06
480.969	104.06
481.188	164.06
481.406	133.06
481.624	99.06
481.843	91.06
482.061	86.06
482.28	72.06
482.498	83.06
482.717	89.06
482.935	84.06
483.153	83.06
483.372	89.06
483.59	82.06
483.808	91.06
484.027	92.06
484.245	95.06
484.463	97.06
484.681	88.06
484.9	97.06
485.118	83.06
485.336	102.06
485.554	97.06
485.772	93.06
485.99	104.06
486.209	103.06
486.427	111.06
486.645	107.06
486.863	97.06
487.081	101.06
487.299	102.06
487.517	92.06
487.735	87.06
487.953	83.06
488.171	88.06
488.389	96.06
488.607	81.06
488.825	86.06
489.043	99.06
489.261	102.06
489.479	81.06
489.696	74.06
489.914	85.06
490.132	84.06
490.35	93.06
490.568	82.06
490.786	85.06
491.003	88.06
491.221	81.06
491.439	90.06
491.657	81.06
491.874	96.06
492.092	81.06
492.31	80.06
492.527	97.06
492.745	108.06
492.963	83.06
493.18	97.06
493.398	103.06
493.615	106.06
493.833	95.06
494.05	84.06
494.268	78.06
494.485	91.06
494.703	79.06
494.92	88.06
495.138	99.06
495.355	90.06
495.573	82.06
495.79	72.06
496.008	90.06
496.225	74.06
496.442	87.06
496.66	92.06
496.877	98.06
497.094	89.06
497.312	82.06
497.529	70.06
497.746	96.06
497.963	92.06
498.181	92.06
498.398	101.06
498.615	98.06
498.832	84.06
499.049	94.06
499.267	84.06
499.484	89.06
499.701	87.06
499.918	86.06
500.135	97.06
500.352	74.06
500.569	97.06
500.786	86.06
501.003	88.06
501.22	87.06
501.437	72.06
501.654	86.06
501.871	95.06
502.088	92.06
502.305	92.06
502.522	90.06
502.739	91.06
502.956	80.06
503.172	101.06
503.389	85.06
503.606	94.06
503.823	88.06
504.04	95.06
504.256	92.06
504.473	93.06
504.69	91.06
504.907	75.06
505.123	91.06
505.34	87.06
505.557	76.06
505.773	75.06
505.99	67.06
506.207	92.06
506.423	93.06
506.64	100.06
506.856	96.06
507.073	84.06
507.289	88.06
507.506	85.06
507.722	96.06
507.939	107.06
508.155	91.06
508.372	89.06
508.588	85.06
508.805	85.06
509.021	104.06
509.238	88.06
509.454	89.06
509.67	100.06
509.887	109.06
510.103	123.06
510.319	183.06
510.536	579.06
510.752	1773.06
510.968	491.06
511.184	139.06
511.401	102.06
511.617	84.06
511.833	93.06
512.049	102.06
512.265	85.06
512.481	96.06
512.698	97.06
512.914	75.06
513.13	90.06
513.346	98.06
513.562	103.06
513.778	92.06
513.994	104.06
514.21	109.06
514.426	119.06
514.642	117.06
514.858	114.06
515.074	121.06
515.29	368.06
515.506	1026.06
515.721	395.06
515.937	131.06
516.153	107.06
516.369	89.06
516.585	101.06
516.801	87.06
