Data from Uncirc_1981_H10_HRD10591_00085.txt Node
Date: Wed Jan 03 12:33:25 EST 2024
User: Yrep
Spectrometer: HR+D1059
Trigger mode: 1
Integration Time (sec): 1.000000E-1
Scans to average: 1
Electric dark correction enabled: true
Nonlinearity correction enabled: false
Boxcar width: 0
XAxis mode: Wavelengths
Number of Pixels in Spectrum: 2048
>>>>>Begin Spectral Data<<<<<
223.165	-43.56
223.4	-43.56
223.635	-43.56
223.869	-32.56
224.104	-21.56
224.338	-19.56
224.573	-10.56
224.808	-5.56
225.042	-16.56
225.277	-4.56
225.511	-10.56
225.746	-1.56
225.98	14.44
226.215	24.44
226.449	27.44
226.683	27.44
226.918	39.44
227.152	33.44
227.387	33.44
227.621	32.44
227.856	49.44
228.09	37.44
228.324	55.44
228.559	59.44
228.793	62.44
229.027	70.44
229.262	65.44
229.496	64.44
229.73	84.44
229.964	87.44
230.199	61.44
230.433	79.44
230.667	82.44
230.901	67.44
231.136	69.44
231.37	81.44
231.604	83.44
231.838	79.44
232.072	76.44
232.306	93.44
232.541	82.44
232.775	81.44
233.009	83.44
233.243	80.44
233.477	92.44
233.711	95.44
233.945	81.44
234.179	71.44
234.413	89.44
234.647	80.44
234.881	106.44
235.115	80.44
235.349	89.44
235.583	86.44
235.817	81.44
236.051	76.44
236.285	79.44
236.519	73.44
236.753	81.44
236.987	81.44
237.221	87.44
237.455	103.44
237.689	71.44
237.922	77.44
238.156	73.44
238.39	85.44
238.624	63.44
238.858	85.44
239.091	91.44
239.325	74.44
239.559	80.44
239.793	75.44
240.027	93.44
240.26	84.44
240.494	64.44
240.728	79.44
240.961	72.44
241.195	77.44
241.429	85.44
241.662	77.44
241.896	70.44
242.13	71.44
242.363	65.44
242.597	63.44
242.83	75.44
243.064	88.44
243.298	84.44
243.531	77.44
243.765	89.44
243.998	79.44
244.232	80.44
244.465	85.44
244.699	87.44
244.932	60.44
245.166	84.44
245.399	67.44
245.633	85.44
245.866	86.44
246.099	79.44
246.333	70.44
246.566	84.44
246.8	88.44
247.033	86.44
247.266	80.44
247.5	75.44
247.733	83.44
247.966	68.44
248.2	96.44
248.433	93.44
248.666	95.44
248.899	80.44
249.133	77.44
249.366	103.44
249.599	95.44
249.832	94.44
250.066	87.44
250.299	99.44
250.532	77.44
250.765	86.44
250.998	79.44
251.231	78.44
251.465	69.44
251.698	78.44
251.931	76.44
252.164	80.44
252.397	85.44
252.63	89.44
252.863	79.44
253.096	93.44
253.329	103.44
253.562	83.44
253.795	87.44
254.028	94.44
254.261	90.44
254.494	92.44
254.727	73.44
254.96	92.44
255.193	79.44
255.426	86.44
255.659	93.44
255.892	83.44
256.124	88.44
256.357	76.44
256.59	79.44
256.823	76.44
257.056	83.44
257.289	81.44
257.521	77.44
257.754	87.44
257.987	72.44
258.22	80.44
258.452	80.44
258.685	88.44
258.918	78.44
259.151	76.44
259.383	103.44
259.616	98.44
259.849	89.44
260.081	89.44
260.314	75.44
260.547	71.44
260.779	76.44
261.012	79.44
261.244	81.44
261.477	95.44
261.71	83.44
261.942	109.44
262.175	110.44
262.407	96.44
262.64	88.44
262.872	74.44
263.105	79.44
263.337	90.44
263.57	83.44
263.802	86.44
264.035	94.44
264.267	66.44
264.499	81.44
264.732	66.44
264.964	81.44
265.197	88.44
265.429	76.44
265.661	81.44
265.894	85.44
266.126	93.44
266.358	80.44
266.591	75.44
266.823	85.44
267.055	73.44
267.287	80.44
267.52	80.44
267.752	102.44
267.984	95.44
268.216	73.44
268.448	96.44
268.681	91.44
268.913	93.44
269.145	87.44
269.377	93.44
269.609	85.44
269.841	88.44
270.073	102.44
270.306	72.44
270.538	88.44
270.77	89.44
271.002	75.44
271.234	88.44
271.466	80.44
271.698	76.44
271.93	83.44
272.162	80.44
272.394	87.44
272.626	91.44
272.858	92.44
273.09	70.44
273.322	67.44
273.553	87.44
273.785	79.44
274.017	93.44
274.249	93.44
274.481	76.44
274.713	91.44
274.945	85.44
275.176	88.44
275.408	88.44
275.64	78.44
275.872	91.44
276.104	79.44
276.335	88.44
276.567	92.44
276.799	104.44
277.031	93.44
277.262	79.44
277.494	101.44
277.726	79.44
277.957	86.44
278.189	75.44
278.421	81.44
278.652	86.44
278.884	84.44
279.115	77.44
279.347	75.44
279.579	91.44
279.81	88.44
280.042	81.44
280.273	86.44
280.505	94.44
280.736	76.44
280.968	76.44
281.199	88.44
281.431	76.44
281.662	98.44
281.894	104.44
282.125	105.44
282.356	117.44
282.588	127.44
282.819	103.44
283.051	79.44
283.282	88.44
283.513	97.44
283.745	94.44
283.976	86.44
284.207	89.44
284.439	86.44
284.67	97.44
284.901	82.44
285.132	83.44
285.364	90.44
285.595	87.44
285.826	97.44
286.057	80.44
286.288	72.44
286.52	99.44
286.751	78.44
286.982	83.44
287.213	92.44
287.444	88.44
287.675	80.44
287.906	90.44
288.138	94.44
288.369	89.44
288.6	90.44
288.831	83.44
289.062	92.44
289.293	91.44
289.524	89.44
289.755	87.44
289.986	92.44
290.217	96.44
290.448	96.44
290.679	83.44
290.91	85.44
291.141	98.44
291.371	99.44
291.602	91.44
291.833	80.44
292.064	90.44
292.295	79.44
292.526	77.44
292.757	87.44
292.987	92.44
293.218	83.44
293.449	90.44
293.68	97.44
293.91	75.44
294.141	83.44
294.372	87.44
294.603	85.44
294.833	79.44
295.064	87.44
295.295	95.44
295.525	96.44
295.756	97.44
295.987	107.44
296.217	138.44
296.448	131.44
296.679	99.44
296.909	96.44
297.14	88.44
297.37	90.44
297.601	88.44
297.831	92.44
298.062	104.44
298.292	88.44
298.523	108.44
298.753	91.44
298.984	92.44
299.214	95.44
299.445	97.44
299.675	91.44
299.905	100.44
300.136	90.44
300.366	88.44
300.597	90.44
300.827	89.44
301.057	97.44
301.288	93.44
301.518	95.44
301.748	85.44
301.979	95.44
302.209	77.44
302.439	106.44
302.669	95.44
302.9	83.44
303.13	95.44
303.36	88.44
303.59	95.44
303.82	99.44
304.051	87.44
304.281	87.44
304.511	102.44
304.741	106.44
304.971	85.44
305.201	89.44
305.431	99.44
305.661	78.44
305.891	80.44
306.121	90.44
306.352	102.44
306.582	101.44
306.812	89.44
307.042	101.44
307.272	93.44
307.502	93.44
307.731	91.44
307.961	92.44
308.191	84.44
308.421	99.44
308.651	102.44
308.881	97.44
309.111	99.44
309.341	93.44
309.571	89.44
309.8	96.44
310.03	85.44
310.26	98.44
310.49	100.44
310.72	100.44
310.949	93.44
311.179	101.44
311.409	92.44
311.639	78.44
311.868	97.44
312.098	88.44
312.328	113.44
312.557	119.44
312.787	102.44
313.017	110.44
313.246	98.44
313.476	87.44
313.706	95.44
313.935	98.44
314.165	107.44
314.394	98.44
314.624	100.44
314.853	96.44
315.083	89.44
315.312	90.44
315.542	91.44
315.771	96.44
316.001	96.44
316.23	90.44
316.46	76.44
316.689	94.44
316.919	95.44
317.148	97.44
317.377	110.44
317.607	92.44
317.836	88.44
318.065	103.44
318.295	93.44
318.524	87.44
318.753	89.44
318.983	103.44
319.212	100.44
319.441	109.44
319.67	99.44
319.9	96.44
320.129	103.44
320.358	92.44
320.587	89.44
320.816	109.44
321.046	96.44
321.275	114.44
321.504	101.44
321.733	97.44
321.962	97.44
322.191	105.44
322.42	93.44
322.649	102.44
322.878	106.44
323.108	123.44
323.337	113.44
323.566	126.44
323.795	160.44
324.024	195.44
324.253	382.44
324.482	806.44
324.71	1662.44
324.939	2315.44
325.168	827.44
325.397	247.44
325.626	165.44
325.855	137.44
326.084	122.44
326.313	127.44
326.542	148.44
326.77	240.44
326.999	447.44
327.228	915.44
327.457	1750.44
327.686	1421.44
327.914	366.44
328.143	190.44
328.372	158.44
328.6	125.44
328.829	108.44
329.058	135.44
329.287	128.44
329.515	113.44
329.744	101.44
329.972	108.44
330.201	103.44
330.43	123.44
330.658	141.44
330.887	139.44
331.115	107.44
331.344	95.44
331.572	107.44
331.801	92.44
332.03	107.44
332.258	86.44
332.486	84.44
332.715	92.44
332.943	87.44
333.172	99.44
333.4	103.44
333.629	106.44
333.857	113.44
334.085	96.44
334.314	109.44
334.542	121.44
334.771	125.44
334.999	103.44
335.227	102.44
335.455	99.44
335.684	103.44
335.912	92.44
336.14	106.44
336.369	109.44
336.597	121.44
336.825	102.44
337.053	93.44
337.281	103.44
337.51	94.44
337.738	97.44
337.966	87.44
338.194	93.44
338.422	92.44
338.65	104.44
338.878	89.44
339.106	103.44
339.334	97.44
339.562	102.44
339.79	88.44
340.018	88.44
340.246	91.44
340.474	87.44
340.702	104.44
340.93	90.44
341.158	101.44
341.386	108.44
341.614	92.44
341.842	89.44
342.07	89.44
342.298	91.44
342.526	80.44
342.754	81.44
342.981	97.44
343.209	95.44
343.437	99.44
343.665	100.44
343.893	73.44
344.12	94.44
344.348	83.44
344.576	103.44
344.804	100.44
345.031	101.44
345.259	101.44
345.487	103.44
345.714	97.44
345.942	102.44
346.17	91.44
346.397	92.44
346.625	90.44
346.853	92.44
347.08	108.44
347.308	90.44
347.535	103.44
347.763	97.44
347.99	93.44
348.218	92.44
348.445	102.44
348.673	122.44
348.9	91.44
349.128	102.44
349.355	96.44
349.583	101.44
349.81	95.44
350.037	99.44
350.265	102.44
350.492	96.44
350.72	93.44
350.947	104.44
351.174	112.44
351.402	112.44
351.629	103.44
351.856	103.44
352.083	101.44
352.311	101.44
352.538	99.44
352.765	116.44
352.992	118.44
353.22	111.44
353.447	101.44
353.674	113.44
353.901	106.44
354.128	94.44
354.355	93.44
354.583	111.44
354.81	85.44
355.037	99.44
355.264	89.44
355.491	97.44
355.718	86.44
355.945	93.44
356.172	102.44
356.399	91.44
356.626	103.44
356.853	96.44
357.08	106.44
357.307	97.44
357.534	91.44
357.761	77.44
357.988	101.44
358.215	93.44
358.441	78.44
358.668	89.44
358.895	88.44
359.122	106.44
359.349	74.44
359.576	100.44
359.802	97.44
360.029	104.44
360.256	115.44
360.483	87.44
360.709	89.44
360.936	92.44
361.163	89.44
361.39	95.44
361.616	89.44
361.843	81.44
362.07	101.44
362.296	99.44
362.523	87.44
362.749	90.44
362.976	91.44
363.203	98.44
363.429	93.44
363.656	85.44
363.882	87.44
364.109	92.44
364.335	90.44
364.562	95.44
364.788	104.44
365.015	78.44
365.241	91.44
365.468	109.44
365.694	112.44
365.92	90.44
366.147	95.44
366.373	96.44
366.599	95.44
366.826	103.44
367.052	79.44
367.278	90.44
367.505	97.44
367.731	96.44
367.957	103.44
368.184	87.44
368.41	93.44
368.636	105.44
368.862	116.44
369.089	118.44
369.315	97.44
369.541	100.44
369.767	87.44
369.993	93.44
370.219	88.44
370.445	108.44
370.672	95.44
370.898	99.44
371.124	93.44
371.35	99.44
371.576	96.44
371.802	93.44
372.028	89.44
372.254	83.44
372.48	87.44
372.706	87.44
372.932	93.44
373.158	95.44
373.384	97.44
373.61	110.44
373.835	85.44
374.061	84.44
374.287	101.44
374.513	88.44
374.739	94.44
374.965	89.44
375.191	96.44
375.416	91.44
375.642	85.44
375.868	97.44
376.094	88.44
376.319	85.44
376.545	96.44
376.771	100.44
376.997	107.44
377.222	99.44
377.448	110.44
377.674	96.44
377.899	107.44
378.125	94.44
378.35	109.44
378.576	88.44
378.802	84.44
379.027	83.44
379.253	96.44
379.478	107.44
379.704	87.44
379.929	87.44
380.155	101.44
380.38	102.44
380.606	81.44
380.831	103.44
381.057	100.44
381.282	89.44
381.507	97.44
381.733	100.44
381.958	91.44
382.184	109.44
382.409	92.44
382.634	100.44
382.86	102.44
383.085	101.44
383.31	100.44
383.535	105.44
383.761	110.44
383.986	100.44
384.211	112.44
384.436	103.44
384.662	96.44
384.887	95.44
385.112	104.44
385.337	102.44
385.562	101.44
385.787	100.44
386.013	103.44
386.238	109.44
386.463	108.44
386.688	120.44
386.913	99.44
387.138	117.44
387.363	112.44
387.588	102.44
387.813	104.44
388.038	95.44
388.263	103.44
388.488	110.44
388.713	88.44
388.938	108.44
389.163	86.44
389.387	108.44
389.612	93.44
389.837	86.44
390.062	98.44
390.287	100.44
390.512	72.44
390.736	88.44
390.961	90.44
391.186	92.44
391.411	89.44
391.636	99.44
391.86	91.44
392.085	85.44
392.31	98.44
392.534	79.44
392.759	92.44
392.984	83.44
393.208	79.44
393.433	92.44
393.658	85.44
393.882	87.44
394.107	99.44
394.331	95.44
394.556	93.44
394.78	85.44
395.005	100.44
395.229	90.44
395.454	79.44
395.678	91.44
395.903	106.44
396.127	92.44
396.352	94.44
396.576	81.44
396.801	87.44
397.025	80.44
397.249	79.44
397.474	103.44
397.698	102.44
397.922	79.44
398.147	96.44
398.371	99.44
398.595	81.44
398.82	73.44
399.044	96.44
399.268	87.44
399.492	88.44
399.717	81.44
399.941	83.44
400.165	90.44
400.389	114.44
400.613	97.44
400.837	83.44
401.062	84.44
401.286	92.44
401.51	81.44
401.734	91.44
401.958	102.44
402.182	107.44
402.406	132.44
402.63	115.44
402.854	99.44
403.078	85.44
403.302	79.44
403.526	87.44
403.75	103.44
403.974	99.44
404.198	86.44
404.422	94.44
404.645	98.44
404.869	91.44
405.093	104.44
405.317	100.44
405.541	96.44
405.765	93.44
405.988	123.44
406.212	166.44
406.436	201.44
406.66	136.44
406.883	100.44
407.107	89.44
407.331	127.44
407.555	113.44
407.778	84.44
408.002	104.44
408.226	97.44
408.449	96.44
408.673	89.44
408.896	105.44
409.12	107.44
409.344	103.44
409.567	92.44
409.791	97.44
410.014	96.44
410.238	88.44
410.461	76.44
410.685	101.44
410.908	101.44
411.132	108.44
411.355	100.44
411.578	104.44
411.802	92.44
412.025	86.44
412.249	87.44
412.472	104.44
412.695	85.44
412.919	86.44
413.142	80.44
413.365	78.44
413.589	96.44
413.812	97.44
414.035	101.44
414.258	95.44
414.482	99.44
414.705	102.44
414.928	101.44
415.151	90.44
415.374	96.44
415.597	83.44
415.821	97.44
416.044	87.44
416.267	89.44
416.49	86.44
416.713	85.44
416.936	91.44
417.159	101.44
417.382	83.44
417.605	85.44
417.828	100.44
418.051	87.44
418.274	98.44
418.497	91.44
418.72	95.44
418.943	77.44
419.166	88.44
419.389	84.44
419.611	93.44
419.834	89.44
420.057	95.44
420.28	86.44
420.503	89.44
420.726	84.44
420.948	96.44
421.171	112.44
421.394	116.44
421.617	82.44
421.839	70.44
422.062	97.44
422.285	91.44
422.507	96.44
422.73	88.44
422.953	97.44
423.175	83.44
423.398	86.44
423.621	95.44
423.843	102.44
424.066	80.44
424.288	95.44
424.511	94.44
424.733	99.44
424.956	120.44
425.178	94.44
425.401	92.44
425.623	102.44
425.846	97.44
426.068	104.44
426.291	90.44
426.513	95.44
426.735	101.44
426.958	95.44
427.18	88.44
427.402	130.44
427.625	159.44
427.847	138.44
428.069	117.44
428.292	109.44
428.514	94.44
428.736	82.44
428.958	91.44
429.181	104.44
429.403	100.44
429.625	88.44
429.847	105.44
430.069	109.44
430.292	100.44
430.514	100.44
430.736	91.44
430.958	95.44
431.18	72.44
431.402	96.44
431.624	89.44
431.846	83.44
432.068	96.44
432.29	81.44
432.512	84.44
432.734	84.44
432.956	84.44
433.178	96.44
433.4	104.44
433.622	93.44
433.844	100.44
434.066	88.44
434.287	90.44
434.509	89.44
434.731	91.44
434.953	83.44
435.175	88.44
435.397	93.44
435.618	99.44
435.84	101.44
436.062	121.44
436.284	116.44
436.505	114.44
436.727	97.44
436.949	87.44
437.17	95.44
437.392	93.44
437.614	91.44
437.835	95.44
438.057	113.44
438.278	107.44
438.5	111.44
438.721	118.44
438.943	112.44
439.165	93.44
439.386	84.44
439.608	85.44
439.829	93.44
440.05	130.44
440.272	123.44
440.493	85.44
440.715	85.44
440.936	93.44
441.158	91.44
441.379	87.44
441.6	96.44
441.822	93.44
442.043	97.44
442.264	97.44
442.486	113.44
442.707	96.44
442.928	106.44
443.149	124.44
443.371	137.44
443.592	119.44
443.813	102.44
444.034	104.44
444.255	97.44
444.476	92.44
444.698	95.44
444.919	83.44
445.14	131.44
445.361	127.44
445.582	114.44
445.803	139.44
446.024	136.44
446.245	129.44
446.466	110.44
446.687	83.44
446.908	85.44
447.129	93.44
447.35	102.44
447.571	101.44
447.792	100.44
448.013	95.44
448.234	113.44
448.455	94.44
448.675	119.44
448.896	114.44
449.117	83.44
449.338	116.44
449.559	130.44
449.779	128.44
450	97.44
450.221	104.44
450.442	85.44
450.662	111.44
450.883	105.44
451.104	104.44
451.324	101.44
451.545	84.44
451.766	95.44
451.986	100.44
452.207	92.44
452.428	96.44
452.648	96.44
452.869	108.44
453.089	101.44
453.31	94.44
453.53	95.44
453.751	86.44
453.971	115.44
454.192	121.44
454.412	98.44
454.633	90.44
454.853	99.44
455.073	84.44
455.294	91.44
455.514	109.44
455.734	88.44
455.955	95.44
456.175	87.44
456.395	97.44
456.616	84.44
456.836	90.44
457.056	99.44
457.276	79.44
457.497	99.44
457.717	89.44
457.937	91.44
458.157	69.44
458.377	99.44
458.598	126.44
458.818	144.44
459.038	153.44
459.258	119.44
459.478	83.44
459.698	83.44
459.918	90.44
460.138	84.44
460.358	96.44
460.578	82.44
460.798	98.44
461.018	83.44
461.238	91.44
461.458	101.44
461.678	92.44
461.898	89.44
462.118	96.44
462.338	103.44
462.558	83.44
462.777	70.44
462.997	93.44
463.217	91.44
463.437	103.44
463.657	89.44
463.876	86.44
464.096	87.44
464.316	96.44
464.536	108.44
464.755	85.44
464.975	103.44
465.195	152.44
465.414	152.44
465.634	107.44
465.854	90.44
466.073	62.44
466.293	90.44
466.512	89.44
466.732	69.44
466.951	96.44
467.171	87.44
467.391	101.44
467.61	100.44
467.829	103.44
468.049	99.44
468.268	108.44
468.488	99.44
468.707	87.44
468.927	87.44
469.146	92.44
469.365	98.44
469.585	88.44
469.804	101.44
470.023	102.44
470.243	95.44
470.462	85.44
470.681	112.44
470.901	94.44
471.12	90.44
471.339	95.44
471.558	98.44
471.777	103.44
471.997	100.44
472.216	118.44
472.435	128.44
472.654	109.44
472.873	89.44
473.092	80.44
473.311	83.44
473.53	92.44
473.749	105.44
473.968	89.44
474.187	102.44
474.406	103.44
474.625	102.44
474.844	101.44
475.063	83.44
475.282	95.44
475.501	93.44
475.72	88.44
475.939	94.44
476.158	87.44
476.377	95.44
476.596	95.44
476.814	84.44
477.033	95.44
477.252	93.44
477.471	99.44
477.69	90.44
477.908	93.44
478.127	96.44
478.346	97.44
478.564	92.44
478.783	95.44
479.002	106.44
479.22	81.44
479.439	93.44
479.658	96.44
479.876	92.44
480.095	86.44
480.313	109.44
480.532	91.44
480.751	94.44
480.969	118.44
481.188	200.44
481.406	162.44
481.624	96.44
481.843	91.44
482.061	88.44
482.28	95.44
482.498	92.44
482.717	90.44
482.935	90.44
483.153	100.44
483.372	91.44
483.59	120.44
483.808	96.44
484.027	92.44
484.245	100.44
484.463	99.44
484.681	101.44
484.9	92.44
485.118	106.44
485.336	108.44
485.554	97.44
485.772	107.44
485.99	100.44
486.209	113.44
486.427	108.44
486.645	100.44
486.863	117.44
487.081	86.44
487.299	92.44
487.517	99.44
487.735	102.44
487.953	92.44
488.171	99.44
488.389	104.44
488.607	102.44
488.825	88.44
489.043	92.44
489.261	104.44
489.479	102.44
489.696	99.44
489.914	89.44
490.132	99.44
490.35	105.44
490.568	92.44
490.786	90.44
491.003	95.44
491.221	93.44
491.439	112.44
491.657	102.44
491.874	100.44
492.092	82.44
492.31	85.44
492.527	97.44
492.745	91.44
492.963	100.44
493.18	87.44
493.398	100.44
493.615	101.44
493.833	98.44
494.05	109.44
494.268	93.44
494.485	77.44
494.703	81.44
494.92	93.44
495.138	92.44
495.355	107.44
495.573	91.44
495.79	92.44
496.008	102.44
496.225	95.44
496.442	87.44
496.66	108.44
496.877	87.44
497.094	94.44
497.312	97.44
497.529	91.44
497.746	97.44
497.963	100.44
498.181	93.44
498.398	93.44
498.615	116.44
498.832	98.44
499.049	103.44
499.267	97.44
499.484	94.44
499.701	99.44
499.918	86.44
500.135	93.44
500.352	112.44
500.569	93.44
500.786	112.44
501.003	92.44
501.22	111.44
501.437	93.44
501.654	70.44
501.871	94.44
502.088	95.44
502.305	80.44
502.522	81.44
502.739	92.44
502.956	101.44
503.172	77.44
503.389	94.44
503.606	97.44
503.823	104.44
504.04	108.44
504.256	98.44
504.473	100.44
504.69	91.44
504.907	90.44
505.123	94.44
505.34	86.44
505.557	64.44
505.773	105.44
505.99	91.44
506.207	92.44
506.423	81.44
506.64	99.44
506.856	92.44
507.073	95.44
507.289	99.44
507.506	84.44
507.722	116.44
507.939	111.44
508.155	89.44
508.372	101.44
508.588	107.44
508.805	98.44
509.021	100.44
509.238	94.44
509.454	83.44
509.67	112.44
509.887	120.44
510.103	122.44
510.319	184.44
510.536	668.44
510.752	2042.44
510.968	572.44
511.184	152.44
511.401	101.44
511.617	91.44
511.833	97.44
512.049	90.44
512.265	85.44
512.481	90.44
512.698	89.44
512.914	102.44
513.13	115.44
513.346	94.44
513.562	96.44
513.778	94.44
513.994	97.44
514.21	94.44
514.426	118.44
