Data from Uncirc_1981_H10_HRD10591_00029.txt Node
Date: Wed Jan 03 12:33:13 EST 2024
User: Yrep
Spectrometer: HR+D1059
Trigger mode: 1
Integration Time (sec): 1.000000E-1
Scans to average: 1
Electric dark correction enabled: true
Nonlinearity correction enabled: false
Boxcar width: 0
XAxis mode: Wavelengths
Number of Pixels in Spectrum: 2048
>>>>>Begin Spectral Data<<<<<
223.165	-13.75
223.4	-13.75
223.635	-13.75
223.869	-5.75
224.104	-26.75
224.338	-10.75
224.573	-26.75
224.808	-28.75
225.042	-6.75
225.277	-6.75
225.511	5.25
225.746	9.25
225.98	11.25
226.215	1.25
226.449	13.25
226.683	22.25
226.918	29.25
227.152	34.25
227.387	32.25
227.621	43.25
227.856	38.25
228.09	58.25
228.324	60.25
228.559	62.25
228.793	57.25
229.027	62.25
229.262	60.25
229.496	74.25
229.73	76.25
229.964	71.25
230.199	73.25
230.433	63.25
230.667	69.25
230.901	84.25
231.136	82.25
231.37	93.25
231.604	82.25
231.838	70.25
232.072	84.25
232.306	67.25
232.541	86.25
232.775	85.25
233.009	78.25
233.243	80.25
233.477	70.25
233.711	79.25
233.945	68.25
234.179	77.25
234.413	82.25
234.647	76.25
234.881	78.25
235.115	62.25
235.349	75.25
235.583	74.25
235.817	84.25
236.051	72.25
236.285	77.25
236.519	96.25
236.753	82.25
236.987	80.25
237.221	83.25
237.455	84.25
237.689	91.25
237.922	78.25
238.156	69.25
238.39	83.25
238.624	80.25
238.858	76.25
239.091	86.25
239.325	91.25
239.559	69.25
239.793	70.25
240.027	66.25
240.26	72.25
240.494	75.25
240.728	69.25
240.961	72.25
241.195	76.25
241.429	75.25
241.662	78.25
241.896	63.25
242.13	77.25
242.363	73.25
242.597	93.25
242.83	75.25
243.064	65.25
243.298	76.25
243.531	67.25
243.765	69.25
243.998	80.25
244.232	76.25
244.465	82.25
244.699	75.25
244.932	87.25
245.166	75.25
245.399	86.25
245.633	87.25
245.866	85.25
246.099	86.25
246.333	93.25
246.566	81.25
246.8	91.25
247.033	78.25
247.266	82.25
247.5	72.25
247.733	70.25
247.966	85.25
248.2	96.25
248.433	78.25
248.666	73.25
248.899	84.25
249.133	89.25
249.366	97.25
249.599	88.25
249.832	86.25
250.066	80.25
250.299	67.25
250.532	84.25
250.765	84.25
250.998	81.25
251.231	78.25
251.465	68.25
251.698	66.25
251.931	86.25
252.164	90.25
252.397	80.25
252.63	81.25
252.863	90.25
253.096	88.25
253.329	73.25
253.562	74.25
253.795	97.25
254.028	92.25
254.261	76.25
254.494	84.25
254.727	71.25
254.96	84.25
255.193	76.25
255.426	87.25
255.659	73.25
255.892	80.25
256.124	90.25
256.357	91.25
256.59	84.25
256.823	69.25
257.056	76.25
257.289	88.25
257.521	64.25
257.754	80.25
257.987	70.25
258.22	75.25
258.452	72.25
258.685	83.25
258.918	84.25
259.151	84.25
259.383	83.25
259.616	91.25
259.849	88.25
260.081	74.25
260.314	81.25
260.547	87.25
260.779	78.25
261.012	73.25
261.244	75.25
261.477	92.25
261.71	83.25
261.942	103.25
262.175	100.25
262.407	86.25
262.64	84.25
262.872	86.25
263.105	86.25
263.337	77.25
263.57	87.25
263.802	89.25
264.035	85.25
264.267	77.25
264.499	76.25
264.732	86.25
264.964	93.25
265.197	82.25
265.429	88.25
265.661	80.25
265.894	88.25
266.126	80.25
266.358	71.25
266.591	87.25
266.823	92.25
267.055	80.25
267.287	89.25
267.52	92.25
267.752	93.25
267.984	84.25
268.216	76.25
268.448	74.25
268.681	62.25
268.913	95.25
269.145	94.25
269.377	88.25
269.609	85.25
269.841	92.25
270.073	79.25
270.306	94.25
270.538	75.25
270.77	81.25
271.002	66.25
271.234	78.25
271.466	82.25
271.698	75.25
271.93	76.25
272.162	68.25
272.394	87.25
272.626	84.25
272.858	76.25
273.09	73.25
273.322	80.25
273.553	90.25
273.785	96.25
274.017	85.25
274.249	89.25
274.481	86.25
274.713	77.25
274.945	78.25
275.176	99.25
275.408	85.25
275.64	88.25
275.872	96.25
276.104	71.25
276.335	80.25
276.567	77.25
276.799	90.25
277.031	78.25
277.262	78.25
277.494	97.25
277.726	94.25
277.957	89.25
278.189	84.25
278.421	78.25
278.652	93.25
278.884	90.25
279.115	94.25
279.347	82.25
279.579	87.25
279.81	81.25
280.042	85.25
280.273	72.25
280.505	72.25
280.736	85.25
280.968	78.25
281.199	94.25
281.431	84.25
281.662	89.25
281.894	85.25
282.125	101.25
282.356	102.25
282.588	100.25
282.819	105.25
283.051	93.25
283.282	78.25
283.513	92.25
283.745	78.25
283.976	82.25
284.207	80.25
284.439	77.25
284.67	81.25
284.901	84.25
285.132	90.25
285.364	78.25
285.595	81.25
285.826	88.25
286.057	103.25
286.288	93.25
286.52	78.25
286.751	84.25
286.982	82.25
287.213	85.25
287.444	79.25
287.675	91.25
287.906	102.25
288.138	94.25
288.369	68.25
288.6	84.25
288.831	85.25
289.062	77.25
289.293	88.25
289.524	87.25
289.755	85.25
289.986	85.25
290.217	96.25
290.448	84.25
290.679	88.25
290.91	74.25
291.141	88.25
291.371	92.25
291.602	92.25
291.833	89.25
292.064	92.25
292.295	86.25
292.526	82.25
292.757	101.25
292.987	70.25
293.218	74.25
293.449	88.25
293.68	80.25
293.91	85.25
294.141	95.25
294.372	90.25
294.603	85.25
294.833	98.25
295.064	80.25
295.295	99.25
295.525	96.25
295.756	94.25
295.987	101.25
296.217	107.25
296.448	105.25
296.679	101.25
296.909	91.25
297.14	106.25
297.37	97.25
297.601	83.25
297.831	96.25
298.062	88.25
298.292	84.25
298.523	80.25
298.753	84.25
298.984	100.25
299.214	88.25
299.445	77.25
299.675	94.25
299.905	84.25
300.136	84.25
300.366	84.25
300.597	90.25
300.827	85.25
301.057	90.25
301.288	90.25
301.518	95.25
301.748	86.25
301.979	85.25
302.209	95.25
302.439	81.25
302.669	90.25
302.9	85.25
303.13	88.25
303.36	93.25
303.59	90.25
303.82	101.25
304.051	100.25
304.281	93.25
304.511	70.25
304.741	78.25
304.971	82.25
305.201	87.25
305.431	84.25
305.661	96.25
305.891	97.25
306.121	87.25
306.352	96.25
306.582	89.25
306.812	93.25
307.042	86.25
307.272	82.25
307.502	93.25
307.731	97.25
307.961	101.25
308.191	82.25
308.421	103.25
308.651	92.25
308.881	105.25
309.111	104.25
309.341	95.25
309.571	98.25
309.8	90.25
310.03	94.25
310.26	93.25
310.49	91.25
310.72	83.25
310.949	99.25
311.179	97.25
311.409	98.25
311.639	102.25
311.868	85.25
312.098	91.25
312.328	91.25
312.557	89.25
312.787	94.25
313.017	85.25
313.246	82.25
313.476	96.25
313.706	92.25
313.935	85.25
314.165	94.25
314.394	110.25
314.624	91.25
314.853	104.25
315.083	91.25
315.312	87.25
315.542	94.25
315.771	87.25
316.001	98.25
316.23	81.25
316.46	85.25
316.689	87.25
316.919	95.25
317.148	100.25
317.377	82.25
317.607	86.25
317.836	110.25
318.065	92.25
318.295	86.25
318.524	86.25
318.753	92.25
318.983	80.25
319.212	74.25
319.441	100.25
319.67	104.25
319.9	91.25
320.129	92.25
320.358	98.25
320.587	92.25
320.816	93.25
321.046	92.25
321.275	124.25
321.504	101.25
321.733	93.25
321.962	93.25
322.191	103.25
322.42	102.25
322.649	104.25
322.878	113.25
323.108	96.25
323.337	117.25
323.566	125.25
323.795	145.25
324.024	183.25
324.253	326.25
324.482	679.25
324.71	1398.25
324.939	1782.25
325.168	676.25
325.397	210.25
325.626	129.25
325.855	108.25
326.084	126.25
326.313	130.25
326.542	125.25
326.77	200.25
326.999	377.25
327.228	774.25
327.457	1421.25
327.686	1113.25
327.914	306.25
328.143	166.25
328.372	126.25
328.6	121.25
328.829	106.25
329.058	113.25
329.287	109.25
329.515	122.25
329.744	97.25
329.972	98.25
330.201	100.25
330.43	116.25
330.658	119.25
330.887	117.25
331.115	100.25
331.344	83.25
331.572	90.25
331.801	97.25
332.03	93.25
332.258	93.25
332.486	79.25
332.715	84.25
332.943	92.25
333.172	85.25
333.4	88.25
333.629	102.25
333.857	97.25
334.085	106.25
334.314	109.25
334.542	109.25
334.771	113.25
334.999	92.25
335.227	91.25
335.455	112.25
335.684	93.25
335.912	100.25
336.14	94.25
336.369	105.25
336.597	100.25
336.825	105.25
337.053	90.25
337.281	77.25
337.51	85.25
337.738	93.25
337.966	89.25
338.194	89.25
338.422	86.25
338.65	100.25
338.878	86.25
339.106	82.25
339.334	97.25
339.562	82.25
339.79	96.25
340.018	99.25
340.246	92.25
340.474	93.25
340.702	98.25
340.93	91.25
341.158	85.25
341.386	97.25
341.614	87.25
341.842	97.25
342.07	86.25
342.298	89.25
342.526	85.25
342.754	96.25
342.981	94.25
343.209	88.25
343.437	93.25
343.665	93.25
343.893	84.25
344.12	83.25
344.348	90.25
344.576	89.25
344.804	59.25
345.031	86.25
345.259	92.25
345.487	92.25
345.714	96.25
345.942	82.25
346.17	89.25
346.397	101.25
346.625	102.25
346.853	81.25
347.08	84.25
347.308	92.25
347.535	95.25
347.763	98.25
347.99	102.25
348.218	91.25
348.445	104.25
348.673	96.25
348.9	91.25
349.128	82.25
349.355	88.25
349.583	87.25
349.81	92.25
350.037	104.25
350.265	101.25
350.492	81.25
350.72	88.25
350.947	94.25
351.174	109.25
351.402	99.25
351.629	97.25
351.856	96.25
352.083	94.25
352.311	103.25
352.538	93.25
352.765	84.25
352.992	109.25
353.22	107.25
353.447	77.25
353.674	102.25
353.901	106.25
354.128	98.25
354.355	99.25
354.583	117.25
354.81	97.25
355.037	95.25
355.264	96.25
355.491	87.25
355.718	104.25
355.945	100.25
356.172	96.25
356.399	102.25
356.626	100.25
356.853	99.25
357.08	94.25
357.307	93.25
357.534	103.25
357.761	102.25
357.988	86.25
358.215	95.25
358.441	99.25
358.668	116.25
358.895	94.25
359.122	95.25
359.349	102.25
359.576	80.25
359.802	97.25
360.029	91.25
360.256	102.25
360.483	90.25
360.709	90.25
360.936	98.25
361.163	87.25
361.39	84.25
361.616	89.25
361.843	94.25
362.07	101.25
362.296	109.25
362.523	96.25
362.749	88.25
362.976	92.25
363.203	82.25
363.429	99.25
363.656	96.25
363.882	72.25
364.109	89.25
364.335	88.25
364.562	88.25
364.788	87.25
365.015	87.25
365.241	93.25
365.468	93.25
365.694	94.25
365.92	97.25
366.147	90.25
366.373	92.25
366.599	84.25
366.826	101.25
367.052	91.25
367.278	92.25
367.505	92.25
367.731	90.25
367.957	95.25
368.184	87.25
368.41	91.25
368.636	104.25
368.862	107.25
369.089	105.25
369.315	82.25
369.541	91.25
369.767	94.25
369.993	88.25
370.219	82.25
370.445	105.25
370.672	88.25
370.898	98.25
371.124	104.25
371.35	89.25
371.576	82.25
371.802	93.25
372.028	78.25
372.254	88.25
372.48	86.25
372.706	80.25
372.932	94.25
373.158	90.25
373.384	98.25
373.61	94.25
373.835	77.25
374.061	86.25
374.287	87.25
374.513	102.25
374.739	85.25
374.965	92.25
375.191	84.25
375.416	81.25
375.642	92.25
375.868	96.25
376.094	92.25
376.319	84.25
376.545	97.25
376.771	87.25
376.997	97.25
377.222	90.25
377.448	91.25
377.674	94.25
377.899	98.25
378.125	94.25
378.35	94.25
378.576	80.25
378.802	95.25
379.027	108.25
379.253	107.25
379.478	88.25
379.704	81.25
379.929	104.25
380.155	100.25
380.38	105.25
380.606	111.25
380.831	95.25
381.057	97.25
381.282	92.25
381.507	93.25
381.733	101.25
381.958	90.25
382.184	108.25
382.409	112.25
382.634	111.25
382.86	112.25
383.085	117.25
383.31	108.25
383.535	98.25
383.761	92.25
383.986	98.25
384.211	99.25
384.436	100.25
384.662	112.25
384.887	99.25
385.112	110.25
385.337	115.25
385.562	103.25
385.787	110.25
386.013	112.25
386.238	118.25
386.463	105.25
386.688	133.25
386.913	102.25
387.138	108.25
387.363	114.25
387.588	112.25
387.813	108.25
388.038	122.25
388.263	123.25
388.488	124.25
388.713	110.25
388.938	104.25
389.163	87.25
389.387	90.25
389.612	90.25
389.837	97.25
390.062	89.25
390.287	88.25
390.512	83.25
390.736	83.25
390.961	99.25
391.186	90.25
391.411	104.25
391.636	88.25
391.86	72.25
392.085	85.25
392.31	96.25
392.534	90.25
392.759	76.25
392.984	78.25
393.208	68.25
393.433	95.25
393.658	97.25
393.882	76.25
394.107	85.25
394.331	98.25
394.556	92.25
394.78	89.25
395.005	93.25
395.229	90.25
395.454	87.25
395.678	69.25
395.903	87.25
396.127	99.25
396.352	91.25
396.576	90.25
396.801	93.25
397.025	90.25
397.249	74.25
397.474	85.25
397.698	84.25
397.922	83.25
398.147	73.25
398.371	90.25
398.595	88.25
398.82	80.25
399.044	98.25
399.268	77.25
399.492	82.25
399.717	94.25
399.941	76.25
400.165	82.25
400.389	85.25
400.613	85.25
400.837	80.25
401.062	93.25
401.286	80.25
401.51	87.25
401.734	82.25
401.958	104.25
402.182	115.25
402.406	138.25
402.63	95.25
402.854	91.25
403.078	94.25
403.302	96.25
403.526	85.25
403.75	88.25
403.974	78.25
404.198	90.25
404.422	82.25
404.645	74.25
404.869	92.25
405.093	87.25
405.317	106.25
405.541	88.25
405.765	96.25
405.988	99.25
406.212	144.25
406.436	176.25
406.66	120.25
406.883	105.25
407.107	83.25
407.331	95.25
407.555	78.25
407.778	101.25
408.002	99.25
408.226	79.25
408.449	82.25
408.673	74.25
408.896	77.25
409.12	104.25
409.344	88.25
409.567	86.25
409.791	100.25
410.014	101.25
410.238	87.25
410.461	99.25
410.685	82.25
410.908	92.25
411.132	108.25
411.355	90.25
411.578	82.25
411.802	80.25
412.025	88.25
412.249	88.25
412.472	84.25
412.695	94.25
412.919	89.25
413.142	84.25
413.365	94.25
413.589	89.25
413.812	98.25
414.035	81.25
414.258	88.25
414.482	94.25
414.705	84.25
414.928	74.25
415.151	88.25
415.374	96.25
415.597	87.25
415.821	105.25
416.044	94.25
416.267	84.25
416.49	96.25
416.713	91.25
416.936	98.25
417.159	88.25
417.382	84.25
417.605	76.25
417.828	77.25
418.051	75.25
418.274	89.25
418.497	89.25
418.72	80.25
418.943	69.25
419.166	84.25
419.389	87.25
419.611	92.25
419.834	101.25
420.057	90.25
420.28	82.25
420.503	99.25
420.726	90.25
420.948	95.25
421.171	99.25
421.394	84.25
421.617	93.25
421.839	77.25
422.062	107.25
422.285	86.25
422.507	94.25
422.73	104.25
422.953	90.25
423.175	89.25
423.398	82.25
423.621	93.25
423.843	88.25
424.066	92.25
424.288	90.25
424.511	91.25
424.733	94.25
424.956	98.25
425.178	97.25
425.401	96.25
425.623	101.25
425.846	93.25
426.068	77.25
426.291	88.25
426.513	83.25
426.735	78.25
426.958	88.25
427.18	104.25
427.402	123.25
427.625	137.25
427.847	117.25
428.069	103.25
428.292	95.25
428.514	88.25
428.736	88.25
428.958	80.25
429.181	96.25
429.403	85.25
429.625	86.25
429.847	92.25
430.069	98.25
430.292	96.25
430.514	77.25
430.736	70.25
430.958	86.25
431.18	87.25
431.402	84.25
431.624	86.25
431.846	87.25
432.068	86.25
432.29	85.25
432.512	72.25
432.734	89.25
432.956	94.25
433.178	90.25
433.4	100.25
433.622	93.25
433.844	84.25
434.066	97.25
434.287	84.25
434.509	82.25
434.731	82.25
434.953	84.25
435.175	95.25
435.397	100.25
435.618	88.25
435.84	105.25
436.062	108.25
436.284	92.25
436.505	93.25
436.727	100.25
436.949	94.25
437.17	97.25
437.392	67.25
437.614	92.25
437.835	84.25
438.057	100.25
438.278	75.25
438.5	87.25
438.721	108.25
438.943	105.25
439.165	95.25
439.386	93.25
439.608	87.25
439.829	83.25
440.05	111.25
440.272	106.25
440.493	91.25
440.715	97.25
440.936	91.25
441.158	94.25
441.379	77.25
441.6	97.25
441.822	87.25
442.043	80.25
442.264	103.25
442.486	80.25
442.707	92.25
442.928	91.25
443.149	110.25
443.371	104.25
443.592	101.25
443.813	115.25
444.034	108.25
444.255	96.25
444.476	77.25
444.698	80.25
444.919	88.25
445.14	122.25
445.361	114.25
445.582	111.25
445.803	106.25
446.024	122.25
446.245	117.25
446.466	98.25
446.687	77.25
446.908	102.25
447.129	65.25
447.35	74.25
447.571	81.25
447.792	87.25
448.013	104.25
448.234	100.25
448.455	89.25
448.675	91.25
448.896	106.25
449.117	96.25
449.338	113.25
449.559	125.25
449.779	130.25
450	99.25
450.221	81.25
450.442	85.25
450.662	97.25
450.883	104.25
451.104	101.25
451.324	89.25
451.545	86.25
451.766	90.25
451.986	90.25
452.207	93.25
452.428	96.25
452.648	90.25
452.869	90.25
453.089	105.25
453.31	101.25
453.53	82.25
453.751	81.25
453.971	85.25
454.192	104.25
454.412	86.25
454.633	97.25
454.853	93.25
455.073	99.25
455.294	89.25
455.514	98.25
455.734	92.25
455.955	78.25
456.175	81.25
456.395	90.25
456.616	86.25
456.836	91.25
457.056	99.25
457.276	92.25
457.497	85.25
457.717	82.25
457.937	83.25
458.157	82.25
458.377	90.25
458.598	104.25
458.818	117.25
459.038	131.25
459.258	84.25
459.478	103.25
459.698	74.25
459.918	82.25
460.138	96.25
460.358	83.25
460.578	96.25
460.798	99.25
461.018	91.25
461.238	93.25
461.458	94.25
461.678	75.25
461.898	83.25
462.118	98.25
462.338	82.25
462.558	80.25
462.777	84.25
462.997	76.25
463.217	75.25
463.437	90.25
463.657	89.25
463.876	98.25
464.096	100.25
464.316	95.25
464.536	83.25
464.755	97.25
464.975	85.25
465.195	139.25
465.414	109.25
465.634	87.25
465.854	73.25
466.073	87.25
466.293	82.25
466.512	87.25
466.732	79.25
466.951	81.25
467.171	93.25
467.391	87.25
467.61	89.25
467.829	82.25
468.049	96.25
468.268	82.25
468.488	88.25
468.707	70.25
468.927	80.25
469.146	85.25
469.365	64.25
469.585	94.25
469.804	96.25
470.023	89.25
470.243	91.25
470.462	101.25
470.681	100.25
470.901	92.25
471.12	91.25
471.339	92.25
471.558	81.25
471.777	73.25
471.997	88.25
472.216	112.25
472.435	120.25
472.654	86.25
472.873	95.25
473.092	92.25
473.311	77.25
473.53	82.25
473.749	77.25
473.968	93.25
474.187	94.25
474.406	99.25
474.625	94.25
474.844	82.25
475.063	88.25
475.282	85.25
475.501	91.25
475.72	99.25
475.939	73.25
476.158	72.25
476.377	80.25
476.596	84.25
476.814	83.25
477.033	92.25
477.252	86.25
477.471	97.25
477.69	86.25
477.908	80.25
478.127	94.25
478.346	91.25
478.564	73.25
478.783	110.25
479.002	98.25
479.22	107.25
479.439	103.25
479.658	96.25
479.876	96.25
480.095	83.25
480.313	86.25
480.532	85.25
480.751	97.25
480.969	108.25
481.188	162.25
481.406	135.25
481.624	102.25
481.843	83.25
482.061	105.25
482.28	85.25
482.498	86.25
482.717	88.25
482.935	73.25
483.153	82.25
483.372	83.25
483.59	92.25
483.808	77.25
484.027	96.25
484.245	80.25
484.463	85.25
484.681	103.25
484.9	103.25
485.118	87.25
485.336	88.25
485.554	89.25
485.772	90.25
485.99	105.25
486.209	98.25
486.427	111.25
486.645	116.25
486.863	100.25
487.081	90.25
487.299	90.25
487.517	92.25
487.735	84.25
487.953	90.25
488.171	102.25
488.389	89.25
488.607	102.25
488.825	79.25
489.043	90.25
489.261	91.25
489.479	80.25
489.696	88.25
489.914	81.25
490.132	84.25
490.35	84.25
490.568	85.25
490.786	91.25
491.003	76.25
491.221	80.25
491.439	82.25
491.657	89.25
491.874	88.25
492.092	106.25
492.31	96.25
492.527	85.25
492.745	99.25
492.963	88.25
493.18	93.25
493.398	87.25
493.615	89.25
493.833	88.25
494.05	88.25
494.268	94.25
494.485	97.25
494.703	88.25
494.92	90.25
495.138	80.25
495.355	89.25
495.573	88.25
495.79	90.25
496.008	98.25
496.225	84.25
496.442	83.25
496.66	93.25
496.877	90.25
497.094	102.25
497.312	92.25
497.529	92.25
497.746	98.25
497.963	92.25
498.181	98.25
498.398	101.25
498.615	107.25
498.832	97.25
499.049	86.25
499.267	110.25
499.484	94.25
499.701	88.25
499.918	102.25
500.135	75.25
500.352	76.25
500.569	84.25
500.786	89.25
501.003	89.25
501.22	103.25
501.437	80.25
501.654	86.25
501.871	106.25
502.088	95.25
502.305	92.25
502.522	72.25
502.739	97.25
502.956	86.25
503.172	100.25
503.389	83.25
503.606	97.25
503.823	100.25
504.04	88.25
504.256	104.25
504.473	100.25
504.69	90.25
504.907	84.25
505.123	95.25
505.34	88.25
505.557	92.25
505.773	84.25
505.99	91.25
506.207	88.25
506.423	82.25
506.64	110.25
506.856	82.25
507.073	97.25
507.289	94.25
507.506	99.25
507.722	109.25
507.939	100.25
508.155	82.25
508.372	99.25
508.588	99.25
508.805	91.25
509.021	91.25
509.238	95.25
509.454	97.25
509.67	90.25
509.887	102.25
510.103	103.25
510.319	169.25
510.536	538.25
510.752	1510.25
510.968	435.25
511.184	119.25
511.401	100.25
511.617	97.25
511.833	91.25
512.049	70.25
512.265	90.25
512.481	75.25
512.698	91.25
512.914	89.25
513.13	84.25
513.346	88.25
513.562	96.25
513.778	82.25
513.994	86.25
514.21	96.25
514.426	103.25
514.642	102.25
514.858	115.25
515.074	136.25
515.29	308.25
515.506	926.25
515.721	363.25
515.937	125.25
516.153	90.25
516.369	84.25
