Data from Uncirc_1981_H10_HRD10591_00014.txt Node
Date: Wed Jan 03 12:33:10 EST 2024
User: Yrep
Spectrometer: HR+D1059
Trigger mode: 1
Integration Time (sec): 1.000000E-1
Scans to average: 1
Electric dark correction enabled: true
Nonlinearity correction enabled: false
Boxcar width: 0
XAxis mode: Wavelengths
Number of Pixels in Spectrum: 2048
>>>>>Begin Spectral Data<<<<<
223.165	-24.19
223.4	-24.19
223.635	-24.19
223.869	3.81
224.104	-9.19
224.338	-17.19
224.573	-7.19
224.808	-8.19
225.042	-16.19
225.277	-3.19
225.511	-0.19
225.746	9.81
225.98	-7.19
226.215	-1.19
226.449	5.81
226.683	19.81
226.918	26.81
227.152	27.81
227.387	45.81
227.621	37.81
227.856	60.81
228.09	46.81
228.324	52.81
228.559	54.81
228.793	69.81
229.027	62.81
229.262	56.81
229.496	61.81
229.73	85.81
229.964	75.81
230.199	68.81
230.433	73.81
230.667	83.81
230.901	70.81
231.136	73.81
231.37	82.81
231.604	81.81
231.838	76.81
232.072	84.81
232.306	85.81
232.541	77.81
232.775	68.81
233.009	80.81
233.243	69.81
233.477	74.81
233.711	76.81
233.945	83.81
234.179	74.81
234.413	92.81
234.647	78.81
234.881	82.81
235.115	91.81
235.349	77.81
235.583	85.81
235.817	84.81
236.051	83.81
236.285	83.81
236.519	80.81
236.753	80.81
236.987	73.81
237.221	85.81
237.455	84.81
237.689	73.81
237.922	84.81
238.156	77.81
238.39	85.81
238.624	65.81
238.858	72.81
239.091	77.81
239.325	84.81
239.559	82.81
239.793	73.81
240.027	82.81
240.26	72.81
240.494	75.81
240.728	70.81
240.961	94.81
241.195	68.81
241.429	67.81
241.662	74.81
241.896	85.81
242.13	80.81
242.363	76.81
242.597	68.81
242.83	77.81
243.064	72.81
243.298	66.81
243.531	89.81
243.765	84.81
243.998	80.81
244.232	84.81
244.465	78.81
244.699	66.81
244.932	77.81
245.166	65.81
245.399	83.81
245.633	84.81
245.866	62.81
246.099	71.81
246.333	82.81
246.566	69.81
246.8	75.81
247.033	86.81
247.266	85.81
247.5	81.81
247.733	93.81
247.966	90.81
248.2	75.81
248.433	73.81
248.666	68.81
248.899	68.81
249.133	87.81
249.366	84.81
249.599	91.81
249.832	80.81
250.066	78.81
250.299	72.81
250.532	77.81
250.765	83.81
250.998	71.81
251.231	84.81
251.465	73.81
251.698	71.81
251.931	82.81
252.164	88.81
252.397	78.81
252.63	93.81
252.863	92.81
253.096	63.81
253.329	83.81
253.562	76.81
253.795	82.81
254.028	87.81
254.261	86.81
254.494	77.81
254.727	86.81
254.96	78.81
255.193	76.81
255.426	77.81
255.659	73.81
255.892	90.81
256.124	72.81
256.357	86.81
256.59	86.81
256.823	76.81
257.056	70.81
257.289	84.81
257.521	71.81
257.754	76.81
257.987	76.81
258.22	94.81
258.452	84.81
258.685	82.81
258.918	80.81
259.151	88.81
259.383	85.81
259.616	80.81
259.849	88.81
260.081	77.81
260.314	71.81
260.547	82.81
260.779	86.81
261.012	90.81
261.244	94.81
261.477	81.81
261.71	74.81
261.942	87.81
262.175	93.81
262.407	83.81
262.64	74.81
262.872	78.81
263.105	84.81
263.337	84.81
263.57	75.81
263.802	90.81
264.035	75.81
264.267	80.81
264.499	94.81
264.732	98.81
264.964	80.81
265.197	81.81
265.429	85.81
265.661	69.81
265.894	74.81
266.126	76.81
266.358	84.81
266.591	89.81
266.823	96.81
267.055	78.81
267.287	80.81
267.52	88.81
267.752	84.81
267.984	82.81
268.216	81.81
268.448	84.81
268.681	80.81
268.913	92.81
269.145	99.81
269.377	68.81
269.609	92.81
269.841	76.81
270.073	89.81
270.306	86.81
270.538	85.81
270.77	60.81
271.002	88.81
271.234	85.81
271.466	80.81
271.698	85.81
271.93	76.81
272.162	89.81
272.394	80.81
272.626	90.81
272.858	93.81
273.09	84.81
273.322	85.81
273.553	73.81
273.785	68.81
274.017	78.81
274.249	82.81
274.481	92.81
274.713	98.81
274.945	101.81
275.176	86.81
275.408	88.81
275.64	80.81
275.872	72.81
276.104	92.81
276.335	80.81
276.567	88.81
276.799	107.81
277.031	100.81
277.262	78.81
277.494	86.81
277.726	89.81
277.957	92.81
278.189	69.81
278.421	86.81
278.652	74.81
278.884	82.81
279.115	76.81
279.347	86.81
279.579	86.81
279.81	87.81
280.042	91.81
280.273	91.81
280.505	88.81
280.736	101.81
280.968	95.81
281.199	75.81
281.431	75.81
281.662	76.81
281.894	91.81
282.125	96.81
282.356	94.81
282.588	98.81
282.819	75.81
283.051	98.81
283.282	86.81
283.513	85.81
283.745	75.81
283.976	84.81
284.207	84.81
284.439	83.81
284.67	104.81
284.901	86.81
285.132	89.81
285.364	80.81
285.595	76.81
285.826	71.81
286.057	86.81
286.288	89.81
286.52	82.81
286.751	93.81
286.982	82.81
287.213	86.81
287.444	93.81
287.675	93.81
287.906	83.81
288.138	95.81
288.369	96.81
288.6	78.81
288.831	89.81
289.062	91.81
289.293	90.81
289.524	75.81
289.755	82.81
289.986	86.81
290.217	92.81
290.448	83.81
290.679	87.81
290.91	93.81
291.141	83.81
291.371	83.81
291.602	72.81
291.833	84.81
292.064	89.81
292.295	74.81
292.526	71.81
292.757	85.81
292.987	96.81
293.218	89.81
293.449	82.81
293.68	90.81
293.91	84.81
294.141	84.81
294.372	91.81
294.603	87.81
294.833	105.81
295.064	86.81
295.295	83.81
295.525	98.81
295.756	96.81
295.987	86.81
296.217	114.81
296.448	101.81
296.679	98.81
296.909	98.81
297.14	93.81
297.37	81.81
297.601	91.81
297.831	85.81
298.062	93.81
298.292	72.81
298.523	86.81
298.753	88.81
298.984	100.81
299.214	80.81
299.445	98.81
299.675	96.81
299.905	91.81
300.136	97.81
300.366	80.81
300.597	88.81
300.827	87.81
301.057	97.81
301.288	98.81
301.518	99.81
301.748	95.81
301.979	114.81
302.209	94.81
302.439	102.81
302.669	74.81
302.9	85.81
303.13	97.81
303.36	96.81
303.59	93.81
303.82	86.81
304.051	83.81
304.281	88.81
304.511	78.81
304.741	88.81
304.971	86.81
305.201	72.81
305.431	90.81
305.661	81.81
305.891	90.81
306.121	103.81
306.352	114.81
306.582	84.81
306.812	78.81
307.042	99.81
307.272	94.81
307.502	92.81
307.731	94.81
307.961	98.81
308.191	95.81
308.421	90.81
308.651	104.81
308.881	103.81
309.111	90.81
309.341	88.81
309.571	91.81
309.8	90.81
310.03	94.81
310.26	89.81
310.49	96.81
310.72	83.81
310.949	88.81
311.179	103.81
311.409	89.81
311.639	94.81
311.868	93.81
312.098	92.81
312.328	106.81
312.557	100.81
312.787	102.81
313.017	106.81
313.246	81.81
313.476	84.81
313.706	106.81
313.935	90.81
314.165	95.81
314.394	93.81
314.624	84.81
314.853	106.81
315.083	89.81
315.312	90.81
315.542	95.81
315.771	99.81
316.001	87.81
316.23	101.81
316.46	85.81
316.689	99.81
316.919	92.81
317.148	72.81
317.377	93.81
317.607	96.81
317.836	96.81
318.065	81.81
318.295	94.81
318.524	84.81
318.753	96.81
318.983	89.81
319.212	93.81
319.441	102.81
319.67	114.81
319.9	109.81
320.129	96.81
320.358	81.81
320.587	93.81
320.816	105.81
321.046	102.81
321.275	98.81
321.504	94.81
321.733	94.81
321.962	105.81
322.191	96.81
322.42	88.81
322.649	102.81
322.878	113.81
323.108	78.81
323.337	121.81
323.566	108.81
323.795	135.81
324.024	170.81
324.253	321.81
324.482	630.81
324.71	1216.81
324.939	1632.81
325.168	621.81
325.397	187.81
325.626	134.81
325.855	107.81
326.084	121.81
326.313	113.81
326.542	130.81
326.77	208.81
326.999	384.81
327.228	747.81
327.457	1366.81
327.686	1064.81
327.914	284.81
328.143	138.81
328.372	122.81
328.6	110.81
328.829	103.81
329.058	109.81
329.287	102.81
329.515	110.81
329.744	95.81
329.972	92.81
330.201	110.81
330.43	109.81
330.658	115.81
330.887	97.81
331.115	109.81
331.344	83.81
331.572	102.81
331.801	104.81
332.03	96.81
332.258	84.81
332.486	75.81
332.715	82.81
332.943	94.81
333.172	108.81
333.4	94.81
333.629	95.81
333.857	94.81
334.085	106.81
334.314	105.81
334.542	111.81
334.771	95.81
334.999	92.81
335.227	104.81
335.455	84.81
335.684	98.81
335.912	98.81
336.14	88.81
336.369	88.81
336.597	100.81
336.825	105.81
337.053	87.81
337.281	102.81
337.51	98.81
337.738	103.81
337.966	101.81
338.194	76.81
338.422	94.81
338.65	106.81
338.878	88.81
339.106	82.81
339.334	98.81
339.562	91.81
339.79	90.81
340.018	78.81
340.246	83.81
340.474	101.81
340.702	93.81
340.93	90.81
341.158	102.81
341.386	91.81
341.614	88.81
341.842	89.81
342.07	85.81
342.298	83.81
342.526	83.81
342.754	98.81
342.981	97.81
343.209	73.81
343.437	109.81
343.665	97.81
343.893	90.81
344.12	98.81
344.348	90.81
344.576	94.81
344.804	91.81
345.031	97.81
345.259	98.81
345.487	100.81
345.714	103.81
345.942	92.81
346.17	80.81
346.397	83.81
346.625	75.81
346.853	89.81
347.08	78.81
347.308	82.81
347.535	92.81
347.763	96.81
347.99	82.81
348.218	97.81
348.445	100.81
348.673	93.81
348.9	97.81
349.128	97.81
349.355	104.81
349.583	101.81
349.81	100.81
350.037	90.81
350.265	95.81
350.492	91.81
350.72	76.81
350.947	97.81
351.174	105.81
351.402	109.81
351.629	116.81
351.856	84.81
352.083	99.81
352.311	102.81
352.538	115.81
352.765	93.81
352.992	108.81
353.22	124.81
353.447	107.81
353.674	102.81
353.901	90.81
354.128	106.81
354.355	100.81
354.583	99.81
354.81	90.81
355.037	105.81
355.264	105.81
355.491	92.81
355.718	92.81
355.945	91.81
356.172	114.81
356.399	86.81
356.626	74.81
356.853	101.81
357.08	97.81
357.307	96.81
357.534	100.81
357.761	110.81
357.988	92.81
358.215	108.81
358.441	105.81
358.668	108.81
358.895	89.81
359.122	102.81
359.349	85.81
359.576	109.81
359.802	90.81
360.029	84.81
360.256	90.81
360.483	92.81
360.709	81.81
360.936	85.81
361.163	82.81
361.39	104.81
361.616	96.81
361.843	97.81
362.07	90.81
362.296	93.81
362.523	89.81
362.749	85.81
362.976	76.81
363.203	96.81
363.429	102.81
363.656	87.81
363.882	77.81
364.109	98.81
364.335	86.81
364.562	76.81
364.788	102.81
365.015	86.81
365.241	87.81
365.468	96.81
365.694	105.81
365.92	96.81
366.147	103.81
366.373	82.81
366.599	105.81
366.826	92.81
367.052	86.81
367.278	93.81
367.505	95.81
367.731	95.81
367.957	88.81
368.184	86.81
368.41	94.81
368.636	98.81
368.862	95.81
369.089	102.81
369.315	108.81
369.541	105.81
369.767	92.81
369.993	83.81
370.219	94.81
370.445	77.81
370.672	86.81
370.898	82.81
371.124	97.81
371.35	94.81
371.576	94.81
371.802	88.81
372.028	109.81
372.254	105.81
372.48	94.81
372.706	86.81
372.932	86.81
373.158	82.81
373.384	85.81
373.61	96.81
373.835	99.81
374.061	86.81
374.287	98.81
374.513	82.81
374.739	92.81
374.965	97.81
375.191	86.81
375.416	87.81
375.642	88.81
375.868	94.81
376.094	96.81
376.319	83.81
376.545	81.81
376.771	84.81
376.997	92.81
377.222	101.81
377.448	86.81
377.674	82.81
377.899	108.81
378.125	88.81
378.35	96.81
378.576	89.81
378.802	83.81
379.027	118.81
379.253	97.81
379.478	93.81
379.704	86.81
379.929	96.81
380.155	99.81
380.38	96.81
380.606	92.81
380.831	100.81
381.057	101.81
381.282	94.81
381.507	108.81
381.733	96.81
381.958	111.81
382.184	108.81
382.409	110.81
382.634	107.81
382.86	107.81
383.085	106.81
383.31	120.81
383.535	118.81
383.761	103.81
383.986	112.81
384.211	116.81
384.436	109.81
384.662	109.81
384.887	120.81
385.112	133.81
385.337	144.81
385.562	133.81
385.787	128.81
386.013	136.81
386.238	130.81
386.463	117.81
386.688	114.81
386.913	120.81
387.138	129.81
387.363	125.81
387.588	123.81
387.813	115.81
388.038	148.81
388.263	144.81
388.488	139.81
388.713	109.81
388.938	100.81
389.163	95.81
389.387	104.81
389.612	108.81
389.837	105.81
390.062	99.81
390.287	90.81
390.512	88.81
390.736	91.81
390.961	83.81
391.186	94.81
391.411	82.81
391.636	88.81
391.86	85.81
392.085	93.81
392.31	87.81
392.534	93.81
392.759	90.81
392.984	93.81
393.208	103.81
393.433	92.81
393.658	89.81
393.882	77.81
394.107	99.81
394.331	81.81
394.556	75.81
394.78	99.81
395.005	77.81
395.229	90.81
395.454	96.81
395.678	83.81
395.903	86.81
396.127	99.81
396.352	72.81
396.576	85.81
396.801	99.81
397.025	95.81
397.249	88.81
397.474	84.81
397.698	68.81
397.922	100.81
398.147	93.81
398.371	93.81
398.595	83.81
398.82	88.81
399.044	83.81
399.268	84.81
399.492	83.81
399.717	92.81
399.941	86.81
400.165	88.81
400.389	76.81
400.613	77.81
400.837	93.81
401.062	90.81
401.286	68.81
401.51	95.81
401.734	77.81
401.958	100.81
402.182	112.81
402.406	125.81
402.63	100.81
402.854	87.81
403.078	93.81
403.302	96.81
403.526	80.81
403.75	86.81
403.974	74.81
404.198	90.81
404.422	89.81
404.645	81.81
404.869	78.81
405.093	89.81
405.317	72.81
405.541	95.81
405.765	93.81
405.988	96.81
406.212	133.81
406.436	150.81
406.66	118.81
406.883	82.81
407.107	99.81
407.331	87.81
407.555	96.81
407.778	90.81
408.002	86.81
408.226	96.81
408.449	91.81
408.673	88.81
408.896	93.81
409.12	99.81
409.344	81.81
409.567	90.81
409.791	80.81
410.014	85.81
410.238	97.81
410.461	93.81
410.685	77.81
410.908	97.81
411.132	98.81
411.355	91.81
411.578	88.81
411.802	94.81
412.025	89.81
412.249	86.81
412.472	98.81
412.695	103.81
412.919	89.81
413.142	96.81
413.365	86.81
413.589	85.81
413.812	108.81
414.035	92.81
414.258	97.81
414.482	97.81
414.705	91.81
414.928	93.81
415.151	93.81
415.374	80.81
415.597	92.81
415.821	102.81
416.044	99.81
416.267	98.81
416.49	100.81
416.713	92.81
416.936	97.81
417.159	84.81
417.382	90.81
417.605	89.81
417.828	97.81
418.051	83.81
418.274	95.81
418.497	98.81
418.72	87.81
418.943	89.81
419.166	81.81
419.389	88.81
419.611	101.81
419.834	89.81
420.057	91.81
420.28	79.81
420.503	95.81
420.726	91.81
420.948	85.81
421.171	98.81
421.394	98.81
421.617	81.81
421.839	76.81
422.062	84.81
422.285	98.81
422.507	96.81
422.73	90.81
422.953	77.81
423.175	88.81
423.398	88.81
423.621	89.81
423.843	97.81
424.066	76.81
424.288	74.81
424.511	89.81
424.733	83.81
424.956	82.81
425.178	88.81
425.401	95.81
425.623	98.81
425.846	76.81
426.068	104.81
426.291	89.81
426.513	93.81
426.735	95.81
426.958	86.81
427.18	105.81
427.402	119.81
427.625	114.81
427.847	112.81
428.069	104.81
428.292	76.81
428.514	81.81
428.736	89.81
428.958	92.81
429.181	102.81
429.403	98.81
429.625	96.81
429.847	95.81
430.069	90.81
430.292	89.81
430.514	85.81
430.736	79.81
430.958	73.81
431.18	99.81
431.402	99.81
431.624	82.81
431.846	92.81
432.068	80.81
432.29	97.81
432.512	87.81
432.734	75.81
432.956	90.81
433.178	99.81
433.4	103.81
433.622	103.81
433.844	86.81
434.066	80.81
434.287	93.81
434.509	88.81
434.731	82.81
434.953	83.81
435.175	92.81
435.397	92.81
435.618	100.81
435.84	114.81
436.062	124.81
436.284	94.81
436.505	92.81
436.727	117.81
436.949	104.81
437.17	86.81
437.392	88.81
437.614	88.81
437.835	72.81
438.057	109.81
438.278	93.81
438.5	107.81
438.721	109.81
438.943	101.81
439.165	69.81
439.386	67.81
439.608	84.81
439.829	103.81
440.05	112.81
440.272	113.81
440.493	88.81
440.715	74.81
440.936	94.81
441.158	82.81
441.379	101.81
441.6	101.81
441.822	115.81
442.043	90.81
442.264	96.81
442.486	93.81
442.707	98.81
442.928	102.81
443.149	117.81
443.371	107.81
443.592	86.81
443.813	104.81
444.034	101.81
444.255	98.81
444.476	99.81
444.698	85.81
444.919	88.81
445.14	125.81
445.361	109.81
445.582	114.81
445.803	96.81
446.024	120.81
446.245	120.81
446.466	116.81
446.687	84.81
446.908	90.81
447.129	82.81
447.35	96.81
447.571	92.81
447.792	91.81
448.013	94.81
448.234	94.81
448.455	96.81
448.675	98.81
448.896	101.81
449.117	90.81
449.338	98.81
449.559	109.81
449.779	130.81
450	96.81
450.221	96.81
450.442	100.81
450.662	99.81
450.883	102.81
451.104	107.81
451.324	92.81
451.545	81.81
451.766	65.81
451.986	88.81
452.207	88.81
452.428	91.81
452.648	88.81
452.869	100.81
453.089	101.81
453.31	95.81
453.53	85.81
453.751	92.81
453.971	89.81
454.192	83.81
454.412	86.81
454.633	84.81
454.853	81.81
455.073	94.81
455.294	87.81
455.514	89.81
455.734	73.81
455.955	89.81
456.175	67.81
456.395	84.81
456.616	81.81
456.836	84.81
457.056	84.81
457.276	87.81
457.497	84.81
457.717	68.81
457.937	77.81
458.157	76.81
458.377	98.81
458.598	99.81
458.818	108.81
459.038	120.81
459.258	108.81
459.478	97.81
459.698	80.81
459.918	92.81
460.138	84.81
460.358	89.81
460.578	90.81
460.798	70.81
461.018	86.81
461.238	96.81
461.458	89.81
461.678	72.81
461.898	73.81
462.118	82.81
462.338	81.81
462.558	104.81
462.777	94.81
462.997	80.81
463.217	76.81
463.437	83.81
463.657	83.81
463.876	78.81
464.096	83.81
464.316	84.81
464.536	95.81
464.755	80.81
464.975	86.81
465.195	109.81
465.414	115.81
465.634	86.81
465.854	87.81
466.073	96.81
466.293	82.81
466.512	90.81
466.732	90.81
466.951	87.81
467.171	71.81
467.391	80.81
467.61	108.81
467.829	101.81
468.049	67.81
468.268	96.81
468.488	94.81
468.707	84.81
468.927	87.81
469.146	95.81
469.365	86.81
469.585	84.81
469.804	103.81
470.023	83.81
470.243	94.81
470.462	95.81
470.681	100.81
470.901	83.81
471.12	75.81
471.339	73.81
471.558	90.81
471.777	106.81
471.997	97.81
472.216	103.81
472.435	96.81
472.654	91.81
472.873	84.81
473.092	81.81
473.311	88.81
473.53	95.81
473.749	92.81
473.968	74.81
474.187	99.81
474.406	92.81
474.625	78.81
474.844	84.81
475.063	93.81
475.282	84.81
475.501	96.81
475.72	79.81
475.939	82.81
476.158	93.81
476.377	82.81
476.596	85.81
476.814	74.81
477.033	91.81
477.252	76.81
477.471	91.81
477.69	86.81
477.908	79.81
478.127	103.81
478.346	62.81
478.564	81.81
478.783	100.81
479.002	88.81
479.22	85.81
479.439	96.81
479.658	98.81
479.876	91.81
480.095	94.81
480.313	86.81
480.532	89.81
480.751	110.81
480.969	109.81
481.188	146.81
481.406	116.81
481.624	88.81
481.843	86.81
482.061	79.81
482.28	81.81
482.498	85.81
482.717	88.81
482.935	97.81
483.153	89.81
483.372	86.81
483.59	77.81
483.808	87.81
484.027	92.81
484.245	89.81
484.463	86.81
484.681	99.81
484.9	86.81
485.118	105.81
485.336	92.81
485.554	106.81
485.772	98.81
485.99	114.81
486.209	88.81
486.427	109.81
486.645	103.81
486.863	131.81
487.081	110.81
487.299	116.81
487.517	96.81
487.735	90.81
487.953	88.81
488.171	85.81
488.389	92.81
488.607	90.81
488.825	93.81
489.043	91.81
489.261	106.81
489.479	95.81
489.696	88.81
489.914	102.81
490.132	90.81
490.35	83.81
490.568	94.81
490.786	86.81
491.003	93.81
491.221	87.81
491.439	103.81
491.657	107.81
491.874	96.81
492.092	94.81
492.31	84.81
492.527	83.81
492.745	75.81
492.963	90.81
493.18	91.81
493.398	88.81
493.615	104.81
493.833	91.81
494.05	97.81
494.268	92.81
494.485	68.81
494.703	87.81
494.92	73.81
495.138	96.81
495.355	89.81
495.573	87.81
495.79	91.81
496.008	97.81
496.225	79.81
496.442	96.81
496.66	115.81
496.877	111.81
497.094	95.81
497.312	82.81
497.529	89.81
497.746	85.81
497.963	96.81
498.181	86.81
498.398	91.81
498.615	102.81
498.832	110.81
499.049	98.81
499.267	94.81
499.484	86.81
499.701	93.81
499.918	87.81
500.135	83.81
500.352	94.81
500.569	91.81
500.786	84.81
501.003	97.81
501.22	91.81
501.437	95.81
501.654	71.81
501.871	98.81
502.088	91.81
502.305	90.81
502.522	81.81
502.739	83.81
502.956	86.81
503.172	89.81
503.389	92.81
503.606	93.81
503.823	99.81
504.04	98.81
504.256	91.81
504.473	94.81
504.69	85.81
504.907	84.81
505.123	96.81
505.34	97.81
505.557	81.81
505.773	93.81
505.99	90.81
506.207	80.81
506.423	92.81
506.64	96.81
506.856	100.81
507.073	91.81
507.289	76.81
507.506	92.81
507.722	94.81
507.939	95.81
508.155	79.81
508.372	110.81
508.588	104.81
508.805	94.81
509.021	94.81
509.238	93.81
509.454	92.81
509.67	109.81
509.887	96.81
510.103	124.81
510.319	169.81
510.536	468.81
510.752	1250.81
510.968	377.81
511.184	117.81
511.401	101.81
511.617	88.81
511.833	98.81
512.049	90.81
512.265	98.81
512.481	96.81
512.698	91.81
512.914	82.81
513.13	95.81
513.346	82.81
513.562	88.81
513.778	84.81
513.994	92.81
514.21	99.81
514.426	108.81
514.642	105.81
514.858	92.81
515.074	131.81
515.29	287.81
515.506	786.81
515.721	298.81
515.937	109.81
516.153	101.81
516.369	94.81
