Data from Uncirc_1981_H10_HRD10591_00047.txt Node
Date: Wed Jan 03 12:33:17 EST 2024
User: Yrep
Spectrometer: HR+D1059
Trigger mode: 1
Integration Time (sec): 1.000000E-1
Scans to average: 1
Electric dark correction enabled: true
Nonlinearity correction enabled: false
Boxcar width: 0
XAxis mode: Wavelengths
Number of Pixels in Spectrum: 2048
>>>>>Begin Spectral Data<<<<<
223.165	-7.56
223.4	-7.56
223.635	-7.56
223.869	-17.56
224.104	-14.56
224.338	-7.56
224.573	-18.56
224.808	-15.56
225.042	-23.56
225.277	-5.56
225.511	6.44
225.746	-6.56
225.98	4.44
226.215	24.44
226.449	12.44
226.683	13.44
226.918	27.44
227.152	28.44
227.387	28.44
227.621	54.44
227.856	53.44
228.09	41.44
228.324	53.44
228.559	54.44
228.793	56.44
229.027	44.44
229.262	56.44
229.496	68.44
229.73	84.44
229.964	83.44
230.199	84.44
230.433	73.44
230.667	75.44
230.901	86.44
231.136	84.44
231.37	68.44
231.604	71.44
231.838	76.44
232.072	70.44
232.306	77.44
232.541	79.44
232.775	68.44
233.009	77.44
233.243	90.44
233.477	90.44
233.711	78.44
233.945	81.44
234.179	70.44
234.413	78.44
234.647	92.44
234.881	77.44
235.115	85.44
235.349	84.44
235.583	79.44
235.817	72.44
236.051	82.44
236.285	73.44
236.519	80.44
236.753	73.44
236.987	76.44
237.221	72.44
237.455	68.44
237.689	86.44
237.922	76.44
238.156	75.44
238.39	83.44
238.624	64.44
238.858	69.44
239.091	90.44
239.325	75.44
239.559	77.44
239.793	63.44
240.027	60.44
240.26	78.44
240.494	74.44
240.728	69.44
240.961	71.44
241.195	87.44
241.429	80.44
241.662	67.44
241.896	66.44
242.13	78.44
242.363	74.44
242.597	77.44
242.83	88.44
243.064	82.44
243.298	85.44
243.531	81.44
243.765	84.44
243.998	75.44
244.232	85.44
244.465	75.44
244.699	73.44
244.932	67.44
245.166	76.44
245.399	72.44
245.633	80.44
245.866	70.44
246.099	73.44
246.333	69.44
246.566	77.44
246.8	75.44
247.033	84.44
247.266	84.44
247.5	75.44
247.733	73.44
247.966	60.44
248.2	75.44
248.433	62.44
248.666	73.44
248.899	76.44
249.133	77.44
249.366	88.44
249.599	102.44
249.832	66.44
250.066	70.44
250.299	75.44
250.532	73.44
250.765	76.44
250.998	86.44
251.231	86.44
251.465	68.44
251.698	80.44
251.931	82.44
252.164	85.44
252.397	68.44
252.63	66.44
252.863	65.44
253.096	83.44
253.329	86.44
253.562	84.44
253.795	79.44
254.028	85.44
254.261	66.44
254.494	92.44
254.727	69.44
254.96	84.44
255.193	84.44
255.426	77.44
255.659	70.44
255.892	78.44
256.124	76.44
256.357	78.44
256.59	84.44
256.823	77.44
257.056	65.44
257.289	77.44
257.521	80.44
257.754	72.44
257.987	80.44
258.22	94.44
258.452	76.44
258.685	76.44
258.918	78.44
259.151	85.44
259.383	89.44
259.616	88.44
259.849	88.44
260.081	77.44
260.314	76.44
260.547	79.44
260.779	77.44
261.012	74.44
261.244	84.44
261.477	80.44
261.71	93.44
261.942	106.44
262.175	107.44
262.407	68.44
262.64	86.44
262.872	81.44
263.105	77.44
263.337	94.44
263.57	85.44
263.802	73.44
264.035	59.44
264.267	68.44
264.499	76.44
264.732	82.44
264.964	72.44
265.197	87.44
265.429	72.44
265.661	67.44
265.894	77.44
266.126	82.44
266.358	74.44
266.591	96.44
266.823	77.44
267.055	82.44
267.287	84.44
267.52	87.44
267.752	80.44
267.984	74.44
268.216	80.44
268.448	81.44
268.681	88.44
268.913	84.44
269.145	94.44
269.377	88.44
269.609	76.44
269.841	90.44
270.073	67.44
270.306	84.44
270.538	76.44
270.77	78.44
271.002	76.44
271.234	76.44
271.466	88.44
271.698	68.44
271.93	81.44
272.162	82.44
272.394	86.44
272.626	91.44
272.858	77.44
273.09	83.44
273.322	82.44
273.553	97.44
273.785	84.44
274.017	74.44
274.249	79.44
274.481	81.44
274.713	90.44
274.945	85.44
275.176	87.44
275.408	83.44
275.64	84.44
275.872	83.44
276.104	81.44
276.335	85.44
276.567	93.44
276.799	92.44
277.031	93.44
277.262	81.44
277.494	92.44
277.726	72.44
277.957	81.44
278.189	98.44
278.421	87.44
278.652	70.44
278.884	67.44
279.115	85.44
279.347	92.44
279.579	83.44
279.81	97.44
280.042	82.44
280.273	90.44
280.505	89.44
280.736	80.44
280.968	86.44
281.199	83.44
281.431	96.44
281.662	97.44
281.894	75.44
282.125	96.44
282.356	116.44
282.588	122.44
282.819	110.44
283.051	105.44
283.282	86.44
283.513	88.44
283.745	75.44
283.976	80.44
284.207	90.44
284.439	86.44
284.67	82.44
284.901	95.44
285.132	83.44
285.364	77.44
285.595	75.44
285.826	94.44
286.057	95.44
286.288	88.44
286.52	71.44
286.751	92.44
286.982	99.44
287.213	77.44
287.444	95.44
287.675	82.44
287.906	71.44
288.138	96.44
288.369	87.44
288.6	90.44
288.831	78.44
289.062	78.44
289.293	76.44
289.524	93.44
289.755	95.44
289.986	84.44
290.217	78.44
290.448	82.44
290.679	72.44
290.91	85.44
291.141	80.44
291.371	81.44
291.602	97.44
291.833	80.44
292.064	75.44
292.295	85.44
292.526	73.44
292.757	88.44
292.987	81.44
293.218	83.44
293.449	76.44
293.68	88.44
293.91	90.44
294.141	100.44
294.372	90.44
294.603	88.44
294.833	83.44
295.064	84.44
295.295	76.44
295.525	83.44
295.756	84.44
295.987	104.44
296.217	124.44
296.448	119.44
296.679	91.44
296.909	86.44
297.14	91.44
297.37	91.44
297.601	96.44
297.831	91.44
298.062	80.44
298.292	81.44
298.523	86.44
298.753	84.44
298.984	82.44
299.214	93.44
299.445	87.44
299.675	84.44
299.905	97.44
300.136	95.44
300.366	88.44
300.597	82.44
300.827	97.44
301.057	88.44
301.288	100.44
301.518	90.44
301.748	95.44
301.979	83.44
302.209	80.44
302.439	89.44
302.669	90.44
302.9	78.44
303.13	90.44
303.36	76.44
303.59	109.44
303.82	109.44
304.051	92.44
304.281	94.44
304.511	96.44
304.741	80.44
304.971	103.44
305.201	100.44
305.431	80.44
305.661	77.44
305.891	84.44
306.121	102.44
306.352	89.44
306.582	98.44
306.812	85.44
307.042	94.44
307.272	83.44
307.502	80.44
307.731	108.44
307.961	99.44
308.191	86.44
308.421	89.44
308.651	80.44
308.881	90.44
309.111	90.44
309.341	97.44
309.571	93.44
309.8	101.44
310.03	100.44
310.26	92.44
310.49	81.44
310.72	93.44
310.949	96.44
311.179	102.44
311.409	89.44
311.639	91.44
311.868	87.44
312.098	85.44
312.328	76.44
312.557	92.44
312.787	104.44
313.017	94.44
313.246	100.44
313.476	93.44
313.706	74.44
313.935	89.44
314.165	92.44
314.394	100.44
314.624	97.44
314.853	112.44
315.083	93.44
315.312	104.44
315.542	93.44
315.771	92.44
316.001	78.44
316.23	86.44
316.46	87.44
316.689	98.44
316.919	89.44
317.148	90.44
317.377	101.44
317.607	86.44
317.836	101.44
318.065	89.44
318.295	74.44
318.524	86.44
318.753	93.44
318.983	93.44
319.212	87.44
319.441	98.44
319.67	108.44
319.9	101.44
320.129	93.44
320.358	95.44
320.587	102.44
320.816	93.44
321.046	108.44
321.275	96.44
321.504	81.44
321.733	91.44
321.962	100.44
322.191	100.44
322.42	103.44
322.649	112.44
322.878	106.44
323.108	117.44
323.337	118.44
323.566	114.44
323.795	141.44
324.024	186.44
324.253	372.44
324.482	795.44
324.71	1646.44
324.939	2202.44
325.168	786.44
325.397	236.44
325.626	138.44
325.855	126.44
326.084	125.44
326.313	122.44
326.542	161.44
326.77	212.44
326.999	428.44
327.228	925.44
327.457	1733.44
327.686	1361.44
327.914	360.44
328.143	184.44
328.372	139.44
328.6	130.44
328.829	103.44
329.058	121.44
329.287	119.44
329.515	110.44
329.744	109.44
329.972	107.44
330.201	110.44
330.43	126.44
330.658	116.44
330.887	122.44
331.115	113.44
331.344	99.44
331.572	86.44
331.801	104.44
332.03	72.44
332.258	88.44
332.486	98.44
332.715	99.44
332.943	91.44
333.172	90.44
333.4	100.44
333.629	83.44
333.857	110.44
334.085	100.44
334.314	109.44
334.542	119.44
334.771	125.44
334.999	91.44
335.227	78.44
335.455	94.44
335.684	86.44
335.912	86.44
336.14	93.44
336.369	98.44
336.597	90.44
336.825	93.44
337.053	86.44
337.281	88.44
337.51	93.44
337.738	87.44
337.966	88.44
338.194	75.44
338.422	108.44
338.65	95.44
338.878	107.44
339.106	103.44
339.334	93.44
339.562	84.44
339.79	93.44
340.018	92.44
340.246	105.44
340.474	99.44
340.702	70.44
340.93	93.44
341.158	81.44
341.386	88.44
341.614	96.44
341.842	86.44
342.07	85.44
342.298	82.44
342.526	93.44
342.754	89.44
342.981	95.44
343.209	81.44
343.437	111.44
343.665	85.44
343.893	90.44
344.12	99.44
344.348	90.44
344.576	93.44
344.804	86.44
345.031	94.44
345.259	90.44
345.487	93.44
345.714	99.44
345.942	84.44
346.17	82.44
346.397	86.44
346.625	94.44
346.853	79.44
347.08	98.44
347.308	86.44
347.535	90.44
347.763	102.44
347.99	104.44
348.218	111.44
348.445	108.44
348.673	101.44
348.9	92.44
349.128	104.44
349.355	94.44
349.583	92.44
349.81	96.44
350.037	97.44
350.265	92.44
350.492	73.44
350.72	105.44
350.947	104.44
351.174	110.44
351.402	102.44
351.629	110.44
351.856	92.44
352.083	98.44
352.311	106.44
352.538	105.44
352.765	119.44
352.992	111.44
353.22	113.44
353.447	104.44
353.674	97.44
353.901	99.44
354.128	99.44
354.355	104.44
354.583	89.44
354.81	101.44
355.037	111.44
355.264	98.44
355.491	99.44
355.718	109.44
355.945	104.44
356.172	116.44
356.399	87.44
356.626	104.44
356.853	100.44
357.08	101.44
357.307	93.44
357.534	87.44
357.761	96.44
357.988	101.44
358.215	109.44
358.441	101.44
358.668	93.44
358.895	112.44
359.122	87.44
359.349	89.44
359.576	89.44
359.802	85.44
360.029	101.44
360.256	107.44
360.483	91.44
360.709	107.44
360.936	89.44
361.163	115.44
361.39	98.44
361.616	104.44
361.843	75.44
362.07	108.44
362.296	98.44
362.523	88.44
362.749	83.44
362.976	88.44
363.203	82.44
363.429	82.44
363.656	94.44
363.882	93.44
364.109	81.44
364.335	100.44
364.562	97.44
364.788	89.44
365.015	90.44
365.241	97.44
365.468	98.44
365.694	100.44
365.92	87.44
366.147	89.44
366.373	86.44
366.599	93.44
366.826	95.44
367.052	81.44
367.278	82.44
367.505	88.44
367.731	102.44
367.957	82.44
368.184	92.44
368.41	102.44
368.636	99.44
368.862	119.44
369.089	99.44
369.315	91.44
369.541	95.44
369.767	76.44
369.993	85.44
370.219	82.44
370.445	92.44
370.672	92.44
370.898	88.44
371.124	72.44
371.35	93.44
371.576	80.44
371.802	94.44
372.028	88.44
372.254	90.44
372.48	93.44
372.706	89.44
372.932	88.44
373.158	76.44
373.384	80.44
373.61	105.44
373.835	86.44
374.061	85.44
374.287	93.44
374.513	96.44
374.739	94.44
374.965	102.44
375.191	86.44
375.416	79.44
375.642	77.44
375.868	77.44
376.094	96.44
376.319	95.44
376.545	97.44
376.771	89.44
376.997	96.44
377.222	89.44
377.448	96.44
377.674	101.44
377.899	91.44
378.125	79.44
378.35	90.44
378.576	100.44
378.802	65.44
379.027	99.44
379.253	96.44
379.478	98.44
379.704	76.44
379.929	91.44
380.155	90.44
380.38	98.44
380.606	97.44
380.831	99.44
381.057	93.44
381.282	74.44
381.507	92.44
381.733	98.44
381.958	98.44
382.184	116.44
382.409	98.44
382.634	110.44
382.86	102.44
383.085	97.44
383.31	105.44
383.535	89.44
383.761	91.44
383.986	96.44
384.211	92.44
384.436	99.44
384.662	103.44
384.887	111.44
385.112	111.44
385.337	114.44
385.562	97.44
385.787	119.44
386.013	124.44
386.238	123.44
386.463	110.44
386.688	112.44
386.913	112.44
387.138	101.44
387.363	100.44
387.588	96.44
387.813	107.44
388.038	100.44
388.263	110.44
388.488	110.44
388.713	101.44
388.938	89.44
389.163	84.44
389.387	94.44
389.612	105.44
389.837	99.44
390.062	96.44
390.287	87.44
390.512	101.44
390.736	94.44
390.961	99.44
391.186	88.44
391.411	92.44
391.636	88.44
391.86	98.44
392.085	89.44
392.31	98.44
392.534	99.44
392.759	82.44
392.984	95.44
393.208	105.44
393.433	95.44
393.658	87.44
393.882	83.44
394.107	88.44
394.331	90.44
394.556	89.44
394.78	107.44
395.005	94.44
395.229	101.44
395.454	74.44
395.678	91.44
395.903	81.44
396.127	97.44
396.352	81.44
396.576	90.44
396.801	83.44
397.025	82.44
397.249	77.44
397.474	84.44
397.698	85.44
397.922	76.44
398.147	96.44
398.371	76.44
398.595	97.44
398.82	96.44
399.044	92.44
399.268	89.44
399.492	83.44
399.717	93.44
399.941	92.44
400.165	97.44
400.389	87.44
400.613	94.44
400.837	90.44
401.062	66.44
401.286	96.44
401.51	101.44
401.734	82.44
401.958	104.44
402.182	121.44
402.406	124.44
402.63	108.44
402.854	90.44
403.078	97.44
403.302	97.44
403.526	82.44
403.75	91.44
403.974	96.44
404.198	91.44
404.422	77.44
404.645	98.44
404.869	91.44
405.093	98.44
405.317	106.44
405.541	91.44
405.765	94.44
405.988	121.44
406.212	143.44
406.436	190.44
406.66	130.44
406.883	94.44
407.107	76.44
407.331	93.44
407.555	79.44
407.778	103.44
408.002	93.44
408.226	99.44
408.449	89.44
408.673	101.44
408.896	104.44
409.12	84.44
409.344	76.44
409.567	100.44
409.791	90.44
410.014	103.44
410.238	96.44
410.461	87.44
410.685	89.44
410.908	94.44
411.132	84.44
411.355	91.44
411.578	92.44
411.802	83.44
412.025	85.44
412.249	89.44
412.472	101.44
412.695	107.44
412.919	87.44
413.142	75.44
413.365	92.44
413.589	89.44
413.812	89.44
414.035	104.44
414.258	98.44
414.482	93.44
414.705	105.44
414.928	92.44
415.151	94.44
415.374	97.44
415.597	92.44
415.821	94.44
416.044	92.44
416.267	92.44
416.49	97.44
416.713	92.44
416.936	88.44
417.159	85.44
417.382	91.44
417.605	85.44
417.828	97.44
418.051	88.44
418.274	88.44
418.497	72.44
418.72	83.44
418.943	88.44
419.166	78.44
419.389	100.44
419.611	108.44
419.834	74.44
420.057	81.44
420.28	88.44
420.503	85.44
420.726	88.44
420.948	81.44
421.171	93.44
421.394	95.44
421.617	84.44
421.839	93.44
422.062	94.44
422.285	85.44
422.507	102.44
422.73	92.44
422.953	94.44
423.175	91.44
423.398	90.44
423.621	106.44
423.843	88.44
424.066	98.44
424.288	102.44
424.511	86.44
424.733	105.44
424.956	101.44
425.178	95.44
425.401	93.44
425.623	84.44
425.846	87.44
426.068	87.44
426.291	90.44
426.513	93.44
426.735	79.44
426.958	75.44
427.18	109.44
427.402	142.44
427.625	149.44
427.847	127.44
428.069	112.44
428.292	100.44
428.514	81.44
428.736	73.44
428.958	70.44
429.181	96.44
429.403	94.44
429.625	90.44
429.847	86.44
430.069	101.44
430.292	93.44
430.514	80.44
430.736	67.44
430.958	82.44
431.18	84.44
431.402	78.44
431.624	69.44
431.846	84.44
432.068	85.44
432.29	102.44
432.512	80.44
432.734	86.44
432.956	113.44
433.178	112.44
433.4	98.44
433.622	92.44
433.844	87.44
434.066	92.44
434.287	86.44
434.509	90.44
434.731	90.44
434.953	84.44
435.175	100.44
435.397	96.44
435.618	92.44
435.84	106.44
436.062	114.44
436.284	125.44
436.505	86.44
436.727	118.44
436.949	94.44
437.17	96.44
437.392	81.44
437.614	107.44
437.835	96.44
438.057	112.44
438.278	103.44
438.5	112.44
438.721	110.44
438.943	81.44
439.165	75.44
439.386	92.44
439.608	97.44
439.829	93.44
440.05	114.44
440.272	134.44
440.493	102.44
440.715	98.44
440.936	106.44
441.158	93.44
441.379	79.44
441.6	85.44
441.822	91.44
442.043	92.44
442.264	99.44
442.486	92.44
442.707	96.44
442.928	100.44
443.149	113.44
443.371	125.44
443.592	105.44
443.813	110.44
444.034	113.44
444.255	93.44
444.476	87.44
444.698	88.44
444.919	92.44
445.14	124.44
445.361	138.44
445.582	107.44
445.803	128.44
446.024	120.44
446.245	135.44
446.466	114.44
446.687	88.44
446.908	91.44
447.129	97.44
447.35	89.44
447.571	80.44
447.792	105.44
448.013	90.44
448.234	106.44
448.455	102.44
448.675	114.44
448.896	125.44
449.117	100.44
449.338	109.44
449.559	125.44
449.779	139.44
450	96.44
450.221	88.44
450.442	97.44
450.662	97.44
450.883	105.44
451.104	100.44
451.324	101.44
451.545	91.44
451.766	99.44
451.986	82.44
452.207	96.44
452.428	90.44
452.648	87.44
452.869	112.44
453.089	118.44
453.31	110.44
453.53	92.44
453.751	89.44
453.971	100.44
454.192	96.44
454.412	91.44
454.633	93.44
454.853	90.44
455.073	83.44
455.294	87.44
455.514	97.44
455.734	95.44
455.955	95.44
456.175	75.44
456.395	85.44
456.616	91.44
456.836	82.44
457.056	90.44
457.276	82.44
457.497	76.44
457.717	82.44
457.937	80.44
458.157	86.44
458.377	74.44
458.598	91.44
458.818	129.44
459.038	150.44
459.258	106.44
459.478	92.44
459.698	83.44
459.918	93.44
460.138	77.44
460.358	83.44
460.578	83.44
460.798	95.44
461.018	92.44
461.238	82.44
461.458	87.44
461.678	71.44
461.898	81.44
462.118	70.44
462.338	74.44
462.558	84.44
462.777	82.44
462.997	87.44
463.217	92.44
463.437	96.44
463.657	77.44
463.876	102.44
464.096	94.44
464.316	89.44
464.536	90.44
464.755	101.44
464.975	97.44
465.195	149.44
465.414	130.44
465.634	106.44
465.854	96.44
466.073	81.44
466.293	70.44
466.512	72.44
466.732	80.44
466.951	78.44
467.171	103.44
467.391	92.44
467.61	92.44
467.829	105.44
468.049	98.44
468.268	106.44
468.488	103.44
468.707	89.44
468.927	83.44
469.146	90.44
469.365	76.44
469.585	101.44
469.804	92.44
470.023	91.44
470.243	90.44
470.462	95.44
470.681	89.44
470.901	85.44
471.12	95.44
471.339	84.44
471.558	81.44
471.777	93.44
471.997	87.44
472.216	97.44
472.435	132.44
472.654	105.44
472.873	89.44
473.092	91.44
473.311	88.44
473.53	81.44
473.749	81.44
473.968	98.44
474.187	96.44
474.406	82.44
474.625	95.44
474.844	86.44
475.063	83.44
475.282	90.44
475.501	91.44
475.72	96.44
475.939	91.44
476.158	105.44
476.377	85.44
476.596	84.44
476.814	84.44
477.033	104.44
477.252	97.44
477.471	95.44
477.69	85.44
477.908	82.44
478.127	92.44
478.346	84.44
478.564	96.44
478.783	95.44
479.002	89.44
479.22	99.44
479.439	96.44
479.658	100.44
479.876	88.44
480.095	76.44
480.313	87.44
480.532	85.44
480.751	87.44
480.969	107.44
481.188	198.44
481.406	142.44
481.624	86.44
481.843	82.44
482.061	91.44
482.28	105.44
482.498	87.44
482.717	75.44
482.935	92.44
483.153	83.44
483.372	86.44
483.59	89.44
483.808	96.44
484.027	82.44
484.245	83.44
484.463	89.44
484.681	102.44
484.9	82.44
485.118	89.44
485.336	105.44
485.554	95.44
485.772	96.44
485.99	99.44
486.209	104.44
486.427	95.44
486.645	108.44
486.863	92.44
487.081	96.44
487.299	85.44
487.517	88.44
487.735	97.44
487.953	103.44
488.171	86.44
488.389	90.44
488.607	104.44
488.825	104.44
489.043	81.44
489.261	88.44
489.479	83.44
489.696	92.44
489.914	91.44
490.132	96.44
490.35	86.44
490.568	96.44
490.786	76.44
491.003	88.44
491.221	90.44
491.439	95.44
491.657	88.44
491.874	88.44
492.092	93.44
492.31	94.44
492.527	93.44
492.745	92.44
492.963	88.44
493.18	96.44
493.398	86.44
493.615	81.44
493.833	91.44
494.05	84.44
494.268	101.44
494.485	93.44
494.703	84.44
494.92	91.44
495.138	91.44
495.355	96.44
495.573	84.44
495.79	88.44
496.008	87.44
496.225	98.44
496.442	93.44
496.66	98.44
496.877	97.44
497.094	101.44
497.312	91.44
497.529	74.44
497.746	82.44
497.963	86.44
498.181	85.44
498.398	92.44
498.615	96.44
498.832	100.44
499.049	102.44
499.267	70.44
499.484	76.44
499.701	76.44
499.918	102.44
500.135	89.44
500.352	92.44
500.569	100.44
500.786	92.44
501.003	89.44
501.22	93.44
501.437	89.44
501.654	87.44
501.871	113.44
502.088	95.44
502.305	82.44
502.522	85.44
502.739	90.44
502.956	85.44
503.172	84.44
503.389	92.44
503.606	103.44
503.823	90.44
504.04	91.44
504.256	103.44
504.473	92.44
504.69	100.44
504.907	100.44
505.123	95.44
505.34	89.44
505.557	98.44
505.773	92.44
505.99	82.44
506.207	85.44
506.423	81.44
506.64	90.44
506.856	90.44
507.073	84.44
507.289	99.44
507.506	105.44
507.722	103.44
507.939	98.44
508.155	78.44
508.372	88.44
508.588	80.44
508.805	84.44
509.021	90.44
509.238	105.44
509.454	100.44
509.67	98.44
509.887	97.44
510.103	124.44
510.319	203.44
510.536	673.44
510.752	1992.44
510.968	540.44
511.184	140.44
511.401	109.44
511.617	98.44
511.833	86.44
512.049	93.44
512.265	92.44
512.481	99.44
512.698	95.44
512.914	83.44
513.13	87.44
513.346	102.44
513.562	102.44
513.778	83.44
513.994	95.44
514.21	97.44
514.426	116.44
514.642	135.44
514.858	121.44
515.074	152.44
515.29	383.44
515.506	1234.44
515.721	439.44
515.937	132.44
