Data from Uncirc_1981_H10_HRD10591_00008.txt Node
Date: Wed Jan 03 12:33:09 EST 2024
User: Yrep
Spectrometer: HR+D1059
Trigger mode: 1
Integration Time (sec): 1.000000E-1
Scans to average: 1
Electric dark correction enabled: true
Nonlinearity correction enabled: false
Boxcar width: 0
XAxis mode: Wavelengths
Number of Pixels in Spectrum: 2048
>>>>>Begin Spectral Data<<<<<
223.165	-8.12
223.4	-8.12
223.635	-8.12
223.869	-17.12
224.104	-24.12
224.338	-19.12
224.573	-11.12
224.808	-23.12
225.042	-13.12
225.277	-0.12
225.511	-11.12
225.746	1.88
225.98	13.88
226.215	13.88
226.449	24.88
226.683	18.88
226.918	19.88
227.152	33.88
227.387	25.88
227.621	29.88
227.856	53.88
228.09	48.88
228.324	41.88
228.559	37.88
228.793	50.88
229.027	59.88
229.262	60.88
229.496	66.88
229.73	77.88
229.964	55.88
230.199	60.88
230.433	54.88
230.667	73.88
230.901	75.88
231.136	71.88
231.37	72.88
231.604	69.88
231.838	82.88
232.072	80.88
232.306	86.88
232.541	78.88
232.775	80.88
233.009	79.88
233.243	79.88
233.477	72.88
233.711	59.88
233.945	75.88
234.179	71.88
234.413	84.88
234.647	85.88
234.881	86.88
235.115	69.88
235.349	74.88
235.583	68.88
235.817	72.88
236.051	67.88
236.285	73.88
236.519	83.88
236.753	66.88
236.987	70.88
237.221	83.88
237.455	80.88
237.689	85.88
237.922	78.88
238.156	81.88
238.39	67.88
238.624	71.88
238.858	72.88
239.091	73.88
239.325	63.88
239.559	87.88
239.793	74.88
240.027	71.88
240.26	86.88
240.494	65.88
240.728	78.88
240.961	81.88
241.195	85.88
241.429	68.88
241.662	73.88
241.896	72.88
242.13	61.88
242.363	91.88
242.597	79.88
242.83	74.88
243.064	71.88
243.298	84.88
243.531	69.88
243.765	66.88
243.998	89.88
244.232	75.88
244.465	79.88
244.699	96.88
244.932	66.88
245.166	83.88
245.399	94.88
245.633	83.88
245.866	78.88
246.099	72.88
246.333	79.88
246.566	69.88
246.8	83.88
247.033	78.88
247.266	74.88
247.5	73.88
247.733	80.88
247.966	68.88
248.2	90.88
248.433	72.88
248.666	81.88
248.899	85.88
249.133	70.88
249.366	78.88
249.599	91.88
249.832	65.88
250.066	91.88
250.299	82.88
250.532	79.88
250.765	73.88
250.998	74.88
251.231	79.88
251.465	72.88
251.698	85.88
251.931	81.88
252.164	80.88
252.397	77.88
252.63	80.88
252.863	79.88
253.096	75.88
253.329	81.88
253.562	78.88
253.795	96.88
254.028	82.88
254.261	69.88
254.494	80.88
254.727	85.88
254.96	80.88
255.193	86.88
255.426	65.88
255.659	77.88
255.892	81.88
256.124	81.88
256.357	91.88
256.59	77.88
256.823	74.88
257.056	63.88
257.289	79.88
257.521	75.88
257.754	79.88
257.987	81.88
258.22	78.88
258.452	72.88
258.685	89.88
258.918	83.88
259.151	67.88
259.383	82.88
259.616	83.88
259.849	71.88
260.081	81.88
260.314	82.88
260.547	72.88
260.779	86.88
261.012	73.88
261.244	69.88
261.477	70.88
261.71	83.88
261.942	87.88
262.175	100.88
262.407	79.88
262.64	78.88
262.872	87.88
263.105	78.88
263.337	70.88
263.57	74.88
263.802	73.88
264.035	80.88
264.267	79.88
264.499	80.88
264.732	89.88
264.964	82.88
265.197	78.88
265.429	77.88
265.661	79.88
265.894	80.88
266.126	67.88
266.358	95.88
266.591	78.88
266.823	81.88
267.055	80.88
267.287	73.88
267.52	70.88
267.752	78.88
267.984	90.88
268.216	81.88
268.448	90.88
268.681	74.88
268.913	66.88
269.145	89.88
269.377	101.88
269.609	73.88
269.841	86.88
270.073	77.88
270.306	80.88
270.538	83.88
270.77	90.88
271.002	80.88
271.234	70.88
271.466	77.88
271.698	75.88
271.93	82.88
272.162	85.88
272.394	81.88
272.626	93.88
272.858	82.88
273.09	75.88
273.322	81.88
273.553	81.88
273.785	77.88
274.017	75.88
274.249	79.88
274.481	85.88
274.713	95.88
274.945	69.88
275.176	86.88
275.408	88.88
275.64	82.88
275.872	66.88
276.104	78.88
276.335	89.88
276.567	97.88
276.799	97.88
277.031	77.88
277.262	92.88
277.494	91.88
277.726	77.88
277.957	72.88
278.189	78.88
278.421	85.88
278.652	72.88
278.884	96.88
279.115	84.88
279.347	83.88
279.579	91.88
279.81	87.88
280.042	82.88
280.273	70.88
280.505	67.88
280.736	68.88
280.968	73.88
281.199	83.88
281.431	79.88
281.662	91.88
281.894	87.88
282.125	87.88
282.356	88.88
282.588	105.88
282.819	96.88
283.051	100.88
283.282	87.88
283.513	81.88
283.745	85.88
283.976	97.88
284.207	74.88
284.439	90.88
284.67	95.88
284.901	84.88
285.132	95.88
285.364	92.88
285.595	93.88
285.826	94.88
286.057	81.88
286.288	81.88
286.52	70.88
286.751	77.88
286.982	67.88
287.213	84.88
287.444	81.88
287.675	83.88
287.906	86.88
288.138	83.88
288.369	90.88
288.6	89.88
288.831	80.88
289.062	71.88
289.293	77.88
289.524	81.88
289.755	86.88
289.986	91.88
290.217	90.88
290.448	83.88
290.679	78.88
290.91	80.88
291.141	87.88
291.371	87.88
291.602	94.88
291.833	83.88
292.064	83.88
292.295	76.88
292.526	81.88
292.757	89.88
292.987	89.88
293.218	83.88
293.449	99.88
293.68	85.88
293.91	77.88
294.141	69.88
294.372	88.88
294.603	93.88
294.833	78.88
295.064	88.88
295.295	94.88
295.525	98.88
295.756	90.88
295.987	118.88
296.217	114.88
296.448	101.88
296.679	76.88
296.909	89.88
297.14	98.88
297.37	81.88
297.601	87.88
297.831	83.88
298.062	92.88
298.292	68.88
298.523	82.88
298.753	78.88
298.984	106.88
299.214	100.88
299.445	90.88
299.675	78.88
299.905	90.88
300.136	82.88
300.366	87.88
300.597	93.88
300.827	82.88
301.057	101.88
301.288	80.88
301.518	84.88
301.748	88.88
301.979	97.88
302.209	82.88
302.439	78.88
302.669	77.88
302.9	84.88
303.13	79.88
303.36	109.88
303.59	97.88
303.82	98.88
304.051	76.88
304.281	74.88
304.511	88.88
304.741	77.88
304.971	85.88
305.201	80.88
305.431	81.88
305.661	75.88
305.891	69.88
306.121	77.88
306.352	91.88
306.582	92.88
306.812	85.88
307.042	83.88
307.272	83.88
307.502	89.88
307.731	91.88
307.961	90.88
308.191	90.88
308.421	85.88
308.651	95.88
308.881	82.88
309.111	98.88
309.341	88.88
309.571	91.88
309.8	97.88
310.03	90.88
310.26	90.88
310.49	87.88
310.72	98.88
310.949	84.88
311.179	78.88
311.409	83.88
311.639	73.88
311.868	93.88
312.098	84.88
312.328	111.88
312.557	105.88
312.787	89.88
313.017	106.88
313.246	87.88
313.476	95.88
313.706	88.88
313.935	97.88
314.165	87.88
314.394	86.88
314.624	96.88
314.853	88.88
315.083	85.88
315.312	87.88
315.542	87.88
315.771	88.88
316.001	82.88
316.23	94.88
316.46	91.88
316.689	85.88
316.919	83.88
317.148	90.88
317.377	93.88
317.607	84.88
317.836	80.88
318.065	94.88
318.295	86.88
318.524	80.88
318.753	109.88
318.983	86.88
319.212	93.88
319.441	101.88
319.67	94.88
319.9	98.88
320.129	83.88
320.358	71.88
320.587	81.88
320.816	93.88
321.046	99.88
321.275	84.88
321.504	78.88
321.733	96.88
321.962	89.88
322.191	100.88
322.42	90.88
322.649	91.88
322.878	90.88
323.108	124.88
323.337	99.88
323.566	119.88
323.795	126.88
324.024	169.88
324.253	307.88
324.482	646.88
324.71	1323.88
324.939	1765.88
325.168	635.88
325.397	200.88
325.626	123.88
325.855	125.88
326.084	100.88
326.313	112.88
326.542	132.88
326.77	177.88
326.999	363.88
327.228	759.88
327.457	1375.88
327.686	1109.88
327.914	298.88
328.143	157.88
328.372	117.88
328.6	91.88
328.829	101.88
329.058	103.88
329.287	104.88
329.515	100.88
329.744	83.88
329.972	100.88
330.201	120.88
330.43	113.88
330.658	98.88
330.887	99.88
331.115	99.88
331.344	96.88
331.572	91.88
331.801	96.88
332.03	101.88
332.258	99.88
332.486	93.88
332.715	79.88
332.943	89.88
333.172	96.88
333.4	94.88
333.629	85.88
333.857	83.88
334.085	83.88
334.314	94.88
334.542	109.88
334.771	106.88
334.999	90.88
335.227	85.88
335.455	88.88
335.684	91.88
335.912	93.88
336.14	99.88
336.369	93.88
336.597	99.88
336.825	93.88
337.053	82.88
337.281	75.88
337.51	99.88
337.738	86.88
337.966	97.88
338.194	94.88
338.422	81.88
338.65	87.88
338.878	77.88
339.106	93.88
339.334	89.88
339.562	109.88
339.79	105.88
340.018	84.88
340.246	74.88
340.474	83.88
340.702	85.88
340.93	87.88
341.158	79.88
341.386	92.88
341.614	75.88
341.842	69.88
342.07	87.88
342.298	88.88
342.526	86.88
342.754	70.88
342.981	71.88
343.209	91.88
343.437	99.88
343.665	86.88
343.893	80.88
344.12	91.88
344.348	79.88
344.576	74.88
344.804	74.88
345.031	88.88
345.259	99.88
345.487	102.88
345.714	93.88
345.942	81.88
346.17	89.88
346.397	83.88
346.625	89.88
346.853	98.88
347.08	81.88
347.308	89.88
347.535	81.88
347.763	90.88
347.99	90.88
348.218	102.88
348.445	93.88
348.673	99.88
348.9	82.88
349.128	108.88
349.355	95.88
349.583	101.88
349.81	83.88
350.037	89.88
350.265	93.88
350.492	92.88
350.72	95.88
350.947	87.88
351.174	108.88
351.402	97.88
351.629	105.88
351.856	106.88
352.083	97.88
352.311	91.88
352.538	102.88
352.765	103.88
352.992	95.88
353.22	100.88
353.447	99.88
353.674	98.88
353.901	97.88
354.128	75.88
354.355	105.88
354.583	109.88
354.81	105.88
355.037	99.88
355.264	81.88
355.491	94.88
355.718	105.88
355.945	93.88
356.172	90.88
356.399	95.88
356.626	85.88
356.853	105.88
357.08	89.88
357.307	92.88
357.534	89.88
357.761	96.88
357.988	89.88
358.215	105.88
358.441	99.88
358.668	105.88
358.895	93.88
359.122	95.88
359.349	99.88
359.576	83.88
359.802	83.88
360.029	106.88
360.256	102.88
360.483	93.88
360.709	97.88
360.936	97.88
361.163	77.88
361.39	85.88
361.616	78.88
361.843	82.88
362.07	84.88
362.296	103.88
362.523	86.88
362.749	90.88
362.976	82.88
363.203	87.88
363.429	74.88
363.656	102.88
363.882	89.88
364.109	94.88
364.335	93.88
364.562	85.88
364.788	90.88
365.015	89.88
365.241	86.88
365.468	78.88
365.694	90.88
365.92	95.88
366.147	81.88
366.373	83.88
366.599	72.88
366.826	68.88
367.052	83.88
367.278	97.88
367.505	87.88
367.731	82.88
367.957	78.88
368.184	70.88
368.41	86.88
368.636	105.88
368.862	90.88
369.089	74.88
369.315	83.88
369.541	87.88
369.767	85.88
369.993	79.88
370.219	89.88
370.445	88.88
370.672	86.88
370.898	100.88
371.124	95.88
371.35	77.88
371.576	85.88
371.802	92.88
372.028	95.88
372.254	86.88
372.48	99.88
372.706	89.88
372.932	91.88
373.158	91.88
373.384	89.88
373.61	87.88
373.835	87.88
374.061	94.88
374.287	97.88
374.513	79.88
374.739	85.88
374.965	82.88
375.191	85.88
375.416	84.88
375.642	98.88
375.868	105.88
376.094	103.88
376.319	97.88
376.545	89.88
376.771	91.88
376.997	100.88
377.222	88.88
377.448	99.88
377.674	93.88
377.899	97.88
378.125	99.88
378.35	84.88
378.576	87.88
378.802	92.88
379.027	109.88
379.253	97.88
379.478	89.88
379.704	95.88
379.929	88.88
380.155	85.88
380.38	90.88
380.606	93.88
380.831	106.88
381.057	101.88
381.282	96.88
381.507	104.88
381.733	102.88
381.958	119.88
382.184	97.88
382.409	112.88
382.634	120.88
382.86	117.88
383.085	111.88
383.31	108.88
383.535	117.88
383.761	109.88
383.986	122.88
384.211	129.88
384.436	114.88
384.662	118.88
384.887	125.88
385.112	123.88
385.337	144.88
385.562	133.88
385.787	129.88
386.013	134.88
386.238	137.88
386.463	138.88
386.688	137.88
386.913	131.88
387.138	134.88
387.363	132.88
387.588	122.88
387.813	118.88
388.038	127.88
388.263	156.88
388.488	143.88
388.713	102.88
388.938	100.88
389.163	74.88
389.387	90.88
389.612	93.88
389.837	88.88
390.062	89.88
390.287	85.88
390.512	89.88
390.736	86.88
390.961	85.88
391.186	94.88
391.411	93.88
391.636	82.88
391.86	88.88
392.085	81.88
392.31	83.88
392.534	85.88
392.759	82.88
392.984	88.88
393.208	96.88
393.433	87.88
393.658	87.88
393.882	78.88
394.107	77.88
394.331	81.88
394.556	82.88
394.78	66.88
395.005	95.88
395.229	89.88
395.454	77.88
395.678	100.88
395.903	81.88
396.127	83.88
396.352	81.88
396.576	86.88
396.801	64.88
397.025	93.88
397.249	77.88
397.474	80.88
397.698	98.88
397.922	85.88
398.147	79.88
398.371	73.88
398.595	105.88
398.82	67.88
399.044	85.88
399.268	87.88
399.492	82.88
399.717	77.88
399.941	83.88
400.165	90.88
400.389	86.88
400.613	99.88
400.837	69.88
401.062	84.88
401.286	79.88
401.51	84.88
401.734	86.88
401.958	87.88
402.182	108.88
402.406	115.88
402.63	94.88
402.854	79.88
403.078	75.88
403.302	97.88
403.526	81.88
403.75	89.88
403.974	97.88
404.198	88.88
404.422	82.88
404.645	82.88
404.869	88.88
405.093	93.88
405.317	89.88
405.541	88.88
405.765	91.88
405.988	89.88
406.212	122.88
406.436	142.88
406.66	98.88
406.883	93.88
407.107	98.88
407.331	88.88
407.555	82.88
407.778	111.88
408.002	93.88
408.226	88.88
408.449	84.88
408.673	94.88
408.896	105.88
409.12	92.88
409.344	98.88
409.567	84.88
409.791	89.88
410.014	98.88
410.238	79.88
410.461	80.88
410.685	99.88
410.908	90.88
411.132	113.88
411.355	90.88
411.578	85.88
411.802	77.88
412.025	85.88
412.249	94.88
412.472	99.88
412.695	88.88
412.919	89.88
413.142	85.88
413.365	96.88
413.589	80.88
413.812	85.88
414.035	102.88
414.258	86.88
414.482	89.88
414.705	88.88
414.928	83.88
415.151	89.88
415.374	91.88
415.597	86.88
415.821	94.88
416.044	87.88
416.267	82.88
416.49	94.88
416.713	88.88
416.936	94.88
417.159	79.88
417.382	88.88
417.605	80.88
417.828	87.88
418.051	95.88
418.274	91.88
418.497	89.88
418.72	88.88
418.943	81.88
419.166	79.88
419.389	101.88
419.611	79.88
419.834	92.88
420.057	86.88
420.28	82.88
420.503	99.88
420.726	81.88
420.948	91.88
421.171	96.88
421.394	92.88
421.617	101.88
421.839	81.88
422.062	79.88
422.285	91.88
422.507	80.88
422.73	85.88
422.953	89.88
423.175	77.88
423.398	82.88
423.621	83.88
423.843	79.88
424.066	70.88
424.288	71.88
424.511	71.88
424.733	97.88
424.956	83.88
425.178	87.88
425.401	87.88
425.623	91.88
425.846	91.88
426.068	93.88
426.291	82.88
426.513	85.88
426.735	71.88
426.958	89.88
427.18	84.88
427.402	117.88
427.625	125.88
427.847	119.88
428.069	88.88
428.292	85.88
428.514	89.88
428.736	77.88
428.958	84.88
429.181	85.88
429.403	89.88
429.625	89.88
429.847	72.88
430.069	84.88
430.292	87.88
430.514	73.88
430.736	85.88
430.958	74.88
431.18	79.88
431.402	80.88
431.624	85.88
431.846	75.88
432.068	73.88
432.29	84.88
432.512	84.88
432.734	89.88
432.956	105.88
433.178	78.88
433.4	79.88
433.622	88.88
433.844	86.88
434.066	92.88
434.287	98.88
434.509	88.88
434.731	83.88
434.953	79.88
435.175	92.88
435.397	102.88
435.618	94.88
435.84	99.88
436.062	98.88
436.284	94.88
436.505	89.88
436.727	98.88
436.949	87.88
437.17	95.88
437.392	71.88
437.614	86.88
437.835	107.88
438.057	107.88
438.278	78.88
438.5	99.88
438.721	107.88
438.943	90.88
439.165	72.88
439.386	87.88
439.608	102.88
439.829	99.88
440.05	111.88
440.272	116.88
440.493	83.88
440.715	78.88
440.936	87.88
441.158	73.88
441.379	89.88
441.6	92.88
441.822	66.88
442.043	83.88
442.264	89.88
442.486	80.88
442.707	74.88
442.928	95.88
443.149	109.88
443.371	97.88
443.592	89.88
443.813	81.88
444.034	97.88
444.255	88.88
444.476	88.88
444.698	82.88
444.919	90.88
445.14	115.88
445.361	102.88
445.582	103.88
445.803	109.88
446.024	99.88
446.245	106.88
446.466	102.88
446.687	88.88
446.908	86.88
447.129	79.88
447.35	103.88
447.571	95.88
447.792	97.88
448.013	74.88
448.234	83.88
448.455	91.88
448.675	97.88
448.896	98.88
449.117	97.88
449.338	83.88
449.559	130.88
449.779	113.88
450	83.88
450.221	85.88
450.442	66.88
450.662	82.88
450.883	98.88
451.104	101.88
451.324	89.88
451.545	78.88
451.766	89.88
451.986	87.88
452.207	88.88
452.428	81.88
452.648	88.88
452.869	89.88
453.089	95.88
453.31	87.88
453.53	87.88
453.751	88.88
453.971	98.88
454.192	83.88
454.412	93.88
454.633	83.88
454.853	77.88
455.073	79.88
455.294	81.88
455.514	105.88
455.734	73.88
455.955	79.88
456.175	83.88
456.395	88.88
456.616	91.88
456.836	81.88
457.056	96.88
457.276	75.88
457.497	81.88
457.717	77.88
457.937	73.88
458.157	79.88
458.377	97.88
458.598	98.88
458.818	106.88
459.038	127.88
459.258	92.88
459.478	75.88
459.698	92.88
459.918	79.88
460.138	89.88
460.358	93.88
460.578	84.88
460.798	85.88
461.018	88.88
461.238	88.88
461.458	75.88
461.678	80.88
461.898	93.88
462.118	88.88
462.338	80.88
462.558	93.88
462.777	86.88
462.997	91.88
463.217	82.88
463.437	71.88
463.657	72.88
463.876	94.88
464.096	77.88
464.316	88.88
464.536	82.88
464.755	85.88
464.975	104.88
465.195	119.88
465.414	106.88
465.634	88.88
465.854	81.88
466.073	79.88
466.293	78.88
466.512	80.88
466.732	80.88
466.951	95.88
467.171	88.88
467.391	81.88
467.61	89.88
467.829	95.88
468.049	99.88
468.268	92.88
468.488	71.88
468.707	77.88
468.927	77.88
469.146	85.88
469.365	71.88
469.585	81.88
469.804	67.88
470.023	79.88
470.243	90.88
470.462	74.88
470.681	81.88
470.901	79.88
471.12	88.88
471.339	79.88
471.558	88.88
471.777	88.88
471.997	83.88
472.216	103.88
472.435	114.88
472.654	88.88
472.873	65.88
473.092	94.88
473.311	74.88
473.53	83.88
473.749	72.88
473.968	93.88
474.187	82.88
474.406	97.88
474.625	83.88
474.844	79.88
475.063	69.88
475.282	79.88
475.501	86.88
475.72	84.88
475.939	81.88
476.158	74.88
476.377	87.88
476.596	93.88
476.814	71.88
477.033	77.88
477.252	95.88
477.471	69.88
477.69	65.88
477.908	75.88
478.127	82.88
478.346	87.88
478.564	93.88
478.783	86.88
479.002	101.88
479.22	80.88
479.439	80.88
479.658	99.88
479.876	87.88
480.095	85.88
480.313	91.88
480.532	76.88
480.751	83.88
480.969	82.88
481.188	153.88
481.406	127.88
481.624	104.88
481.843	93.88
482.061	64.88
482.28	74.88
482.498	84.88
482.717	70.88
482.935	88.88
483.153	77.88
483.372	93.88
483.59	99.88
483.808	92.88
484.027	95.88
484.245	87.88
484.463	80.88
484.681	102.88
484.9	99.88
485.118	81.88
485.336	94.88
485.554	105.88
485.772	100.88
485.99	119.88
486.209	87.88
486.427	100.88
486.645	104.88
486.863	100.88
487.081	103.88
487.299	95.88
487.517	81.88
487.735	81.88
487.953	70.88
488.171	91.88
488.389	99.88
488.607	96.88
488.825	80.88
489.043	83.88
489.261	81.88
489.479	78.88
489.696	87.88
489.914	80.88
490.132	85.88
490.35	90.88
490.568	88.88
490.786	78.88
491.003	81.88
491.221	91.88
491.439	78.88
491.657	87.88
491.874	84.88
492.092	80.88
492.31	86.88
492.527	88.88
492.745	89.88
492.963	89.88
493.18	80.88
493.398	87.88
493.615	83.88
493.833	80.88
494.05	90.88
494.268	75.88
494.485	76.88
494.703	89.88
494.92	79.88
495.138	86.88
495.355	91.88
495.573	89.88
495.79	93.88
496.008	85.88
496.225	83.88
496.442	82.88
496.66	93.88
496.877	83.88
497.094	82.88
497.312	89.88
497.529	93.88
497.746	80.88
497.963	83.88
498.181	89.88
498.398	82.88
498.615	86.88
498.832	104.88
499.049	90.88
499.267	97.88
499.484	89.88
499.701	96.88
499.918	73.88
500.135	92.88
500.352	90.88
500.569	100.88
500.786	101.88
501.003	85.88
501.22	78.88
501.437	83.88
501.654	97.88
501.871	90.88
502.088	98.88
502.305	73.88
502.522	78.88
502.739	93.88
502.956	77.88
503.172	87.88
503.389	80.88
503.606	100.88
503.823	89.88
504.04	96.88
504.256	91.88
504.473	78.88
504.69	97.88
504.907	85.88
505.123	85.88
505.34	69.88
505.557	98.88
505.773	75.88
505.99	89.88
506.207	87.88
506.423	85.88
506.64	74.88
506.856	93.88
507.073	86.88
507.289	83.88
507.506	88.88
507.722	94.88
507.939	93.88
508.155	72.88
508.372	87.88
508.588	81.88
508.805	77.88
509.021	88.88
509.238	79.88
509.454	91.88
509.67	99.88
509.887	99.88
510.103	105.88
510.319	141.88
510.536	419.88
510.752	1199.88
510.968	346.88
511.184	119.88
511.401	106.88
511.617	89.88
511.833	91.88
512.049	85.88
512.265	79.88
512.481	84.88
512.698	74.88
512.914	91.88
513.13	90.88
513.346	90.88
513.562	82.88
513.778	85.88
513.994	93.88
514.21	95.88
514.426	113.88
514.642	103.88
514.858	111.88
515.074	117.88
515.29	269.88
515.506	693.88
515.721	291.88
515.937	100.88
516.153	86.88
516.369	88.88
516.585	87.88
516.801	82.88
517.016	81.88
517.232	85.88
517.448	96.88
