Data from Uncirc_1981_H10_HRD10591_00068.txt Node
Date: Wed Jan 03 12:33:21 EST 2024
User: Yrep
Spectrometer: HR+D1059
Trigger mode: 1
Integration Time (sec): 1.000000E-1
Scans to average: 1
Electric dark correction enabled: true
Nonlinearity correction enabled: false
Boxcar width: 0
XAxis mode: Wavelengths
Number of Pixels in Spectrum: 2048
>>>>>Begin Spectral Data<<<<<
223.165	-16.75
223.4	-16.75
223.635	-16.75
223.869	-10.75
224.104	-15.75
224.338	-13.75
224.573	-13.75
224.808	2.25
225.042	-11.75
225.277	-22.75
225.511	-6.75
225.746	1.25
225.98	6.25
226.215	18.25
226.449	16.25
226.683	28.25
226.918	14.25
227.152	25.25
227.387	37.25
227.621	45.25
227.856	59.25
228.09	41.25
228.324	58.25
228.559	50.25
228.793	47.25
229.027	66.25
229.262	69.25
229.496	65.25
229.73	83.25
229.964	73.25
230.199	78.25
230.433	68.25
230.667	72.25
230.901	89.25
231.136	77.25
231.37	70.25
231.604	85.25
231.838	81.25
232.072	77.25
232.306	91.25
232.541	88.25
232.775	72.25
233.009	82.25
233.243	74.25
233.477	89.25
233.711	74.25
233.945	89.25
234.179	76.25
234.413	88.25
234.647	89.25
234.881	76.25
235.115	76.25
235.349	84.25
235.583	82.25
235.817	86.25
236.051	81.25
236.285	59.25
236.519	89.25
236.753	68.25
236.987	77.25
237.221	89.25
237.455	72.25
237.689	89.25
237.922	82.25
238.156	80.25
238.39	69.25
238.624	85.25
238.858	72.25
239.091	68.25
239.325	90.25
239.559	82.25
239.793	80.25
240.027	83.25
240.26	71.25
240.494	85.25
240.728	70.25
240.961	72.25
241.195	71.25
241.429	76.25
241.662	81.25
241.896	68.25
242.13	74.25
242.363	77.25
242.597	62.25
242.83	98.25
243.064	82.25
243.298	85.25
243.531	65.25
243.765	84.25
243.998	84.25
244.232	84.25
244.465	85.25
244.699	76.25
244.932	80.25
245.166	86.25
245.399	74.25
245.633	88.25
245.866	72.25
246.099	87.25
246.333	80.25
246.566	69.25
246.8	80.25
247.033	82.25
247.266	90.25
247.5	84.25
247.733	69.25
247.966	68.25
248.2	77.25
248.433	71.25
248.666	74.25
248.899	88.25
249.133	91.25
249.366	85.25
249.599	85.25
249.832	83.25
250.066	84.25
250.299	70.25
250.532	91.25
250.765	65.25
250.998	66.25
251.231	82.25
251.465	86.25
251.698	81.25
251.931	84.25
252.164	84.25
252.397	99.25
252.63	93.25
252.863	66.25
253.096	87.25
253.329	84.25
253.562	96.25
253.795	92.25
254.028	80.25
254.261	69.25
254.494	89.25
254.727	85.25
254.96	94.25
255.193	90.25
255.426	67.25
255.659	76.25
255.892	88.25
256.124	72.25
256.357	74.25
256.59	79.25
256.823	82.25
257.056	76.25
257.289	80.25
257.521	77.25
257.754	85.25
257.987	104.25
258.22	92.25
258.452	87.25
258.685	81.25
258.918	76.25
259.151	102.25
259.383	94.25
259.616	67.25
259.849	71.25
260.081	99.25
260.314	96.25
260.547	82.25
260.779	92.25
261.012	85.25
261.244	81.25
261.477	86.25
261.71	83.25
261.942	98.25
262.175	90.25
262.407	74.25
262.64	88.25
262.872	69.25
263.105	92.25
263.337	93.25
263.57	92.25
263.802	84.25
264.035	91.25
264.267	86.25
264.499	87.25
264.732	86.25
264.964	92.25
265.197	84.25
265.429	92.25
265.661	102.25
265.894	85.25
266.126	72.25
266.358	79.25
266.591	86.25
266.823	71.25
267.055	86.25
267.287	85.25
267.52	89.25
267.752	81.25
267.984	77.25
268.216	72.25
268.448	77.25
268.681	76.25
268.913	83.25
269.145	83.25
269.377	75.25
269.609	101.25
269.841	82.25
270.073	92.25
270.306	96.25
270.538	98.25
270.77	74.25
271.002	89.25
271.234	86.25
271.466	82.25
271.698	84.25
271.93	84.25
272.162	76.25
272.394	82.25
272.626	80.25
272.858	80.25
273.09	90.25
273.322	100.25
273.553	76.25
273.785	88.25
274.017	90.25
274.249	79.25
274.481	84.25
274.713	96.25
274.945	94.25
275.176	86.25
275.408	90.25
275.64	91.25
275.872	77.25
276.104	81.25
276.335	86.25
276.567	101.25
276.799	103.25
277.031	88.25
277.262	90.25
277.494	90.25
277.726	91.25
277.957	95.25
278.189	97.25
278.421	72.25
278.652	81.25
278.884	77.25
279.115	82.25
279.347	92.25
279.579	82.25
279.81	86.25
280.042	89.25
280.273	88.25
280.505	76.25
280.736	86.25
280.968	85.25
281.199	93.25
281.431	89.25
281.662	80.25
281.894	93.25
282.125	103.25
282.356	121.25
282.588	124.25
282.819	101.25
283.051	95.25
283.282	85.25
283.513	91.25
283.745	109.25
283.976	78.25
284.207	95.25
284.439	94.25
284.67	96.25
284.901	76.25
285.132	104.25
285.364	92.25
285.595	93.25
285.826	89.25
286.057	85.25
286.288	83.25
286.52	78.25
286.751	96.25
286.982	89.25
287.213	89.25
287.444	86.25
287.675	103.25
287.906	91.25
288.138	109.25
288.369	89.25
288.6	93.25
288.831	86.25
289.062	94.25
289.293	92.25
289.524	89.25
289.755	76.25
289.986	76.25
290.217	85.25
290.448	77.25
290.679	98.25
290.91	97.25
291.141	82.25
291.371	88.25
291.602	78.25
291.833	91.25
292.064	107.25
292.295	91.25
292.526	97.25
292.757	92.25
292.987	81.25
293.218	92.25
293.449	91.25
293.68	87.25
293.91	91.25
294.141	104.25
294.372	92.25
294.603	88.25
294.833	86.25
295.064	101.25
295.295	85.25
295.525	97.25
295.756	98.25
295.987	104.25
296.217	128.25
296.448	111.25
296.679	101.25
296.909	87.25
297.14	84.25
297.37	97.25
297.601	101.25
297.831	88.25
298.062	105.25
298.292	102.25
298.523	99.25
298.753	97.25
298.984	91.25
299.214	98.25
299.445	106.25
299.675	93.25
299.905	99.25
300.136	93.25
300.366	84.25
300.597	93.25
300.827	97.25
301.057	105.25
301.288	98.25
301.518	102.25
301.748	100.25
301.979	103.25
302.209	100.25
302.439	81.25
302.669	85.25
302.9	86.25
303.13	88.25
303.36	100.25
303.59	90.25
303.82	114.25
304.051	102.25
304.281	103.25
304.511	96.25
304.741	89.25
304.971	93.25
305.201	83.25
305.431	92.25
305.661	90.25
305.891	101.25
306.121	102.25
306.352	98.25
306.582	92.25
306.812	85.25
307.042	81.25
307.272	73.25
307.502	95.25
307.731	103.25
307.961	75.25
308.191	89.25
308.421	92.25
308.651	102.25
308.881	98.25
309.111	92.25
309.341	108.25
309.571	89.25
309.8	107.25
310.03	86.25
310.26	93.25
310.49	96.25
310.72	85.25
310.949	99.25
311.179	84.25
311.409	86.25
311.639	93.25
311.868	94.25
312.098	90.25
312.328	94.25
312.557	105.25
312.787	94.25
313.017	98.25
313.246	97.25
313.476	105.25
313.706	91.25
313.935	92.25
314.165	108.25
314.394	107.25
314.624	88.25
314.853	97.25
315.083	92.25
315.312	101.25
315.542	90.25
315.771	107.25
316.001	88.25
316.23	84.25
316.46	100.25
316.689	90.25
316.919	92.25
317.148	80.25
317.377	88.25
317.607	101.25
317.836	109.25
318.065	89.25
318.295	85.25
318.524	95.25
318.753	99.25
318.983	94.25
319.212	104.25
319.441	106.25
319.67	104.25
319.9	87.25
320.129	90.25
320.358	104.25
320.587	96.25
320.816	87.25
321.046	80.25
321.275	91.25
321.504	90.25
321.733	98.25
321.962	98.25
322.191	102.25
322.42	115.25
322.649	116.25
322.878	107.25
323.108	122.25
323.337	108.25
323.566	127.25
323.795	134.25
324.024	185.25
324.253	358.25
324.482	764.25
324.71	1524.25
324.939	2026.25
325.168	726.25
325.397	210.25
325.626	135.25
325.855	130.25
326.084	115.25
326.313	116.25
326.542	152.25
326.77	214.25
326.999	434.25
327.228	864.25
327.457	1581.25
327.686	1242.25
327.914	340.25
328.143	160.25
328.372	150.25
328.6	112.25
328.829	105.25
329.058	126.25
329.287	120.25
329.515	99.25
329.744	99.25
329.972	107.25
330.201	105.25
330.43	123.25
330.658	121.25
330.887	132.25
331.115	104.25
331.344	92.25
331.572	118.25
331.801	104.25
332.03	86.25
332.258	97.25
332.486	96.25
332.715	93.25
332.943	106.25
333.172	101.25
333.4	90.25
333.629	99.25
333.857	92.25
334.085	100.25
334.314	119.25
334.542	127.25
334.771	117.25
334.999	101.25
335.227	90.25
335.455	96.25
335.684	90.25
335.912	113.25
336.14	106.25
336.369	96.25
336.597	94.25
336.825	83.25
337.053	108.25
337.281	98.25
337.51	105.25
337.738	87.25
337.966	95.25
338.194	105.25
338.422	90.25
338.65	84.25
338.878	97.25
339.106	88.25
339.334	105.25
339.562	92.25
339.79	90.25
340.018	111.25
340.246	92.25
340.474	98.25
340.702	101.25
340.93	90.25
341.158	105.25
341.386	88.25
341.614	90.25
341.842	90.25
342.07	94.25
342.298	89.25
342.526	97.25
342.754	87.25
342.981	84.25
343.209	88.25
343.437	101.25
343.665	86.25
343.893	88.25
344.12	111.25
344.348	96.25
344.576	87.25
344.804	92.25
345.031	95.25
345.259	80.25
345.487	90.25
345.714	90.25
345.942	96.25
346.17	104.25
346.397	92.25
346.625	96.25
346.853	96.25
347.08	85.25
347.308	90.25
347.535	97.25
347.763	101.25
347.99	90.25
348.218	90.25
348.445	104.25
348.673	100.25
348.9	99.25
349.128	90.25
349.355	84.25
349.583	88.25
349.81	78.25
350.037	100.25
350.265	98.25
350.492	90.25
350.72	93.25
350.947	100.25
351.174	107.25
351.402	85.25
351.629	108.25
351.856	112.25
352.083	111.25
352.311	94.25
352.538	111.25
352.765	118.25
352.992	116.25
353.22	102.25
353.447	110.25
353.674	98.25
353.901	108.25
354.128	90.25
354.355	96.25
354.583	101.25
354.81	105.25
355.037	78.25
355.264	102.25
355.491	98.25
355.718	90.25
355.945	99.25
356.172	102.25
356.399	103.25
356.626	89.25
356.853	103.25
357.08	106.25
357.307	108.25
357.534	117.25
357.761	93.25
357.988	82.25
358.215	89.25
358.441	97.25
358.668	102.25
358.895	99.25
359.122	81.25
359.349	88.25
359.576	91.25
359.802	92.25
360.029	93.25
360.256	96.25
360.483	91.25
360.709	96.25
360.936	98.25
361.163	75.25
361.39	90.25
361.616	88.25
361.843	79.25
362.07	91.25
362.296	96.25
362.523	93.25
362.749	92.25
362.976	95.25
363.203	99.25
363.429	98.25
363.656	91.25
363.882	78.25
364.109	98.25
364.335	111.25
364.562	104.25
364.788	100.25
365.015	90.25
365.241	96.25
365.468	106.25
365.694	102.25
365.92	105.25
366.147	90.25
366.373	81.25
366.599	77.25
366.826	97.25
367.052	80.25
367.278	84.25
367.505	76.25
367.731	88.25
367.957	95.25
368.184	100.25
368.41	92.25
368.636	92.25
368.862	110.25
369.089	108.25
369.315	86.25
369.541	85.25
369.767	87.25
369.993	101.25
370.219	93.25
370.445	81.25
370.672	85.25
370.898	81.25
371.124	77.25
371.35	85.25
371.576	99.25
371.802	88.25
372.028	84.25
372.254	75.25
372.48	86.25
372.706	84.25
372.932	93.25
373.158	80.25
373.384	94.25
373.61	87.25
373.835	86.25
374.061	98.25
374.287	97.25
374.513	96.25
374.739	91.25
374.965	94.25
375.191	91.25
375.416	92.25
375.642	86.25
375.868	87.25
376.094	86.25
376.319	80.25
376.545	87.25
376.771	80.25
376.997	77.25
377.222	83.25
377.448	88.25
377.674	87.25
377.899	95.25
378.125	101.25
378.35	88.25
378.576	96.25
378.802	89.25
379.027	102.25
379.253	96.25
379.478	90.25
379.704	100.25
379.929	97.25
380.155	87.25
380.38	89.25
380.606	94.25
380.831	90.25
381.057	99.25
381.282	89.25
381.507	94.25
381.733	102.25
381.958	82.25
382.184	94.25
382.409	89.25
382.634	98.25
382.86	97.25
383.085	107.25
383.31	97.25
383.535	101.25
383.761	109.25
383.986	93.25
384.211	105.25
384.436	94.25
384.662	122.25
384.887	101.25
385.112	104.25
385.337	97.25
385.562	101.25
385.787	105.25
386.013	106.25
386.238	109.25
386.463	103.25
386.688	105.25
386.913	112.25
387.138	109.25
387.363	91.25
387.588	93.25
387.813	102.25
388.038	100.25
388.263	111.25
388.488	119.25
388.713	99.25
388.938	87.25
389.163	100.25
389.387	88.25
389.612	88.25
389.837	85.25
390.062	87.25
390.287	93.25
390.512	74.25
390.736	96.25
390.961	73.25
391.186	96.25
391.411	92.25
391.636	88.25
391.86	88.25
392.085	76.25
392.31	80.25
392.534	93.25
392.759	93.25
392.984	92.25
393.208	85.25
393.433	88.25
393.658	88.25
393.882	81.25
394.107	89.25
394.331	91.25
394.556	89.25
394.78	96.25
395.005	102.25
395.229	81.25
395.454	84.25
395.678	83.25
395.903	92.25
396.127	72.25
396.352	103.25
396.576	82.25
396.801	88.25
397.025	68.25
397.249	78.25
397.474	82.25
397.698	102.25
397.922	94.25
398.147	94.25
398.371	88.25
398.595	91.25
398.82	91.25
399.044	89.25
399.268	80.25
399.492	89.25
399.717	85.25
399.941	85.25
400.165	96.25
400.389	77.25
400.613	89.25
400.837	96.25
401.062	98.25
401.286	88.25
401.51	92.25
401.734	83.25
401.958	84.25
402.182	106.25
402.406	136.25
402.63	109.25
402.854	84.25
403.078	88.25
403.302	71.25
403.526	87.25
403.75	77.25
403.974	82.25
404.198	86.25
404.422	94.25
404.645	86.25
404.869	78.25
405.093	94.25
405.317	106.25
405.541	90.25
405.765	94.25
405.988	108.25
406.212	151.25
406.436	190.25
406.66	131.25
406.883	102.25
407.107	95.25
407.331	86.25
407.555	101.25
407.778	81.25
408.002	93.25
408.226	76.25
408.449	87.25
408.673	88.25
408.896	101.25
409.12	107.25
409.344	76.25
409.567	94.25
409.791	91.25
410.014	90.25
410.238	103.25
410.461	108.25
410.685	88.25
410.908	100.25
411.132	105.25
411.355	92.25
411.578	91.25
411.802	90.25
412.025	88.25
412.249	77.25
412.472	96.25
412.695	88.25
412.919	91.25
413.142	84.25
413.365	70.25
413.589	93.25
413.812	97.25
414.035	94.25
414.258	92.25
414.482	102.25
414.705	93.25
414.928	103.25
415.151	96.25
415.374	99.25
415.597	89.25
415.821	96.25
416.044	84.25
416.267	95.25
416.49	96.25
416.713	96.25
416.936	75.25
417.159	102.25
417.382	72.25
417.605	81.25
417.828	84.25
418.051	82.25
418.274	83.25
418.497	82.25
418.72	85.25
418.943	91.25
419.166	83.25
419.389	98.25
419.611	72.25
419.834	96.25
420.057	115.25
420.28	103.25
420.503	84.25
420.726	90.25
420.948	97.25
421.171	99.25
421.394	89.25
421.617	95.25
421.839	93.25
422.062	97.25
422.285	92.25
422.507	90.25
422.73	102.25
422.953	85.25
423.175	92.25
423.398	98.25
423.621	87.25
423.843	102.25
424.066	77.25
424.288	79.25
424.511	82.25
424.733	105.25
424.956	95.25
425.178	91.25
425.401	87.25
425.623	102.25
425.846	80.25
426.068	96.25
426.291	83.25
426.513	87.25
426.735	99.25
426.958	98.25
427.18	106.25
427.402	137.25
427.625	147.25
427.847	119.25
428.069	117.25
428.292	99.25
428.514	89.25
428.736	89.25
428.958	88.25
429.181	80.25
429.403	93.25
429.625	97.25
429.847	105.25
430.069	84.25
430.292	100.25
430.514	90.25
430.736	85.25
430.958	90.25
431.18	78.25
431.402	85.25
431.624	79.25
431.846	84.25
432.068	81.25
432.29	99.25
432.512	83.25
432.734	76.25
432.956	103.25
433.178	97.25
433.4	111.25
433.622	101.25
433.844	96.25
434.066	89.25
434.287	83.25
434.509	94.25
434.731	92.25
434.953	85.25
435.175	82.25
435.397	89.25
435.618	94.25
435.84	104.25
436.062	133.25
436.284	119.25
436.505	107.25
436.727	113.25
436.949	98.25
437.17	98.25
437.392	95.25
437.614	88.25
437.835	98.25
438.057	132.25
438.278	96.25
438.5	100.25
438.721	127.25
438.943	100.25
439.165	105.25
439.386	90.25
439.608	92.25
439.829	100.25
440.05	94.25
440.272	131.25
440.493	116.25
440.715	70.25
440.936	72.25
441.158	83.25
441.379	118.25
441.6	98.25
441.822	104.25
442.043	90.25
442.264	97.25
442.486	76.25
442.707	99.25
442.928	73.25
443.149	119.25
443.371	124.25
443.592	98.25
443.813	105.25
444.034	106.25
444.255	94.25
444.476	97.25
444.698	93.25
444.919	100.25
445.14	120.25
445.361	114.25
445.582	101.25
445.803	118.25
446.024	128.25
446.245	118.25
446.466	91.25
446.687	84.25
446.908	101.25
447.129	86.25
447.35	87.25
447.571	97.25
447.792	104.25
448.013	92.25
448.234	103.25
448.455	97.25
448.675	119.25
448.896	115.25
449.117	93.25
449.338	96.25
449.559	128.25
449.779	124.25
450	94.25
450.221	96.25
450.442	86.25
450.662	87.25
450.883	98.25
451.104	108.25
451.324	100.25
451.545	88.25
451.766	93.25
451.986	92.25
452.207	82.25
452.428	72.25
452.648	86.25
452.869	106.25
453.089	113.25
453.31	101.25
453.53	100.25
453.751	83.25
453.971	89.25
454.192	106.25
454.412	90.25
454.633	83.25
454.853	72.25
455.073	90.25
455.294	90.25
455.514	91.25
455.734	93.25
455.955	77.25
456.175	93.25
456.395	103.25
456.616	77.25
456.836	85.25
457.056	82.25
457.276	71.25
457.497	84.25
457.717	77.25
457.937	106.25
458.157	96.25
458.377	96.25
458.598	101.25
458.818	120.25
459.038	137.25
459.258	97.25
459.478	99.25
459.698	69.25
459.918	79.25
460.138	85.25
460.358	90.25
460.578	84.25
460.798	86.25
461.018	84.25
461.238	85.25
461.458	88.25
461.678	84.25
461.898	98.25
462.118	87.25
462.338	81.25
462.558	88.25
462.777	93.25
462.997	87.25
463.217	77.25
463.437	89.25
463.657	99.25
463.876	76.25
464.096	100.25
464.316	84.25
464.536	87.25
464.755	85.25
464.975	75.25
465.195	131.25
465.414	130.25
465.634	100.25
465.854	88.25
466.073	84.25
466.293	86.25
466.512	80.25
466.732	78.25
466.951	88.25
467.171	97.25
467.391	85.25
467.61	89.25
467.829	89.25
468.049	96.25
468.268	95.25
468.488	80.25
468.707	78.25
468.927	96.25
469.146	87.25
469.365	88.25
469.585	90.25
469.804	104.25
470.023	99.25
470.243	96.25
470.462	100.25
470.681	105.25
470.901	98.25
471.12	93.25
471.339	91.25
471.558	84.25
471.777	74.25
471.997	86.25
472.216	104.25
472.435	134.25
472.654	96.25
472.873	85.25
473.092	81.25
473.311	96.25
473.53	80.25
473.749	85.25
473.968	101.25
474.187	105.25
474.406	97.25
474.625	89.25
474.844	101.25
475.063	81.25
475.282	88.25
475.501	71.25
475.72	85.25
475.939	77.25
476.158	93.25
476.377	96.25
476.596	95.25
476.814	98.25
477.033	86.25
477.252	93.25
477.471	69.25
477.69	72.25
477.908	83.25
478.127	96.25
478.346	93.25
478.564	86.25
478.783	104.25
479.002	85.25
479.22	69.25
479.439	90.25
479.658	92.25
479.876	84.25
480.095	84.25
480.313	90.25
480.532	83.25
480.751	113.25
480.969	116.25
481.188	174.25
481.406	128.25
481.624	94.25
481.843	93.25
482.061	74.25
482.28	88.25
482.498	76.25
482.717	86.25
482.935	99.25
483.153	85.25
483.372	101.25
483.59	97.25
483.808	85.25
484.027	94.25
484.245	80.25
484.463	97.25
484.681	88.25
484.9	91.25
485.118	96.25
485.336	96.25
485.554	109.25
485.772	91.25
485.99	97.25
486.209	91.25
486.427	96.25
486.645	105.25
486.863	106.25
487.081	101.25
487.299	86.25
487.517	106.25
487.735	95.25
487.953	76.25
488.171	101.25
488.389	89.25
488.607	91.25
488.825	91.25
489.043	89.25
489.261	102.25
489.479	89.25
489.696	99.25
489.914	101.25
490.132	98.25
490.35	103.25
490.568	93.25
490.786	80.25
491.003	96.25
491.221	87.25
491.439	83.25
491.657	89.25
491.874	92.25
492.092	88.25
492.31	92.25
492.527	96.25
492.745	82.25
492.963	93.25
493.18	96.25
493.398	101.25
493.615	106.25
493.833	97.25
494.05	100.25
494.268	90.25
494.485	87.25
494.703	100.25
494.92	95.25
495.138	93.25
495.355	96.25
495.573	81.25
495.79	83.25
496.008	100.25
496.225	93.25
496.442	93.25
496.66	96.25
496.877	89.25
497.094	99.25
497.312	92.25
497.529	94.25
497.746	93.25
497.963	86.25
498.181	75.25
498.398	77.25
498.615	118.25
498.832	105.25
499.049	96.25
499.267	107.25
499.484	78.25
499.701	84.25
499.918	82.25
500.135	90.25
500.352	86.25
500.569	86.25
500.786	77.25
501.003	102.25
501.22	68.25
501.437	93.25
501.654	88.25
501.871	103.25
502.088	88.25
502.305	91.25
502.522	100.25
502.739	98.25
502.956	93.25
503.172	104.25
503.389	90.25
503.606	106.25
503.823	100.25
504.04	107.25
504.256	93.25
504.473	100.25
504.69	96.25
504.907	92.25
505.123	86.25
505.34	100.25
505.557	94.25
505.773	94.25
505.99	88.25
506.207	89.25
506.423	95.25
506.64	84.25
506.856	100.25
507.073	81.25
507.289	93.25
507.506	101.25
507.722	108.25
507.939	114.25
508.155	93.25
508.372	69.25
508.588	84.25
508.805	92.25
509.021	94.25
509.238	100.25
509.454	106.25
509.67	108.25
509.887	113.25
510.103	115.25
510.319	195.25
510.536	592.25
510.752	1758.25
510.968	511.25
511.184	142.25
511.401	98.25
511.617	92.25
511.833	98.25
512.049	92.25
512.265	85.25
512.481	90.25
512.698	90.25
512.914	97.25
513.13	86.25
513.346	101.25
513.562	93.25
513.778	89.25
513.994	77.25
514.21	88.25
514.426	115.25
514.642	131.25
514.858	106.25
515.074	141.25
515.29	328.25
515.506	1028.25
