Data from Uncirc_1981_H10_HRD10591_00072.txt Node
Date: Wed Jan 03 12:33:22 EST 2024
User: Yrep
Spectrometer: HR+D1059
Trigger mode: 1
Integration Time (sec): 1.000000E-1
Scans to average: 1
Electric dark correction enabled: true
Nonlinearity correction enabled: false
Boxcar width: 0
XAxis mode: Wavelengths
Number of Pixels in Spectrum: 2048
>>>>>Begin Spectral Data<<<<<
223.165	-4.75
223.4	-4.75
223.635	-4.75
223.869	-17.75
224.104	-4.75
224.338	-7.75
224.573	-21.75
224.808	-14.75
225.042	-16.75
225.277	4.25
225.511	-9.75
225.746	-14.75
225.98	5.25
226.215	12.25
226.449	10.25
226.683	24.25
226.918	14.25
227.152	42.25
227.387	18.25
227.621	36.25
227.856	34.25
228.09	41.25
228.324	34.25
228.559	61.25
228.793	41.25
229.027	60.25
229.262	67.25
229.496	72.25
229.73	76.25
229.964	60.25
230.199	69.25
230.433	82.25
230.667	76.25
230.901	84.25
231.136	59.25
231.37	78.25
231.604	82.25
231.838	77.25
232.072	85.25
232.306	83.25
232.541	86.25
232.775	87.25
233.009	88.25
233.243	77.25
233.477	93.25
233.711	89.25
233.945	88.25
234.179	77.25
234.413	86.25
234.647	86.25
234.881	82.25
235.115	71.25
235.349	70.25
235.583	86.25
235.817	78.25
236.051	90.25
236.285	80.25
236.519	76.25
236.753	91.25
236.987	81.25
237.221	67.25
237.455	86.25
237.689	85.25
237.922	65.25
238.156	67.25
238.39	70.25
238.624	74.25
238.858	99.25
239.091	77.25
239.325	68.25
239.559	81.25
239.793	86.25
240.027	93.25
240.26	83.25
240.494	70.25
240.728	76.25
240.961	69.25
241.195	77.25
241.429	70.25
241.662	71.25
241.896	71.25
242.13	71.25
242.363	65.25
242.597	75.25
242.83	72.25
243.064	54.25
243.298	82.25
243.531	67.25
243.765	78.25
243.998	85.25
244.232	85.25
244.465	73.25
244.699	77.25
244.932	77.25
245.166	71.25
245.399	82.25
245.633	77.25
245.866	62.25
246.099	95.25
246.333	84.25
246.566	76.25
246.8	73.25
247.033	77.25
247.266	71.25
247.5	70.25
247.733	82.25
247.966	68.25
248.2	78.25
248.433	90.25
248.666	80.25
248.899	77.25
249.133	83.25
249.366	92.25
249.599	88.25
249.832	90.25
250.066	80.25
250.299	83.25
250.532	90.25
250.765	79.25
250.998	74.25
251.231	86.25
251.465	83.25
251.698	73.25
251.931	98.25
252.164	84.25
252.397	79.25
252.63	87.25
252.863	66.25
253.096	80.25
253.329	71.25
253.562	82.25
253.795	77.25
254.028	78.25
254.261	69.25
254.494	80.25
254.727	86.25
254.96	94.25
255.193	67.25
255.426	70.25
255.659	92.25
255.892	89.25
256.124	96.25
256.357	93.25
256.59	90.25
256.823	82.25
257.056	74.25
257.289	82.25
257.521	88.25
257.754	85.25
257.987	89.25
258.22	98.25
258.452	61.25
258.685	74.25
258.918	78.25
259.151	69.25
259.383	72.25
259.616	75.25
259.849	86.25
260.081	77.25
260.314	68.25
260.547	77.25
260.779	67.25
261.012	75.25
261.244	73.25
261.477	86.25
261.71	71.25
261.942	99.25
262.175	113.25
262.407	98.25
262.64	84.25
262.872	84.25
263.105	88.25
263.337	82.25
263.57	96.25
263.802	93.25
264.035	88.25
264.267	100.25
264.499	76.25
264.732	97.25
264.964	82.25
265.197	85.25
265.429	84.25
265.661	89.25
265.894	93.25
266.126	88.25
266.358	66.25
266.591	72.25
266.823	73.25
267.055	75.25
267.287	84.25
267.52	84.25
267.752	82.25
267.984	80.25
268.216	104.25
268.448	110.25
268.681	90.25
268.913	89.25
269.145	82.25
269.377	77.25
269.609	74.25
269.841	87.25
270.073	82.25
270.306	72.25
270.538	81.25
270.77	93.25
271.002	86.25
271.234	76.25
271.466	91.25
271.698	83.25
271.93	77.25
272.162	91.25
272.394	82.25
272.626	98.25
272.858	89.25
273.09	96.25
273.322	96.25
273.553	86.25
273.785	89.25
274.017	84.25
274.249	93.25
274.481	74.25
274.713	105.25
274.945	86.25
275.176	80.25
275.408	82.25
275.64	84.25
275.872	84.25
276.104	88.25
276.335	80.25
276.567	97.25
276.799	104.25
277.031	103.25
277.262	94.25
277.494	97.25
277.726	87.25
277.957	75.25
278.189	80.25
278.421	80.25
278.652	75.25
278.884	93.25
279.115	95.25
279.347	86.25
279.579	81.25
279.81	67.25
280.042	93.25
280.273	95.25
280.505	89.25
280.736	97.25
280.968	65.25
281.199	90.25
281.431	77.25
281.662	88.25
281.894	72.25
282.125	100.25
282.356	94.25
282.588	115.25
282.819	96.25
283.051	98.25
283.282	83.25
283.513	69.25
283.745	92.25
283.976	84.25
284.207	80.25
284.439	97.25
284.67	87.25
284.901	82.25
285.132	76.25
285.364	89.25
285.595	96.25
285.826	94.25
286.057	86.25
286.288	86.25
286.52	85.25
286.751	90.25
286.982	63.25
287.213	75.25
287.444	86.25
287.675	90.25
287.906	86.25
288.138	92.25
288.369	100.25
288.6	97.25
288.831	99.25
289.062	102.25
289.293	93.25
289.524	85.25
289.755	86.25
289.986	89.25
290.217	88.25
290.448	77.25
290.679	88.25
290.91	104.25
291.141	92.25
291.371	93.25
291.602	81.25
291.833	90.25
292.064	94.25
292.295	82.25
292.526	81.25
292.757	81.25
292.987	86.25
293.218	82.25
293.449	73.25
293.68	94.25
293.91	82.25
294.141	76.25
294.372	74.25
294.603	76.25
294.833	86.25
295.064	90.25
295.295	80.25
295.525	90.25
295.756	90.25
295.987	106.25
296.217	96.25
296.448	102.25
296.679	89.25
296.909	92.25
297.14	75.25
297.37	84.25
297.601	84.25
297.831	100.25
298.062	92.25
298.292	97.25
298.523	88.25
298.753	79.25
298.984	88.25
299.214	100.25
299.445	83.25
299.675	103.25
299.905	87.25
300.136	73.25
300.366	91.25
300.597	89.25
300.827	79.25
301.057	102.25
301.288	98.25
301.518	94.25
301.748	85.25
301.979	99.25
302.209	101.25
302.439	91.25
302.669	102.25
302.9	81.25
303.13	102.25
303.36	102.25
303.59	92.25
303.82	108.25
304.051	85.25
304.281	98.25
304.511	101.25
304.741	90.25
304.971	94.25
305.201	104.25
305.431	84.25
305.661	95.25
305.891	98.25
306.121	86.25
306.352	102.25
306.582	97.25
306.812	101.25
307.042	89.25
307.272	91.25
307.502	83.25
307.731	95.25
307.961	99.25
308.191	84.25
308.421	81.25
308.651	92.25
308.881	80.25
309.111	94.25
309.341	96.25
309.571	99.25
309.8	89.25
310.03	98.25
310.26	89.25
310.49	73.25
310.72	91.25
310.949	98.25
311.179	98.25
311.409	78.25
311.639	76.25
311.868	92.25
312.098	85.25
312.328	91.25
312.557	91.25
312.787	80.25
313.017	96.25
313.246	96.25
313.476	87.25
313.706	91.25
313.935	109.25
314.165	101.25
314.394	99.25
314.624	100.25
314.853	94.25
315.083	84.25
315.312	89.25
315.542	83.25
315.771	90.25
316.001	99.25
316.23	100.25
316.46	76.25
316.689	80.25
316.919	82.25
317.148	96.25
317.377	79.25
317.607	94.25
317.836	106.25
318.065	93.25
318.295	83.25
318.524	91.25
318.753	91.25
318.983	77.25
319.212	111.25
319.441	92.25
319.67	109.25
319.9	96.25
320.129	101.25
320.358	93.25
320.587	89.25
320.816	98.25
321.046	102.25
321.275	86.25
321.504	89.25
321.733	85.25
321.962	85.25
322.191	99.25
322.42	102.25
322.649	102.25
322.878	97.25
323.108	102.25
323.337	107.25
323.566	116.25
323.795	137.25
324.024	170.25
324.253	330.25
324.482	693.25
324.71	1394.25
324.939	1880.25
325.168	682.25
325.397	218.25
325.626	143.25
325.855	114.25
326.084	128.25
326.313	133.25
326.542	135.25
326.77	203.25
326.999	394.25
327.228	810.25
327.457	1462.25
327.686	1149.25
327.914	307.25
328.143	161.25
328.372	150.25
328.6	125.25
328.829	109.25
329.058	108.25
329.287	121.25
329.515	118.25
329.744	93.25
329.972	102.25
330.201	105.25
330.43	107.25
330.658	109.25
330.887	109.25
331.115	112.25
331.344	105.25
331.572	77.25
331.801	98.25
332.03	94.25
332.258	86.25
332.486	91.25
332.715	90.25
332.943	92.25
333.172	96.25
333.4	96.25
333.629	106.25
333.857	92.25
334.085	101.25
334.314	106.25
334.542	128.25
334.771	104.25
334.999	98.25
335.227	92.25
335.455	90.25
335.684	99.25
335.912	93.25
336.14	94.25
336.369	93.25
336.597	77.25
336.825	97.25
337.053	71.25
337.281	104.25
337.51	100.25
337.738	90.25
337.966	87.25
338.194	103.25
338.422	90.25
338.65	93.25
338.878	96.25
339.106	92.25
339.334	88.25
339.562	87.25
339.79	85.25
340.018	112.25
340.246	104.25
340.474	98.25
340.702	82.25
340.93	93.25
341.158	93.25
341.386	94.25
341.614	86.25
341.842	98.25
342.07	99.25
342.298	85.25
342.526	98.25
342.754	90.25
342.981	94.25
343.209	85.25
343.437	113.25
343.665	100.25
343.893	97.25
344.12	93.25
344.348	99.25
344.576	95.25
344.804	76.25
345.031	80.25
345.259	90.25
345.487	103.25
345.714	90.25
345.942	82.25
346.17	94.25
346.397	84.25
346.625	93.25
346.853	89.25
347.08	82.25
347.308	103.25
347.535	97.25
347.763	96.25
347.99	104.25
348.218	93.25
348.445	92.25
348.673	100.25
348.9	85.25
349.128	80.25
349.355	96.25
349.583	94.25
349.81	102.25
350.037	95.25
350.265	84.25
350.492	100.25
350.72	94.25
350.947	90.25
351.174	100.25
351.402	105.25
351.629	106.25
351.856	97.25
352.083	90.25
352.311	96.25
352.538	110.25
352.765	108.25
352.992	108.25
353.22	104.25
353.447	100.25
353.674	108.25
353.901	98.25
354.128	98.25
354.355	100.25
354.583	102.25
354.81	88.25
355.037	108.25
355.264	110.25
355.491	97.25
355.718	96.25
355.945	88.25
356.172	94.25
356.399	94.25
356.626	80.25
356.853	84.25
357.08	86.25
357.307	78.25
357.534	109.25
357.761	94.25
357.988	74.25
358.215	102.25
358.441	74.25
358.668	89.25
358.895	96.25
359.122	88.25
359.349	88.25
359.576	82.25
359.802	95.25
360.029	90.25
360.256	95.25
360.483	94.25
360.709	92.25
360.936	90.25
361.163	88.25
361.39	102.25
361.616	88.25
361.843	96.25
362.07	101.25
362.296	103.25
362.523	96.25
362.749	87.25
362.976	88.25
363.203	90.25
363.429	88.25
363.656	90.25
363.882	93.25
364.109	96.25
364.335	103.25
364.562	95.25
364.788	81.25
365.015	100.25
365.241	104.25
365.468	81.25
365.694	100.25
365.92	102.25
366.147	84.25
366.373	89.25
366.599	75.25
366.826	86.25
367.052	88.25
367.278	85.25
367.505	93.25
367.731	90.25
367.957	73.25
368.184	84.25
368.41	99.25
368.636	92.25
368.862	113.25
369.089	100.25
369.315	84.25
369.541	93.25
369.767	94.25
369.993	77.25
370.219	86.25
370.445	88.25
370.672	90.25
370.898	73.25
371.124	73.25
371.35	88.25
371.576	98.25
371.802	97.25
372.028	93.25
372.254	78.25
372.48	83.25
372.706	84.25
372.932	87.25
373.158	85.25
373.384	77.25
373.61	104.25
373.835	94.25
374.061	88.25
374.287	90.25
374.513	97.25
374.739	84.25
374.965	80.25
375.191	94.25
375.416	104.25
375.642	84.25
375.868	90.25
376.094	93.25
376.319	60.25
376.545	95.25
376.771	76.25
376.997	87.25
377.222	85.25
377.448	84.25
377.674	83.25
377.899	91.25
378.125	102.25
378.35	92.25
378.576	83.25
378.802	104.25
379.027	101.25
379.253	82.25
379.478	105.25
379.704	85.25
379.929	84.25
380.155	98.25
380.38	85.25
380.606	85.25
380.831	71.25
381.057	95.25
381.282	106.25
381.507	85.25
381.733	94.25
381.958	85.25
382.184	103.25
382.409	88.25
382.634	100.25
382.86	105.25
383.085	92.25
383.31	102.25
383.535	104.25
383.761	107.25
383.986	93.25
384.211	83.25
384.436	111.25
384.662	107.25
384.887	100.25
385.112	86.25
385.337	99.25
385.562	99.25
385.787	114.25
386.013	94.25
386.238	111.25
386.463	119.25
386.688	109.25
386.913	104.25
387.138	100.25
387.363	106.25
387.588	104.25
387.813	113.25
388.038	107.25
388.263	104.25
388.488	110.25
388.713	94.25
388.938	95.25
389.163	94.25
389.387	93.25
389.612	89.25
389.837	102.25
390.062	104.25
390.287	92.25
390.512	97.25
390.736	94.25
390.961	105.25
391.186	90.25
391.411	89.25
391.636	99.25
391.86	86.25
392.085	76.25
392.31	93.25
392.534	84.25
392.759	96.25
392.984	102.25
393.208	94.25
393.433	96.25
393.658	95.25
393.882	100.25
394.107	77.25
394.331	99.25
394.556	87.25
394.78	86.25
395.005	77.25
395.229	76.25
395.454	82.25
395.678	89.25
395.903	90.25
396.127	86.25
396.352	92.25
396.576	82.25
396.801	86.25
397.025	96.25
397.249	77.25
397.474	83.25
397.698	88.25
397.922	98.25
398.147	82.25
398.371	69.25
398.595	83.25
398.82	83.25
399.044	88.25
399.268	97.25
399.492	86.25
399.717	89.25
399.941	80.25
400.165	77.25
400.389	100.25
400.613	78.25
400.837	83.25
401.062	84.25
401.286	84.25
401.51	101.25
401.734	109.25
401.958	99.25
402.182	118.25
402.406	130.25
402.63	97.25
402.854	99.25
403.078	84.25
403.302	84.25
403.526	86.25
403.75	92.25
403.974	82.25
404.198	75.25
404.422	80.25
404.645	90.25
404.869	78.25
405.093	97.25
405.317	94.25
405.541	100.25
405.765	88.25
405.988	96.25
406.212	140.25
406.436	172.25
406.66	128.25
406.883	86.25
407.107	80.25
407.331	105.25
407.555	101.25
407.778	85.25
408.002	92.25
408.226	81.25
408.449	85.25
408.673	99.25
408.896	84.25
409.12	98.25
409.344	83.25
409.567	86.25
409.791	85.25
410.014	92.25
410.238	97.25
410.461	96.25
410.685	90.25
410.908	92.25
411.132	90.25
411.355	117.25
411.578	96.25
411.802	92.25
412.025	96.25
412.249	90.25
412.472	99.25
412.695	104.25
412.919	104.25
413.142	91.25
413.365	85.25
413.589	96.25
413.812	86.25
414.035	99.25
414.258	91.25
414.482	94.25
414.705	92.25
414.928	80.25
415.151	89.25
415.374	90.25
415.597	91.25
415.821	101.25
416.044	64.25
416.267	82.25
416.49	77.25
416.713	92.25
416.936	85.25
417.159	90.25
417.382	86.25
417.605	96.25
417.828	92.25
418.051	104.25
418.274	97.25
418.497	83.25
418.72	84.25
418.943	75.25
419.166	89.25
419.389	82.25
419.611	97.25
419.834	99.25
420.057	102.25
420.28	75.25
420.503	86.25
420.726	76.25
420.948	82.25
421.171	92.25
421.394	96.25
421.617	90.25
421.839	97.25
422.062	93.25
422.285	88.25
422.507	91.25
422.73	107.25
422.953	86.25
423.175	112.25
423.398	94.25
423.621	92.25
423.843	90.25
424.066	81.25
424.288	93.25
424.511	86.25
424.733	118.25
424.956	98.25
425.178	106.25
425.401	98.25
425.623	98.25
425.846	96.25
426.068	92.25
426.291	87.25
426.513	77.25
426.735	88.25
426.958	84.25
427.18	95.25
427.402	131.25
427.625	138.25
427.847	113.25
428.069	102.25
428.292	100.25
428.514	80.25
428.736	84.25
428.958	94.25
429.181	93.25
429.403	80.25
429.625	90.25
429.847	87.25
430.069	91.25
430.292	76.25
430.514	63.25
430.736	71.25
430.958	81.25
431.18	90.25
431.402	94.25
431.624	89.25
431.846	85.25
432.068	89.25
432.29	81.25
432.512	77.25
432.734	82.25
432.956	81.25
433.178	95.25
433.4	95.25
433.622	96.25
433.844	85.25
434.066	92.25
434.287	91.25
434.509	81.25
434.731	75.25
434.953	97.25
435.175	86.25
435.397	82.25
435.618	88.25
435.84	90.25
436.062	114.25
436.284	125.25
436.505	84.25
436.727	102.25
436.949	107.25
437.17	76.25
437.392	82.25
437.614	88.25
437.835	91.25
438.057	100.25
438.278	92.25
438.5	102.25
438.721	112.25
438.943	105.25
439.165	99.25
439.386	94.25
439.608	101.25
439.829	92.25
440.05	110.25
440.272	129.25
440.493	72.25
440.715	84.25
440.936	84.25
441.158	84.25
441.379	78.25
441.6	87.25
441.822	76.25
442.043	94.25
442.264	92.25
442.486	100.25
442.707	82.25
442.928	103.25
443.149	108.25
443.371	123.25
443.592	102.25
443.813	88.25
444.034	84.25
444.255	90.25
444.476	82.25
444.698	89.25
444.919	77.25
445.14	140.25
445.361	117.25
445.582	124.25
445.803	129.25
446.024	120.25
446.245	110.25
446.466	98.25
446.687	85.25
446.908	95.25
447.129	86.25
447.35	88.25
447.571	96.25
447.792	104.25
448.013	90.25
448.234	94.25
448.455	96.25
448.675	103.25
448.896	107.25
449.117	108.25
449.338	86.25
449.559	124.25
449.779	121.25
450	106.25
450.221	99.25
450.442	92.25
450.662	98.25
450.883	110.25
451.104	92.25
451.324	85.25
451.545	80.25
451.766	114.25
451.986	85.25
452.207	86.25
452.428	82.25
452.648	96.25
452.869	111.25
453.089	103.25
453.31	103.25
453.53	90.25
453.751	92.25
453.971	86.25
454.192	106.25
454.412	103.25
454.633	80.25
454.853	97.25
455.073	84.25
455.294	85.25
455.514	96.25
455.734	96.25
455.955	66.25
456.175	80.25
456.395	90.25
456.616	82.25
456.836	89.25
457.056	85.25
457.276	84.25
457.497	73.25
457.717	76.25
457.937	71.25
458.157	89.25
458.377	96.25
458.598	91.25
458.818	117.25
459.038	125.25
459.258	101.25
459.478	89.25
459.698	85.25
459.918	89.25
460.138	105.25
460.358	92.25
460.578	86.25
460.798	85.25
461.018	86.25
461.238	83.25
461.458	97.25
461.678	78.25
461.898	91.25
462.118	90.25
462.338	74.25
462.558	85.25
462.777	73.25
462.997	102.25
463.217	95.25
463.437	72.25
463.657	97.25
463.876	85.25
464.096	81.25
464.316	81.25
464.536	81.25
464.755	92.25
464.975	98.25
465.195	141.25
465.414	119.25
465.634	75.25
465.854	82.25
466.073	86.25
466.293	89.25
466.512	83.25
466.732	77.25
466.951	102.25
467.171	88.25
467.391	84.25
467.61	106.25
467.829	88.25
468.049	90.25
468.268	92.25
468.488	94.25
468.707	84.25
468.927	84.25
469.146	86.25
469.365	82.25
469.585	84.25
469.804	89.25
470.023	80.25
470.243	92.25
470.462	83.25
470.681	85.25
470.901	81.25
471.12	86.25
471.339	89.25
471.558	75.25
471.777	77.25
471.997	106.25
472.216	115.25
472.435	110.25
472.654	96.25
472.873	85.25
473.092	91.25
473.311	77.25
473.53	94.25
473.749	86.25
473.968	88.25
474.187	104.25
474.406	97.25
474.625	73.25
474.844	88.25
475.063	77.25
475.282	92.25
475.501	76.25
475.72	105.25
475.939	86.25
476.158	74.25
476.377	84.25
476.596	75.25
476.814	89.25
477.033	90.25
477.252	76.25
477.471	73.25
477.69	92.25
477.908	99.25
478.127	93.25
478.346	86.25
478.564	92.25
478.783	83.25
479.002	90.25
479.22	97.25
479.439	89.25
479.658	98.25
479.876	85.25
480.095	89.25
480.313	81.25
480.532	91.25
480.751	109.25
480.969	102.25
481.188	162.25
481.406	125.25
481.624	92.25
481.843	89.25
482.061	88.25
482.28	96.25
482.498	80.25
482.717	96.25
482.935	95.25
483.153	102.25
483.372	73.25
483.59	84.25
483.808	98.25
484.027	92.25
484.245	97.25
484.463	91.25
484.681	92.25
484.9	98.25
485.118	86.25
485.336	97.25
485.554	103.25
485.772	102.25
485.99	108.25
486.209	101.25
486.427	91.25
486.645	112.25
486.863	101.25
487.081	109.25
487.299	91.25
487.517	88.25
487.735	88.25
487.953	81.25
488.171	95.25
488.389	84.25
488.607	93.25
488.825	99.25
489.043	80.25
489.261	91.25
489.479	84.25
489.696	93.25
489.914	93.25
490.132	82.25
490.35	94.25
490.568	82.25
490.786	85.25
491.003	92.25
491.221	78.25
491.439	94.25
491.657	78.25
491.874	102.25
492.092	106.25
492.31	88.25
492.527	78.25
492.745	96.25
492.963	92.25
493.18	91.25
493.398	107.25
493.615	111.25
493.833	108.25
494.05	107.25
494.268	99.25
494.485	91.25
494.703	101.25
494.92	97.25
495.138	90.25
495.355	89.25
495.573	93.25
495.79	79.25
496.008	96.25
496.225	89.25
496.442	90.25
496.66	98.25
496.877	84.25
497.094	101.25
497.312	104.25
497.529	86.25
497.746	97.25
497.963	99.25
498.181	99.25
498.398	90.25
498.615	83.25
498.832	81.25
499.049	75.25
499.267	89.25
499.484	93.25
499.701	93.25
499.918	102.25
500.135	98.25
500.352	86.25
500.569	89.25
500.786	84.25
501.003	81.25
501.22	103.25
501.437	85.25
501.654	99.25
501.871	95.25
502.088	89.25
502.305	80.25
502.522	92.25
502.739	72.25
502.956	105.25
503.172	93.25
503.389	86.25
503.606	103.25
503.823	102.25
504.04	94.25
504.256	103.25
504.473	93.25
504.69	98.25
504.907	86.25
505.123	77.25
505.34	96.25
505.557	98.25
505.773	81.25
505.99	87.25
506.207	92.25
506.423	88.25
506.64	67.25
506.856	90.25
507.073	84.25
507.289	99.25
507.506	91.25
507.722	98.25
507.939	114.25
508.155	93.25
508.372	90.25
508.588	84.25
508.805	84.25
509.021	97.25
509.238	81.25
509.454	93.25
509.67	90.25
509.887	100.25
510.103	116.25
510.319	167.25
510.536	573.25
510.752	1674.25
510.968	462.25
511.184	124.25
511.401	84.25
511.617	90.25
511.833	96.25
512.049	82.25
512.265	89.25
512.481	84.25
512.698	95.25
512.914	91.25
513.13	93.25
513.346	102.25
513.562	75.25
513.778	95.25
513.994	93.25
514.21	83.25
514.426	101.25
514.642	126.25
514.858	114.25
515.074	157.25
515.29	338.25
515.506	1008.25
515.721	377.25
515.937	126.25
516.153	109.25
