Data from Uncirc_1981_H10_HRD10591_00061.txt Node
Date: Wed Jan 03 12:33:20 EST 2024
User: Yrep
Spectrometer: HR+D1059
Trigger mode: 1
Integration Time (sec): 1.000000E-1
Scans to average: 1
Electric dark correction enabled: true
Nonlinearity correction enabled: false
Boxcar width: 0
XAxis mode: Wavelengths
Number of Pixels in Spectrum: 2048
>>>>>Begin Spectral Data<<<<<
223.165	-7.62
223.4	-7.62
223.635	-7.62
223.869	-10.62
224.104	0.38
224.338	-14.62
224.573	-25.62
224.808	-15.62
225.042	-5.62
225.277	-8.62
225.511	-8.62
225.746	-10.62
225.98	-0.62
226.215	21.38
226.449	21.38
226.683	13.38
226.918	22.38
227.152	29.38
227.387	25.38
227.621	41.38
227.856	48.38
228.09	45.38
228.324	42.38
228.559	53.38
228.793	43.38
229.027	58.38
229.262	66.38
229.496	70.38
229.73	86.38
229.964	74.38
230.199	71.38
230.433	57.38
230.667	71.38
230.901	57.38
231.136	82.38
231.37	63.38
231.604	68.38
231.838	71.38
232.072	57.38
232.306	65.38
232.541	68.38
232.775	73.38
233.009	89.38
233.243	85.38
233.477	87.38
233.711	68.38
233.945	79.38
234.179	97.38
234.413	77.38
234.647	86.38
234.881	82.38
235.115	72.38
235.349	67.38
235.583	71.38
235.817	74.38
236.051	58.38
236.285	70.38
236.519	68.38
236.753	80.38
236.987	80.38
237.221	70.38
237.455	72.38
237.689	69.38
237.922	65.38
238.156	69.38
238.39	72.38
238.624	70.38
238.858	82.38
239.091	75.38
239.325	62.38
239.559	78.38
239.793	61.38
240.027	64.38
240.26	78.38
240.494	65.38
240.728	62.38
240.961	71.38
241.195	77.38
241.429	73.38
241.662	79.38
241.896	92.38
242.13	74.38
242.363	65.38
242.597	63.38
242.83	73.38
243.064	68.38
243.298	80.38
243.531	65.38
243.765	71.38
243.998	73.38
244.232	70.38
244.465	76.38
244.699	74.38
244.932	68.38
245.166	78.38
245.399	83.38
245.633	71.38
245.866	68.38
246.099	88.38
246.333	77.38
246.566	84.38
246.8	67.38
247.033	74.38
247.266	67.38
247.5	86.38
247.733	81.38
247.966	70.38
248.2	75.38
248.433	66.38
248.666	80.38
248.899	80.38
249.133	84.38
249.366	83.38
249.599	87.38
249.832	78.38
250.066	89.38
250.299	75.38
250.532	80.38
250.765	84.38
250.998	76.38
251.231	85.38
251.465	84.38
251.698	94.38
251.931	73.38
252.164	81.38
252.397	67.38
252.63	74.38
252.863	85.38
253.096	75.38
253.329	85.38
253.562	81.38
253.795	89.38
254.028	75.38
254.261	69.38
254.494	71.38
254.727	67.38
254.96	65.38
255.193	71.38
255.426	83.38
255.659	80.38
255.892	83.38
256.124	82.38
256.357	71.38
256.59	63.38
256.823	67.38
257.056	85.38
257.289	85.38
257.521	72.38
257.754	70.38
257.987	74.38
258.22	78.38
258.452	83.38
258.685	89.38
258.918	88.38
259.151	75.38
259.383	83.38
259.616	69.38
259.849	86.38
260.081	75.38
260.314	81.38
260.547	77.38
260.779	80.38
261.012	85.38
261.244	78.38
261.477	89.38
261.71	88.38
261.942	88.38
262.175	105.38
262.407	75.38
262.64	81.38
262.872	76.38
263.105	82.38
263.337	81.38
263.57	77.38
263.802	84.38
264.035	83.38
264.267	81.38
264.499	90.38
264.732	83.38
264.964	81.38
265.197	78.38
265.429	71.38
265.661	82.38
265.894	82.38
266.126	93.38
266.358	79.38
266.591	83.38
266.823	69.38
267.055	73.38
267.287	84.38
267.52	69.38
267.752	81.38
267.984	89.38
268.216	77.38
268.448	87.38
268.681	78.38
268.913	85.38
269.145	86.38
269.377	75.38
269.609	79.38
269.841	80.38
270.073	77.38
270.306	81.38
270.538	68.38
270.77	91.38
271.002	77.38
271.234	77.38
271.466	70.38
271.698	91.38
271.93	88.38
272.162	79.38
272.394	95.38
272.626	85.38
272.858	74.38
273.09	75.38
273.322	74.38
273.553	70.38
273.785	72.38
274.017	89.38
274.249	83.38
274.481	78.38
274.713	83.38
274.945	78.38
275.176	80.38
275.408	73.38
275.64	74.38
275.872	79.38
276.104	77.38
276.335	95.38
276.567	88.38
276.799	109.38
277.031	95.38
277.262	87.38
277.494	66.38
277.726	70.38
277.957	75.38
278.189	85.38
278.421	98.38
278.652	78.38
278.884	71.38
279.115	87.38
279.347	89.38
279.579	91.38
279.81	79.38
280.042	74.38
280.273	83.38
280.505	77.38
280.736	69.38
280.968	90.38
281.199	79.38
281.431	69.38
281.662	74.38
281.894	77.38
282.125	65.38
282.356	87.38
282.588	117.38
282.819	100.38
283.051	81.38
283.282	70.38
283.513	84.38
283.745	83.38
283.976	62.38
284.207	73.38
284.439	85.38
284.67	83.38
284.901	91.38
285.132	80.38
285.364	85.38
285.595	90.38
285.826	67.38
286.057	81.38
286.288	93.38
286.52	82.38
286.751	79.38
286.982	83.38
287.213	79.38
287.444	86.38
287.675	81.38
287.906	81.38
288.138	89.38
288.369	87.38
288.6	78.38
288.831	87.38
289.062	90.38
289.293	79.38
289.524	85.38
289.755	89.38
289.986	92.38
290.217	87.38
290.448	85.38
290.679	73.38
290.91	94.38
291.141	79.38
291.371	82.38
291.602	93.38
291.833	80.38
292.064	82.38
292.295	81.38
292.526	79.38
292.757	83.38
292.987	88.38
293.218	88.38
293.449	74.38
293.68	101.38
293.91	88.38
294.141	90.38
294.372	78.38
294.603	74.38
294.833	77.38
295.064	83.38
295.295	83.38
295.525	88.38
295.756	101.38
295.987	105.38
296.217	127.38
296.448	99.38
296.679	81.38
296.909	94.38
297.14	89.38
297.37	101.38
297.601	75.38
297.831	72.38
298.062	72.38
298.292	77.38
298.523	90.38
298.753	77.38
298.984	93.38
299.214	85.38
299.445	77.38
299.675	93.38
299.905	90.38
300.136	87.38
300.366	88.38
300.597	98.38
300.827	88.38
301.057	96.38
301.288	96.38
301.518	86.38
301.748	85.38
301.979	90.38
302.209	87.38
302.439	89.38
302.669	91.38
302.9	86.38
303.13	80.38
303.36	95.38
303.59	89.38
303.82	90.38
304.051	89.38
304.281	99.38
304.511	106.38
304.741	80.38
304.971	89.38
305.201	86.38
305.431	77.38
305.661	77.38
305.891	89.38
306.121	96.38
306.352	98.38
306.582	93.38
306.812	86.38
307.042	85.38
307.272	98.38
307.502	92.38
307.731	102.38
307.961	90.38
308.191	89.38
308.421	71.38
308.651	84.38
308.881	94.38
309.111	86.38
309.341	86.38
309.571	99.38
309.8	86.38
310.03	103.38
310.26	88.38
310.49	89.38
310.72	93.38
310.949	110.38
311.179	94.38
311.409	80.38
311.639	85.38
311.868	80.38
312.098	89.38
312.328	90.38
312.557	92.38
312.787	79.38
313.017	94.38
313.246	86.38
313.476	98.38
313.706	81.38
313.935	95.38
314.165	88.38
314.394	89.38
314.624	95.38
314.853	87.38
315.083	78.38
315.312	89.38
315.542	95.38
315.771	85.38
316.001	91.38
316.23	86.38
316.46	89.38
316.689	90.38
316.919	82.38
317.148	92.38
317.377	99.38
317.607	106.38
317.836	94.38
318.065	97.38
318.295	87.38
318.524	83.38
318.753	94.38
318.983	93.38
319.212	95.38
319.441	94.38
319.67	89.38
319.9	71.38
320.129	82.38
320.358	74.38
320.587	100.38
320.816	98.38
321.046	100.38
321.275	91.38
321.504	91.38
321.733	96.38
321.962	102.38
322.191	108.38
322.42	105.38
322.649	99.38
322.878	107.38
323.108	104.38
323.337	118.38
323.566	122.38
323.795	125.38
324.024	183.38
324.253	355.38
324.482	797.38
324.71	1574.38
324.939	2147.38
325.168	781.38
325.397	233.38
325.626	161.38
325.855	128.38
326.084	116.38
326.313	120.38
326.542	138.38
326.77	225.38
326.999	433.38
327.228	913.38
327.457	1709.38
327.686	1322.38
327.914	339.38
328.143	177.38
328.372	134.38
328.6	117.38
328.829	106.38
329.058	107.38
329.287	121.38
329.515	112.38
329.744	113.38
329.972	98.38
330.201	93.38
330.43	117.38
330.658	116.38
330.887	113.38
331.115	102.38
331.344	94.38
331.572	93.38
331.801	101.38
332.03	101.38
332.258	77.38
332.486	79.38
332.715	81.38
332.943	92.38
333.172	88.38
333.4	98.38
333.629	104.38
333.857	106.38
334.085	103.38
334.314	105.38
334.542	128.38
334.771	117.38
334.999	99.38
335.227	94.38
335.455	91.38
335.684	88.38
335.912	83.38
336.14	88.38
336.369	92.38
336.597	81.38
336.825	96.38
337.053	84.38
337.281	80.38
337.51	87.38
337.738	103.38
337.966	89.38
338.194	85.38
338.422	91.38
338.65	92.38
338.878	79.38
339.106	84.38
339.334	85.38
339.562	86.38
339.79	82.38
340.018	69.38
340.246	89.38
340.474	95.38
340.702	93.38
340.93	88.38
341.158	89.38
341.386	93.38
341.614	89.38
341.842	103.38
342.07	77.38
342.298	91.38
342.526	89.38
342.754	90.38
342.981	73.38
343.209	83.38
343.437	97.38
343.665	84.38
343.893	89.38
344.12	85.38
344.348	74.38
344.576	86.38
344.804	66.38
345.031	97.38
345.259	89.38
345.487	95.38
345.714	104.38
345.942	92.38
346.17	88.38
346.397	97.38
346.625	100.38
346.853	90.38
347.08	90.38
347.308	107.38
347.535	99.38
347.763	83.38
347.99	91.38
348.218	93.38
348.445	94.38
348.673	93.38
348.9	92.38
349.128	90.38
349.355	97.38
349.583	92.38
349.81	68.38
350.037	85.38
350.265	93.38
350.492	91.38
350.72	90.38
350.947	107.38
351.174	93.38
351.402	114.38
351.629	97.38
351.856	101.38
352.083	111.38
352.311	102.38
352.538	101.38
352.765	90.38
352.992	119.38
353.22	112.38
353.447	99.38
353.674	93.38
353.901	95.38
354.128	88.38
354.355	94.38
354.583	88.38
354.81	82.38
355.037	98.38
355.264	96.38
355.491	94.38
355.718	82.38
355.945	75.38
356.172	95.38
356.399	84.38
356.626	93.38
356.853	91.38
357.08	93.38
357.307	95.38
357.534	80.38
357.761	95.38
357.988	72.38
358.215	92.38
358.441	87.38
358.668	90.38
358.895	87.38
359.122	85.38
359.349	99.38
359.576	98.38
359.802	101.38
360.029	101.38
360.256	83.38
360.483	96.38
360.709	89.38
360.936	81.38
361.163	85.38
361.39	87.38
361.616	85.38
361.843	89.38
362.07	86.38
362.296	83.38
362.523	91.38
362.749	84.38
362.976	91.38
363.203	82.38
363.429	88.38
363.656	82.38
363.882	83.38
364.109	90.38
364.335	88.38
364.562	86.38
364.788	95.38
365.015	93.38
365.241	89.38
365.468	87.38
365.694	111.38
365.92	88.38
366.147	96.38
366.373	93.38
366.599	94.38
366.826	93.38
367.052	102.38
367.278	77.38
367.505	102.38
367.731	75.38
367.957	84.38
368.184	81.38
368.41	100.38
368.636	102.38
368.862	114.38
369.089	102.38
369.315	97.38
369.541	90.38
369.767	83.38
369.993	79.38
370.219	94.38
370.445	82.38
370.672	84.38
370.898	87.38
371.124	67.38
371.35	92.38
371.576	81.38
371.802	85.38
372.028	87.38
372.254	85.38
372.48	69.38
372.706	71.38
372.932	86.38
373.158	91.38
373.384	97.38
373.61	76.38
373.835	73.38
374.061	69.38
374.287	87.38
374.513	96.38
374.739	77.38
374.965	89.38
375.191	96.38
375.416	86.38
375.642	83.38
375.868	75.38
376.094	90.38
376.319	87.38
376.545	88.38
376.771	89.38
376.997	97.38
377.222	83.38
377.448	99.38
377.674	77.38
377.899	80.38
378.125	93.38
378.35	97.38
378.576	101.38
378.802	87.38
379.027	100.38
379.253	89.38
379.478	100.38
379.704	88.38
379.929	93.38
380.155	89.38
380.38	104.38
380.606	91.38
380.831	93.38
381.057	99.38
381.282	87.38
381.507	84.38
381.733	113.38
381.958	91.38
382.184	75.38
382.409	102.38
382.634	87.38
382.86	95.38
383.085	94.38
383.31	89.38
383.535	86.38
383.761	92.38
383.986	93.38
384.211	83.38
384.436	88.38
384.662	99.38
384.887	109.38
385.112	99.38
385.337	95.38
385.562	109.38
385.787	107.38
386.013	96.38
386.238	104.38
386.463	91.38
386.688	116.38
386.913	100.38
387.138	104.38
387.363	92.38
387.588	108.38
387.813	106.38
388.038	89.38
388.263	129.38
388.488	111.38
388.713	100.38
388.938	101.38
389.163	102.38
389.387	90.38
389.612	85.38
389.837	83.38
390.062	99.38
390.287	81.38
390.512	82.38
390.736	99.38
390.961	98.38
391.186	94.38
391.411	86.38
391.636	87.38
391.86	83.38
392.085	67.38
392.31	74.38
392.534	94.38
392.759	91.38
392.984	78.38
393.208	76.38
393.433	87.38
393.658	87.38
393.882	79.38
394.107	86.38
394.331	82.38
394.556	64.38
394.78	87.38
395.005	93.38
395.229	81.38
395.454	84.38
395.678	83.38
395.903	80.38
396.127	81.38
396.352	89.38
396.576	94.38
396.801	79.38
397.025	93.38
397.249	88.38
397.474	90.38
397.698	84.38
397.922	91.38
398.147	90.38
398.371	87.38
398.595	82.38
398.82	82.38
399.044	88.38
399.268	86.38
399.492	89.38
399.717	86.38
399.941	81.38
400.165	98.38
400.389	100.38
400.613	89.38
400.837	85.38
401.062	87.38
401.286	89.38
401.51	69.38
401.734	79.38
401.958	88.38
402.182	113.38
402.406	130.38
402.63	111.38
402.854	78.38
403.078	106.38
403.302	89.38
403.526	96.38
403.75	100.38
403.974	97.38
404.198	88.38
404.422	83.38
404.645	91.38
404.869	93.38
405.093	84.38
405.317	97.38
405.541	103.38
405.765	90.38
405.988	99.38
406.212	147.38
406.436	171.38
406.66	137.38
406.883	85.38
407.107	97.38
407.331	95.38
407.555	104.38
407.778	90.38
408.002	84.38
408.226	83.38
408.449	88.38
408.673	89.38
408.896	79.38
409.12	86.38
409.344	79.38
409.567	79.38
409.791	82.38
410.014	101.38
410.238	79.38
410.461	99.38
410.685	105.38
410.908	99.38
411.132	112.38
411.355	112.38
411.578	84.38
411.802	101.38
412.025	84.38
412.249	81.38
412.472	87.38
412.695	113.38
412.919	95.38
413.142	96.38
413.365	98.38
413.589	78.38
413.812	91.38
414.035	95.38
414.258	89.38
414.482	89.38
414.705	87.38
414.928	91.38
415.151	87.38
415.374	102.38
415.597	86.38
415.821	71.38
416.044	94.38
416.267	101.38
416.49	92.38
416.713	81.38
416.936	86.38
417.159	73.38
417.382	97.38
417.605	91.38
417.828	86.38
418.051	80.38
418.274	89.38
418.497	90.38
418.72	81.38
418.943	94.38
419.166	97.38
419.389	97.38
419.611	79.38
419.834	74.38
420.057	95.38
420.28	94.38
420.503	89.38
420.726	69.38
420.948	92.38
421.171	75.38
421.394	94.38
421.617	85.38
421.839	75.38
422.062	85.38
422.285	99.38
422.507	106.38
422.73	97.38
422.953	88.38
423.175	92.38
423.398	81.38
423.621	83.38
423.843	82.38
424.066	90.38
424.288	80.38
424.511	87.38
424.733	99.38
424.956	103.38
425.178	95.38
425.401	89.38
425.623	90.38
425.846	74.38
426.068	89.38
426.291	93.38
426.513	97.38
426.735	92.38
426.958	100.38
427.18	105.38
427.402	126.38
427.625	159.38
427.847	120.38
428.069	103.38
428.292	86.38
428.514	90.38
428.736	76.38
428.958	85.38
429.181	92.38
429.403	74.38
429.625	89.38
429.847	81.38
430.069	97.38
430.292	71.38
430.514	88.38
430.736	87.38
430.958	80.38
431.18	78.38
431.402	74.38
431.624	83.38
431.846	89.38
432.068	91.38
432.29	90.38
432.512	79.38
432.734	83.38
432.956	77.38
433.178	95.38
433.4	87.38
433.622	82.38
433.844	101.38
434.066	81.38
434.287	98.38
434.509	88.38
434.731	87.38
434.953	69.38
435.175	74.38
435.397	90.38
435.618	93.38
435.84	99.38
436.062	118.38
436.284	105.38
436.505	98.38
436.727	101.38
436.949	91.38
437.17	79.38
437.392	80.38
437.614	93.38
437.835	92.38
438.057	112.38
438.278	107.38
438.5	98.38
438.721	113.38
438.943	104.38
439.165	101.38
439.386	94.38
439.608	90.38
439.829	92.38
440.05	117.38
440.272	115.38
440.493	104.38
440.715	89.38
440.936	84.38
441.158	103.38
441.379	81.38
441.6	86.38
441.822	73.38
442.043	97.38
442.264	102.38
442.486	93.38
442.707	77.38
442.928	94.38
443.149	125.38
443.371	116.38
443.592	115.38
443.813	104.38
444.034	80.38
444.255	83.38
444.476	97.38
444.698	93.38
444.919	82.38
445.14	121.38
445.361	111.38
445.582	106.38
445.803	124.38
446.024	128.38
446.245	115.38
446.466	121.38
446.687	94.38
446.908	92.38
447.129	85.38
447.35	90.38
447.571	85.38
447.792	86.38
448.013	99.38
448.234	100.38
448.455	81.38
448.675	111.38
448.896	119.38
449.117	91.38
449.338	92.38
449.559	125.38
449.779	122.38
450	88.38
450.221	93.38
450.442	88.38
450.662	73.38
450.883	99.38
451.104	104.38
451.324	97.38
451.545	90.38
451.766	79.38
451.986	75.38
452.207	81.38
452.428	98.38
452.648	83.38
452.869	89.38
453.089	105.38
453.31	100.38
453.53	80.38
453.751	99.38
453.971	94.38
454.192	92.38
454.412	85.38
454.633	80.38
454.853	88.38
455.073	87.38
455.294	88.38
455.514	83.38
455.734	83.38
455.955	86.38
456.175	95.38
456.395	84.38
456.616	97.38
456.836	71.38
457.056	89.38
457.276	86.38
457.497	72.38
457.717	88.38
457.937	86.38
458.157	98.38
458.377	87.38
458.598	97.38
458.818	120.38
459.038	142.38
459.258	96.38
459.478	84.38
459.698	72.38
459.918	97.38
460.138	82.38
460.358	86.38
460.578	88.38
460.798	80.38
461.018	89.38
461.238	85.38
461.458	81.38
461.678	82.38
461.898	80.38
462.118	96.38
462.338	90.38
462.558	88.38
462.777	69.38
462.997	82.38
463.217	81.38
463.437	92.38
463.657	83.38
463.876	89.38
464.096	77.38
464.316	86.38
464.536	83.38
464.755	82.38
464.975	115.38
465.195	138.38
465.414	123.38
465.634	84.38
465.854	83.38
466.073	82.38
466.293	89.38
466.512	82.38
466.732	68.38
466.951	72.38
467.171	85.38
467.391	89.38
467.61	95.38
467.829	77.38
468.049	106.38
468.268	101.38
468.488	85.38
468.707	74.38
468.927	73.38
469.146	90.38
469.365	86.38
469.585	87.38
469.804	98.38
470.023	98.38
470.243	78.38
470.462	96.38
470.681	83.38
470.901	93.38
471.12	93.38
471.339	77.38
471.558	88.38
471.777	91.38
471.997	73.38
472.216	118.38
472.435	126.38
472.654	77.38
472.873	85.38
473.092	88.38
473.311	74.38
473.53	86.38
473.749	93.38
473.968	106.38
474.187	94.38
474.406	89.38
474.625	68.38
474.844	88.38
475.063	87.38
475.282	89.38
475.501	86.38
475.72	84.38
475.939	87.38
476.158	96.38
476.377	81.38
476.596	91.38
476.814	85.38
477.033	80.38
477.252	77.38
477.471	79.38
477.69	81.38
477.908	79.38
478.127	80.38
478.346	84.38
478.564	91.38
478.783	92.38
479.002	89.38
479.22	88.38
479.439	103.38
479.658	112.38
479.876	91.38
480.095	67.38
480.313	96.38
480.532	83.38
480.751	90.38
480.969	105.38
481.188	161.38
481.406	142.38
481.624	93.38
481.843	92.38
482.061	86.38
482.28	80.38
482.498	82.38
482.717	81.38
482.935	95.38
483.153	84.38
483.372	90.38
483.59	98.38
483.808	73.38
484.027	73.38
484.245	85.38
484.463	92.38
484.681	99.38
484.9	94.38
485.118	96.38
485.336	87.38
485.554	98.38
485.772	94.38
485.99	104.38
486.209	93.38
486.427	92.38
486.645	101.38
486.863	121.38
487.081	108.38
487.299	106.38
487.517	99.38
487.735	85.38
487.953	83.38
488.171	75.38
488.389	75.38
488.607	86.38
488.825	84.38
489.043	70.38
489.261	88.38
489.479	85.38
489.696	83.38
489.914	101.38
490.132	100.38
490.35	91.38
490.568	78.38
490.786	86.38
491.003	95.38
491.221	80.38
491.439	93.38
491.657	100.38
491.874	85.38
492.092	85.38
492.31	84.38
492.527	82.38
492.745	89.38
492.963	100.38
493.18	94.38
493.398	89.38
493.615	89.38
493.833	86.38
494.05	99.38
494.268	92.38
494.485	87.38
494.703	89.38
494.92	82.38
495.138	86.38
495.355	93.38
495.573	95.38
495.79	87.38
496.008	100.38
496.225	89.38
496.442	85.38
496.66	86.38
496.877	101.38
497.094	90.38
497.312	88.38
497.529	82.38
497.746	95.38
497.963	86.38
498.181	99.38
498.398	95.38
498.615	98.38
498.832	105.38
499.049	95.38
499.267	98.38
499.484	85.38
499.701	94.38
499.918	95.38
500.135	79.38
500.352	97.38
500.569	86.38
500.786	89.38
501.003	73.38
501.22	77.38
501.437	80.38
501.654	91.38
501.871	98.38
502.088	96.38
502.305	89.38
502.522	87.38
502.739	94.38
502.956	84.38
503.172	77.38
503.389	93.38
503.606	92.38
503.823	97.38
504.04	94.38
504.256	79.38
504.473	86.38
504.69	89.38
504.907	93.38
505.123	79.38
505.34	97.38
505.557	90.38
505.773	106.38
505.99	95.38
506.207	94.38
506.423	85.38
506.64	94.38
506.856	83.38
507.073	71.38
507.289	105.38
507.506	90.38
507.722	107.38
507.939	107.38
508.155	101.38
508.372	81.38
508.588	94.38
508.805	78.38
509.021	91.38
509.238	95.38
509.454	94.38
509.67	88.38
509.887	100.38
510.103	117.38
510.319	191.38
510.536	617.38
510.752	1785.38
510.968	502.38
511.184	134.38
511.401	117.38
511.617	95.38
511.833	88.38
512.049	86.38
512.265	93.38
512.481	101.38
512.698	82.38
512.914	68.38
513.13	91.38
513.346	79.38
513.562	92.38
513.778	100.38
513.994	100.38
514.21	105.38
514.426	104.38
514.642	111.38
514.858	107.38
515.074	136.38
515.29	355.38
515.506	1113.38
515.721	392.38
515.937	132.38
516.153	117.38
516.369	96.38
516.585	109.38
516.801	79.38
517.016	78.38
