Data from Uncirc_1981_H10_HRD10591_00053.txt Node
Date: Wed Jan 03 12:33:18 EST 2024
User: Yrep
Spectrometer: HR+D1059
Trigger mode: 1
Integration Time (sec): 1.000000E-1
Scans to average: 1
Electric dark correction enabled: true
Nonlinearity correction enabled: false
Boxcar width: 0
XAxis mode: Wavelengths
Number of Pixels in Spectrum: 2048
>>>>>Begin Spectral Data<<<<<
223.165	-5.25
223.4	-5.25
223.635	-5.25
223.869	-22.25
224.104	-8.25
224.338	-21.25
224.573	-12.25
224.808	-5.25
225.042	-12.25
225.277	-5.25
225.511	-6.25
225.746	4.75
225.98	0.75
226.215	3.75
226.449	16.75
226.683	14.75
226.918	19.75
227.152	37.75
227.387	35.75
227.621	44.75
227.856	27.75
228.09	42.75
228.324	42.75
228.559	55.75
228.793	57.75
229.027	46.75
229.262	55.75
229.496	72.75
229.73	79.75
229.964	85.75
230.199	69.75
230.433	63.75
230.667	80.75
230.901	78.75
231.136	58.75
231.37	81.75
231.604	91.75
231.838	84.75
232.072	74.75
232.306	73.75
232.541	76.75
232.775	79.75
233.009	84.75
233.243	79.75
233.477	80.75
233.711	94.75
233.945	75.75
234.179	66.75
234.413	86.75
234.647	83.75
234.881	73.75
235.115	66.75
235.349	85.75
235.583	86.75
235.817	84.75
236.051	77.75
236.285	51.75
236.519	82.75
236.753	64.75
236.987	60.75
237.221	83.75
237.455	81.75
237.689	75.75
237.922	73.75
238.156	67.75
238.39	81.75
238.624	76.75
238.858	83.75
239.091	71.75
239.325	85.75
239.559	95.75
239.793	74.75
240.027	91.75
240.26	74.75
240.494	80.75
240.728	81.75
240.961	68.75
241.195	84.75
241.429	67.75
241.662	81.75
241.896	79.75
242.13	78.75
242.363	81.75
242.597	75.75
242.83	67.75
243.064	70.75
243.298	81.75
243.531	64.75
243.765	77.75
243.998	87.75
244.232	81.75
244.465	73.75
244.699	85.75
244.932	65.75
245.166	85.75
245.399	60.75
245.633	68.75
245.866	85.75
246.099	72.75
246.333	71.75
246.566	80.75
246.8	74.75
247.033	72.75
247.266	68.75
247.5	67.75
247.733	76.75
247.966	64.75
248.2	77.75
248.433	80.75
248.666	68.75
248.899	85.75
249.133	81.75
249.366	86.75
249.599	84.75
249.832	85.75
250.066	76.75
250.299	74.75
250.532	86.75
250.765	81.75
250.998	87.75
251.231	73.75
251.465	84.75
251.698	76.75
251.931	85.75
252.164	81.75
252.397	85.75
252.63	82.75
252.863	83.75
253.096	69.75
253.329	86.75
253.562	81.75
253.795	72.75
254.028	79.75
254.261	81.75
254.494	71.75
254.727	76.75
254.96	65.75
255.193	65.75
255.426	73.75
255.659	76.75
255.892	82.75
256.124	79.75
256.357	73.75
256.59	75.75
256.823	76.75
257.056	86.75
257.289	67.75
257.521	71.75
257.754	69.75
257.987	83.75
258.22	66.75
258.452	85.75
258.685	70.75
258.918	65.75
259.151	82.75
259.383	73.75
259.616	75.75
259.849	72.75
260.081	95.75
260.314	71.75
260.547	76.75
260.779	100.75
261.012	82.75
261.244	72.75
261.477	87.75
261.71	84.75
261.942	112.75
262.175	100.75
262.407	79.75
262.64	76.75
262.872	79.75
263.105	75.75
263.337	93.75
263.57	79.75
263.802	82.75
264.035	76.75
264.267	58.75
264.499	90.75
264.732	88.75
264.964	76.75
265.197	80.75
265.429	79.75
265.661	87.75
265.894	81.75
266.126	83.75
266.358	69.75
266.591	71.75
266.823	71.75
267.055	88.75
267.287	62.75
267.52	75.75
267.752	67.75
267.984	90.75
268.216	67.75
268.448	85.75
268.681	86.75
268.913	92.75
269.145	95.75
269.377	69.75
269.609	73.75
269.841	77.75
270.073	80.75
270.306	75.75
270.538	89.75
270.77	74.75
271.002	83.75
271.234	85.75
271.466	83.75
271.698	95.75
271.93	83.75
272.162	81.75
272.394	91.75
272.626	81.75
272.858	76.75
273.09	73.75
273.322	81.75
273.553	76.75
273.785	74.75
274.017	92.75
274.249	73.75
274.481	86.75
274.713	79.75
274.945	90.75
275.176	90.75
275.408	87.75
275.64	83.75
275.872	83.75
276.104	91.75
276.335	88.75
276.567	86.75
276.799	109.75
277.031	89.75
277.262	105.75
277.494	72.75
277.726	90.75
277.957	86.75
278.189	94.75
278.421	80.75
278.652	85.75
278.884	72.75
279.115	73.75
279.347	75.75
279.579	97.75
279.81	87.75
280.042	84.75
280.273	91.75
280.505	83.75
280.736	87.75
280.968	81.75
281.199	68.75
281.431	72.75
281.662	91.75
281.894	76.75
282.125	90.75
282.356	105.75
282.588	118.75
282.819	91.75
283.051	96.75
283.282	88.75
283.513	82.75
283.745	100.75
283.976	77.75
284.207	89.75
284.439	89.75
284.67	95.75
284.901	100.75
285.132	83.75
285.364	77.75
285.595	84.75
285.826	69.75
286.057	91.75
286.288	79.75
286.52	92.75
286.751	80.75
286.982	94.75
287.213	85.75
287.444	95.75
287.675	83.75
287.906	89.75
288.138	87.75
288.369	79.75
288.6	87.75
288.831	78.75
289.062	76.75
289.293	98.75
289.524	73.75
289.755	87.75
289.986	68.75
290.217	92.75
290.448	97.75
290.679	73.75
290.91	87.75
291.141	86.75
291.371	82.75
291.602	89.75
291.833	90.75
292.064	75.75
292.295	97.75
292.526	99.75
292.757	85.75
292.987	89.75
293.218	88.75
293.449	88.75
293.68	86.75
293.91	86.75
294.141	100.75
294.372	96.75
294.603	83.75
294.833	95.75
295.064	94.75
295.295	89.75
295.525	81.75
295.756	96.75
295.987	110.75
296.217	121.75
296.448	100.75
296.679	97.75
296.909	82.75
297.14	99.75
297.37	88.75
297.601	80.75
297.831	86.75
298.062	87.75
298.292	84.75
298.523	81.75
298.753	110.75
298.984	98.75
299.214	83.75
299.445	98.75
299.675	102.75
299.905	96.75
300.136	97.75
300.366	87.75
300.597	88.75
300.827	89.75
301.057	88.75
301.288	103.75
301.518	108.75
301.748	100.75
301.979	90.75
302.209	77.75
302.439	83.75
302.669	89.75
302.9	99.75
303.13	91.75
303.36	90.75
303.59	112.75
303.82	97.75
304.051	104.75
304.281	96.75
304.511	75.75
304.741	82.75
304.971	73.75
305.201	83.75
305.431	98.75
305.661	88.75
305.891	93.75
306.121	82.75
306.352	89.75
306.582	96.75
306.812	93.75
307.042	96.75
307.272	99.75
307.502	98.75
307.731	97.75
307.961	93.75
308.191	75.75
308.421	87.75
308.651	88.75
308.881	95.75
309.111	85.75
309.341	90.75
309.571	87.75
309.8	103.75
310.03	89.75
310.26	97.75
310.49	104.75
310.72	96.75
310.949	89.75
311.179	85.75
311.409	98.75
311.639	96.75
311.868	89.75
312.098	99.75
312.328	98.75
312.557	97.75
312.787	95.75
313.017	105.75
313.246	91.75
313.476	85.75
313.706	87.75
313.935	95.75
314.165	98.75
314.394	85.75
314.624	101.75
314.853	81.75
315.083	89.75
315.312	86.75
315.542	93.75
315.771	80.75
316.001	98.75
316.23	93.75
316.46	87.75
316.689	88.75
316.919	90.75
317.148	98.75
317.377	104.75
317.607	99.75
317.836	83.75
318.065	90.75
318.295	96.75
318.524	98.75
318.753	95.75
318.983	98.75
319.212	104.75
319.441	98.75
319.67	103.75
319.9	105.75
320.129	106.75
320.358	84.75
320.587	91.75
320.816	108.75
321.046	106.75
321.275	91.75
321.504	87.75
321.733	87.75
321.962	97.75
322.191	112.75
322.42	103.75
322.649	112.75
322.878	114.75
323.108	122.75
323.337	113.75
323.566	131.75
323.795	133.75
324.024	201.75
324.253	387.75
324.482	808.75
324.71	1695.75
324.939	2229.75
325.168	813.75
325.397	243.75
325.626	151.75
325.855	116.75
326.084	130.75
326.313	129.75
326.542	138.75
326.77	219.75
326.999	489.75
327.228	902.75
327.457	1741.75
327.686	1417.75
327.914	375.75
328.143	174.75
328.372	141.75
328.6	117.75
328.829	118.75
329.058	111.75
329.287	132.75
329.515	107.75
329.744	108.75
329.972	100.75
330.201	100.75
330.43	124.75
330.658	111.75
330.887	134.75
331.115	108.75
331.344	101.75
331.572	97.75
331.801	112.75
332.03	101.75
332.258	97.75
332.486	100.75
332.715	86.75
332.943	99.75
333.172	101.75
333.4	96.75
333.629	118.75
333.857	113.75
334.085	106.75
334.314	92.75
334.542	132.75
334.771	121.75
334.999	98.75
335.227	87.75
335.455	105.75
335.684	83.75
335.912	101.75
336.14	110.75
336.369	83.75
336.597	99.75
336.825	99.75
337.053	86.75
337.281	97.75
337.51	97.75
337.738	93.75
337.966	76.75
338.194	94.75
338.422	71.75
338.65	96.75
338.878	102.75
339.106	88.75
339.334	87.75
339.562	109.75
339.79	89.75
340.018	87.75
340.246	86.75
340.474	81.75
340.702	91.75
340.93	75.75
341.158	105.75
341.386	91.75
341.614	89.75
341.842	90.75
342.07	104.75
342.298	82.75
342.526	72.75
342.754	87.75
342.981	89.75
343.209	102.75
343.437	100.75
343.665	93.75
343.893	91.75
344.12	93.75
344.348	104.75
344.576	89.75
344.804	92.75
345.031	81.75
345.259	93.75
345.487	92.75
345.714	82.75
345.942	88.75
346.17	85.75
346.397	90.75
346.625	86.75
346.853	83.75
347.08	87.75
347.308	83.75
347.535	84.75
347.763	104.75
347.99	103.75
348.218	107.75
348.445	90.75
348.673	105.75
348.9	101.75
349.128	100.75
349.355	100.75
349.583	103.75
349.81	90.75
350.037	97.75
350.265	106.75
350.492	91.75
350.72	95.75
350.947	99.75
351.174	102.75
351.402	114.75
351.629	106.75
351.856	100.75
352.083	108.75
352.311	102.75
352.538	97.75
352.765	101.75
352.992	108.75
353.22	119.75
353.447	99.75
353.674	87.75
353.901	116.75
354.128	107.75
354.355	87.75
354.583	108.75
354.81	95.75
355.037	87.75
355.264	95.75
355.491	93.75
355.718	91.75
355.945	85.75
356.172	105.75
356.399	94.75
356.626	91.75
356.853	92.75
357.08	93.75
357.307	83.75
357.534	112.75
357.761	94.75
357.988	105.75
358.215	92.75
358.441	86.75
358.668	80.75
358.895	86.75
359.122	96.75
359.349	90.75
359.576	86.75
359.802	98.75
360.029	93.75
360.256	119.75
360.483	99.75
360.709	83.75
360.936	92.75
361.163	86.75
361.39	91.75
361.616	85.75
361.843	90.75
362.07	91.75
362.296	80.75
362.523	107.75
362.749	104.75
362.976	82.75
363.203	95.75
363.429	87.75
363.656	92.75
363.882	95.75
364.109	99.75
364.335	107.75
364.562	87.75
364.788	101.75
365.015	75.75
365.241	99.75
365.468	99.75
365.694	96.75
365.92	100.75
366.147	93.75
366.373	89.75
366.599	91.75
366.826	83.75
367.052	102.75
367.278	94.75
367.505	102.75
367.731	91.75
367.957	85.75
368.184	89.75
368.41	110.75
368.636	92.75
368.862	117.75
369.089	104.75
369.315	98.75
369.541	93.75
369.767	86.75
369.993	93.75
370.219	87.75
370.445	106.75
370.672	85.75
370.898	112.75
371.124	89.75
371.35	87.75
371.576	105.75
371.802	77.75
372.028	81.75
372.254	111.75
372.48	98.75
372.706	86.75
372.932	75.75
373.158	92.75
373.384	98.75
373.61	93.75
373.835	95.75
374.061	87.75
374.287	91.75
374.513	98.75
374.739	105.75
374.965	76.75
375.191	94.75
375.416	90.75
375.642	62.75
375.868	95.75
376.094	88.75
376.319	96.75
376.545	87.75
376.771	87.75
376.997	92.75
377.222	94.75
377.448	103.75
377.674	109.75
377.899	93.75
378.125	90.75
378.35	92.75
378.576	86.75
378.802	103.75
379.027	90.75
379.253	101.75
379.478	92.75
379.704	82.75
379.929	97.75
380.155	68.75
380.38	92.75
380.606	102.75
380.831	87.75
381.057	105.75
381.282	99.75
381.507	103.75
381.733	95.75
381.958	99.75
382.184	97.75
382.409	99.75
382.634	105.75
382.86	88.75
383.085	99.75
383.31	106.75
383.535	106.75
383.761	92.75
383.986	84.75
384.211	100.75
384.436	84.75
384.662	107.75
384.887	107.75
385.112	112.75
385.337	100.75
385.562	108.75
385.787	116.75
386.013	106.75
386.238	115.75
386.463	103.75
386.688	103.75
386.913	109.75
387.138	99.75
387.363	111.75
387.588	109.75
387.813	100.75
388.038	115.75
388.263	111.75
388.488	108.75
388.713	93.75
388.938	99.75
389.163	100.75
389.387	97.75
389.612	98.75
389.837	98.75
390.062	81.75
390.287	85.75
390.512	76.75
390.736	83.75
390.961	100.75
391.186	96.75
391.411	94.75
391.636	100.75
391.86	75.75
392.085	84.75
392.31	81.75
392.534	87.75
392.759	86.75
392.984	96.75
393.208	74.75
393.433	74.75
393.658	93.75
393.882	104.75
394.107	90.75
394.331	88.75
394.556	93.75
394.78	67.75
395.005	85.75
395.229	74.75
395.454	104.75
395.678	87.75
395.903	95.75
396.127	95.75
396.352	89.75
396.576	91.75
396.801	76.75
397.025	82.75
397.249	77.75
397.474	92.75
397.698	93.75
397.922	76.75
398.147	83.75
398.371	90.75
398.595	86.75
398.82	88.75
399.044	85.75
399.268	86.75
399.492	89.75
399.717	95.75
399.941	102.75
400.165	88.75
400.389	86.75
400.613	84.75
400.837	81.75
401.062	84.75
401.286	98.75
401.51	86.75
401.734	98.75
401.958	106.75
402.182	113.75
402.406	149.75
402.63	119.75
402.854	93.75
403.078	97.75
403.302	96.75
403.526	97.75
403.75	77.75
403.974	82.75
404.198	84.75
404.422	70.75
404.645	87.75
404.869	82.75
405.093	97.75
405.317	103.75
405.541	98.75
405.765	109.75
405.988	96.75
406.212	156.75
406.436	207.75
406.66	130.75
406.883	101.75
407.107	95.75
407.331	87.75
407.555	89.75
407.778	90.75
408.002	89.75
408.226	69.75
408.449	91.75
408.673	77.75
408.896	87.75
409.12	92.75
409.344	87.75
409.567	74.75
409.791	76.75
410.014	90.75
410.238	83.75
410.461	74.75
410.685	90.75
410.908	103.75
411.132	114.75
411.355	90.75
411.578	76.75
411.802	86.75
412.025	93.75
412.249	92.75
412.472	94.75
412.695	89.75
412.919	89.75
413.142	94.75
413.365	93.75
413.589	78.75
413.812	76.75
414.035	89.75
414.258	77.75
414.482	91.75
414.705	100.75
414.928	100.75
415.151	88.75
415.374	85.75
415.597	98.75
415.821	95.75
416.044	86.75
416.267	80.75
416.49	81.75
416.713	86.75
416.936	83.75
417.159	95.75
417.382	99.75
417.605	88.75
417.828	93.75
418.051	85.75
418.274	93.75
418.497	86.75
418.72	93.75
418.943	74.75
419.166	89.75
419.389	101.75
419.611	83.75
419.834	88.75
420.057	73.75
420.28	85.75
420.503	89.75
420.726	91.75
420.948	86.75
421.171	102.75
421.394	104.75
421.617	88.75
421.839	90.75
422.062	76.75
422.285	89.75
422.507	91.75
422.73	109.75
422.953	93.75
423.175	88.75
423.398	101.75
423.621	89.75
423.843	99.75
424.066	79.75
424.288	91.75
424.511	91.75
424.733	83.75
424.956	95.75
425.178	100.75
425.401	94.75
425.623	91.75
425.846	89.75
426.068	88.75
426.291	83.75
426.513	91.75
426.735	96.75
426.958	90.75
427.18	97.75
427.402	144.75
427.625	148.75
427.847	123.75
428.069	105.75
428.292	100.75
428.514	70.75
428.736	86.75
428.958	81.75
429.181	92.75
429.403	75.75
429.625	88.75
429.847	72.75
430.069	99.75
430.292	85.75
430.514	91.75
430.736	72.75
430.958	91.75
431.18	86.75
431.402	83.75
431.624	93.75
431.846	76.75
432.068	79.75
432.29	83.75
432.512	77.75
432.734	83.75
432.956	100.75
433.178	109.75
433.4	86.75
433.622	88.75
433.844	89.75
434.066	97.75
434.287	85.75
434.509	85.75
434.731	84.75
434.953	92.75
435.175	95.75
435.397	89.75
435.618	88.75
435.84	84.75
436.062	115.75
436.284	99.75
436.505	97.75
436.727	94.75
436.949	99.75
437.17	84.75
437.392	94.75
437.614	94.75
437.835	91.75
438.057	104.75
438.278	96.75
438.5	103.75
438.721	109.75
438.943	102.75
439.165	79.75
439.386	88.75
439.608	85.75
439.829	97.75
440.05	118.75
440.272	143.75
440.493	91.75
440.715	83.75
440.936	89.75
441.158	87.75
441.379	99.75
441.6	91.75
441.822	76.75
442.043	101.75
442.264	103.75
442.486	95.75
442.707	96.75
442.928	96.75
443.149	111.75
443.371	106.75
443.592	93.75
443.813	101.75
444.034	101.75
444.255	105.75
444.476	73.75
444.698	97.75
444.919	102.75
445.14	117.75
445.361	115.75
445.582	100.75
445.803	124.75
446.024	136.75
446.245	124.75
446.466	113.75
446.687	92.75
446.908	88.75
447.129	89.75
447.35	95.75
447.571	90.75
447.792	88.75
448.013	89.75
448.234	99.75
448.455	93.75
448.675	114.75
448.896	119.75
449.117	111.75
449.338	97.75
449.559	117.75
449.779	115.75
450	90.75
450.221	106.75
450.442	81.75
450.662	91.75
450.883	95.75
451.104	104.75
451.324	91.75
451.545	72.75
451.766	79.75
451.986	90.75
452.207	84.75
452.428	83.75
452.648	82.75
452.869	108.75
453.089	97.75
453.31	117.75
453.53	94.75
453.751	86.75
453.971	96.75
454.192	95.75
454.412	84.75
454.633	96.75
454.853	105.75
455.073	82.75
455.294	82.75
455.514	92.75
455.734	81.75
455.955	88.75
456.175	86.75
456.395	83.75
456.616	91.75
456.836	80.75
457.056	83.75
457.276	87.75
457.497	87.75
457.717	90.75
457.937	90.75
458.157	100.75
458.377	84.75
458.598	107.75
458.818	128.75
459.038	139.75
459.258	93.75
459.478	85.75
459.698	85.75
459.918	92.75
460.138	78.75
460.358	77.75
460.578	77.75
460.798	87.75
461.018	87.75
461.238	69.75
461.458	80.75
461.678	87.75
461.898	82.75
462.118	84.75
462.338	85.75
462.558	80.75
462.777	77.75
462.997	92.75
463.217	69.75
463.437	79.75
463.657	83.75
463.876	81.75
464.096	97.75
464.316	83.75
464.536	88.75
464.755	89.75
464.975	92.75
465.195	158.75
465.414	136.75
465.634	72.75
465.854	74.75
466.073	89.75
466.293	87.75
466.512	95.75
466.732	81.75
466.951	90.75
467.171	82.75
467.391	87.75
467.61	91.75
467.829	98.75
468.049	90.75
468.268	96.75
468.488	89.75
468.707	94.75
468.927	90.75
469.146	84.75
469.365	85.75
469.585	98.75
469.804	85.75
470.023	82.75
470.243	96.75
470.462	99.75
470.681	102.75
470.901	79.75
471.12	81.75
471.339	99.75
471.558	71.75
471.777	94.75
471.997	96.75
472.216	132.75
472.435	129.75
472.654	83.75
472.873	73.75
473.092	83.75
473.311	93.75
473.53	77.75
473.749	92.75
473.968	81.75
474.187	93.75
474.406	103.75
474.625	85.75
474.844	92.75
475.063	86.75
475.282	88.75
475.501	91.75
475.72	91.75
475.939	88.75
476.158	96.75
476.377	100.75
476.596	89.75
476.814	86.75
477.033	87.75
477.252	86.75
477.471	80.75
477.69	92.75
477.908	83.75
478.127	84.75
478.346	93.75
478.564	89.75
478.783	92.75
479.002	98.75
479.22	105.75
479.439	99.75
479.658	96.75
479.876	83.75
480.095	100.75
480.313	92.75
480.532	87.75
480.751	89.75
480.969	99.75
481.188	184.75
481.406	142.75
481.624	99.75
481.843	75.75
482.061	86.75
482.28	93.75
482.498	79.75
482.717	75.75
482.935	94.75
483.153	92.75
483.372	96.75
483.59	85.75
483.808	90.75
484.027	92.75
484.245	85.75
484.463	76.75
484.681	97.75
484.9	85.75
485.118	92.75
485.336	86.75
485.554	98.75
485.772	100.75
485.99	99.75
486.209	88.75
486.427	108.75
486.645	97.75
486.863	106.75
487.081	109.75
487.299	102.75
487.517	87.75
487.735	90.75
487.953	83.75
488.171	93.75
488.389	82.75
488.607	103.75
488.825	83.75
489.043	79.75
489.261	105.75
489.479	86.75
489.696	81.75
489.914	100.75
490.132	96.75
490.35	92.75
490.568	69.75
490.786	95.75
491.003	90.75
491.221	87.75
491.439	94.75
491.657	90.75
491.874	90.75
492.092	83.75
492.31	79.75
492.527	90.75
492.745	85.75
492.963	79.75
493.18	95.75
493.398	101.75
493.615	102.75
493.833	80.75
494.05	93.75
494.268	86.75
494.485	81.75
494.703	93.75
494.92	86.75
495.138	85.75
495.355	93.75
495.573	87.75
495.79	95.75
496.008	81.75
496.225	86.75
496.442	88.75
496.66	92.75
496.877	74.75
497.094	86.75
497.312	94.75
497.529	94.75
497.746	91.75
497.963	88.75
498.181	92.75
498.398	96.75
498.615	108.75
498.832	104.75
499.049	82.75
499.267	75.75
499.484	84.75
499.701	85.75
499.918	95.75
500.135	94.75
500.352	84.75
500.569	81.75
500.786	84.75
501.003	81.75
501.22	90.75
501.437	87.75
501.654	92.75
501.871	96.75
502.088	91.75
502.305	89.75
502.522	84.75
502.739	92.75
502.956	76.75
503.172	85.75
503.389	93.75
503.606	93.75
503.823	86.75
504.04	85.75
504.256	85.75
504.473	96.75
504.69	75.75
504.907	97.75
505.123	94.75
505.34	84.75
505.557	89.75
505.773	99.75
505.99	74.75
506.207	78.75
506.423	97.75
506.64	82.75
506.856	91.75
507.073	91.75
507.289	87.75
507.506	95.75
507.722	112.75
507.939	103.75
508.155	73.75
508.372	98.75
508.588	98.75
508.805	108.75
509.021	101.75
509.238	97.75
509.454	83.75
509.67	83.75
509.887	95.75
510.103	119.75
510.319	201.75
510.536	722.75
510.752	2204.75
510.968	593.75
511.184	155.75
511.401	107.75
511.617	85.75
511.833	80.75
512.049	87.75
512.265	99.75
512.481	87.75
512.698	86.75
512.914	87.75
513.13	93.75
513.346	84.75
513.562	90.75
513.778	92.75
513.994	93.75
514.21	117.75
514.426	116.75
514.642	121.75
514.858	116.75
515.074	152.75
515.29	392.75
515.506	1352.75
515.721	481.75
515.937	149.75
516.153	101.75
