Data from Uncirc_1981_H10_HRD10591_00037.txt Node
Date: Wed Jan 03 12:33:15 EST 2024
User: Yrep
Spectrometer: HR+D1059
Trigger mode: 1
Integration Time (sec): 1.000000E-1
Scans to average: 1
Electric dark correction enabled: true
Nonlinearity correction enabled: false
Boxcar width: 0
XAxis mode: Wavelengths
Number of Pixels in Spectrum: 2048
>>>>>Begin Spectral Data<<<<<
223.165	-24.62
223.4	-24.62
223.635	-24.62
223.869	-20.62
224.104	-27.62
224.338	-9.62
224.573	-10.62
224.808	-5.62
225.042	-0.62
225.277	3.38
225.511	8.38
225.746	0.38
225.98	7.38
226.215	10.38
226.449	4.38
226.683	16.38
226.918	20.38
227.152	28.38
227.387	33.38
227.621	41.38
227.856	44.38
228.09	42.38
228.324	56.38
228.559	63.38
228.793	160.38
229.027	436.38
229.262	492.38
229.496	573.38
229.73	750.38
229.964	739.38
230.199	504.38
230.433	459.38
230.667	455.38
230.901	464.38
231.136	427.38
231.37	426.38
231.604	443.38
231.838	460.38
232.072	434.38
232.306	479.38
232.541	480.38
232.775	459.38
233.009	454.38
233.243	478.38
233.477	479.38
233.711	484.38
233.945	475.38
234.179	509.38
234.413	519.38
234.647	514.38
234.881	503.38
235.115	518.38
235.349	543.38
235.583	549.38
235.817	604.38
236.051	614.38
236.285	593.38
236.519	604.38
236.753	683.38
236.987	871.38
237.221	1280.38
237.455	1370.38
237.689	849.38
237.922	735.38
238.156	677.38
238.39	673.38
238.624	653.38
238.858	655.38
239.091	638.38
239.325	646.38
239.559	681.38
239.793	696.38
240.027	753.38
240.26	876.38
240.494	938.38
240.728	916.38
240.961	899.38
241.195	803.38
241.429	806.38
241.662	776.38
241.896	766.38
242.13	776.38
242.363	786.38
242.597	787.38
242.83	815.38
243.064	830.38
243.298	806.38
243.531	822.38
243.765	801.38
243.998	858.38
244.232	843.38
244.465	879.38
244.699	905.38
244.932	916.38
245.166	912.38
245.399	936.38
245.633	927.38
245.866	929.38
246.099	940.38
246.333	931.38
246.566	967.38
246.8	961.38
247.033	1026.38
247.266	1054.38
247.5	1097.38
247.733	1141.38
247.966	1151.38
248.2	1115.38
248.433	1160.38
248.666	1211.38
248.899	1328.38
249.133	1401.38
249.366	1427.38
249.599	1299.38
249.832	1239.38
250.066	1203.38
250.299	1274.38
250.532	1336.38
250.765	1577.38
250.998	1636.38
251.231	1607.38
251.465	1471.38
251.698	1400.38
251.931	1363.38
252.164	1391.38
252.397	1410.38
252.63	1468.38
252.863	1541.38
253.096	1657.38
253.329	1716.38
253.562	1632.38
253.795	1547.38
254.028	1556.38
254.261	1623.38
254.494	1765.38
254.727	2070.38
254.96	2152.38
255.193	1897.38
255.426	1750.38
255.659	1635.38
255.892	1660.38
256.124	1715.38
256.357	1686.38
256.59	1565.38
256.823	1555.38
257.056	1538.38
257.289	1521.38
257.521	1544.38
257.754	1548.38
257.987	1542.38
258.22	1515.38
258.452	1553.38
258.685	1544.38
258.918	1577.38
259.151	1617.38
259.383	1706.38
259.616	1710.38
259.849	1769.38
260.081	1850.38
260.314	2054.38
260.547	1977.38
260.779	1824.38
261.012	1775.38
261.244	1709.38
261.477	1667.38
261.71	1706.38
261.942	1685.38
262.175	1708.38
262.407	1705.38
262.64	1658.38
262.872	1586.38
263.105	1657.38
263.337	1645.38
263.57	1674.38
263.802	1607.38
264.035	1661.38
264.267	1647.38
264.499	1699.38
264.732	1695.38
264.964	1691.38
265.197	1683.38
265.429	1711.38
265.661	1701.38
265.894	1713.38
266.126	1733.38
266.358	1728.38
266.591	1765.38
266.823	1839.38
267.055	1850.38
267.287	1861.38
267.52	1843.38
267.752	1823.38
267.984	1848.38
268.216	1899.38
268.448	1913.38
268.681	1924.38
268.913	2075.38
269.145	2247.38
269.377	2320.38
269.609	2264.38
269.841	2230.38
270.073	2312.38
270.306	2579.38
270.538	2727.38
270.77	2571.38
271.002	2472.38
271.234	2433.38
271.466	2483.38
271.698	2673.38
271.93	2611.38
272.162	2643.38
272.394	2614.38
272.626	2453.38
272.858	2311.38
273.09	2285.38
273.322	2261.38
273.553	2235.38
273.785	2214.38
274.017	2193.38
274.249	2224.38
274.481	2258.38
274.713	2249.38
274.945	2263.38
275.176	2248.38
275.408	2229.38
275.64	2254.38
275.872	2243.38
276.104	2227.38
276.335	2284.38
276.567	2358.38
276.799	2462.38
277.031	2686.38
277.262	2810.38
277.494	2692.38
277.726	2564.38
277.957	2506.38
278.189	2416.38
278.421	2418.38
278.652	2353.38
278.884	2354.38
279.115	2337.38
279.347	2381.38
279.579	2343.38
279.81	2335.38
280.042	2361.38
280.273	2381.38
280.505	2419.38
280.736	2393.38
280.968	2385.38
281.199	2449.38
281.431	2434.38
281.662	2420.38
281.894	2432.38
282.125	2476.38
282.356	2613.38
282.588	2676.38
282.819	2582.38
283.051	2547.38
283.282	2504.38
283.513	2560.38
283.745	2581.38
283.976	2650.38
284.207	2627.38
284.439	2609.38
284.67	2613.38
284.901	2643.38
285.132	2619.38
285.364	2625.38
285.595	2572.38
285.826	2633.38
286.057	2649.38
286.288	2634.38
286.52	2657.38
286.751	2678.38
286.982	2719.38
287.213	2733.38
287.444	2727.38
287.675	2795.38
287.906	2876.38
288.138	2939.38
288.369	2836.38
288.6	2849.38
288.831	2829.38
289.062	2803.38
289.293	2771.38
289.524	2755.38
289.755	2773.38
289.986	2791.38
290.217	2832.38
290.448	2857.38
290.679	2788.38
290.91	2764.38
291.141	2778.38
291.371	2796.38
291.602	2832.38
291.833	2755.38
292.064	2796.38
292.295	2812.38
292.526	2849.38
292.757	2887.38
292.987	2841.38
293.218	2802.38
293.449	2852.38
293.68	2847.38
293.91	2819.38
294.141	2807.38
294.372	2775.38
294.603	2863.38
294.833	2880.38
295.064	2914.38
295.295	2876.38
295.525	2898.38
295.756	2921.38
295.987	2954.38
296.217	3100.38
296.448	3065.38
296.679	2938.38
296.909	2922.38
297.14	2931.38
297.37	3013.38
297.601	2984.38
297.831	2995.38
298.062	3047.38
298.292	3027.38
298.523	3091.38
298.753	3080.38
298.984	3087.38
299.214	3032.38
299.445	3068.38
299.675	3069.38
299.905	3137.38
300.136	3133.38
300.366	3124.38
300.597	3169.38
300.827	3257.38
301.057	3339.38
301.288	3332.38
301.518	3307.38
301.748	3357.38
301.979	3355.38
302.209	3375.38
302.439	3387.38
302.669	3313.38
302.9	3305.38
303.13	3274.38
303.36	3343.38
303.59	3350.38
303.82	3339.38
304.051	3319.38
304.281	3266.38
304.511	3212.38
304.741	3265.38
304.971	3280.38
305.201	3239.38
305.431	3251.38
305.661	3255.38
305.891	3258.38
306.121	3231.38
306.352	3324.38
306.582	3277.38
306.812	3136.38
307.042	3216.38
307.272	3229.38
307.502	3228.38
307.731	3206.38
307.961	3213.38
308.191	3249.38
308.421	3244.38
308.651	3250.38
308.881	3235.38
309.111	3323.38
309.341	3293.38
309.571	3361.38
309.8	3444.38
310.03	3518.38
310.26	3553.38
310.49	3451.38
310.72	3648.38
310.949	3663.38
311.179	3628.38
311.409	3508.38
311.639	3522.38
311.868	3551.38
312.098	3630.38
312.328	3653.38
312.557	3781.38
312.787	3846.38
313.017	3736.38
313.246	3666.38
313.476	3620.38
313.706	3683.38
313.935	3684.38
314.165	3793.38
314.394	3809.38
314.624	3755.38
314.853	3733.38
315.083	3719.38
315.312	3679.38
315.542	3619.38
315.771	3581.38
316.001	3579.38
316.23	3579.38
316.46	3612.38
316.689	3653.38
316.919	3644.38
317.148	3682.38
317.377	3736.38
317.607	3619.38
317.836	3555.38
318.065	3596.38
318.295	3607.38
318.524	3642.38
318.753	3588.38
318.983	3605.38
319.212	3627.38
319.441	3668.38
319.67	3689.38
319.9	3607.38
320.129	3652.38
320.358	3597.38
320.587	3643.38
320.816	3753.38
321.046	3707.38
321.275	3688.38
321.504	3742.38
321.733	3741.38
321.962	3797.38
322.191	3885.38
322.42	3911.38
322.649	3973.38
322.878	4097.38
323.108	4073.38
323.337	4294.38
323.566	4405.38
323.795	4610.38
324.024	4998.38
324.253	6249.38
324.482	9310.38
324.71	13835.38
324.939	15629.38
325.168	10289.38
325.397	5775.38
325.626	4744.38
325.855	4549.38
326.084	4421.38
326.313	4491.38
326.542	4548.38
326.77	5047.38
326.999	6204.38
327.228	8767.38
327.457	12904.38
327.686	12044.38
327.914	6394.38
328.143	5198.38
328.372	4971.38
328.6	4871.38
328.829	4807.38
329.058	4951.38
329.287	4934.38
329.515	4671.38
329.744	4584.38
329.972	4743.38
330.201	4870.38
330.43	5054.38
330.658	5226.38
330.887	5343.38
331.115	5026.38
331.344	4735.38
331.572	4736.38
331.801	4875.38
332.03	4849.38
332.258	4794.38
332.486	4825.38
332.715	4864.38
332.943	5105.38
333.172	5248.38
333.4	5359.38
333.629	5488.38
333.857	5587.38
334.085	5563.38
334.314	5624.38
334.542	5726.38
334.771	5627.38
334.999	5306.38
335.227	5173.38
335.455	5066.38
335.684	4967.38
335.912	4942.38
336.14	4811.38
336.369	4842.38
336.597	4932.38
336.825	4835.38
337.053	4810.38
337.281	4710.38
337.51	4712.38
337.738	4621.38
337.966	4613.38
338.194	4585.38
338.422	4518.38
338.65	4470.38
338.878	4468.38
339.106	4407.38
339.334	4424.38
339.562	4351.38
339.79	4294.38
340.018	4326.38
340.246	4296.38
340.474	4306.38
340.702	4287.38
340.93	4329.38
341.158	4411.38
341.386	4275.38
341.614	4307.38
341.842	4269.38
342.07	4198.38
342.298	4219.38
342.526	4188.38
342.754	4224.38
342.981	4260.38
343.209	4367.38
343.437	4567.38
343.665	4909.38
343.893	5092.38
344.12	5157.38
344.348	4915.38
344.576	4690.38
344.804	4588.38
345.031	4519.38
345.259	4490.38
345.487	4363.38
345.714	4261.38
345.942	4204.38
346.17	4166.38
346.397	4179.38
346.625	4089.38
346.853	4090.38
347.08	4101.38
347.308	4132.38
347.535	4139.38
347.763	4213.38
347.99	4160.38
348.218	4127.38
348.445	4195.38
348.673	4164.38
348.9	4084.38
349.128	4042.38
349.355	4003.38
349.583	4035.38
349.81	3970.38
350.037	3949.38
350.265	3983.38
350.492	4017.38
350.72	3971.38
350.947	4007.38
351.174	4076.38
351.402	4117.38
351.629	4042.38
351.856	4003.38
352.083	4103.38
352.311	4083.38
352.538	4138.38
352.765	4122.38
352.992	4024.38
353.22	3952.38
353.447	4026.38
353.674	3969.38
353.901	3872.38
354.128	3885.38
354.355	3919.38
354.583	3914.38
354.81	3914.38
355.037	3829.38
355.264	3898.38
355.491	3919.38
355.718	3896.38
355.945	3856.38
356.172	3959.38
356.399	3928.38
356.626	3963.38
356.853	3962.38
357.08	3962.38
357.307	3948.38
357.534	3891.38
357.761	3905.38
357.988	3941.38
358.215	3917.38
358.441	3947.38
358.668	3926.38
358.895	3989.38
359.122	4044.38
359.349	4018.38
359.576	4095.38
359.802	4320.38
360.029	4451.38
360.256	4396.38
360.483	4208.38
360.709	4091.38
360.936	4045.38
361.163	4116.38
361.39	4161.38
361.616	4076.38
361.843	4085.38
362.07	4081.38
362.296	4132.38
362.523	4093.38
362.749	4111.38
362.976	4075.38
363.203	3964.38
363.429	3979.38
363.656	3987.38
363.882	3932.38
364.109	3971.38
364.335	3945.38
364.562	3980.38
364.788	3964.38
365.015	4003.38
365.241	3999.38
365.468	3992.38
365.694	3985.38
365.92	4051.38
366.147	3956.38
366.373	3988.38
366.599	3973.38
366.826	3945.38
367.052	3909.38
367.278	4000.38
367.505	4048.38
367.731	4002.38
367.957	3943.38
368.184	4062.38
368.41	4089.38
368.636	4131.38
368.862	4145.38
369.089	4116.38
369.315	4137.38
369.541	4078.38
369.767	4108.38
369.993	4149.38
370.219	4098.38
370.445	4191.38
370.672	4172.38
370.898	4153.38
371.124	4186.38
371.35	4296.38
371.576	4247.38
371.802	4212.38
372.028	4273.38
372.254	4343.38
372.48	4339.38
372.706	4459.38
372.932	4407.38
373.158	4395.38
373.384	4357.38
373.61	4279.38
373.835	4359.38
374.061	4311.38
374.287	4407.38
374.513	4482.38
374.739	4665.38
374.965	4689.38
375.191	4720.38
375.416	4635.38
375.642	4475.38
375.868	4490.38
376.094	4415.38
376.319	4348.38
376.545	4349.38
376.771	4333.38
376.997	4352.38
377.222	4310.38
377.448	4259.38
377.674	4264.38
377.899	4288.38
378.125	4312.38
378.35	4263.38
378.576	4250.38
378.802	4218.38
379.027	4253.38
379.253	4261.38
379.478	4181.38
379.704	4226.38
379.929	4301.38
380.155	4248.38
380.38	4256.38
380.606	4304.38
380.831	4295.38
381.057	4304.38
381.282	4316.38
381.507	4319.38
381.733	4403.38
381.958	4360.38
382.184	4468.38
382.409	4499.38
382.634	4559.38
382.86	4514.38
383.085	4600.38
383.31	4647.38
383.535	4726.38
383.761	4766.38
383.986	4813.38
384.211	4935.38
384.436	5043.38
384.662	5113.38
384.887	5173.38
385.112	5149.38
385.337	5190.38
385.562	5174.38
385.787	5262.38
386.013	5318.38
386.238	5305.38
386.463	5216.38
386.688	5246.38
386.913	5145.38
387.138	5118.38
387.363	5180.38
387.588	5069.38
387.813	5068.38
388.038	5161.38
388.263	5201.38
388.488	5177.38
388.713	5103.38
388.938	5087.38
389.163	5090.38
389.387	5100.38
389.612	5002.38
389.837	5028.38
390.062	5004.38
390.287	5021.38
390.512	5031.38
390.736	5127.38
390.961	5239.38
391.186	5299.38
391.411	5489.38
391.636	5601.38
391.86	5712.38
392.085	5741.38
392.31	5650.38
392.534	5583.38
392.759	5566.38
392.984	5324.38
393.208	5355.38
393.433	5312.38
393.658	5296.38
393.882	5322.38
394.107	5333.38
394.331	5329.38
394.556	5348.38
394.78	5479.38
395.005	5500.38
395.229	5492.38
395.454	5606.38
395.678	5830.38
395.903	5742.38
396.127	5775.38
396.352	5689.38
396.576	5457.38
396.801	5404.38
397.025	5460.38
397.249	5649.38
397.474	5727.38
397.698	5815.38
397.922	5863.38
398.147	6137.38
398.371	6162.38
398.595	6229.38
398.82	6512.38
399.044	7077.38
399.268	7767.38
399.492	8815.38
399.717	9551.38
399.941	9229.38
400.165	8626.38
400.389	7900.38
400.613	7097.38
400.837	6788.38
401.062	6636.38
401.286	6463.38
401.51	6461.38
401.734	6380.38
401.958	6550.38
402.182	6692.38
402.406	6756.38
402.63	6876.38
402.854	6893.38
403.078	7019.38
403.302	7141.38
403.526	7204.38
403.75	7232.38
403.974	7314.38
404.198	7353.38
404.422	7369.38
404.645	7443.38
404.869	7289.38
405.093	7527.38
405.317	7800.38
405.541	7727.38
405.765	7221.38
405.988	7132.38
406.212	7300.38
406.436	7541.38
406.66	7641.38
406.883	7638.38
407.107	8279.38
407.331	8699.38
407.555	9186.38
407.778	8831.38
408.002	8149.38
408.226	7741.38
408.449	7639.38
408.673	7523.38
408.896	7721.38
409.12	7791.38
409.344	7404.38
409.567	7124.38
409.791	7048.38
410.014	6970.38
410.238	6897.38
410.461	6898.38
410.685	6972.38
410.908	7029.38
411.132	7258.38
411.355	7244.38
411.578	6874.38
411.802	6777.38
412.025	6771.38
412.249	6902.38
412.472	7001.38
412.695	7084.38
412.919	6764.38
413.142	6433.38
413.365	6454.38
413.589	6480.38
413.812	6283.38
414.035	6280.38
414.258	6317.38
414.482	6339.38
414.705	6412.38
414.928	6340.38
415.151	6363.38
415.374	6411.38
415.597	6276.38
415.821	6179.38
416.044	6176.38
416.267	6197.38
416.49	6081.38
416.713	6188.38
416.936	6255.38
417.159	6264.38
417.382	6239.38
417.605	6346.38
417.828	6460.38
418.051	6497.38
418.274	6408.38
418.497	6409.38
418.72	6483.38
418.943	6495.38
419.166	6762.38
419.389	7239.38
419.611	7080.38
419.834	6836.38
420.057	6819.38
420.28	6639.38
420.503	6442.38
420.726	6451.38
420.948	6552.38
421.171	6937.38
421.394	6934.38
421.617	6461.38
421.839	6409.38
422.062	6533.38
422.285	6618.38
422.507	7277.38
422.73	7699.38
422.953	7165.38
423.175	6886.38
423.398	6857.38
423.621	6848.38
423.843	7151.38
424.066	7146.38
424.288	7059.38
424.511	7147.38
424.733	7696.38
424.956	7938.38
425.178	7483.38
425.401	7721.38
425.623	7547.38
425.846	6669.38
426.068	6479.38
426.291	6458.38
426.513	6529.38
426.735	6513.38
426.958	6869.38
427.18	7605.38
427.402	8637.38
427.625	8713.38
427.847	7385.38
428.069	6769.38
428.292	6320.38
428.514	5943.38
428.736	5828.38
428.958	5871.38
429.181	5737.38
429.403	5684.38
429.625	5843.38
429.847	6226.38
430.069	6595.38
430.292	6249.38
430.514	5679.38
430.736	5708.38
430.958	5649.38
431.18	5653.38
431.402	5651.38
431.624	5595.38
431.846	5622.38
432.068	5699.38
432.29	5726.38
432.512	5700.38
432.734	5772.38
432.956	5728.38
433.178	5764.38
433.4	5657.38
433.622	5697.38
433.844	5700.38
434.066	5781.38
434.287	5855.38
434.509	6078.38
434.731	6223.38
434.953	6414.38
435.175	6499.38
435.397	6604.38
435.618	6472.38
435.84	6806.38
436.062	7579.38
436.284	7442.38
436.505	6348.38
436.727	6104.38
436.949	5863.38
437.17	5688.38
437.392	5667.38
437.614	5876.38
437.835	6170.38
438.057	6980.38
438.278	7535.38
438.5	7575.38
438.721	8309.38
438.943	7328.38
439.165	6179.38
439.386	6013.38
439.608	6125.38
439.829	6117.38
440.05	6463.38
440.272	6716.38
440.493	6205.38
440.715	6012.38
440.936	5958.38
441.158	5972.38
441.379	6175.38
441.6	6477.38
441.822	6697.38
442.043	7157.38
442.264	7783.38
442.486	7482.38
442.707	6722.38
442.928	6572.38
443.149	6713.38
443.371	6919.38
443.592	7373.38
443.813	8404.38
444.034	8416.38
444.255	7374.38
444.476	7227.38
444.698	7454.38
444.919	7452.38
445.14	7243.38
445.361	7141.38
445.582	7192.38
445.803	7656.38
446.024	8251.38
446.245	7861.38
446.466	7043.38
446.687	6293.38
446.908	6047.38
447.129	5691.38
447.35	5649.38
447.571	5560.38
447.792	5424.38
448.013	5491.38
448.234	5676.38
448.455	6351.38
448.675	7394.38
448.896	7886.38
449.117	6481.38
449.338	6687.38
449.559	7895.38
449.779	8104.38
450	6209.38
450.221	5661.38
450.442	5415.38
450.662	5335.38
450.883	5427.38
451.104	5416.38
451.324	5345.38
451.545	5143.38
451.766	5080.38
451.986	4975.38
452.207	4981.38
452.428	4943.38
452.648	5046.38
452.869	4948.38
453.089	5078.38
453.31	5167.38
453.53	4940.38
453.751	4899.38
453.971	4955.38
454.192	5064.38
454.412	4852.38
454.633	4789.38
454.853	4744.38
455.073	4827.38
455.294	5205.38
455.514	5744.38
455.734	5211.38
455.955	4682.38
456.175	4663.38
456.395	4594.38
456.616	4538.38
456.836	4716.38
457.056	4589.38
457.276	4527.38
457.497	4705.38
457.717	4625.38
457.937	4755.38
458.157	4751.38
458.377	4881.38
458.598	5187.38
458.818	5727.38
459.038	6463.38
459.258	6463.38
459.478	5788.38
459.698	5711.38
459.918	5753.38
460.138	5987.38
460.358	6234.38
460.578	6135.38
460.798	6297.38
461.018	6346.38
461.238	6168.38
461.458	6199.38
461.678	6103.38
461.898	6314.38
462.118	6350.38
462.338	6643.38
462.558	6792.38
462.777	7050.38
462.997	7664.38
463.217	8110.38
463.437	7848.38
463.657	7321.38
463.876	7079.38
464.096	7180.38
464.316	7048.38
464.536	7150.38
464.755	6796.38
464.975	6705.38
465.195	6783.38
465.414	6683.38
465.634	6106.38
465.854	5780.38
466.073	5532.38
466.293	5336.38
466.512	5195.38
466.732	5155.38
466.951	5124.38
467.171	5143.38
467.391	5218.38
467.61	5249.38
467.829	5190.38
468.049	5139.38
468.268	5039.38
468.488	4922.38
468.707	4884.38
468.927	4947.38
469.146	4971.38
469.365	4994.38
469.585	5120.38
469.804	5232.38
470.023	5337.38
470.243	5290.38
470.462	5352.38
470.681	5469.38
470.901	5398.38
471.12	5267.38
471.339	5239.38
471.558	5231.38
471.777	5162.38
471.997	5033.38
472.216	5087.38
472.435	5177.38
472.654	5059.38
472.873	4943.38
473.092	4879.38
473.311	4916.38
473.53	4946.38
473.749	4975.38
473.968	5481.38
474.187	6353.38
474.406	5958.38
474.625	5229.38
474.844	4959.38
475.063	4993.38
475.282	4998.38
475.501	5065.38
475.72	5089.38
475.939	5147.38
476.158	5166.38
476.377	5116.38
476.596	5124.38
476.814	5243.38
477.033	5325.38
477.252	5376.38
477.471	5541.38
477.69	5651.38
477.908	5718.38
478.127	5907.38
478.346	5898.38
478.564	6004.38
478.783	6052.38
479.002	6315.38
479.22	6294.38
479.439	6352.38
479.658	6396.38
479.876	6529.38
480.095	6638.38
480.313	7041.38
480.532	6953.38
480.751	6869.38
480.969	6689.38
481.188	7068.38
481.406	6856.38
481.624	6394.38
481.843	6194.38
482.061	6023.38
482.28	5926.38
482.498	5855.38
482.717	5752.38
482.935	5781.38
483.153	5811.38
483.372	5839.38
483.59	5780.38
483.808	5736.38
484.027	5860.38
484.245	5940.38
484.463	5876.38
484.681	5965.38
484.9	6085.38
485.118	6065.38
485.336	6092.38
485.554	6159.38
485.772	6253.38
485.99	6197.38
486.209	6301.38
486.427	6373.38
486.645	6288.38
486.863	6376.38
487.081	6323.38
487.299	6281.38
487.517	6309.38
487.735	6167.38
487.953	6306.38
