Data from Uncirc_1981_H10_HRD10591_00080.txt Node
Date: Wed Jan 03 12:33:24 EST 2024
User: Yrep
Spectrometer: HR+D1059
Trigger mode: 1
Integration Time (sec): 1.000000E-1
Scans to average: 1
Electric dark correction enabled: true
Nonlinearity correction enabled: false
Boxcar width: 0
XAxis mode: Wavelengths
Number of Pixels in Spectrum: 2048
>>>>>Begin Spectral Data<<<<<
223.165	-16.75
223.4	-16.75
223.635	-16.75
223.869	-25.75
224.104	-18.75
224.338	-6.75
224.573	-11.75
224.808	-16.75
225.042	-24.75
225.277	-14.75
225.511	-10.75
225.746	10.25
225.98	18.25
226.215	26.25
226.449	13.25
226.683	12.25
226.918	34.25
227.152	32.25
227.387	24.25
227.621	34.25
227.856	40.25
228.09	38.25
228.324	43.25
228.559	62.25
228.793	52.25
229.027	59.25
229.262	72.25
229.496	74.25
229.73	71.25
229.964	78.25
230.199	79.25
230.433	55.25
230.667	70.25
230.901	75.25
231.136	74.25
231.37	73.25
231.604	70.25
231.838	86.25
232.072	92.25
232.306	74.25
232.541	84.25
232.775	61.25
233.009	70.25
233.243	86.25
233.477	88.25
233.711	77.25
233.945	68.25
234.179	76.25
234.413	85.25
234.647	96.25
234.881	83.25
235.115	69.25
235.349	78.25
235.583	73.25
235.817	79.25
236.051	84.25
236.285	94.25
236.519	75.25
236.753	75.25
236.987	87.25
237.221	91.25
237.455	79.25
237.689	83.25
237.922	91.25
238.156	86.25
238.39	93.25
238.624	75.25
238.858	70.25
239.091	72.25
239.325	70.25
239.559	77.25
239.793	75.25
240.027	84.25
240.26	68.25
240.494	78.25
240.728	75.25
240.961	69.25
241.195	86.25
241.429	79.25
241.662	83.25
241.896	77.25
242.13	88.25
242.363	71.25
242.597	85.25
242.83	87.25
243.064	79.25
243.298	87.25
243.531	79.25
243.765	63.25
243.998	78.25
244.232	79.25
244.465	70.25
244.699	93.25
244.932	63.25
245.166	101.25
245.399	79.25
245.633	79.25
245.866	62.25
246.099	74.25
246.333	70.25
246.566	78.25
246.8	80.25
247.033	94.25
247.266	75.25
247.5	92.25
247.733	80.25
247.966	65.25
248.2	73.25
248.433	92.25
248.666	86.25
248.899	74.25
249.133	102.25
249.366	91.25
249.599	91.25
249.832	84.25
250.066	86.25
250.299	88.25
250.532	78.25
250.765	79.25
250.998	67.25
251.231	95.25
251.465	71.25
251.698	73.25
251.931	86.25
252.164	68.25
252.397	70.25
252.63	78.25
252.863	90.25
253.096	77.25
253.329	74.25
253.562	86.25
253.795	79.25
254.028	82.25
254.261	71.25
254.494	84.25
254.727	83.25
254.96	80.25
255.193	80.25
255.426	92.25
255.659	88.25
255.892	72.25
256.124	82.25
256.357	78.25
256.59	83.25
256.823	79.25
257.056	83.25
257.289	89.25
257.521	91.25
257.754	82.25
257.987	75.25
258.22	73.25
258.452	77.25
258.685	84.25
258.918	82.25
259.151	83.25
259.383	88.25
259.616	77.25
259.849	75.25
260.081	87.25
260.314	76.25
260.547	76.25
260.779	88.25
261.012	86.25
261.244	74.25
261.477	82.25
261.71	101.25
261.942	95.25
262.175	86.25
262.407	82.25
262.64	84.25
262.872	78.25
263.105	83.25
263.337	86.25
263.57	88.25
263.802	66.25
264.035	80.25
264.267	70.25
264.499	88.25
264.732	82.25
264.964	84.25
265.197	85.25
265.429	76.25
265.661	78.25
265.894	95.25
266.126	75.25
266.358	70.25
266.591	89.25
266.823	88.25
267.055	68.25
267.287	89.25
267.52	74.25
267.752	86.25
267.984	79.25
268.216	86.25
268.448	86.25
268.681	94.25
268.913	86.25
269.145	75.25
269.377	79.25
269.609	74.25
269.841	73.25
270.073	95.25
270.306	91.25
270.538	91.25
270.77	84.25
271.002	78.25
271.234	92.25
271.466	79.25
271.698	83.25
271.93	78.25
272.162	86.25
272.394	78.25
272.626	95.25
272.858	83.25
273.09	89.25
273.322	83.25
273.553	80.25
273.785	86.25
274.017	80.25
274.249	86.25
274.481	81.25
274.713	85.25
274.945	91.25
275.176	85.25
275.408	92.25
275.64	91.25
275.872	100.25
276.104	75.25
276.335	90.25
276.567	106.25
276.799	98.25
277.031	101.25
277.262	102.25
277.494	87.25
277.726	90.25
277.957	91.25
278.189	82.25
278.421	100.25
278.652	88.25
278.884	78.25
279.115	83.25
279.347	87.25
279.579	87.25
279.81	85.25
280.042	89.25
280.273	85.25
280.505	91.25
280.736	96.25
280.968	83.25
281.199	86.25
281.431	85.25
281.662	103.25
281.894	82.25
282.125	92.25
282.356	94.25
282.588	91.25
282.819	103.25
283.051	82.25
283.282	99.25
283.513	91.25
283.745	91.25
283.976	86.25
284.207	85.25
284.439	98.25
284.67	87.25
284.901	85.25
285.132	83.25
285.364	98.25
285.595	95.25
285.826	84.25
286.057	96.25
286.288	91.25
286.52	100.25
286.751	102.25
286.982	90.25
287.213	108.25
287.444	77.25
287.675	88.25
287.906	96.25
288.138	99.25
288.369	97.25
288.6	88.25
288.831	83.25
289.062	70.25
289.293	80.25
289.524	76.25
289.755	82.25
289.986	92.25
290.217	86.25
290.448	85.25
290.679	87.25
290.91	81.25
291.141	86.25
291.371	95.25
291.602	81.25
291.833	90.25
292.064	88.25
292.295	88.25
292.526	94.25
292.757	90.25
292.987	76.25
293.218	91.25
293.449	90.25
293.68	98.25
293.91	85.25
294.141	99.25
294.372	93.25
294.603	92.25
294.833	95.25
295.064	95.25
295.295	96.25
295.525	100.25
295.756	101.25
295.987	104.25
296.217	126.25
296.448	108.25
296.679	103.25
296.909	83.25
297.14	81.25
297.37	99.25
297.601	87.25
297.831	97.25
298.062	95.25
298.292	88.25
298.523	83.25
298.753	94.25
298.984	93.25
299.214	101.25
299.445	85.25
299.675	102.25
299.905	86.25
300.136	85.25
300.366	98.25
300.597	92.25
300.827	89.25
301.057	86.25
301.288	97.25
301.518	100.25
301.748	71.25
301.979	90.25
302.209	92.25
302.439	91.25
302.669	87.25
302.9	75.25
303.13	83.25
303.36	74.25
303.59	97.25
303.82	101.25
304.051	89.25
304.281	77.25
304.511	83.25
304.741	98.25
304.971	107.25
305.201	88.25
305.431	82.25
305.661	79.25
305.891	88.25
306.121	106.25
306.352	100.25
306.582	93.25
306.812	88.25
307.042	86.25
307.272	94.25
307.502	93.25
307.731	100.25
307.961	87.25
308.191	91.25
308.421	93.25
308.651	87.25
308.881	100.25
309.111	91.25
309.341	94.25
309.571	98.25
309.8	100.25
310.03	100.25
310.26	91.25
310.49	88.25
310.72	85.25
310.949	103.25
311.179	107.25
311.409	105.25
311.639	90.25
311.868	86.25
312.098	102.25
312.328	105.25
312.557	97.25
312.787	105.25
313.017	101.25
313.246	99.25
313.476	97.25
313.706	96.25
313.935	86.25
314.165	98.25
314.394	111.25
314.624	100.25
314.853	105.25
315.083	108.25
315.312	86.25
315.542	92.25
315.771	75.25
316.001	84.25
316.23	85.25
316.46	92.25
316.689	96.25
316.919	98.25
317.148	93.25
317.377	91.25
317.607	93.25
317.836	98.25
318.065	92.25
318.295	75.25
318.524	101.25
318.753	85.25
318.983	87.25
319.212	103.25
319.441	76.25
319.67	101.25
319.9	94.25
320.129	90.25
320.358	94.25
320.587	90.25
320.816	92.25
321.046	88.25
321.275	91.25
321.504	102.25
321.733	74.25
321.962	100.25
322.191	87.25
322.42	119.25
322.649	99.25
322.878	104.25
323.108	111.25
323.337	112.25
323.566	106.25
323.795	131.25
324.024	176.25
324.253	318.25
324.482	677.25
324.71	1378.25
324.939	1810.25
325.168	668.25
325.397	194.25
325.626	133.25
325.855	114.25
326.084	115.25
326.313	109.25
326.542	127.25
326.77	206.25
326.999	402.25
327.228	790.25
327.457	1457.25
327.686	1128.25
327.914	305.25
328.143	174.25
328.372	123.25
328.6	102.25
328.829	118.25
329.058	115.25
329.287	127.25
329.515	110.25
329.744	92.25
329.972	115.25
330.201	107.25
330.43	119.25
330.658	115.25
330.887	127.25
331.115	106.25
331.344	83.25
331.572	91.25
331.801	94.25
332.03	95.25
332.258	102.25
332.486	100.25
332.715	99.25
332.943	97.25
333.172	100.25
333.4	98.25
333.629	108.25
333.857	107.25
334.085	107.25
334.314	99.25
334.542	123.25
334.771	98.25
334.999	104.25
335.227	88.25
335.455	100.25
335.684	96.25
335.912	93.25
336.14	84.25
336.369	99.25
336.597	88.25
336.825	93.25
337.053	106.25
337.281	91.25
337.51	84.25
337.738	90.25
337.966	92.25
338.194	95.25
338.422	100.25
338.65	101.25
338.878	109.25
339.106	94.25
339.334	94.25
339.562	85.25
339.79	89.25
340.018	86.25
340.246	92.25
340.474	109.25
340.702	101.25
340.93	85.25
341.158	84.25
341.386	85.25
341.614	87.25
341.842	90.25
342.07	100.25
342.298	103.25
342.526	98.25
342.754	89.25
342.981	103.25
343.209	93.25
343.437	108.25
343.665	103.25
343.893	87.25
344.12	86.25
344.348	91.25
344.576	96.25
344.804	105.25
345.031	97.25
345.259	104.25
345.487	95.25
345.714	94.25
345.942	93.25
346.17	105.25
346.397	102.25
346.625	95.25
346.853	99.25
347.08	95.25
347.308	108.25
347.535	100.25
347.763	93.25
347.99	110.25
348.218	94.25
348.445	83.25
348.673	95.25
348.9	106.25
349.128	95.25
349.355	84.25
349.583	93.25
349.81	99.25
350.037	94.25
350.265	79.25
350.492	100.25
350.72	100.25
350.947	102.25
351.174	108.25
351.402	96.25
351.629	103.25
351.856	101.25
352.083	95.25
352.311	104.25
352.538	115.25
352.765	96.25
352.992	110.25
353.22	108.25
353.447	102.25
353.674	120.25
353.901	103.25
354.128	83.25
354.355	107.25
354.583	102.25
354.81	104.25
355.037	100.25
355.264	100.25
355.491	98.25
355.718	93.25
355.945	87.25
356.172	86.25
356.399	98.25
356.626	82.25
356.853	90.25
357.08	76.25
357.307	83.25
357.534	99.25
357.761	99.25
357.988	88.25
358.215	103.25
358.441	104.25
358.668	108.25
358.895	102.25
359.122	89.25
359.349	80.25
359.576	88.25
359.802	113.25
360.029	94.25
360.256	92.25
360.483	103.25
360.709	94.25
360.936	93.25
361.163	93.25
361.39	90.25
361.616	96.25
361.843	98.25
362.07	98.25
362.296	95.25
362.523	91.25
362.749	87.25
362.976	108.25
363.203	98.25
363.429	77.25
363.656	76.25
363.882	88.25
364.109	105.25
364.335	81.25
364.562	91.25
364.788	98.25
365.015	82.25
365.241	93.25
365.468	102.25
365.694	102.25
365.92	102.25
366.147	84.25
366.373	78.25
366.599	72.25
366.826	93.25
367.052	75.25
367.278	103.25
367.505	100.25
367.731	108.25
367.957	83.25
368.184	93.25
368.41	92.25
368.636	100.25
368.862	114.25
369.089	91.25
369.315	83.25
369.541	94.25
369.767	93.25
369.993	91.25
370.219	93.25
370.445	89.25
370.672	92.25
370.898	95.25
371.124	91.25
371.35	71.25
371.576	92.25
371.802	82.25
372.028	78.25
372.254	93.25
372.48	88.25
372.706	94.25
372.932	90.25
373.158	85.25
373.384	94.25
373.61	104.25
373.835	93.25
374.061	79.25
374.287	100.25
374.513	83.25
374.739	84.25
374.965	102.25
375.191	77.25
375.416	103.25
375.642	98.25
375.868	100.25
376.094	94.25
376.319	81.25
376.545	86.25
376.771	77.25
376.997	103.25
377.222	87.25
377.448	77.25
377.674	84.25
377.899	100.25
378.125	86.25
378.35	86.25
378.576	91.25
378.802	88.25
379.027	98.25
379.253	98.25
379.478	91.25
379.704	106.25
379.929	97.25
380.155	104.25
380.38	96.25
380.606	94.25
380.831	89.25
381.057	102.25
381.282	100.25
381.507	105.25
381.733	98.25
381.958	92.25
382.184	99.25
382.409	101.25
382.634	112.25
382.86	92.25
383.085	89.25
383.31	122.25
383.535	107.25
383.761	110.25
383.986	93.25
384.211	99.25
384.436	112.25
384.662	99.25
384.887	108.25
385.112	93.25
385.337	108.25
385.562	116.25
385.787	109.25
386.013	102.25
386.238	111.25
386.463	97.25
386.688	105.25
386.913	104.25
387.138	106.25
387.363	95.25
387.588	101.25
387.813	92.25
388.038	101.25
388.263	109.25
388.488	94.25
388.713	108.25
388.938	98.25
389.163	91.25
389.387	107.25
389.612	85.25
389.837	98.25
390.062	92.25
390.287	77.25
390.512	87.25
390.736	88.25
390.961	83.25
391.186	98.25
391.411	89.25
391.636	89.25
391.86	75.25
392.085	84.25
392.31	93.25
392.534	80.25
392.759	91.25
392.984	91.25
393.208	98.25
393.433	88.25
393.658	100.25
393.882	98.25
394.107	90.25
394.331	93.25
394.556	100.25
394.78	87.25
395.005	103.25
395.229	94.25
395.454	93.25
395.678	75.25
395.903	95.25
396.127	90.25
396.352	88.25
396.576	76.25
396.801	98.25
397.025	93.25
397.249	100.25
397.474	84.25
397.698	91.25
397.922	79.25
398.147	89.25
398.371	92.25
398.595	80.25
398.82	88.25
399.044	87.25
399.268	96.25
399.492	88.25
399.717	83.25
399.941	102.25
400.165	107.25
400.389	88.25
400.613	90.25
400.837	95.25
401.062	90.25
401.286	83.25
401.51	85.25
401.734	93.25
401.958	80.25
402.182	113.25
402.406	129.25
402.63	112.25
402.854	101.25
403.078	78.25
403.302	94.25
403.526	95.25
403.75	74.25
403.974	86.25
404.198	82.25
404.422	100.25
404.645	80.25
404.869	80.25
405.093	99.25
405.317	99.25
405.541	105.25
405.765	85.25
405.988	103.25
406.212	142.25
406.436	173.25
406.66	112.25
406.883	105.25
407.107	95.25
407.331	86.25
407.555	104.25
407.778	100.25
408.002	92.25
408.226	89.25
408.449	94.25
408.673	76.25
408.896	101.25
409.12	102.25
409.344	87.25
409.567	114.25
409.791	102.25
410.014	84.25
410.238	100.25
410.461	99.25
410.685	101.25
410.908	98.25
411.132	103.25
411.355	122.25
411.578	96.25
411.802	78.25
412.025	92.25
412.249	86.25
412.472	89.25
412.695	86.25
412.919	96.25
413.142	98.25
413.365	88.25
413.589	101.25
413.812	98.25
414.035	109.25
414.258	85.25
414.482	87.25
414.705	87.25
414.928	87.25
415.151	86.25
415.374	68.25
415.597	82.25
415.821	74.25
416.044	78.25
416.267	91.25
416.49	100.25
416.713	97.25
416.936	83.25
417.159	93.25
417.382	108.25
417.605	88.25
417.828	95.25
418.051	84.25
418.274	92.25
418.497	96.25
418.72	88.25
418.943	95.25
419.166	93.25
419.389	94.25
419.611	100.25
419.834	84.25
420.057	94.25
420.28	96.25
420.503	93.25
420.726	84.25
420.948	88.25
421.171	104.25
421.394	93.25
421.617	92.25
421.839	88.25
422.062	101.25
422.285	100.25
422.507	93.25
422.73	89.25
422.953	93.25
423.175	86.25
423.398	99.25
423.621	86.25
423.843	104.25
424.066	99.25
424.288	92.25
424.511	85.25
424.733	99.25
424.956	89.25
425.178	96.25
425.401	107.25
425.623	94.25
425.846	90.25
426.068	83.25
426.291	82.25
426.513	96.25
426.735	96.25
426.958	105.25
427.18	88.25
427.402	131.25
427.625	133.25
427.847	133.25
428.069	107.25
428.292	84.25
428.514	89.25
428.736	76.25
428.958	71.25
429.181	107.25
429.403	82.25
429.625	69.25
429.847	77.25
430.069	94.25
430.292	93.25
430.514	88.25
430.736	75.25
430.958	92.25
431.18	98.25
431.402	91.25
431.624	94.25
431.846	80.25
432.068	95.25
432.29	82.25
432.512	90.25
432.734	98.25
432.956	82.25
433.178	96.25
433.4	99.25
433.622	104.25
433.844	86.25
434.066	84.25
434.287	99.25
434.509	88.25
434.731	98.25
434.953	98.25
435.175	92.25
435.397	94.25
435.618	90.25
435.84	97.25
436.062	107.25
436.284	108.25
436.505	109.25
436.727	95.25
436.949	92.25
437.17	92.25
437.392	79.25
437.614	103.25
437.835	93.25
438.057	96.25
438.278	97.25
438.5	110.25
438.721	111.25
438.943	99.25
439.165	97.25
439.386	83.25
439.608	93.25
439.829	96.25
440.05	113.25
440.272	127.25
440.493	82.25
440.715	82.25
440.936	73.25
441.158	90.25
441.379	85.25
441.6	97.25
441.822	102.25
442.043	107.25
442.264	104.25
442.486	97.25
442.707	88.25
442.928	107.25
443.149	116.25
443.371	131.25
443.592	108.25
443.813	106.25
444.034	100.25
444.255	92.25
444.476	83.25
444.698	88.25
444.919	102.25
445.14	130.25
445.361	111.25
445.582	109.25
445.803	118.25
446.024	123.25
446.245	119.25
446.466	94.25
446.687	86.25
446.908	83.25
447.129	90.25
447.35	83.25
447.571	86.25
447.792	95.25
448.013	90.25
448.234	112.25
448.455	99.25
448.675	108.25
448.896	111.25
449.117	90.25
449.338	98.25
449.559	120.25
449.779	131.25
450	95.25
450.221	95.25
450.442	91.25
450.662	86.25
450.883	99.25
451.104	100.25
451.324	97.25
451.545	73.25
451.766	91.25
451.986	96.25
452.207	89.25
452.428	90.25
452.648	86.25
452.869	100.25
453.089	93.25
453.31	114.25
453.53	95.25
453.751	92.25
453.971	105.25
454.192	107.25
454.412	87.25
454.633	87.25
454.853	88.25
455.073	90.25
455.294	93.25
455.514	93.25
455.734	87.25
455.955	92.25
456.175	87.25
456.395	80.25
456.616	84.25
456.836	75.25
457.056	88.25
457.276	75.25
457.497	96.25
457.717	78.25
457.937	90.25
458.157	93.25
458.377	83.25
458.598	102.25
458.818	126.25
459.038	132.25
459.258	93.25
459.478	84.25
459.698	90.25
459.918	83.25
460.138	84.25
460.358	88.25
460.578	93.25
460.798	98.25
461.018	92.25
461.238	77.25
461.458	86.25
461.678	74.25
461.898	74.25
462.118	90.25
462.338	83.25
462.558	92.25
462.777	91.25
462.997	93.25
463.217	99.25
463.437	96.25
463.657	94.25
463.876	71.25
464.096	101.25
464.316	83.25
464.536	90.25
464.755	92.25
464.975	84.25
465.195	138.25
465.414	133.25
465.634	94.25
465.854	86.25
466.073	87.25
466.293	88.25
466.512	82.25
466.732	79.25
466.951	90.25
467.171	96.25
467.391	89.25
467.61	102.25
467.829	92.25
468.049	102.25
468.268	95.25
468.488	76.25
468.707	110.25
468.927	93.25
469.146	93.25
469.365	90.25
469.585	89.25
469.804	89.25
470.023	91.25
470.243	87.25
470.462	103.25
470.681	108.25
470.901	105.25
471.12	79.25
471.339	84.25
471.558	97.25
471.777	91.25
471.997	94.25
472.216	94.25
472.435	127.25
472.654	92.25
472.873	99.25
473.092	85.25
473.311	92.25
473.53	79.25
473.749	105.25
473.968	97.25
474.187	103.25
474.406	100.25
474.625	86.25
474.844	85.25
475.063	68.25
475.282	93.25
475.501	84.25
475.72	95.25
475.939	96.25
476.158	80.25
476.377	86.25
476.596	80.25
476.814	86.25
477.033	100.25
477.252	92.25
477.471	87.25
477.69	92.25
477.908	73.25
478.127	103.25
478.346	83.25
478.564	82.25
478.783	87.25
479.002	94.25
479.22	91.25
479.439	91.25
479.658	77.25
479.876	102.25
480.095	86.25
480.313	90.25
480.532	100.25
480.751	99.25
480.969	104.25
481.188	172.25
481.406	133.25
481.624	96.25
481.843	97.25
482.061	87.25
482.28	88.25
482.498	89.25
482.717	71.25
482.935	70.25
483.153	100.25
483.372	82.25
483.59	90.25
483.808	92.25
484.027	101.25
484.245	70.25
484.463	101.25
484.681	103.25
484.9	93.25
485.118	94.25
485.336	87.25
485.554	102.25
485.772	96.25
485.99	105.25
486.209	118.25
486.427	94.25
486.645	93.25
486.863	118.25
487.081	99.25
487.299	106.25
487.517	94.25
487.735	83.25
487.953	100.25
488.171	108.25
488.389	89.25
488.607	101.25
488.825	88.25
489.043	93.25
489.261	82.25
489.479	99.25
489.696	87.25
489.914	94.25
490.132	101.25
490.35	102.25
490.568	96.25
490.786	100.25
491.003	79.25
491.221	98.25
491.439	84.25
491.657	93.25
491.874	94.25
492.092	84.25
492.31	79.25
492.527	84.25
492.745	86.25
492.963	98.25
493.18	96.25
493.398	101.25
493.615	104.25
493.833	103.25
494.05	88.25
494.268	94.25
494.485	93.25
494.703	91.25
494.92	89.25
495.138	98.25
495.355	91.25
495.573	103.25
495.79	90.25
496.008	102.25
496.225	83.25
496.442	103.25
496.66	88.25
496.877	92.25
497.094	109.25
497.312	79.25
497.529	91.25
497.746	99.25
497.963	96.25
498.181	88.25
498.398	91.25
498.615	98.25
498.832	95.25
499.049	89.25
499.267	100.25
499.484	95.25
499.701	84.25
499.918	95.25
500.135	88.25
500.352	85.25
500.569	86.25
500.786	90.25
501.003	92.25
501.22	91.25
501.437	85.25
501.654	86.25
501.871	99.25
502.088	101.25
502.305	103.25
502.522	99.25
502.739	83.25
502.956	95.25
503.172	89.25
503.389	94.25
503.606	99.25
503.823	95.25
504.04	88.25
504.256	92.25
504.473	87.25
504.69	104.25
504.907	100.25
505.123	90.25
505.34	96.25
505.557	92.25
505.773	98.25
505.99	87.25
506.207	82.25
506.423	84.25
506.64	88.25
506.856	83.25
507.073	80.25
507.289	86.25
507.506	99.25
507.722	104.25
507.939	119.25
508.155	85.25
508.372	107.25
508.588	75.25
508.805	98.25
509.021	78.25
509.238	87.25
509.454	95.25
509.67	93.25
509.887	102.25
510.103	134.25
510.319	176.25
510.536	582.25
510.752	1592.25
510.968	458.25
511.184	152.25
511.401	107.25
511.617	93.25
511.833	105.25
512.049	99.25
512.265	84.25
512.481	87.25
512.698	95.25
512.914	95.25
513.13	96.25
513.346	93.25
513.562	93.25
513.778	96.25
513.994	99.25
514.21	101.25
514.426	101.25
514.642	125.25
514.858	114.25
515.074	122.25
515.29	317.25
