Data from Uncirc_1981_H10_HRD10591_00099.txt Node
Date: Wed Jan 03 12:33:27 EST 2024
User: Yrep
Spectrometer: HR+D1059
Trigger mode: 1
Integration Time (sec): 1.000000E-1
Scans to average: 1
Electric dark correction enabled: true
Nonlinearity correction enabled: false
Boxcar width: 0
XAxis mode: Wavelengths
Number of Pixels in Spectrum: 2048
>>>>>Begin Spectral Data<<<<<
223.165	-12.56
223.4	-12.56
223.635	-12.56
223.869	-14.56
224.104	-30.56
224.338	-7.56
224.573	-17.56
224.808	-25.56
225.042	5.44
225.277	-5.56
225.511	-9.56
225.746	-4.56
225.98	13.44
226.215	20.44
226.449	13.44
226.683	27.44
226.918	21.44
227.152	26.44
227.387	39.44
227.621	37.44
227.856	40.44
228.09	31.44
228.324	62.44
228.559	71.44
228.793	64.44
229.027	70.44
229.262	62.44
229.496	80.44
229.73	62.44
229.964	74.44
230.199	76.44
230.433	88.44
230.667	83.44
230.901	103.44
231.136	79.44
231.37	87.44
231.604	83.44
231.838	89.44
232.072	73.44
232.306	98.44
232.541	87.44
232.775	87.44
233.009	87.44
233.243	90.44
233.477	85.44
233.711	92.44
233.945	73.44
234.179	76.44
234.413	88.44
234.647	99.44
234.881	87.44
235.115	86.44
235.349	85.44
235.583	89.44
235.817	79.44
236.051	66.44
236.285	89.44
236.519	89.44
236.753	85.44
236.987	86.44
237.221	89.44
237.455	91.44
237.689	88.44
237.922	70.44
238.156	64.44
238.39	72.44
238.624	81.44
238.858	92.44
239.091	87.44
239.325	87.44
239.559	86.44
239.793	68.44
240.027	78.44
240.26	79.44
240.494	77.44
240.728	84.44
240.961	79.44
241.195	87.44
241.429	76.44
241.662	76.44
241.896	78.44
242.13	71.44
242.363	89.44
242.597	89.44
242.83	73.44
243.064	70.44
243.298	87.44
243.531	84.44
243.765	85.44
243.998	76.44
244.232	73.44
244.465	85.44
244.699	83.44
244.932	81.44
245.166	93.44
245.399	86.44
245.633	80.44
245.866	73.44
246.099	70.44
246.333	75.44
246.566	76.44
246.8	80.44
247.033	84.44
247.266	75.44
247.5	85.44
247.733	75.44
247.966	80.44
248.2	73.44
248.433	94.44
248.666	79.44
248.899	89.44
249.133	93.44
249.366	92.44
249.599	93.44
249.832	99.44
250.066	100.44
250.299	74.44
250.532	72.44
250.765	102.44
250.998	97.44
251.231	89.44
251.465	80.44
251.698	90.44
251.931	79.44
252.164	87.44
252.397	81.44
252.63	87.44
252.863	75.44
253.096	61.44
253.329	90.44
253.562	85.44
253.795	77.44
254.028	83.44
254.261	80.44
254.494	90.44
254.727	90.44
254.96	91.44
255.193	84.44
255.426	90.44
255.659	70.44
255.892	80.44
256.124	78.44
256.357	62.44
256.59	64.44
256.823	83.44
257.056	83.44
257.289	87.44
257.521	73.44
257.754	98.44
257.987	86.44
258.22	69.44
258.452	85.44
258.685	78.44
258.918	87.44
259.151	95.44
259.383	86.44
259.616	86.44
259.849	85.44
260.081	86.44
260.314	76.44
260.547	83.44
260.779	90.44
261.012	86.44
261.244	76.44
261.477	87.44
261.71	88.44
261.942	105.44
262.175	100.44
262.407	86.44
262.64	83.44
262.872	99.44
263.105	94.44
263.337	96.44
263.57	65.44
263.802	71.44
264.035	101.44
264.267	73.44
264.499	85.44
264.732	83.44
264.964	78.44
265.197	86.44
265.429	109.44
265.661	86.44
265.894	87.44
266.126	90.44
266.358	79.44
266.591	91.44
266.823	78.44
267.055	92.44
267.287	71.44
267.52	81.44
267.752	88.44
267.984	94.44
268.216	104.44
268.448	99.44
268.681	85.44
268.913	87.44
269.145	86.44
269.377	78.44
269.609	80.44
269.841	82.44
270.073	89.44
270.306	79.44
270.538	78.44
270.77	84.44
271.002	69.44
271.234	87.44
271.466	89.44
271.698	87.44
271.93	79.44
272.162	93.44
272.394	89.44
272.626	85.44
272.858	85.44
273.09	88.44
273.322	93.44
273.553	104.44
273.785	96.44
274.017	82.44
274.249	75.44
274.481	89.44
274.713	84.44
274.945	83.44
275.176	75.44
275.408	85.44
275.64	97.44
275.872	78.44
276.104	89.44
276.335	101.44
276.567	90.44
276.799	86.44
277.031	97.44
277.262	88.44
277.494	92.44
277.726	88.44
277.957	93.44
278.189	94.44
278.421	89.44
278.652	79.44
278.884	92.44
279.115	89.44
279.347	90.44
279.579	91.44
279.81	90.44
280.042	94.44
280.273	103.44
280.505	85.44
280.736	85.44
280.968	91.44
281.199	87.44
281.431	84.44
281.662	79.44
281.894	74.44
282.125	91.44
282.356	118.44
282.588	116.44
282.819	121.44
283.051	93.44
283.282	86.44
283.513	98.44
283.745	94.44
283.976	78.44
284.207	92.44
284.439	89.44
284.67	90.44
284.901	93.44
285.132	88.44
285.364	95.44
285.595	75.44
285.826	99.44
286.057	91.44
286.288	93.44
286.52	80.44
286.751	81.44
286.982	86.44
287.213	93.44
287.444	93.44
287.675	89.44
287.906	97.44
288.138	97.44
288.369	86.44
288.6	88.44
288.831	76.44
289.062	87.44
289.293	80.44
289.524	94.44
289.755	86.44
289.986	86.44
290.217	80.44
290.448	107.44
290.679	90.44
290.91	87.44
291.141	80.44
291.371	90.44
291.602	88.44
291.833	91.44
292.064	85.44
292.295	88.44
292.526	70.44
292.757	100.44
292.987	95.44
293.218	93.44
293.449	100.44
293.68	101.44
293.91	85.44
294.141	90.44
294.372	93.44
294.603	87.44
294.833	91.44
295.064	78.44
295.295	91.44
295.525	95.44
295.756	103.44
295.987	107.44
296.217	109.44
296.448	124.44
296.679	70.44
296.909	95.44
297.14	95.44
297.37	87.44
297.601	95.44
297.831	80.44
298.062	101.44
298.292	97.44
298.523	84.44
298.753	81.44
298.984	89.44
299.214	87.44
299.445	86.44
299.675	99.44
299.905	107.44
300.136	103.44
300.366	103.44
300.597	104.44
300.827	93.44
301.057	86.44
301.288	102.44
301.518	89.44
301.748	80.44
301.979	100.44
302.209	81.44
302.439	87.44
302.669	99.44
302.9	78.44
303.13	90.44
303.36	84.44
303.59	94.44
303.82	95.44
304.051	94.44
304.281	78.44
304.511	93.44
304.741	83.44
304.971	89.44
305.201	89.44
305.431	87.44
305.661	101.44
305.891	78.44
306.121	95.44
306.352	101.44
306.582	97.44
306.812	93.44
307.042	97.44
307.272	86.44
307.502	93.44
307.731	88.44
307.961	100.44
308.191	99.44
308.421	100.44
308.651	90.44
308.881	86.44
309.111	97.44
309.341	88.44
309.571	99.44
309.8	82.44
310.03	100.44
310.26	93.44
310.49	87.44
310.72	89.44
310.949	108.44
311.179	102.44
311.409	84.44
311.639	92.44
311.868	102.44
312.098	106.44
312.328	111.44
312.557	113.44
312.787	112.44
313.017	97.44
313.246	102.44
313.476	89.44
313.706	97.44
313.935	103.44
314.165	94.44
314.394	99.44
314.624	99.44
314.853	120.44
315.083	85.44
315.312	94.44
315.542	88.44
315.771	97.44
316.001	87.44
316.23	84.44
316.46	88.44
316.689	84.44
316.919	84.44
317.148	96.44
317.377	97.44
317.607	84.44
317.836	87.44
318.065	91.44
318.295	104.44
318.524	96.44
318.753	89.44
318.983	92.44
319.212	111.44
319.441	95.44
319.67	93.44
319.9	92.44
320.129	87.44
320.358	94.44
320.587	92.44
320.816	87.44
321.046	96.44
321.275	102.44
321.504	107.44
321.733	111.44
321.962	95.44
322.191	107.44
322.42	98.44
322.649	104.44
322.878	120.44
323.108	127.44
323.337	112.44
323.566	129.44
323.795	148.44
324.024	177.44
324.253	329.44
324.482	668.44
324.71	1374.44
324.939	1822.44
325.168	683.44
325.397	211.44
325.626	139.44
325.855	121.44
326.084	121.44
326.313	127.44
326.542	151.44
326.77	212.44
326.999	409.44
327.228	775.44
327.457	1427.44
327.686	1172.44
327.914	305.44
328.143	165.44
328.372	137.44
328.6	115.44
328.829	109.44
329.058	105.44
329.287	117.44
329.515	108.44
329.744	103.44
329.972	99.44
330.201	106.44
330.43	132.44
330.658	108.44
330.887	138.44
331.115	112.44
331.344	80.44
331.572	86.44
331.801	103.44
332.03	105.44
332.258	104.44
332.486	92.44
332.715	102.44
332.943	113.44
333.172	111.44
333.4	91.44
333.629	102.44
333.857	107.44
334.085	100.44
334.314	104.44
334.542	136.44
334.771	122.44
334.999	108.44
335.227	106.44
335.455	91.44
335.684	96.44
335.912	100.44
336.14	75.44
336.369	95.44
336.597	98.44
336.825	102.44
337.053	94.44
337.281	98.44
337.51	90.44
337.738	91.44
337.966	87.44
338.194	91.44
338.422	93.44
338.65	94.44
338.878	97.44
339.106	100.44
339.334	102.44
339.562	102.44
339.79	98.44
340.018	90.44
340.246	93.44
340.474	92.44
340.702	96.44
340.93	93.44
341.158	104.44
341.386	99.44
341.614	91.44
341.842	109.44
342.07	91.44
342.298	90.44
342.526	87.44
342.754	86.44
342.981	86.44
343.209	87.44
343.437	103.44
343.665	97.44
343.893	88.44
344.12	97.44
344.348	88.44
344.576	94.44
344.804	87.44
345.031	89.44
345.259	91.44
345.487	97.44
345.714	89.44
345.942	85.44
346.17	89.44
346.397	90.44
346.625	83.44
346.853	97.44
347.08	89.44
347.308	88.44
347.535	93.44
347.763	100.44
347.99	95.44
348.218	89.44
348.445	103.44
348.673	99.44
348.9	99.44
349.128	106.44
349.355	93.44
349.583	91.44
349.81	92.44
350.037	91.44
350.265	88.44
350.492	81.44
350.72	98.44
350.947	88.44
351.174	107.44
351.402	83.44
351.629	103.44
351.856	102.44
352.083	110.44
352.311	120.44
352.538	109.44
352.765	112.44
352.992	105.44
353.22	112.44
353.447	107.44
353.674	99.44
353.901	108.44
354.128	102.44
354.355	101.44
354.583	90.44
354.81	96.44
355.037	88.44
355.264	101.44
355.491	99.44
355.718	88.44
355.945	100.44
356.172	100.44
356.399	101.44
356.626	101.44
356.853	93.44
357.08	101.44
357.307	98.44
357.534	108.44
357.761	96.44
357.988	85.44
358.215	97.44
358.441	99.44
358.668	104.44
358.895	86.44
359.122	100.44
359.349	105.44
359.576	75.44
359.802	97.44
360.029	114.44
360.256	94.44
360.483	94.44
360.709	86.44
360.936	102.44
361.163	88.44
361.39	92.44
361.616	85.44
361.843	98.44
362.07	87.44
362.296	94.44
362.523	89.44
362.749	85.44
362.976	93.44
363.203	85.44
363.429	91.44
363.656	99.44
363.882	77.44
364.109	83.44
364.335	102.44
364.562	93.44
364.788	88.44
365.015	106.44
365.241	104.44
365.468	114.44
365.694	107.44
365.92	92.44
366.147	93.44
366.373	76.44
366.599	99.44
366.826	100.44
367.052	100.44
367.278	103.44
367.505	86.44
367.731	83.44
367.957	102.44
368.184	88.44
368.41	105.44
368.636	103.44
368.862	103.44
369.089	103.44
369.315	87.44
369.541	87.44
369.767	95.44
369.993	88.44
370.219	89.44
370.445	91.44
370.672	88.44
370.898	93.44
371.124	85.44
371.35	104.44
371.576	106.44
371.802	90.44
372.028	100.44
372.254	85.44
372.48	88.44
372.706	87.44
372.932	95.44
373.158	96.44
373.384	92.44
373.61	86.44
373.835	89.44
374.061	87.44
374.287	86.44
374.513	89.44
374.739	98.44
374.965	99.44
375.191	99.44
375.416	86.44
375.642	91.44
375.868	96.44
376.094	102.44
376.319	79.44
376.545	105.44
376.771	93.44
376.997	103.44
377.222	106.44
377.448	99.44
377.674	96.44
377.899	96.44
378.125	82.44
378.35	93.44
378.576	103.44
378.802	101.44
379.027	108.44
379.253	91.44
379.478	103.44
379.704	102.44
379.929	92.44
380.155	97.44
380.38	88.44
380.606	99.44
380.831	101.44
381.057	93.44
381.282	93.44
381.507	91.44
381.733	105.44
381.958	95.44
382.184	104.44
382.409	87.44
382.634	110.44
382.86	103.44
383.085	104.44
383.31	99.44
383.535	98.44
383.761	106.44
383.986	106.44
384.211	91.44
384.436	86.44
384.662	118.44
384.887	107.44
385.112	99.44
385.337	112.44
385.562	113.44
385.787	88.44
386.013	121.44
386.238	118.44
386.463	112.44
386.688	111.44
386.913	91.44
387.138	109.44
387.363	112.44
387.588	107.44
387.813	95.44
388.038	107.44
388.263	102.44
388.488	112.44
388.713	110.44
388.938	103.44
389.163	80.44
389.387	109.44
389.612	105.44
389.837	96.44
390.062	103.44
390.287	102.44
390.512	87.44
390.736	81.44
390.961	95.44
391.186	89.44
391.411	100.44
391.636	94.44
391.86	92.44
392.085	81.44
392.31	79.44
392.534	82.44
392.759	88.44
392.984	90.44
393.208	84.44
393.433	87.44
393.658	92.44
393.882	91.44
394.107	94.44
394.331	81.44
394.556	102.44
394.78	99.44
395.005	94.44
395.229	90.44
395.454	83.44
395.678	100.44
395.903	95.44
396.127	103.44
396.352	88.44
396.576	75.44
396.801	95.44
397.025	96.44
397.249	97.44
397.474	96.44
397.698	102.44
397.922	77.44
398.147	93.44
398.371	91.44
398.595	87.44
398.82	76.44
399.044	93.44
399.268	80.44
399.492	91.44
399.717	95.44
399.941	91.44
400.165	102.44
400.389	68.44
400.613	96.44
400.837	87.44
401.062	85.44
401.286	93.44
401.51	102.44
401.734	95.44
401.958	99.44
402.182	116.44
402.406	134.44
402.63	103.44
402.854	106.44
403.078	97.44
403.302	96.44
403.526	97.44
403.75	84.44
403.974	93.44
404.198	93.44
404.422	95.44
404.645	98.44
404.869	95.44
405.093	107.44
405.317	97.44
405.541	114.44
405.765	83.44
405.988	100.44
406.212	144.44
406.436	176.44
406.66	111.44
406.883	90.44
407.107	93.44
407.331	112.44
407.555	102.44
407.778	101.44
408.002	80.44
408.226	101.44
408.449	97.44
408.673	94.44
408.896	107.44
409.12	94.44
409.344	99.44
409.567	85.44
409.791	102.44
410.014	92.44
410.238	97.44
410.461	97.44
410.685	118.44
410.908	102.44
411.132	103.44
411.355	90.44
411.578	103.44
411.802	83.44
412.025	87.44
412.249	89.44
412.472	108.44
412.695	100.44
412.919	79.44
413.142	91.44
413.365	105.44
413.589	86.44
413.812	90.44
414.035	91.44
414.258	83.44
414.482	105.44
414.705	98.44
414.928	100.44
415.151	85.44
415.374	100.44
415.597	96.44
415.821	89.44
416.044	99.44
416.267	93.44
416.49	78.44
416.713	95.44
416.936	91.44
417.159	91.44
417.382	90.44
417.605	102.44
417.828	104.44
418.051	85.44
418.274	86.44
418.497	90.44
418.72	107.44
418.943	94.44
419.166	112.44
419.389	96.44
419.611	91.44
419.834	85.44
420.057	96.44
420.28	99.44
420.503	100.44
420.726	95.44
420.948	93.44
421.171	88.44
421.394	93.44
421.617	102.44
421.839	85.44
422.062	94.44
422.285	97.44
422.507	109.44
422.73	100.44
422.953	94.44
423.175	90.44
423.398	78.44
423.621	95.44
423.843	88.44
424.066	87.44
424.288	76.44
424.511	93.44
424.733	96.44
424.956	100.44
425.178	93.44
425.401	107.44
425.623	87.44
425.846	83.44
426.068	88.44
426.291	94.44
426.513	90.44
426.735	107.44
426.958	96.44
427.18	93.44
427.402	121.44
427.625	145.44
427.847	124.44
428.069	119.44
428.292	80.44
428.514	89.44
428.736	88.44
428.958	97.44
429.181	83.44
429.403	87.44
429.625	95.44
429.847	96.44
430.069	100.44
430.292	81.44
430.514	105.44
430.736	72.44
430.958	89.44
431.18	92.44
431.402	98.44
431.624	93.44
431.846	87.44
432.068	76.44
432.29	84.44
432.512	78.44
432.734	97.44
432.956	87.44
433.178	94.44
433.4	104.44
433.622	106.44
433.844	79.44
434.066	96.44
434.287	93.44
434.509	81.44
434.731	95.44
434.953	96.44
435.175	91.44
435.397	94.44
435.618	94.44
435.84	103.44
436.062	104.44
436.284	97.44
436.505	103.44
436.727	102.44
436.949	99.44
437.17	95.44
437.392	87.44
437.614	80.44
437.835	84.44
438.057	105.44
438.278	94.44
438.5	97.44
438.721	111.44
438.943	100.44
439.165	91.44
439.386	96.44
439.608	99.44
439.829	112.44
440.05	123.44
440.272	114.44
440.493	83.44
440.715	100.44
440.936	91.44
441.158	93.44
441.379	81.44
441.6	94.44
441.822	99.44
442.043	89.44
442.264	97.44
442.486	92.44
442.707	85.44
442.928	110.44
443.149	119.44
443.371	114.44
443.592	103.44
443.813	85.44
444.034	87.44
444.255	78.44
444.476	87.44
444.698	103.44
444.919	90.44
445.14	136.44
445.361	135.44
445.582	109.44
445.803	114.44
446.024	129.44
446.245	114.44
446.466	90.44
446.687	87.44
446.908	84.44
447.129	88.44
447.35	103.44
447.571	80.44
447.792	94.44
448.013	102.44
448.234	107.44
448.455	87.44
448.675	107.44
448.896	117.44
449.117	101.44
449.338	95.44
449.559	111.44
449.779	124.44
450	95.44
450.221	97.44
450.442	91.44
450.662	113.44
450.883	90.44
451.104	118.44
451.324	100.44
451.545	83.44
451.766	76.44
451.986	90.44
452.207	81.44
452.428	82.44
452.648	102.44
452.869	105.44
453.089	101.44
453.31	95.44
453.53	81.44
453.751	86.44
453.971	92.44
454.192	117.44
454.412	100.44
454.633	105.44
454.853	104.44
455.073	84.44
455.294	86.44
455.514	111.44
455.734	90.44
455.955	92.44
456.175	89.44
456.395	71.44
456.616	88.44
456.836	81.44
457.056	71.44
457.276	90.44
457.497	86.44
457.717	88.44
457.937	75.44
458.157	88.44
458.377	90.44
458.598	103.44
458.818	127.44
459.038	137.44
459.258	101.44
459.478	85.44
459.698	85.44
459.918	92.44
460.138	96.44
460.358	91.44
460.578	91.44
460.798	92.44
461.018	98.44
461.238	93.44
461.458	100.44
461.678	86.44
461.898	85.44
462.118	95.44
462.338	78.44
462.558	89.44
462.777	81.44
462.997	88.44
463.217	99.44
463.437	101.44
463.657	83.44
463.876	97.44
464.096	87.44
464.316	87.44
464.536	94.44
464.755	101.44
464.975	96.44
465.195	132.44
465.414	124.44
465.634	95.44
465.854	89.44
466.073	97.44
466.293	89.44
466.512	87.44
466.732	87.44
466.951	89.44
467.171	86.44
467.391	112.44
467.61	115.44
467.829	93.44
468.049	97.44
468.268	107.44
468.488	104.44
468.707	89.44
468.927	99.44
469.146	78.44
469.365	97.44
469.585	88.44
469.804	81.44
470.023	92.44
470.243	97.44
470.462	94.44
470.681	91.44
470.901	89.44
471.12	94.44
471.339	86.44
471.558	99.44
471.777	99.44
471.997	104.44
472.216	102.44
472.435	115.44
472.654	89.44
472.873	90.44
473.092	90.44
473.311	108.44
473.53	83.44
473.749	92.44
473.968	100.44
474.187	110.44
474.406	96.44
474.625	93.44
474.844	88.44
475.063	91.44
475.282	88.44
475.501	87.44
475.72	103.44
475.939	86.44
476.158	85.44
476.377	100.44
476.596	95.44
476.814	101.44
477.033	90.44
477.252	93.44
477.471	96.44
477.69	100.44
477.908	92.44
478.127	108.44
478.346	84.44
478.564	91.44
478.783	89.44
479.002	94.44
479.22	91.44
479.439	96.44
479.658	108.44
479.876	112.44
480.095	96.44
480.313	79.44
480.532	76.44
480.751	104.44
480.969	111.44
481.188	168.44
481.406	142.44
481.624	111.44
481.843	88.44
482.061	85.44
482.28	89.44
482.498	75.44
482.717	91.44
482.935	92.44
483.153	99.44
483.372	85.44
483.59	99.44
483.808	78.44
484.027	88.44
484.245	90.44
484.463	94.44
484.681	101.44
484.9	87.44
485.118	110.44
485.336	114.44
485.554	100.44
485.772	95.44
485.99	108.44
486.209	109.44
486.427	95.44
486.645	103.44
486.863	119.44
487.081	93.44
487.299	98.44
487.517	119.44
487.735	74.44
487.953	108.44
488.171	102.44
488.389	100.44
488.607	107.44
488.825	104.44
489.043	100.44
489.261	94.44
489.479	87.44
489.696	95.44
489.914	109.44
490.132	89.44
490.35	103.44
490.568	94.44
490.786	95.44
491.003	99.44
491.221	101.44
491.439	90.44
491.657	91.44
491.874	87.44
492.092	85.44
492.31	92.44
492.527	89.44
492.745	91.44
492.963	86.44
493.18	79.44
493.398	106.44
493.615	109.44
493.833	117.44
494.05	91.44
494.268	89.44
494.485	90.44
494.703	86.44
494.92	79.44
495.138	109.44
495.355	96.44
495.573	89.44
495.79	85.44
496.008	86.44
496.225	94.44
496.442	88.44
496.66	87.44
496.877	96.44
497.094	84.44
497.312	97.44
497.529	89.44
497.746	97.44
497.963	80.44
498.181	90.44
498.398	95.44
498.615	110.44
498.832	111.44
499.049	94.44
499.267	103.44
499.484	99.44
499.701	91.44
499.918	93.44
500.135	95.44
500.352	86.44
500.569	106.44
500.786	86.44
501.003	87.44
501.22	97.44
501.437	97.44
501.654	101.44
501.871	104.44
502.088	103.44
502.305	93.44
502.522	107.44
502.739	90.44
502.956	70.44
503.172	81.44
503.389	89.44
503.606	103.44
503.823	112.44
504.04	98.44
504.256	89.44
504.473	95.44
504.69	86.44
504.907	98.44
505.123	93.44
505.34	78.44
505.557	84.44
505.773	83.44
505.99	97.44
506.207	88.44
506.423	91.44
506.64	85.44
506.856	88.44
507.073	88.44
507.289	75.44
507.506	87.44
507.722	103.44
507.939	107.44
508.155	100.44
508.372	98.44
508.588	99.44
508.805	100.44
509.021	95.44
509.238	89.44
509.454	83.44
509.67	96.44
509.887	124.44
510.103	117.44
510.319	181.44
510.536	573.44
510.752	1657.44
510.968	477.44
511.184	147.44
511.401	107.44
511.617	86.44
511.833	93.44
512.049	103.44
512.265	101.44
512.481	101.44
512.698	89.44
512.914	88.44
513.13	89.44
513.346	98.44
513.562	110.44
513.778	96.44
513.994	109.44
514.21	105.44
514.426	112.44
514.642	126.44
514.858	118.44
