Data from Uncirc_1981_H10_HRD10591_00076.txt Node
Date: Wed Jan 03 12:33:23 EST 2024
User: Yrep
Spectrometer: HR+D1059
Trigger mode: 1
Integration Time (sec): 1.000000E-1
Scans to average: 1
Electric dark correction enabled: true
Nonlinearity correction enabled: false
Boxcar width: 0
XAxis mode: Wavelengths
Number of Pixels in Spectrum: 2048
>>>>>Begin Spectral Data<<<<<
223.165	-15.81
223.4	-15.81
223.635	-15.81
223.869	-19.81
224.104	-17.81
224.338	-3.81
224.573	-20.81
224.808	-23.81
225.042	-12.81
225.277	-5.81
225.511	1.19
225.746	6.19
225.98	0.19
226.215	9.19
226.449	24.19
226.683	24.19
226.918	22.19
227.152	33.19
227.387	36.19
227.621	39.19
227.856	40.19
228.09	46.19
228.324	44.19
228.559	48.19
228.793	54.19
229.027	63.19
229.262	66.19
229.496	63.19
229.73	72.19
229.964	76.19
230.199	59.19
230.433	85.19
230.667	71.19
230.901	70.19
231.136	72.19
231.37	82.19
231.604	87.19
231.838	74.19
232.072	69.19
232.306	87.19
232.541	77.19
232.775	79.19
233.009	65.19
233.243	66.19
233.477	68.19
233.711	82.19
233.945	66.19
234.179	88.19
234.413	85.19
234.647	97.19
234.881	97.19
235.115	64.19
235.349	67.19
235.583	84.19
235.817	83.19
236.051	82.19
236.285	71.19
236.519	74.19
236.753	76.19
236.987	70.19
237.221	80.19
237.455	71.19
237.689	75.19
237.922	84.19
238.156	68.19
238.39	67.19
238.624	84.19
238.858	71.19
239.091	72.19
239.325	87.19
239.559	79.19
239.793	69.19
240.027	80.19
240.26	79.19
240.494	65.19
240.728	83.19
240.961	85.19
241.195	69.19
241.429	71.19
241.662	84.19
241.896	73.19
242.13	77.19
242.363	83.19
242.597	72.19
242.83	81.19
243.064	76.19
243.298	74.19
243.531	97.19
243.765	85.19
243.998	92.19
244.232	79.19
244.465	81.19
244.699	66.19
244.932	79.19
245.166	55.19
245.399	74.19
245.633	73.19
245.866	77.19
246.099	70.19
246.333	92.19
246.566	65.19
246.8	69.19
247.033	72.19
247.266	77.19
247.5	75.19
247.733	81.19
247.966	72.19
248.2	83.19
248.433	88.19
248.666	86.19
248.899	78.19
249.133	85.19
249.366	95.19
249.599	85.19
249.832	84.19
250.066	77.19
250.299	71.19
250.532	74.19
250.765	67.19
250.998	77.19
251.231	82.19
251.465	87.19
251.698	85.19
251.931	66.19
252.164	78.19
252.397	82.19
252.63	64.19
252.863	69.19
253.096	74.19
253.329	90.19
253.562	74.19
253.795	79.19
254.028	74.19
254.261	85.19
254.494	90.19
254.727	84.19
254.96	86.19
255.193	95.19
255.426	83.19
255.659	53.19
255.892	83.19
256.124	79.19
256.357	66.19
256.59	81.19
256.823	84.19
257.056	84.19
257.289	93.19
257.521	71.19
257.754	88.19
257.987	79.19
258.22	79.19
258.452	68.19
258.685	78.19
258.918	84.19
259.151	83.19
259.383	80.19
259.616	89.19
259.849	81.19
260.081	84.19
260.314	87.19
260.547	72.19
260.779	82.19
261.012	83.19
261.244	85.19
261.477	83.19
261.71	95.19
261.942	87.19
262.175	97.19
262.407	99.19
262.64	80.19
262.872	81.19
263.105	88.19
263.337	93.19
263.57	74.19
263.802	88.19
264.035	91.19
264.267	83.19
264.499	88.19
264.732	73.19
264.964	74.19
265.197	92.19
265.429	65.19
265.661	61.19
265.894	82.19
266.126	91.19
266.358	77.19
266.591	76.19
266.823	87.19
267.055	76.19
267.287	80.19
267.52	92.19
267.752	90.19
267.984	89.19
268.216	89.19
268.448	72.19
268.681	63.19
268.913	91.19
269.145	83.19
269.377	100.19
269.609	67.19
269.841	76.19
270.073	90.19
270.306	95.19
270.538	87.19
270.77	76.19
271.002	92.19
271.234	91.19
271.466	75.19
271.698	84.19
271.93	76.19
272.162	95.19
272.394	89.19
272.626	81.19
272.858	86.19
273.09	80.19
273.322	80.19
273.553	83.19
273.785	81.19
274.017	75.19
274.249	71.19
274.481	93.19
274.713	80.19
274.945	75.19
275.176	75.19
275.408	77.19
275.64	82.19
275.872	79.19
276.104	99.19
276.335	92.19
276.567	83.19
276.799	96.19
277.031	98.19
277.262	84.19
277.494	85.19
277.726	101.19
277.957	85.19
278.189	76.19
278.421	87.19
278.652	91.19
278.884	85.19
279.115	91.19
279.347	89.19
279.579	84.19
279.81	87.19
280.042	100.19
280.273	90.19
280.505	98.19
280.736	93.19
280.968	89.19
281.199	86.19
281.431	97.19
281.662	98.19
281.894	96.19
282.125	100.19
282.356	105.19
282.588	127.19
282.819	105.19
283.051	79.19
283.282	74.19
283.513	96.19
283.745	86.19
283.976	91.19
284.207	88.19
284.439	94.19
284.67	95.19
284.901	88.19
285.132	92.19
285.364	83.19
285.595	96.19
285.826	79.19
286.057	74.19
286.288	94.19
286.52	82.19
286.751	76.19
286.982	76.19
287.213	90.19
287.444	81.19
287.675	85.19
287.906	89.19
288.138	98.19
288.369	100.19
288.6	98.19
288.831	93.19
289.062	89.19
289.293	81.19
289.524	82.19
289.755	87.19
289.986	74.19
290.217	92.19
290.448	81.19
290.679	80.19
290.91	76.19
291.141	92.19
291.371	89.19
291.602	85.19
291.833	82.19
292.064	93.19
292.295	80.19
292.526	85.19
292.757	80.19
292.987	70.19
293.218	82.19
293.449	89.19
293.68	97.19
293.91	88.19
294.141	87.19
294.372	92.19
294.603	83.19
294.833	82.19
295.064	93.19
295.295	93.19
295.525	94.19
295.756	108.19
295.987	106.19
296.217	133.19
296.448	101.19
296.679	71.19
296.909	81.19
297.14	91.19
297.37	103.19
297.601	88.19
297.831	105.19
298.062	97.19
298.292	83.19
298.523	84.19
298.753	76.19
298.984	83.19
299.214	92.19
299.445	103.19
299.675	93.19
299.905	105.19
300.136	95.19
300.366	96.19
300.597	92.19
300.827	79.19
301.057	92.19
301.288	104.19
301.518	85.19
301.748	94.19
301.979	101.19
302.209	81.19
302.439	91.19
302.669	85.19
302.9	88.19
303.13	89.19
303.36	90.19
303.59	109.19
303.82	104.19
304.051	93.19
304.281	76.19
304.511	99.19
304.741	83.19
304.971	97.19
305.201	91.19
305.431	88.19
305.661	87.19
305.891	88.19
306.121	87.19
306.352	90.19
306.582	109.19
306.812	87.19
307.042	90.19
307.272	97.19
307.502	86.19
307.731	89.19
307.961	81.19
308.191	100.19
308.421	76.19
308.651	94.19
308.881	81.19
309.111	82.19
309.341	85.19
309.571	100.19
309.8	98.19
310.03	112.19
310.26	90.19
310.49	90.19
310.72	84.19
310.949	106.19
311.179	89.19
311.409	102.19
311.639	97.19
311.868	102.19
312.098	84.19
312.328	91.19
312.557	96.19
312.787	97.19
313.017	76.19
313.246	105.19
313.476	87.19
313.706	87.19
313.935	89.19
314.165	93.19
314.394	93.19
314.624	102.19
314.853	102.19
315.083	92.19
315.312	75.19
315.542	90.19
315.771	86.19
316.001	88.19
316.23	88.19
316.46	91.19
316.689	82.19
316.919	96.19
317.148	88.19
317.377	82.19
317.607	93.19
317.836	88.19
318.065	98.19
318.295	95.19
318.524	101.19
318.753	94.19
318.983	102.19
319.212	87.19
319.441	109.19
319.67	99.19
319.9	104.19
320.129	106.19
320.358	97.19
320.587	96.19
320.816	91.19
321.046	95.19
321.275	95.19
321.504	92.19
321.733	91.19
321.962	89.19
322.191	97.19
322.42	100.19
322.649	108.19
322.878	99.19
323.108	119.19
323.337	117.19
323.566	122.19
323.795	153.19
324.024	211.19
324.253	370.19
324.482	819.19
324.71	1716.19
324.939	2325.19
325.168	855.19
325.397	241.19
325.626	138.19
325.855	127.19
326.084	130.19
326.313	138.19
326.542	150.19
326.77	230.19
326.999	444.19
327.228	968.19
327.457	1800.19
327.686	1459.19
327.914	364.19
328.143	179.19
328.372	143.19
328.6	132.19
328.829	119.19
329.058	127.19
329.287	123.19
329.515	90.19
329.744	109.19
329.972	106.19
330.201	109.19
330.43	126.19
330.658	120.19
330.887	116.19
331.115	106.19
331.344	95.19
331.572	103.19
331.801	92.19
332.03	89.19
332.258	99.19
332.486	87.19
332.715	95.19
332.943	88.19
333.172	82.19
333.4	90.19
333.629	113.19
333.857	113.19
334.085	111.19
334.314	119.19
334.542	133.19
334.771	131.19
334.999	95.19
335.227	94.19
335.455	86.19
335.684	92.19
335.912	95.19
336.14	97.19
336.369	83.19
336.597	99.19
336.825	91.19
337.053	87.19
337.281	90.19
337.51	83.19
337.738	79.19
337.966	83.19
338.194	94.19
338.422	92.19
338.65	82.19
338.878	91.19
339.106	74.19
339.334	95.19
339.562	86.19
339.79	81.19
340.018	80.19
340.246	91.19
340.474	91.19
340.702	86.19
340.93	84.19
341.158	86.19
341.386	95.19
341.614	100.19
341.842	90.19
342.07	87.19
342.298	89.19
342.526	94.19
342.754	93.19
342.981	92.19
343.209	89.19
343.437	109.19
343.665	99.19
343.893	89.19
344.12	99.19
344.348	99.19
344.576	74.19
344.804	74.19
345.031	76.19
345.259	89.19
345.487	89.19
345.714	92.19
345.942	92.19
346.17	74.19
346.397	82.19
346.625	89.19
346.853	85.19
347.08	89.19
347.308	83.19
347.535	85.19
347.763	94.19
347.99	104.19
348.218	96.19
348.445	103.19
348.673	96.19
348.9	70.19
349.128	95.19
349.355	85.19
349.583	94.19
349.81	99.19
350.037	103.19
350.265	93.19
350.492	98.19
350.72	108.19
350.947	95.19
351.174	87.19
351.402	98.19
351.629	91.19
351.856	99.19
352.083	94.19
352.311	95.19
352.538	86.19
352.765	109.19
352.992	107.19
353.22	97.19
353.447	102.19
353.674	86.19
353.901	89.19
354.128	100.19
354.355	98.19
354.583	74.19
354.81	87.19
355.037	89.19
355.264	91.19
355.491	101.19
355.718	76.19
355.945	109.19
356.172	87.19
356.399	84.19
356.626	93.19
356.853	90.19
357.08	95.19
357.307	102.19
357.534	95.19
357.761	82.19
357.988	101.19
358.215	96.19
358.441	94.19
358.668	90.19
358.895	83.19
359.122	84.19
359.349	76.19
359.576	84.19
359.802	103.19
360.029	100.19
360.256	98.19
360.483	89.19
360.709	81.19
360.936	101.19
361.163	81.19
361.39	82.19
361.616	81.19
361.843	68.19
362.07	85.19
362.296	109.19
362.523	80.19
362.749	87.19
362.976	89.19
363.203	108.19
363.429	100.19
363.656	88.19
363.882	91.19
364.109	97.19
364.335	82.19
364.562	82.19
364.788	95.19
365.015	80.19
365.241	92.19
365.468	96.19
365.694	98.19
365.92	89.19
366.147	87.19
366.373	93.19
366.599	91.19
366.826	77.19
367.052	89.19
367.278	95.19
367.505	84.19
367.731	100.19
367.957	100.19
368.184	95.19
368.41	98.19
368.636	106.19
368.862	100.19
369.089	103.19
369.315	94.19
369.541	88.19
369.767	77.19
369.993	104.19
370.219	95.19
370.445	90.19
370.672	89.19
370.898	88.19
371.124	89.19
371.35	79.19
371.576	88.19
371.802	110.19
372.028	101.19
372.254	100.19
372.48	98.19
372.706	91.19
372.932	94.19
373.158	83.19
373.384	98.19
373.61	90.19
373.835	95.19
374.061	83.19
374.287	92.19
374.513	82.19
374.739	93.19
374.965	76.19
375.191	95.19
375.416	76.19
375.642	89.19
375.868	91.19
376.094	85.19
376.319	85.19
376.545	81.19
376.771	94.19
376.997	92.19
377.222	82.19
377.448	89.19
377.674	80.19
377.899	87.19
378.125	83.19
378.35	87.19
378.576	93.19
378.802	101.19
379.027	94.19
379.253	96.19
379.478	92.19
379.704	92.19
379.929	103.19
380.155	92.19
380.38	97.19
380.606	99.19
380.831	89.19
381.057	100.19
381.282	97.19
381.507	97.19
381.733	98.19
381.958	94.19
382.184	107.19
382.409	104.19
382.634	103.19
382.86	111.19
383.085	102.19
383.31	91.19
383.535	88.19
383.761	99.19
383.986	104.19
384.211	93.19
384.436	102.19
384.662	85.19
384.887	99.19
385.112	102.19
385.337	100.19
385.562	93.19
385.787	96.19
386.013	108.19
386.238	115.19
386.463	119.19
386.688	104.19
386.913	96.19
387.138	105.19
387.363	95.19
387.588	100.19
387.813	97.19
388.038	108.19
388.263	122.19
388.488	104.19
388.713	101.19
388.938	74.19
389.163	100.19
389.387	108.19
389.612	86.19
389.837	101.19
390.062	92.19
390.287	97.19
390.512	92.19
390.736	115.19
390.961	87.19
391.186	84.19
391.411	95.19
391.636	91.19
391.86	93.19
392.085	77.19
392.31	94.19
392.534	81.19
392.759	83.19
392.984	82.19
393.208	100.19
393.433	89.19
393.658	83.19
393.882	99.19
394.107	73.19
394.331	85.19
394.556	94.19
394.78	90.19
395.005	92.19
395.229	75.19
395.454	102.19
395.678	91.19
395.903	91.19
396.127	97.19
396.352	79.19
396.576	81.19
396.801	93.19
397.025	96.19
397.249	99.19
397.474	103.19
397.698	89.19
397.922	91.19
398.147	77.19
398.371	83.19
398.595	74.19
398.82	71.19
399.044	67.19
399.268	77.19
399.492	91.19
399.717	81.19
399.941	87.19
400.165	89.19
400.389	107.19
400.613	92.19
400.837	92.19
401.062	71.19
401.286	86.19
401.51	90.19
401.734	89.19
401.958	95.19
402.182	122.19
402.406	136.19
402.63	114.19
402.854	85.19
403.078	81.19
403.302	88.19
403.526	99.19
403.75	95.19
403.974	94.19
404.198	88.19
404.422	84.19
404.645	87.19
404.869	93.19
405.093	93.19
405.317	101.19
405.541	81.19
405.765	103.19
405.988	114.19
406.212	149.19
406.436	207.19
406.66	130.19
406.883	89.19
407.107	85.19
407.331	84.19
407.555	95.19
407.778	91.19
408.002	98.19
408.226	89.19
408.449	89.19
408.673	90.19
408.896	92.19
409.12	104.19
409.344	88.19
409.567	85.19
409.791	108.19
410.014	87.19
410.238	97.19
410.461	96.19
410.685	82.19
410.908	101.19
411.132	107.19
411.355	99.19
411.578	86.19
411.802	93.19
412.025	87.19
412.249	88.19
412.472	89.19
412.695	99.19
412.919	103.19
413.142	78.19
413.365	69.19
413.589	85.19
413.812	94.19
414.035	89.19
414.258	86.19
414.482	98.19
414.705	84.19
414.928	84.19
415.151	95.19
415.374	92.19
415.597	94.19
415.821	80.19
416.044	84.19
416.267	84.19
416.49	86.19
416.713	93.19
416.936	106.19
417.159	99.19
417.382	85.19
417.605	98.19
417.828	107.19
418.051	89.19
418.274	90.19
418.497	90.19
418.72	85.19
418.943	85.19
419.166	87.19
419.389	74.19
419.611	111.19
419.834	93.19
420.057	87.19
420.28	90.19
420.503	101.19
420.726	80.19
420.948	69.19
421.171	101.19
421.394	101.19
421.617	90.19
421.839	92.19
422.062	81.19
422.285	84.19
422.507	99.19
422.73	92.19
422.953	101.19
423.175	86.19
423.398	91.19
423.621	80.19
423.843	88.19
424.066	92.19
424.288	107.19
424.511	99.19
424.733	100.19
424.956	97.19
425.178	93.19
425.401	99.19
425.623	82.19
425.846	88.19
426.068	85.19
426.291	90.19
426.513	90.19
426.735	101.19
426.958	86.19
427.18	91.19
427.402	119.19
427.625	161.19
427.847	119.19
428.069	101.19
428.292	96.19
428.514	67.19
428.736	97.19
428.958	86.19
429.181	87.19
429.403	91.19
429.625	76.19
429.847	98.19
430.069	100.19
430.292	73.19
430.514	80.19
430.736	91.19
430.958	93.19
431.18	88.19
431.402	86.19
431.624	93.19
431.846	81.19
432.068	72.19
432.29	74.19
432.512	90.19
432.734	74.19
432.956	95.19
433.178	112.19
433.4	102.19
433.622	88.19
433.844	92.19
434.066	88.19
434.287	90.19
434.509	95.19
434.731	87.19
434.953	77.19
435.175	95.19
435.397	83.19
435.618	91.19
435.84	110.19
436.062	122.19
436.284	104.19
436.505	102.19
436.727	86.19
436.949	95.19
437.17	104.19
437.392	89.19
437.614	80.19
437.835	93.19
438.057	120.19
438.278	95.19
438.5	113.19
438.721	127.19
438.943	107.19
439.165	102.19
439.386	75.19
439.608	95.19
439.829	84.19
440.05	109.19
440.272	131.19
440.493	95.19
440.715	92.19
440.936	86.19
441.158	72.19
441.379	78.19
441.6	85.19
441.822	82.19
442.043	91.19
442.264	102.19
442.486	99.19
442.707	104.19
442.928	92.19
443.149	135.19
443.371	128.19
443.592	99.19
443.813	100.19
444.034	102.19
444.255	86.19
444.476	72.19
444.698	69.19
444.919	87.19
445.14	128.19
445.361	141.19
445.582	120.19
445.803	131.19
446.024	115.19
446.245	145.19
446.466	105.19
446.687	99.19
446.908	79.19
447.129	100.19
447.35	90.19
447.571	84.19
447.792	84.19
448.013	83.19
448.234	96.19
448.455	95.19
448.675	91.19
448.896	126.19
449.117	104.19
449.338	102.19
449.559	130.19
449.779	125.19
450	84.19
450.221	82.19
450.442	95.19
450.662	99.19
450.883	111.19
451.104	104.19
451.324	111.19
451.545	90.19
451.766	77.19
451.986	69.19
452.207	94.19
452.428	99.19
452.648	98.19
452.869	101.19
453.089	106.19
453.31	107.19
453.53	88.19
453.751	98.19
453.971	101.19
454.192	96.19
454.412	91.19
454.633	92.19
454.853	94.19
455.073	74.19
455.294	90.19
455.514	111.19
455.734	88.19
455.955	85.19
456.175	85.19
456.395	83.19
456.616	91.19
456.836	88.19
457.056	76.19
457.276	70.19
457.497	77.19
457.717	91.19
457.937	76.19
458.157	90.19
458.377	98.19
458.598	109.19
458.818	145.19
459.038	152.19
459.258	116.19
459.478	99.19
459.698	83.19
459.918	88.19
460.138	95.19
460.358	69.19
460.578	78.19
460.798	95.19
461.018	92.19
461.238	84.19
461.458	86.19
461.678	81.19
461.898	85.19
462.118	86.19
462.338	73.19
462.558	87.19
462.777	81.19
462.997	71.19
463.217	97.19
463.437	77.19
463.657	85.19
463.876	85.19
464.096	88.19
464.316	81.19
464.536	97.19
464.755	90.19
464.975	101.19
465.195	148.19
465.414	161.19
465.634	98.19
465.854	85.19
466.073	92.19
466.293	82.19
466.512	87.19
466.732	79.19
466.951	102.19
467.171	85.19
467.391	85.19
467.61	98.19
467.829	108.19
468.049	100.19
468.268	91.19
468.488	89.19
468.707	86.19
468.927	83.19
469.146	84.19
469.365	87.19
469.585	85.19
469.804	86.19
470.023	89.19
470.243	90.19
470.462	95.19
470.681	121.19
470.901	74.19
471.12	81.19
471.339	97.19
471.558	77.19
471.777	77.19
471.997	72.19
472.216	92.19
472.435	123.19
472.654	91.19
472.873	92.19
473.092	72.19
473.311	74.19
473.53	66.19
473.749	90.19
473.968	96.19
474.187	106.19
474.406	93.19
474.625	102.19
474.844	83.19
475.063	85.19
475.282	82.19
475.501	88.19
475.72	92.19
475.939	94.19
476.158	91.19
476.377	90.19
476.596	82.19
476.814	83.19
477.033	97.19
477.252	86.19
477.471	84.19
477.69	75.19
477.908	92.19
478.127	106.19
478.346	95.19
478.564	91.19
478.783	88.19
479.002	93.19
479.22	83.19
479.439	95.19
479.658	107.19
479.876	84.19
480.095	83.19
480.313	95.19
480.532	97.19
480.751	95.19
480.969	104.19
481.188	178.19
481.406	120.19
481.624	93.19
481.843	92.19
482.061	85.19
482.28	82.19
482.498	90.19
482.717	76.19
482.935	80.19
483.153	83.19
483.372	99.19
483.59	94.19
483.808	89.19
484.027	81.19
484.245	83.19
484.463	85.19
484.681	91.19
484.9	80.19
485.118	86.19
485.336	92.19
485.554	90.19
485.772	92.19
485.99	102.19
486.209	96.19
486.427	118.19
486.645	102.19
486.863	103.19
487.081	103.19
487.299	99.19
487.517	92.19
487.735	85.19
487.953	90.19
488.171	98.19
488.389	107.19
488.607	103.19
488.825	90.19
489.043	91.19
489.261	101.19
489.479	101.19
489.696	98.19
489.914	84.19
490.132	85.19
490.35	97.19
490.568	82.19
490.786	84.19
491.003	77.19
491.221	83.19
491.439	95.19
491.657	100.19
491.874	82.19
492.092	84.19
492.31	91.19
492.527	95.19
492.745	95.19
492.963	101.19
493.18	89.19
493.398	96.19
493.615	88.19
493.833	106.19
494.05	104.19
494.268	91.19
494.485	90.19
494.703	82.19
494.92	101.19
495.138	93.19
495.355	95.19
495.573	92.19
495.79	84.19
496.008	93.19
496.225	72.19
496.442	94.19
496.66	86.19
496.877	88.19
497.094	91.19
497.312	79.19
497.529	98.19
497.746	98.19
497.963	80.19
498.181	101.19
498.398	97.19
498.615	120.19
498.832	97.19
499.049	97.19
499.267	93.19
499.484	90.19
499.701	99.19
499.918	103.19
500.135	101.19
500.352	88.19
500.569	74.19
500.786	87.19
501.003	79.19
501.22	81.19
501.437	87.19
501.654	108.19
501.871	104.19
502.088	89.19
502.305	98.19
502.522	79.19
502.739	89.19
502.956	85.19
503.172	93.19
503.389	103.19
503.606	108.19
503.823	96.19
504.04	71.19
504.256	95.19
504.473	79.19
504.69	95.19
504.907	104.19
505.123	85.19
505.34	94.19
505.557	86.19
505.773	73.19
505.99	87.19
506.207	91.19
506.423	97.19
506.64	81.19
506.856	88.19
507.073	85.19
507.289	92.19
507.506	101.19
507.722	101.19
507.939	105.19
508.155	99.19
508.372	91.19
508.588	90.19
508.805	90.19
509.021	84.19
509.238	101.19
509.454	93.19
509.67	103.19
509.887	110.19
510.103	124.19
510.319	208.19
510.536	676.19
510.752	2005.19
510.968	573.19
511.184	140.19
511.401	106.19
511.617	88.19
511.833	82.19
512.049	97.19
512.265	76.19
512.481	84.19
512.698	101.19
512.914	92.19
513.13	88.19
513.346	95.19
513.562	90.19
513.778	97.19
513.994	105.19
514.21	95.19
514.426	108.19
514.642	127.19
514.858	114.19
515.074	141.19
515.29	392.19
515.506	1280.19
515.721	465.19
515.937	149.19
516.153	107.19
