Data from Uncirc_1981_H10_HRD10591_00027.txt Node
Date: Wed Jan 03 12:33:13 EST 2024
User: Yrep
Spectrometer: HR+D1059
Trigger mode: 1
Integration Time (sec): 1.000000E-1
Scans to average: 1
Electric dark correction enabled: true
Nonlinearity correction enabled: false
Boxcar width: 0
XAxis mode: Wavelengths
Number of Pixels in Spectrum: 2048
>>>>>Begin Spectral Data<<<<<
223.165	-14.5
223.4	-14.5
223.635	-14.5
223.869	-11.5
224.104	-25.5
224.338	-11.5
224.573	-17.5
224.808	-19.5
225.042	10.5
225.277	-5.5
225.511	-1.5
225.746	11.5
225.98	-6.5
226.215	2.5
226.449	16.5
226.683	20.5
226.918	17.5
227.152	34.5
227.387	49.5
227.621	32.5
227.856	48.5
228.09	48.5
228.324	51.5
228.559	51.5
228.793	60.5
229.027	63.5
229.262	74.5
229.496	77.5
229.73	70.5
229.964	69.5
230.199	67.5
230.433	83.5
230.667	94.5
230.901	82.5
231.136	85.5
231.37	93.5
231.604	74.5
231.838	80.5
232.072	85.5
232.306	75.5
232.541	88.5
232.775	92.5
233.009	75.5
233.243	69.5
233.477	93.5
233.711	84.5
233.945	76.5
234.179	81.5
234.413	76.5
234.647	64.5
234.881	68.5
235.115	98.5
235.349	77.5
235.583	80.5
235.817	70.5
236.051	80.5
236.285	75.5
236.519	74.5
236.753	77.5
236.987	84.5
237.221	66.5
237.455	84.5
237.689	76.5
237.922	83.5
238.156	81.5
238.39	78.5
238.624	80.5
238.858	75.5
239.091	68.5
239.325	79.5
239.559	72.5
239.793	81.5
240.027	61.5
240.26	88.5
240.494	77.5
240.728	74.5
240.961	83.5
241.195	85.5
241.429	83.5
241.662	73.5
241.896	77.5
242.13	88.5
242.363	76.5
242.597	83.5
242.83	77.5
243.064	76.5
243.298	76.5
243.531	68.5
243.765	56.5
243.998	80.5
244.232	75.5
244.465	75.5
244.699	72.5
244.932	75.5
245.166	82.5
245.399	88.5
245.633	83.5
245.866	70.5
246.099	88.5
246.333	84.5
246.566	73.5
246.8	73.5
247.033	84.5
247.266	86.5
247.5	70.5
247.733	90.5
247.966	70.5
248.2	86.5
248.433	74.5
248.666	61.5
248.899	100.5
249.133	94.5
249.366	95.5
249.599	98.5
249.832	86.5
250.066	73.5
250.299	74.5
250.532	73.5
250.765	93.5
250.998	84.5
251.231	94.5
251.465	64.5
251.698	72.5
251.931	92.5
252.164	85.5
252.397	89.5
252.63	84.5
252.863	62.5
253.096	64.5
253.329	71.5
253.562	79.5
253.795	92.5
254.028	83.5
254.261	98.5
254.494	82.5
254.727	79.5
254.96	92.5
255.193	86.5
255.426	89.5
255.659	97.5
255.892	84.5
256.124	86.5
256.357	81.5
256.59	87.5
256.823	94.5
257.056	74.5
257.289	85.5
257.521	88.5
257.754	86.5
257.987	75.5
258.22	94.5
258.452	84.5
258.685	76.5
258.918	97.5
259.151	86.5
259.383	89.5
259.616	81.5
259.849	93.5
260.081	78.5
260.314	90.5
260.547	72.5
260.779	89.5
261.012	92.5
261.244	85.5
261.477	82.5
261.71	98.5
261.942	105.5
262.175	99.5
262.407	85.5
262.64	75.5
262.872	82.5
263.105	82.5
263.337	75.5
263.57	82.5
263.802	85.5
264.035	89.5
264.267	94.5
264.499	90.5
264.732	108.5
264.964	83.5
265.197	80.5
265.429	81.5
265.661	76.5
265.894	98.5
266.126	86.5
266.358	81.5
266.591	78.5
266.823	67.5
267.055	85.5
267.287	91.5
267.52	82.5
267.752	84.5
267.984	71.5
268.216	76.5
268.448	75.5
268.681	92.5
268.913	88.5
269.145	85.5
269.377	81.5
269.609	82.5
269.841	81.5
270.073	99.5
270.306	76.5
270.538	75.5
270.77	76.5
271.002	84.5
271.234	74.5
271.466	77.5
271.698	89.5
271.93	86.5
272.162	81.5
272.394	81.5
272.626	87.5
272.858	81.5
273.09	90.5
273.322	90.5
273.553	77.5
273.785	100.5
274.017	89.5
274.249	77.5
274.481	86.5
274.713	87.5
274.945	82.5
275.176	83.5
275.408	55.5
275.64	80.5
275.872	84.5
276.104	91.5
276.335	82.5
276.567	110.5
276.799	97.5
277.031	88.5
277.262	78.5
277.494	73.5
277.726	92.5
277.957	84.5
278.189	88.5
278.421	85.5
278.652	102.5
278.884	84.5
279.115	81.5
279.347	92.5
279.579	84.5
279.81	67.5
280.042	80.5
280.273	76.5
280.505	92.5
280.736	94.5
280.968	89.5
281.199	92.5
281.431	80.5
281.662	66.5
281.894	92.5
282.125	88.5
282.356	109.5
282.588	124.5
282.819	104.5
283.051	91.5
283.282	97.5
283.513	99.5
283.745	90.5
283.976	88.5
284.207	86.5
284.439	97.5
284.67	96.5
284.901	86.5
285.132	91.5
285.364	92.5
285.595	88.5
285.826	81.5
286.057	84.5
286.288	93.5
286.52	84.5
286.751	79.5
286.982	83.5
287.213	92.5
287.444	94.5
287.675	94.5
287.906	85.5
288.138	81.5
288.369	83.5
288.6	84.5
288.831	74.5
289.062	98.5
289.293	94.5
289.524	89.5
289.755	93.5
289.986	90.5
290.217	93.5
290.448	93.5
290.679	77.5
290.91	80.5
291.141	92.5
291.371	76.5
291.602	92.5
291.833	92.5
292.064	91.5
292.295	87.5
292.526	80.5
292.757	85.5
292.987	88.5
293.218	88.5
293.449	91.5
293.68	87.5
293.91	86.5
294.141	86.5
294.372	91.5
294.603	82.5
294.833	92.5
295.064	77.5
295.295	94.5
295.525	104.5
295.756	104.5
295.987	100.5
296.217	119.5
296.448	117.5
296.679	86.5
296.909	95.5
297.14	94.5
297.37	84.5
297.601	85.5
297.831	78.5
298.062	92.5
298.292	97.5
298.523	94.5
298.753	87.5
298.984	77.5
299.214	73.5
299.445	89.5
299.675	83.5
299.905	82.5
300.136	92.5
300.366	86.5
300.597	93.5
300.827	106.5
301.057	98.5
301.288	106.5
301.518	100.5
301.748	77.5
301.979	114.5
302.209	89.5
302.439	68.5
302.669	88.5
302.9	84.5
303.13	94.5
303.36	99.5
303.59	96.5
303.82	85.5
304.051	84.5
304.281	100.5
304.511	97.5
304.741	84.5
304.971	83.5
305.201	100.5
305.431	82.5
305.661	102.5
305.891	84.5
306.121	85.5
306.352	105.5
306.582	90.5
306.812	93.5
307.042	90.5
307.272	88.5
307.502	98.5
307.731	91.5
307.961	89.5
308.191	93.5
308.421	83.5
308.651	86.5
308.881	85.5
309.111	85.5
309.341	108.5
309.571	110.5
309.8	96.5
310.03	86.5
310.26	87.5
310.49	98.5
310.72	92.5
310.949	102.5
311.179	98.5
311.409	109.5
311.639	99.5
311.868	88.5
312.098	96.5
312.328	80.5
312.557	98.5
312.787	106.5
313.017	89.5
313.246	105.5
313.476	103.5
313.706	86.5
313.935	82.5
314.165	90.5
314.394	91.5
314.624	105.5
314.853	104.5
315.083	92.5
315.312	92.5
315.542	104.5
315.771	92.5
316.001	101.5
316.23	90.5
316.46	86.5
316.689	96.5
316.919	73.5
317.148	77.5
317.377	76.5
317.607	74.5
317.836	87.5
318.065	100.5
318.295	91.5
318.524	94.5
318.753	91.5
318.983	91.5
319.212	85.5
319.441	103.5
319.67	101.5
319.9	101.5
320.129	84.5
320.358	110.5
320.587	99.5
320.816	105.5
321.046	88.5
321.275	99.5
321.504	98.5
321.733	105.5
321.962	86.5
322.191	92.5
322.42	97.5
322.649	106.5
322.878	100.5
323.108	116.5
323.337	113.5
323.566	120.5
323.795	137.5
324.024	189.5
324.253	325.5
324.482	709.5
324.71	1446.5
324.939	1950.5
325.168	699.5
325.397	219.5
325.626	136.5
325.855	119.5
326.084	108.5
326.313	120.5
326.542	142.5
326.77	188.5
326.999	400.5
327.228	823.5
327.457	1505.5
327.686	1216.5
327.914	317.5
328.143	170.5
328.372	125.5
328.6	110.5
328.829	107.5
329.058	123.5
329.287	114.5
329.515	102.5
329.744	113.5
329.972	103.5
330.201	107.5
330.43	111.5
330.658	93.5
330.887	130.5
331.115	102.5
331.344	94.5
331.572	111.5
331.801	104.5
332.03	89.5
332.258	111.5
332.486	98.5
332.715	84.5
332.943	84.5
333.172	100.5
333.4	92.5
333.629	99.5
333.857	94.5
334.085	108.5
334.314	97.5
334.542	112.5
334.771	124.5
334.999	95.5
335.227	99.5
335.455	96.5
335.684	108.5
335.912	92.5
336.14	95.5
336.369	96.5
336.597	100.5
336.825	92.5
337.053	82.5
337.281	88.5
337.51	94.5
337.738	104.5
337.966	78.5
338.194	88.5
338.422	106.5
338.65	96.5
338.878	92.5
339.106	89.5
339.334	89.5
339.562	87.5
339.79	98.5
340.018	88.5
340.246	80.5
340.474	92.5
340.702	88.5
340.93	94.5
341.158	92.5
341.386	92.5
341.614	98.5
341.842	100.5
342.07	91.5
342.298	64.5
342.526	87.5
342.754	81.5
342.981	77.5
343.209	81.5
343.437	98.5
343.665	91.5
343.893	98.5
344.12	99.5
344.348	81.5
344.576	100.5
344.804	90.5
345.031	97.5
345.259	99.5
345.487	105.5
345.714	82.5
345.942	99.5
346.17	90.5
346.397	68.5
346.625	80.5
346.853	69.5
347.08	97.5
347.308	94.5
347.535	93.5
347.763	102.5
347.99	93.5
348.218	89.5
348.445	97.5
348.673	94.5
348.9	88.5
349.128	88.5
349.355	87.5
349.583	86.5
349.81	91.5
350.037	85.5
350.265	93.5
350.492	92.5
350.72	102.5
350.947	103.5
351.174	114.5
351.402	109.5
351.629	91.5
351.856	93.5
352.083	103.5
352.311	105.5
352.538	99.5
352.765	114.5
352.992	115.5
353.22	107.5
353.447	100.5
353.674	101.5
353.901	87.5
354.128	98.5
354.355	93.5
354.583	92.5
354.81	96.5
355.037	91.5
355.264	88.5
355.491	93.5
355.718	90.5
355.945	91.5
356.172	84.5
356.399	90.5
356.626	93.5
356.853	99.5
357.08	94.5
357.307	90.5
357.534	85.5
357.761	99.5
357.988	94.5
358.215	97.5
358.441	86.5
358.668	109.5
358.895	91.5
359.122	87.5
359.349	99.5
359.576	85.5
359.802	106.5
360.029	105.5
360.256	106.5
360.483	92.5
360.709	89.5
360.936	85.5
361.163	85.5
361.39	81.5
361.616	82.5
361.843	97.5
362.07	105.5
362.296	108.5
362.523	114.5
362.749	97.5
362.976	94.5
363.203	94.5
363.429	101.5
363.656	104.5
363.882	95.5
364.109	98.5
364.335	77.5
364.562	90.5
364.788	96.5
365.015	114.5
365.241	88.5
365.468	101.5
365.694	92.5
365.92	84.5
366.147	90.5
366.373	83.5
366.599	95.5
366.826	78.5
367.052	92.5
367.278	96.5
367.505	89.5
367.731	87.5
367.957	86.5
368.184	97.5
368.41	98.5
368.636	111.5
368.862	103.5
369.089	96.5
369.315	84.5
369.541	88.5
369.767	77.5
369.993	86.5
370.219	93.5
370.445	82.5
370.672	94.5
370.898	86.5
371.124	96.5
371.35	88.5
371.576	89.5
371.802	88.5
372.028	98.5
372.254	91.5
372.48	83.5
372.706	82.5
372.932	86.5
373.158	78.5
373.384	101.5
373.61	101.5
373.835	98.5
374.061	96.5
374.287	97.5
374.513	77.5
374.739	85.5
374.965	90.5
375.191	88.5
375.416	75.5
375.642	85.5
375.868	94.5
376.094	96.5
376.319	82.5
376.545	76.5
376.771	95.5
376.997	92.5
377.222	96.5
377.448	100.5
377.674	80.5
377.899	91.5
378.125	88.5
378.35	93.5
378.576	93.5
378.802	104.5
379.027	96.5
379.253	92.5
379.478	94.5
379.704	84.5
379.929	104.5
380.155	106.5
380.38	109.5
380.606	96.5
380.831	110.5
381.057	107.5
381.282	107.5
381.507	91.5
381.733	119.5
381.958	100.5
382.184	94.5
382.409	98.5
382.634	97.5
382.86	103.5
383.085	116.5
383.31	103.5
383.535	84.5
383.761	111.5
383.986	102.5
384.211	106.5
384.436	108.5
384.662	108.5
384.887	112.5
385.112	126.5
385.337	107.5
385.562	112.5
385.787	116.5
386.013	125.5
386.238	123.5
386.463	108.5
386.688	116.5
386.913	117.5
387.138	123.5
387.363	104.5
387.588	86.5
387.813	119.5
388.038	122.5
388.263	123.5
388.488	110.5
388.713	104.5
388.938	101.5
389.163	98.5
389.387	104.5
389.612	89.5
389.837	100.5
390.062	95.5
390.287	100.5
390.512	84.5
390.736	76.5
390.961	102.5
391.186	98.5
391.411	107.5
391.636	99.5
391.86	91.5
392.085	104.5
392.31	81.5
392.534	89.5
392.759	94.5
392.984	82.5
393.208	95.5
393.433	93.5
393.658	85.5
393.882	102.5
394.107	96.5
394.331	75.5
394.556	80.5
394.78	94.5
395.005	91.5
395.229	75.5
395.454	102.5
395.678	81.5
395.903	92.5
396.127	82.5
396.352	84.5
396.576	80.5
396.801	99.5
397.025	86.5
397.249	90.5
397.474	88.5
397.698	85.5
397.922	87.5
398.147	75.5
398.371	76.5
398.595	81.5
398.82	95.5
399.044	96.5
399.268	89.5
399.492	92.5
399.717	75.5
399.941	73.5
400.165	99.5
400.389	85.5
400.613	84.5
400.837	95.5
401.062	100.5
401.286	94.5
401.51	100.5
401.734	85.5
401.958	93.5
402.182	110.5
402.406	128.5
402.63	105.5
402.854	85.5
403.078	80.5
403.302	83.5
403.526	88.5
403.75	90.5
403.974	84.5
404.198	94.5
404.422	81.5
404.645	95.5
404.869	88.5
405.093	100.5
405.317	94.5
405.541	96.5
405.765	87.5
405.988	110.5
406.212	146.5
406.436	168.5
406.66	120.5
406.883	96.5
407.107	84.5
407.331	91.5
407.555	111.5
407.778	95.5
408.002	80.5
408.226	94.5
408.449	89.5
408.673	90.5
408.896	103.5
409.12	89.5
409.344	90.5
409.567	85.5
409.791	104.5
410.014	95.5
410.238	102.5
410.461	90.5
410.685	98.5
410.908	101.5
411.132	84.5
411.355	113.5
411.578	100.5
411.802	88.5
412.025	96.5
412.249	112.5
412.472	93.5
412.695	102.5
412.919	81.5
413.142	94.5
413.365	92.5
413.589	93.5
413.812	81.5
414.035	96.5
414.258	98.5
414.482	92.5
414.705	92.5
414.928	110.5
415.151	106.5
415.374	102.5
415.597	82.5
415.821	88.5
416.044	91.5
416.267	84.5
416.49	83.5
416.713	97.5
416.936	94.5
417.159	89.5
417.382	93.5
417.605	90.5
417.828	93.5
418.051	104.5
418.274	92.5
418.497	84.5
418.72	97.5
418.943	104.5
419.166	80.5
419.389	97.5
419.611	79.5
419.834	88.5
420.057	85.5
420.28	88.5
420.503	76.5
420.726	97.5
420.948	96.5
421.171	89.5
421.394	86.5
421.617	84.5
421.839	93.5
422.062	86.5
422.285	105.5
422.507	95.5
422.73	91.5
422.953	90.5
423.175	94.5
423.398	84.5
423.621	90.5
423.843	88.5
424.066	86.5
424.288	90.5
424.511	112.5
424.733	89.5
424.956	101.5
425.178	107.5
425.401	97.5
425.623	101.5
425.846	103.5
426.068	79.5
426.291	95.5
426.513	102.5
426.735	97.5
426.958	89.5
427.18	105.5
427.402	118.5
427.625	140.5
427.847	119.5
428.069	91.5
428.292	96.5
428.514	92.5
428.736	88.5
428.958	83.5
429.181	94.5
429.403	88.5
429.625	73.5
429.847	70.5
430.069	87.5
430.292	96.5
430.514	89.5
430.736	94.5
430.958	84.5
431.18	75.5
431.402	81.5
431.624	81.5
431.846	87.5
432.068	70.5
432.29	80.5
432.512	85.5
432.734	88.5
432.956	91.5
433.178	90.5
433.4	102.5
433.622	96.5
433.844	76.5
434.066	82.5
434.287	96.5
434.509	82.5
434.731	90.5
434.953	86.5
435.175	73.5
435.397	102.5
435.618	86.5
435.84	92.5
436.062	116.5
436.284	119.5
436.505	105.5
436.727	87.5
436.949	87.5
437.17	102.5
437.392	93.5
437.614	83.5
437.835	107.5
438.057	113.5
438.278	90.5
438.5	101.5
438.721	122.5
438.943	88.5
439.165	97.5
439.386	103.5
439.608	82.5
439.829	92.5
440.05	106.5
440.272	138.5
440.493	101.5
440.715	85.5
440.936	93.5
441.158	97.5
441.379	77.5
441.6	102.5
441.822	88.5
442.043	97.5
442.264	100.5
442.486	80.5
442.707	92.5
442.928	109.5
443.149	123.5
443.371	106.5
443.592	97.5
443.813	109.5
444.034	97.5
444.255	97.5
444.476	90.5
444.698	80.5
444.919	94.5
445.14	139.5
445.361	113.5
445.582	95.5
445.803	115.5
446.024	114.5
446.245	111.5
446.466	101.5
446.687	94.5
446.908	89.5
447.129	105.5
447.35	77.5
447.571	103.5
447.792	100.5
448.013	82.5
448.234	85.5
448.455	96.5
448.675	108.5
448.896	100.5
449.117	101.5
449.338	109.5
449.559	130.5
449.779	139.5
450	81.5
450.221	84.5
450.442	80.5
450.662	102.5
450.883	96.5
451.104	96.5
451.324	87.5
451.545	91.5
451.766	90.5
451.986	96.5
452.207	77.5
452.428	84.5
452.648	100.5
452.869	91.5
453.089	99.5
453.31	102.5
453.53	76.5
453.751	96.5
453.971	90.5
454.192	99.5
454.412	85.5
454.633	90.5
454.853	84.5
455.073	80.5
455.294	77.5
455.514	80.5
455.734	91.5
455.955	83.5
456.175	77.5
456.395	71.5
456.616	72.5
456.836	90.5
457.056	84.5
457.276	92.5
457.497	91.5
457.717	90.5
457.937	84.5
458.157	77.5
458.377	91.5
458.598	107.5
458.818	122.5
459.038	123.5
459.258	88.5
459.478	88.5
459.698	88.5
459.918	81.5
460.138	92.5
460.358	83.5
460.578	92.5
460.798	92.5
461.018	92.5
461.238	94.5
461.458	81.5
461.678	76.5
461.898	84.5
462.118	89.5
462.338	82.5
462.558	91.5
462.777	86.5
462.997	69.5
463.217	81.5
463.437	74.5
463.657	78.5
463.876	105.5
464.096	93.5
464.316	90.5
464.536	106.5
464.755	91.5
464.975	91.5
465.195	144.5
465.414	148.5
465.634	81.5
465.854	88.5
466.073	81.5
466.293	97.5
466.512	84.5
466.732	94.5
466.951	73.5
467.171	80.5
467.391	84.5
467.61	90.5
467.829	89.5
468.049	105.5
468.268	92.5
468.488	88.5
468.707	81.5
468.927	76.5
469.146	77.5
469.365	68.5
469.585	91.5
469.804	100.5
470.023	88.5
470.243	85.5
470.462	101.5
470.681	95.5
470.901	84.5
471.12	92.5
471.339	92.5
471.558	87.5
471.777	89.5
471.997	93.5
472.216	96.5
472.435	128.5
472.654	88.5
472.873	88.5
473.092	84.5
473.311	97.5
473.53	98.5
473.749	89.5
473.968	84.5
474.187	102.5
474.406	91.5
474.625	78.5
474.844	92.5
475.063	76.5
475.282	77.5
475.501	88.5
475.72	90.5
475.939	84.5
476.158	88.5
476.377	78.5
476.596	87.5
476.814	86.5
477.033	84.5
477.252	82.5
477.471	82.5
477.69	84.5
477.908	103.5
478.127	106.5
478.346	94.5
478.564	88.5
478.783	91.5
479.002	96.5
479.22	88.5
479.439	88.5
479.658	85.5
479.876	82.5
480.095	102.5
480.313	112.5
480.532	88.5
480.751	78.5
480.969	107.5
481.188	166.5
481.406	138.5
481.624	104.5
481.843	86.5
482.061	106.5
482.28	92.5
482.498	97.5
482.717	82.5
482.935	86.5
483.153	77.5
483.372	81.5
483.59	85.5
483.808	89.5
484.027	92.5
484.245	93.5
484.463	87.5
484.681	100.5
484.9	102.5
485.118	99.5
485.336	99.5
485.554	96.5
485.772	106.5
485.99	98.5
486.209	103.5
486.427	94.5
486.645	102.5
486.863	110.5
487.081	97.5
487.299	107.5
487.517	77.5
487.735	87.5
487.953	97.5
488.171	89.5
488.389	99.5
488.607	99.5
488.825	98.5
489.043	87.5
489.261	98.5
489.479	80.5
489.696	82.5
489.914	90.5
490.132	89.5
490.35	90.5
490.568	80.5
490.786	84.5
491.003	86.5
491.221	90.5
491.439	84.5
491.657	93.5
491.874	97.5
492.092	84.5
492.31	102.5
492.527	74.5
492.745	96.5
492.963	86.5
493.18	96.5
493.398	103.5
493.615	98.5
493.833	97.5
494.05	90.5
494.268	83.5
494.485	100.5
494.703	82.5
494.92	89.5
495.138	97.5
495.355	102.5
495.573	90.5
495.79	87.5
496.008	84.5
496.225	99.5
496.442	83.5
496.66	102.5
496.877	88.5
497.094	94.5
497.312	89.5
497.529	86.5
497.746	96.5
497.963	84.5
498.181	94.5
498.398	96.5
498.615	97.5
498.832	107.5
499.049	103.5
499.267	97.5
499.484	93.5
499.701	108.5
499.918	102.5
500.135	87.5
500.352	97.5
500.569	88.5
500.786	88.5
501.003	90.5
501.22	80.5
501.437	75.5
501.654	85.5
501.871	101.5
502.088	96.5
502.305	92.5
502.522	100.5
502.739	77.5
502.956	80.5
503.172	85.5
503.389	91.5
503.606	105.5
503.823	98.5
504.04	81.5
504.256	84.5
504.473	102.5
504.69	90.5
504.907	85.5
505.123	101.5
505.34	101.5
505.557	95.5
505.773	98.5
505.99	98.5
506.207	91.5
506.423	93.5
506.64	97.5
506.856	97.5
507.073	89.5
507.289	78.5
507.506	98.5
507.722	117.5
507.939	109.5
508.155	105.5
508.372	99.5
508.588	99.5
508.805	97.5
509.021	97.5
509.238	101.5
509.454	93.5
509.67	97.5
509.887	105.5
510.103	119.5
510.319	173.5
510.536	534.5
510.752	1590.5
510.968	454.5
511.184	129.5
511.401	104.5
511.617	105.5
511.833	81.5
512.049	80.5
512.265	86.5
512.481	97.5
512.698	89.5
512.914	101.5
513.13	85.5
513.346	92.5
513.562	77.5
513.778	94.5
513.994	93.5
514.21	98.5
514.426	102.5
514.642	119.5
514.858	105.5
515.074	136.5
515.29	326.5
515.506	958.5
515.721	352.5
515.937	127.5
516.153	100.5
516.369	100.5
516.585	93.5
516.801	99.5
517.016	89.5
517.232	101.5
517.448	100.5
517.664	92.5
517.879	89.5
518.095	85.5
518.311	105.5
518.527	86.5
518.742	75.5
518.958	96.5
519.173	110.5
519.389	88.5
519.605	85.5
519.82	92.5
520.036	107.5
520.251	109.5
520.467	109.5
520.682	109.5
520.898	111.5
521.113	102.5
521.329	126.5
521.544	168.5
521.76	404.5
521.975	1614.5
522.19	966.5
522.406	226.5
522.621	118.5
522.836	93.5
523.052	107.5
523.267	99.5
523.482	83.5
523.698	107.5
523.913	106.5
524.128	102.5
524.343	77.5
524.559	85.5
524.774	92.5
524.989	91.5
525.204	97.5
525.419	102.5
525.634	81.5
525.849	85.5
526.064	89.5
526.28	99.5
526.495	74.5
526.71	93.5
526.925	100.5
527.14	104.5
527.355	93.5
527.57	93.5
527.785	104.5
527.999	88.5
528.214	96.5
528.429	101.5
528.644	109.5
528.859	83.5
529.074	82.5
529.289	115.5
529.503	149.5
529.718	104.5
529.933	100.5
530.148	97.5
530.363	85.5
530.577	94.5
530.792	82.5
531.007	93.5
531.221	83.5
531.436	93.5
531.651	94.5
531.865	88.5
532.08	97.5
532.295	92.5
532.509	82.5
532.724	89.5
532.938	106.5
533.153	91.5
533.367	85.5
533.582	100.5
533.796	94.5
534.011	84.5
534.225	91.5
534.44	89.5
534.654	93.5
534.868	92.5
535.083	85.5
535.297	91.5
