Data from Uncirc_1981_H10_HRD10591_00050.txt Node
Date: Wed Jan 03 12:33:18 EST 2024
User: Yrep
Spectrometer: HR+D1059
Trigger mode: 1
Integration Time (sec): 1.000000E-1
Scans to average: 1
Electric dark correction enabled: true
Nonlinearity correction enabled: false
Boxcar width: 0
XAxis mode: Wavelengths
Number of Pixels in Spectrum: 2048
>>>>>Begin Spectral Data<<<<<
223.165	-18.19
223.4	-18.19
223.635	-18.19
223.869	-9.19
224.104	-15.19
224.338	-14.19
224.573	-22.19
224.808	-4.19
225.042	-3.19
225.277	8.81
225.511	0.81
225.746	-4.19
225.98	-2.19
226.215	8.81
226.449	-3.19
226.683	21.81
226.918	33.81
227.152	21.81
227.387	34.81
227.621	31.81
227.856	41.81
228.09	39.81
228.324	36.81
228.559	47.81
228.793	55.81
229.027	71.81
229.262	63.81
229.496	71.81
229.73	74.81
229.964	80.81
230.199	73.81
230.433	80.81
230.667	75.81
230.901	81.81
231.136	71.81
231.37	90.81
231.604	71.81
231.838	74.81
232.072	74.81
232.306	77.81
232.541	78.81
232.775	89.81
233.009	76.81
233.243	96.81
233.477	68.81
233.711	66.81
233.945	83.81
234.179	63.81
234.413	77.81
234.647	90.81
234.881	80.81
235.115	77.81
235.349	84.81
235.583	85.81
235.817	71.81
236.051	71.81
236.285	88.81
236.519	70.81
236.753	93.81
236.987	80.81
237.221	71.81
237.455	73.81
237.689	70.81
237.922	68.81
238.156	81.81
238.39	80.81
238.624	73.81
238.858	81.81
239.091	75.81
239.325	65.81
239.559	75.81
239.793	87.81
240.027	88.81
240.26	71.81
240.494	74.81
240.728	76.81
240.961	68.81
241.195	73.81
241.429	83.81
241.662	76.81
241.896	69.81
242.13	81.81
242.363	79.81
242.597	69.81
242.83	87.81
243.064	76.81
243.298	76.81
243.531	86.81
243.765	83.81
243.998	93.81
244.232	74.81
244.465	79.81
244.699	89.81
244.932	71.81
245.166	75.81
245.399	81.81
245.633	83.81
245.866	86.81
246.099	79.81
246.333	82.81
246.566	79.81
246.8	74.81
247.033	88.81
247.266	79.81
247.5	88.81
247.733	88.81
247.966	76.81
248.2	74.81
248.433	79.81
248.666	71.81
248.899	81.81
249.133	94.81
249.366	78.81
249.599	96.81
249.832	73.81
250.066	83.81
250.299	77.81
250.532	73.81
250.765	87.81
250.998	93.81
251.231	77.81
251.465	82.81
251.698	68.81
251.931	90.81
252.164	77.81
252.397	88.81
252.63	75.81
252.863	73.81
253.096	85.81
253.329	68.81
253.562	81.81
253.795	83.81
254.028	72.81
254.261	66.81
254.494	79.81
254.727	73.81
254.96	67.81
255.193	79.81
255.426	55.81
255.659	83.81
255.892	87.81
256.124	88.81
256.357	74.81
256.59	87.81
256.823	76.81
257.056	58.81
257.289	81.81
257.521	74.81
257.754	79.81
257.987	93.81
258.22	82.81
258.452	87.81
258.685	72.81
258.918	90.81
259.151	79.81
259.383	73.81
259.616	77.81
259.849	71.81
260.081	87.81
260.314	82.81
260.547	82.81
260.779	76.81
261.012	62.81
261.244	79.81
261.477	76.81
261.71	88.81
261.942	97.81
262.175	102.81
262.407	86.81
262.64	87.81
262.872	80.81
263.105	67.81
263.337	67.81
263.57	71.81
263.802	93.81
264.035	86.81
264.267	88.81
264.499	80.81
264.732	76.81
264.964	75.81
265.197	91.81
265.429	76.81
265.661	76.81
265.894	85.81
266.126	85.81
266.358	63.81
266.591	91.81
266.823	79.81
267.055	68.81
267.287	87.81
267.52	76.81
267.752	84.81
267.984	86.81
268.216	81.81
268.448	92.81
268.681	79.81
268.913	97.81
269.145	82.81
269.377	81.81
269.609	75.81
269.841	83.81
270.073	74.81
270.306	68.81
270.538	83.81
270.77	90.81
271.002	89.81
271.234	91.81
271.466	84.81
271.698	89.81
271.93	81.81
272.162	84.81
272.394	75.81
272.626	79.81
272.858	76.81
273.09	75.81
273.322	87.81
273.553	85.81
273.785	82.81
274.017	71.81
274.249	82.81
274.481	73.81
274.713	87.81
274.945	87.81
275.176	75.81
275.408	92.81
275.64	88.81
275.872	85.81
276.104	90.81
276.335	101.81
276.567	103.81
276.799	90.81
277.031	103.81
277.262	87.81
277.494	75.81
277.726	95.81
277.957	94.81
278.189	69.81
278.421	63.81
278.652	67.81
278.884	84.81
279.115	95.81
279.347	87.81
279.579	88.81
279.81	93.81
280.042	78.81
280.273	90.81
280.505	100.81
280.736	99.81
280.968	81.81
281.199	88.81
281.431	72.81
281.662	89.81
281.894	91.81
282.125	97.81
282.356	111.81
282.588	126.81
282.819	108.81
283.051	85.81
283.282	84.81
283.513	87.81
283.745	81.81
283.976	73.81
284.207	87.81
284.439	85.81
284.67	88.81
284.901	88.81
285.132	80.81
285.364	84.81
285.595	73.81
285.826	79.81
286.057	76.81
286.288	77.81
286.52	95.81
286.751	70.81
286.982	91.81
287.213	97.81
287.444	85.81
287.675	75.81
287.906	73.81
288.138	87.81
288.369	94.81
288.6	103.81
288.831	87.81
289.062	80.81
289.293	83.81
289.524	87.81
289.755	72.81
289.986	84.81
290.217	83.81
290.448	92.81
290.679	83.81
290.91	85.81
291.141	88.81
291.371	100.81
291.602	83.81
291.833	97.81
292.064	77.81
292.295	76.81
292.526	99.81
292.757	86.81
292.987	99.81
293.218	104.81
293.449	86.81
293.68	88.81
293.91	90.81
294.141	91.81
294.372	103.81
294.603	87.81
294.833	91.81
295.064	95.81
295.295	87.81
295.525	93.81
295.756	96.81
295.987	104.81
296.217	109.81
296.448	128.81
296.679	87.81
296.909	72.81
297.14	93.81
297.37	89.81
297.601	80.81
297.831	94.81
298.062	85.81
298.292	87.81
298.523	84.81
298.753	91.81
298.984	90.81
299.214	96.81
299.445	91.81
299.675	91.81
299.905	91.81
300.136	84.81
300.366	87.81
300.597	86.81
300.827	101.81
301.057	97.81
301.288	94.81
301.518	94.81
301.748	79.81
301.979	96.81
302.209	104.81
302.439	84.81
302.669	83.81
302.9	87.81
303.13	88.81
303.36	95.81
303.59	112.81
303.82	98.81
304.051	96.81
304.281	85.81
304.511	96.81
304.741	87.81
304.971	103.81
305.201	74.81
305.431	79.81
305.661	79.81
305.891	98.81
306.121	98.81
306.352	103.81
306.582	100.81
306.812	74.81
307.042	87.81
307.272	97.81
307.502	101.81
307.731	92.81
307.961	96.81
308.191	84.81
308.421	92.81
308.651	96.81
308.881	87.81
309.111	79.81
309.341	91.81
309.571	93.81
309.8	102.81
310.03	89.81
310.26	99.81
310.49	101.81
310.72	89.81
310.949	104.81
311.179	87.81
311.409	104.81
311.639	87.81
311.868	95.81
312.098	91.81
312.328	95.81
312.557	92.81
312.787	93.81
313.017	95.81
313.246	92.81
313.476	83.81
313.706	91.81
313.935	90.81
314.165	88.81
314.394	109.81
314.624	84.81
314.853	81.81
315.083	103.81
315.312	87.81
315.542	95.81
315.771	83.81
316.001	93.81
316.23	85.81
316.46	84.81
316.689	99.81
316.919	75.81
317.148	89.81
317.377	101.81
317.607	87.81
317.836	90.81
318.065	99.81
318.295	81.81
318.524	95.81
318.753	85.81
318.983	83.81
319.212	94.81
319.441	119.81
319.67	101.81
319.9	101.81
320.129	83.81
320.358	77.81
320.587	85.81
320.816	92.81
321.046	114.81
321.275	98.81
321.504	90.81
321.733	97.81
321.962	99.81
322.191	98.81
322.42	103.81
322.649	103.81
322.878	92.81
323.108	101.81
323.337	113.81
323.566	131.81
323.795	139.81
324.024	180.81
324.253	347.81
324.482	748.81
324.71	1552.81
324.939	2030.81
325.168	752.81
325.397	216.81
325.626	124.81
325.855	117.81
326.084	108.81
326.313	128.81
326.542	145.81
326.77	203.81
326.999	406.81
327.228	871.81
327.457	1607.81
327.686	1261.81
327.914	342.81
328.143	187.81
328.372	134.81
328.6	115.81
328.829	113.81
329.058	113.81
329.287	118.81
329.515	110.81
329.744	109.81
329.972	108.81
330.201	117.81
330.43	113.81
330.658	115.81
330.887	113.81
331.115	109.81
331.344	72.81
331.572	100.81
331.801	103.81
332.03	106.81
332.258	93.81
332.486	82.81
332.715	83.81
332.943	91.81
333.172	99.81
333.4	101.81
333.629	95.81
333.857	106.81
334.085	85.81
334.314	115.81
334.542	123.81
334.771	114.81
334.999	89.81
335.227	89.81
335.455	98.81
335.684	93.81
335.912	99.81
336.14	81.81
336.369	91.81
336.597	76.81
336.825	87.81
337.053	83.81
337.281	93.81
337.51	88.81
337.738	91.81
337.966	85.81
338.194	99.81
338.422	95.81
338.65	92.81
338.878	99.81
339.106	99.81
339.334	83.81
339.562	96.81
339.79	108.81
340.018	86.81
340.246	86.81
340.474	89.81
340.702	89.81
340.93	73.81
341.158	82.81
341.386	83.81
341.614	98.81
341.842	91.81
342.07	88.81
342.298	90.81
342.526	85.81
342.754	83.81
342.981	96.81
343.209	91.81
343.437	101.81
343.665	86.81
343.893	92.81
344.12	80.81
344.348	97.81
344.576	93.81
344.804	92.81
345.031	92.81
345.259	82.81
345.487	97.81
345.714	97.81
345.942	101.81
346.17	100.81
346.397	92.81
346.625	96.81
346.853	103.81
347.08	83.81
347.308	91.81
347.535	100.81
347.763	93.81
347.99	102.81
348.218	100.81
348.445	96.81
348.673	90.81
348.9	103.81
349.128	90.81
349.355	104.81
349.583	100.81
349.81	107.81
350.037	95.81
350.265	95.81
350.492	87.81
350.72	99.81
350.947	106.81
351.174	97.81
351.402	92.81
351.629	90.81
351.856	91.81
352.083	96.81
352.311	100.81
352.538	104.81
352.765	98.81
352.992	121.81
353.22	103.81
353.447	104.81
353.674	108.81
353.901	115.81
354.128	100.81
354.355	99.81
354.583	89.81
354.81	90.81
355.037	95.81
355.264	96.81
355.491	96.81
355.718	92.81
355.945	81.81
356.172	99.81
356.399	97.81
356.626	90.81
356.853	92.81
357.08	86.81
357.307	94.81
357.534	74.81
357.761	92.81
357.988	86.81
358.215	90.81
358.441	103.81
358.668	98.81
358.895	98.81
359.122	91.81
359.349	88.81
359.576	105.81
359.802	106.81
360.029	111.81
360.256	99.81
360.483	89.81
360.709	88.81
360.936	91.81
361.163	101.81
361.39	84.81
361.616	90.81
361.843	97.81
362.07	97.81
362.296	87.81
362.523	87.81
362.749	92.81
362.976	82.81
363.203	84.81
363.429	88.81
363.656	86.81
363.882	94.81
364.109	93.81
364.335	91.81
364.562	89.81
364.788	91.81
365.015	91.81
365.241	86.81
365.468	93.81
365.694	87.81
365.92	89.81
366.147	89.81
366.373	99.81
366.599	79.81
366.826	74.81
367.052	88.81
367.278	89.81
367.505	87.81
367.731	88.81
367.957	86.81
368.184	76.81
368.41	103.81
368.636	102.81
368.862	103.81
369.089	95.81
369.315	80.81
369.541	87.81
369.767	100.81
369.993	99.81
370.219	104.81
370.445	98.81
370.672	86.81
370.898	98.81
371.124	84.81
371.35	99.81
371.576	88.81
371.802	81.81
372.028	91.81
372.254	89.81
372.48	79.81
372.706	88.81
372.932	81.81
373.158	83.81
373.384	84.81
373.61	109.81
373.835	84.81
374.061	84.81
374.287	102.81
374.513	77.81
374.739	83.81
374.965	88.81
375.191	82.81
375.416	98.81
375.642	84.81
375.868	103.81
376.094	97.81
376.319	95.81
376.545	85.81
376.771	85.81
376.997	92.81
377.222	96.81
377.448	100.81
377.674	87.81
377.899	88.81
378.125	84.81
378.35	88.81
378.576	98.81
378.802	89.81
379.027	83.81
379.253	86.81
379.478	85.81
379.704	89.81
379.929	96.81
380.155	96.81
380.38	103.81
380.606	75.81
380.831	99.81
381.057	89.81
381.282	85.81
381.507	101.81
381.733	101.81
381.958	97.81
382.184	88.81
382.409	108.81
382.634	103.81
382.86	89.81
383.085	107.81
383.31	99.81
383.535	91.81
383.761	91.81
383.986	87.81
384.211	91.81
384.436	99.81
384.662	96.81
384.887	106.81
385.112	116.81
385.337	124.81
385.562	114.81
385.787	103.81
386.013	100.81
386.238	115.81
386.463	105.81
386.688	101.81
386.913	86.81
387.138	100.81
387.363	108.81
387.588	100.81
387.813	108.81
388.038	112.81
388.263	102.81
388.488	116.81
388.713	102.81
388.938	89.81
389.163	91.81
389.387	94.81
389.612	95.81
389.837	103.81
390.062	82.81
390.287	86.81
390.512	108.81
390.736	103.81
390.961	92.81
391.186	96.81
391.411	80.81
391.636	79.81
391.86	76.81
392.085	92.81
392.31	88.81
392.534	87.81
392.759	81.81
392.984	79.81
393.208	89.81
393.433	90.81
393.658	86.81
393.882	88.81
394.107	88.81
394.331	66.81
394.556	83.81
394.78	72.81
395.005	83.81
395.229	87.81
395.454	88.81
395.678	99.81
395.903	92.81
396.127	91.81
396.352	87.81
396.576	86.81
396.801	81.81
397.025	83.81
397.249	103.81
397.474	76.81
397.698	95.81
397.922	85.81
398.147	76.81
398.371	76.81
398.595	99.81
398.82	81.81
399.044	82.81
399.268	89.81
399.492	93.81
399.717	85.81
399.941	90.81
400.165	96.81
400.389	106.81
400.613	90.81
400.837	91.81
401.062	75.81
401.286	83.81
401.51	106.81
401.734	83.81
401.958	87.81
402.182	107.81
402.406	123.81
402.63	108.81
402.854	101.81
403.078	95.81
403.302	88.81
403.526	84.81
403.75	74.81
403.974	82.81
404.198	88.81
404.422	88.81
404.645	91.81
404.869	99.81
405.093	81.81
405.317	84.81
405.541	109.81
405.765	99.81
405.988	100.81
406.212	146.81
406.436	173.81
406.66	112.81
406.883	99.81
407.107	88.81
407.331	79.81
407.555	89.81
407.778	97.81
408.002	101.81
408.226	83.81
408.449	75.81
408.673	81.81
408.896	107.81
409.12	107.81
409.344	100.81
409.567	91.81
409.791	87.81
410.014	95.81
410.238	91.81
410.461	85.81
410.685	98.81
410.908	98.81
411.132	98.81
411.355	101.81
411.578	99.81
411.802	82.81
412.025	91.81
412.249	81.81
412.472	75.81
412.695	81.81
412.919	89.81
413.142	84.81
413.365	64.81
413.589	84.81
413.812	100.81
414.035	89.81
414.258	107.81
414.482	77.81
414.705	85.81
414.928	83.81
415.151	79.81
415.374	106.81
415.597	88.81
415.821	75.81
416.044	83.81
416.267	92.81
416.49	89.81
416.713	99.81
416.936	84.81
417.159	97.81
417.382	87.81
417.605	102.81
417.828	96.81
418.051	81.81
418.274	64.81
418.497	82.81
418.72	85.81
418.943	80.81
419.166	96.81
419.389	92.81
419.611	95.81
419.834	85.81
420.057	79.81
420.28	81.81
420.503	93.81
420.726	99.81
420.948	79.81
421.171	90.81
421.394	93.81
421.617	90.81
421.839	84.81
422.062	74.81
422.285	94.81
422.507	85.81
422.73	96.81
422.953	98.81
423.175	89.81
423.398	83.81
423.621	98.81
423.843	81.81
424.066	97.81
424.288	91.81
424.511	88.81
424.733	93.81
424.956	114.81
425.178	113.81
425.401	100.81
425.623	99.81
425.846	101.81
426.068	81.81
426.291	96.81
426.513	88.81
426.735	91.81
426.958	96.81
427.18	98.81
427.402	121.81
427.625	149.81
427.847	125.81
428.069	110.81
428.292	97.81
428.514	81.81
428.736	89.81
428.958	87.81
429.181	77.81
429.403	88.81
429.625	84.81
429.847	73.81
430.069	88.81
430.292	95.81
430.514	90.81
430.736	83.81
430.958	91.81
431.18	95.81
431.402	79.81
431.624	71.81
431.846	81.81
432.068	69.81
432.29	87.81
432.512	89.81
432.734	82.81
432.956	92.81
433.178	100.81
433.4	100.81
433.622	77.81
433.844	86.81
434.066	93.81
434.287	93.81
434.509	84.81
434.731	85.81
434.953	81.81
435.175	96.81
435.397	88.81
435.618	91.81
435.84	89.81
436.062	96.81
436.284	96.81
436.505	99.81
436.727	95.81
436.949	78.81
437.17	86.81
437.392	86.81
437.614	81.81
437.835	96.81
438.057	100.81
438.278	105.81
438.5	92.81
438.721	106.81
438.943	92.81
439.165	100.81
439.386	82.81
439.608	90.81
439.829	99.81
440.05	103.81
440.272	110.81
440.493	99.81
440.715	72.81
440.936	90.81
441.158	99.81
441.379	86.81
441.6	72.81
441.822	75.81
442.043	73.81
442.264	93.81
442.486	89.81
442.707	87.81
442.928	91.81
443.149	109.81
443.371	123.81
443.592	98.81
443.813	103.81
444.034	89.81
444.255	80.81
444.476	98.81
444.698	81.81
444.919	65.81
445.14	138.81
445.361	106.81
445.582	100.81
445.803	111.81
446.024	117.81
446.245	115.81
446.466	91.81
446.687	95.81
446.908	86.81
447.129	94.81
447.35	87.81
447.571	85.81
447.792	97.81
448.013	95.81
448.234	107.81
448.455	105.81
448.675	106.81
448.896	111.81
449.117	91.81
449.338	88.81
449.559	113.81
449.779	128.81
450	94.81
450.221	87.81
450.442	90.81
450.662	87.81
450.883	95.81
451.104	89.81
451.324	91.81
451.545	72.81
451.766	98.81
451.986	79.81
452.207	89.81
452.428	82.81
452.648	93.81
452.869	107.81
453.089	105.81
453.31	102.81
453.53	89.81
453.751	82.81
453.971	95.81
454.192	89.81
454.412	96.81
454.633	83.81
454.853	82.81
455.073	80.81
455.294	81.81
455.514	81.81
455.734	89.81
455.955	87.81
456.175	88.81
456.395	89.81
456.616	71.81
456.836	81.81
457.056	105.81
457.276	95.81
457.497	89.81
457.717	86.81
457.937	84.81
458.157	89.81
458.377	96.81
458.598	102.81
458.818	113.81
459.038	135.81
459.258	114.81
459.478	85.81
459.698	85.81
459.918	72.81
460.138	74.81
460.358	79.81
460.578	79.81
460.798	79.81
461.018	81.81
461.238	91.81
461.458	79.81
461.678	82.81
461.898	92.81
462.118	84.81
462.338	102.81
462.558	91.81
462.777	80.81
462.997	84.81
463.217	79.81
463.437	59.81
463.657	84.81
463.876	85.81
464.096	83.81
464.316	64.81
464.536	79.81
464.755	88.81
464.975	104.81
465.195	128.81
465.414	118.81
465.634	109.81
465.854	109.81
466.073	101.81
466.293	97.81
466.512	84.81
466.732	72.81
466.951	76.81
467.171	99.81
467.391	81.81
467.61	99.81
467.829	103.81
468.049	86.81
468.268	85.81
468.488	79.81
468.707	71.81
468.927	85.81
469.146	80.81
469.365	93.81
469.585	80.81
469.804	93.81
470.023	79.81
470.243	97.81
470.462	105.81
470.681	92.81
470.901	72.81
471.12	86.81
471.339	89.81
471.558	90.81
471.777	87.81
471.997	83.81
472.216	101.81
472.435	133.81
472.654	96.81
472.873	82.81
473.092	91.81
473.311	89.81
473.53	80.81
473.749	83.81
473.968	82.81
474.187	98.81
474.406	74.81
474.625	90.81
474.844	79.81
475.063	83.81
475.282	75.81
475.501	77.81
475.72	100.81
475.939	74.81
476.158	79.81
476.377	85.81
476.596	85.81
476.814	90.81
477.033	99.81
477.252	83.81
477.471	83.81
477.69	96.81
477.908	88.81
478.127	91.81
478.346	99.81
478.564	85.81
478.783	91.81
479.002	89.81
479.22	102.81
479.439	89.81
479.658	80.81
479.876	100.81
480.095	89.81
480.313	97.81
480.532	86.81
480.751	84.81
480.969	114.81
481.188	176.81
481.406	127.81
481.624	93.81
481.843	87.81
482.061	88.81
482.28	97.81
482.498	89.81
482.717	76.81
482.935	79.81
483.153	79.81
483.372	70.81
483.59	91.81
483.808	94.81
484.027	92.81
484.245	88.81
484.463	101.81
484.681	93.81
484.9	91.81
485.118	88.81
485.336	103.81
485.554	95.81
485.772	103.81
485.99	100.81
486.209	104.81
486.427	87.81
486.645	101.81
486.863	89.81
487.081	114.81
487.299	101.81
487.517	97.81
487.735	103.81
487.953	92.81
488.171	98.81
488.389	100.81
488.607	93.81
488.825	96.81
489.043	83.81
489.261	89.81
489.479	91.81
489.696	80.81
489.914	91.81
490.132	96.81
490.35	94.81
490.568	85.81
490.786	79.81
491.003	91.81
491.221	88.81
491.439	91.81
491.657	99.81
491.874	80.81
492.092	72.81
492.31	86.81
492.527	90.81
492.745	87.81
492.963	87.81
493.18	93.81
493.398	77.81
493.615	96.81
493.833	95.81
494.05	84.81
494.268	94.81
494.485	91.81
494.703	63.81
494.92	101.81
495.138	104.81
495.355	90.81
495.573	81.81
495.79	94.81
496.008	88.81
496.225	95.81
496.442	93.81
496.66	95.81
496.877	88.81
497.094	99.81
497.312	95.81
497.529	90.81
497.746	87.81
497.963	95.81
498.181	82.81
498.398	89.81
498.615	115.81
498.832	87.81
499.049	97.81
499.267	93.81
499.484	95.81
499.701	96.81
499.918	84.81
500.135	80.81
500.352	79.81
500.569	73.81
500.786	94.81
501.003	94.81
501.22	87.81
501.437	74.81
501.654	91.81
501.871	93.81
502.088	82.81
502.305	83.81
502.522	72.81
502.739	90.81
502.956	87.81
503.172	96.81
503.389	71.81
503.606	101.81
503.823	86.81
504.04	82.81
504.256	86.81
504.473	93.81
504.69	84.81
504.907	94.81
505.123	79.81
505.34	93.81
505.557	88.81
505.773	100.81
505.99	75.81
506.207	81.81
506.423	91.81
506.64	81.81
506.856	95.81
507.073	88.81
507.289	91.81
507.506	94.81
507.722	96.81
507.939	97.81
508.155	90.81
508.372	74.81
508.588	95.81
508.805	99.81
509.021	99.81
509.238	111.81
509.454	88.81
509.67	99.81
509.887	93.81
510.103	116.81
510.319	203.81
510.536	629.81
510.752	1887.81
510.968	520.81
511.184	139.81
511.401	100.81
511.617	92.81
511.833	99.81
512.049	93.81
512.265	99.81
512.481	81.81
512.698	91.81
512.914	83.81
513.13	86.81
513.346	95.81
513.562	75.81
513.778	107.81
513.994	97.81
514.21	99.81
514.426	106.81
514.642	105.81
514.858	108.81
515.074	147.81
515.29	353.81
515.506	1055.81
515.721	385.81
515.937	120.81
516.153	94.81
516.369	108.81
516.585	96.81
