Data from Uncirc_1981_H10_HRD10591_00094.txt Node
Date: Wed Jan 03 12:33:26 EST 2024
User: Yrep
Spectrometer: HR+D1059
Trigger mode: 1
Integration Time (sec): 1.000000E-1
Scans to average: 1
Electric dark correction enabled: true
Nonlinearity correction enabled: false
Boxcar width: 0
XAxis mode: Wavelengths
Number of Pixels in Spectrum: 2048
>>>>>Begin Spectral Data<<<<<
223.165	-8.31
223.4	-8.31
223.635	-8.31
223.869	-18.31
224.104	-24.31
224.338	-13.31
224.573	-34.31
224.808	-17.31
225.042	-16.31
225.277	-0.31
225.511	4.69
225.746	4.69
225.98	10.69
226.215	9.69
226.449	11.69
226.683	35.69
226.918	29.69
227.152	25.69
227.387	51.69
227.621	54.69
227.856	57.69
228.09	49.69
228.324	50.69
228.559	55.69
228.793	64.69
229.027	89.69
229.262	71.69
229.496	57.69
229.73	83.69
229.964	87.69
230.199	77.69
230.433	91.69
230.667	84.69
230.901	83.69
231.136	91.69
231.37	75.69
231.604	90.69
231.838	81.69
232.072	70.69
232.306	71.69
232.541	92.69
232.775	83.69
233.009	85.69
233.243	78.69
233.477	76.69
233.711	101.69
233.945	94.69
234.179	88.69
234.413	97.69
234.647	97.69
234.881	82.69
235.115	85.69
235.349	77.69
235.583	82.69
235.817	81.69
236.051	89.69
236.285	91.69
236.519	78.69
236.753	91.69
236.987	81.69
237.221	70.69
237.455	87.69
237.689	83.69
237.922	69.69
238.156	85.69
238.39	88.69
238.624	80.69
238.858	73.69
239.091	77.69
239.325	79.69
239.559	93.69
239.793	73.69
240.027	88.69
240.26	75.69
240.494	71.69
240.728	70.69
240.961	95.69
241.195	88.69
241.429	73.69
241.662	71.69
241.896	86.69
242.13	65.69
242.363	91.69
242.597	77.69
242.83	62.69
243.064	74.69
243.298	87.69
243.531	68.69
243.765	59.69
243.998	96.69
244.232	83.69
244.465	69.69
244.699	70.69
244.932	74.69
245.166	85.69
245.399	80.69
245.633	78.69
245.866	92.69
246.099	73.69
246.333	83.69
246.566	78.69
246.8	81.69
247.033	87.69
247.266	77.69
247.5	90.69
247.733	87.69
247.966	100.69
248.2	87.69
248.433	100.69
248.666	75.69
248.899	81.69
249.133	92.69
249.366	105.69
249.599	97.69
249.832	80.69
250.066	81.69
250.299	75.69
250.532	75.69
250.765	74.69
250.998	79.69
251.231	83.69
251.465	80.69
251.698	87.69
251.931	75.69
252.164	85.69
252.397	76.69
252.63	80.69
252.863	88.69
253.096	92.69
253.329	87.69
253.562	75.69
253.795	74.69
254.028	93.69
254.261	72.69
254.494	63.69
254.727	89.69
254.96	69.69
255.193	72.69
255.426	73.69
255.659	91.69
255.892	102.69
256.124	83.69
256.357	102.69
256.59	72.69
256.823	88.69
257.056	89.69
257.289	89.69
257.521	88.69
257.754	93.69
257.987	96.69
258.22	94.69
258.452	83.69
258.685	79.69
258.918	92.69
259.151	80.69
259.383	83.69
259.616	77.69
259.849	69.69
260.081	77.69
260.314	92.69
260.547	71.69
260.779	93.69
261.012	89.69
261.244	90.69
261.477	97.69
261.71	97.69
261.942	104.69
262.175	107.69
262.407	91.69
262.64	74.69
262.872	86.69
263.105	91.69
263.337	77.69
263.57	113.69
263.802	92.69
264.035	81.69
264.267	87.69
264.499	83.69
264.732	72.69
264.964	95.69
265.197	88.69
265.429	104.69
265.661	92.69
265.894	87.69
266.126	73.69
266.358	85.69
266.591	81.69
266.823	90.69
267.055	91.69
267.287	87.69
267.52	81.69
267.752	86.69
267.984	73.69
268.216	85.69
268.448	90.69
268.681	87.69
268.913	90.69
269.145	90.69
269.377	93.69
269.609	101.69
269.841	87.69
270.073	80.69
270.306	89.69
270.538	99.69
270.77	83.69
271.002	88.69
271.234	87.69
271.466	84.69
271.698	99.69
271.93	83.69
272.162	77.69
272.394	88.69
272.626	98.69
272.858	83.69
273.09	91.69
273.322	93.69
273.553	85.69
273.785	86.69
274.017	95.69
274.249	83.69
274.481	80.69
274.713	91.69
274.945	83.69
275.176	101.69
275.408	99.69
275.64	75.69
275.872	100.69
276.104	81.69
276.335	85.69
276.567	103.69
276.799	88.69
277.031	97.69
277.262	76.69
277.494	92.69
277.726	94.69
277.957	93.69
278.189	74.69
278.421	84.69
278.652	76.69
278.884	71.69
279.115	89.69
279.347	89.69
279.579	91.69
279.81	103.69
280.042	99.69
280.273	97.69
280.505	96.69
280.736	97.69
280.968	88.69
281.199	71.69
281.431	101.69
281.662	94.69
281.894	79.69
282.125	89.69
282.356	112.69
282.588	113.69
282.819	102.69
283.051	96.69
283.282	92.69
283.513	100.69
283.745	96.69
283.976	94.69
284.207	92.69
284.439	99.69
284.67	85.69
284.901	103.69
285.132	87.69
285.364	90.69
285.595	93.69
285.826	85.69
286.057	85.69
286.288	84.69
286.52	102.69
286.751	89.69
286.982	95.69
287.213	96.69
287.444	83.69
287.675	89.69
287.906	90.69
288.138	112.69
288.369	89.69
288.6	92.69
288.831	90.69
289.062	96.69
289.293	90.69
289.524	79.69
289.755	95.69
289.986	99.69
290.217	84.69
290.448	97.69
290.679	90.69
290.91	80.69
291.141	76.69
291.371	91.69
291.602	91.69
291.833	81.69
292.064	80.69
292.295	102.69
292.526	97.69
292.757	92.69
292.987	86.69
293.218	90.69
293.449	99.69
293.68	72.69
293.91	97.69
294.141	99.69
294.372	87.69
294.603	106.69
294.833	94.69
295.064	91.69
295.295	102.69
295.525	90.69
295.756	91.69
295.987	111.69
296.217	117.69
296.448	101.69
296.679	95.69
296.909	72.69
297.14	97.69
297.37	99.69
297.601	79.69
297.831	95.69
298.062	92.69
298.292	90.69
298.523	87.69
298.753	87.69
298.984	87.69
299.214	92.69
299.445	91.69
299.675	93.69
299.905	98.69
300.136	107.69
300.366	90.69
300.597	97.69
300.827	93.69
301.057	80.69
301.288	102.69
301.518	81.69
301.748	79.69
301.979	118.69
302.209	104.69
302.439	110.69
302.669	97.69
302.9	109.69
303.13	96.69
303.36	114.69
303.59	105.69
303.82	93.69
304.051	81.69
304.281	111.69
304.511	87.69
304.741	87.69
304.971	86.69
305.201	94.69
305.431	98.69
305.661	83.69
305.891	99.69
306.121	99.69
306.352	112.69
306.582	110.69
306.812	86.69
307.042	107.69
307.272	96.69
307.502	104.69
307.731	95.69
307.961	97.69
308.191	95.69
308.421	103.69
308.651	90.69
308.881	86.69
309.111	89.69
309.341	85.69
309.571	92.69
309.8	89.69
310.03	105.69
310.26	111.69
310.49	94.69
310.72	103.69
310.949	100.69
311.179	106.69
311.409	104.69
311.639	89.69
311.868	86.69
312.098	104.69
312.328	107.69
312.557	99.69
312.787	97.69
313.017	112.69
313.246	104.69
313.476	95.69
313.706	108.69
313.935	106.69
314.165	92.69
314.394	90.69
314.624	96.69
314.853	96.69
315.083	101.69
315.312	92.69
315.542	88.69
315.771	104.69
316.001	88.69
316.23	104.69
316.46	92.69
316.689	96.69
316.919	97.69
317.148	110.69
317.377	94.69
317.607	100.69
317.836	103.69
318.065	94.69
318.295	89.69
318.524	105.69
318.753	101.69
318.983	96.69
319.212	110.69
319.441	95.69
319.67	88.69
319.9	89.69
320.129	86.69
320.358	101.69
320.587	112.69
320.816	98.69
321.046	105.69
321.275	106.69
321.504	97.69
321.733	107.69
321.962	111.69
322.191	105.69
322.42	101.69
322.649	111.69
322.878	105.69
323.108	120.69
323.337	107.69
323.566	124.69
323.795	141.69
324.024	206.69
324.253	363.69
324.482	725.69
324.71	1467.69
324.939	1987.69
325.168	716.69
325.397	222.69
325.626	144.69
325.855	123.69
326.084	119.69
326.313	141.69
326.542	140.69
326.77	208.69
326.999	432.69
327.228	839.69
327.457	1560.69
327.686	1249.69
327.914	334.69
328.143	160.69
328.372	122.69
328.6	120.69
328.829	120.69
329.058	123.69
329.287	114.69
329.515	98.69
329.744	96.69
329.972	111.69
330.201	119.69
330.43	99.69
330.658	90.69
330.887	113.69
331.115	124.69
331.344	93.69
331.572	99.69
331.801	90.69
332.03	103.69
332.258	99.69
332.486	89.69
332.715	94.69
332.943	88.69
333.172	90.69
333.4	92.69
333.629	96.69
333.857	107.69
334.085	99.69
334.314	112.69
334.542	113.69
334.771	117.69
334.999	112.69
335.227	99.69
335.455	91.69
335.684	95.69
335.912	97.69
336.14	96.69
336.369	95.69
336.597	100.69
336.825	101.69
337.053	99.69
337.281	89.69
337.51	92.69
337.738	91.69
337.966	94.69
338.194	103.69
338.422	91.69
338.65	93.69
338.878	108.69
339.106	105.69
339.334	87.69
339.562	95.69
339.79	91.69
340.018	111.69
340.246	95.69
340.474	93.69
340.702	89.69
340.93	100.69
341.158	97.69
341.386	99.69
341.614	102.69
341.842	103.69
342.07	85.69
342.298	105.69
342.526	102.69
342.754	87.69
342.981	94.69
343.209	92.69
343.437	108.69
343.665	95.69
343.893	95.69
344.12	97.69
344.348	98.69
344.576	84.69
344.804	97.69
345.031	93.69
345.259	100.69
345.487	96.69
345.714	105.69
345.942	101.69
346.17	101.69
346.397	93.69
346.625	101.69
346.853	99.69
347.08	87.69
347.308	111.69
347.535	103.69
347.763	103.69
347.99	107.69
348.218	95.69
348.445	108.69
348.673	118.69
348.9	113.69
349.128	95.69
349.355	100.69
349.583	86.69
349.81	80.69
350.037	83.69
350.265	109.69
350.492	110.69
350.72	107.69
350.947	107.69
351.174	99.69
351.402	108.69
351.629	102.69
351.856	100.69
352.083	110.69
352.311	92.69
352.538	103.69
352.765	101.69
352.992	109.69
353.22	102.69
353.447	94.69
353.674	96.69
353.901	92.69
354.128	103.69
354.355	110.69
354.583	96.69
354.81	114.69
355.037	108.69
355.264	105.69
355.491	93.69
355.718	94.69
355.945	97.69
356.172	105.69
356.399	104.69
356.626	100.69
356.853	91.69
357.08	105.69
357.307	92.69
357.534	94.69
357.761	94.69
357.988	93.69
358.215	94.69
358.441	102.69
358.668	94.69
358.895	92.69
359.122	83.69
359.349	111.69
359.576	93.69
359.802	106.69
360.029	99.69
360.256	95.69
360.483	100.69
360.709	95.69
360.936	89.69
361.163	93.69
361.39	86.69
361.616	91.69
361.843	97.69
362.07	84.69
362.296	93.69
362.523	87.69
362.749	79.69
362.976	103.69
363.203	78.69
363.429	94.69
363.656	103.69
363.882	100.69
364.109	84.69
364.335	93.69
364.562	95.69
364.788	89.69
365.015	97.69
365.241	95.69
365.468	116.69
365.694	103.69
365.92	103.69
366.147	93.69
366.373	83.69
366.599	101.69
366.826	112.69
367.052	90.69
367.278	86.69
367.505	87.69
367.731	100.69
367.957	92.69
368.184	96.69
368.41	104.69
368.636	110.69
368.862	90.69
369.089	94.69
369.315	86.69
369.541	91.69
369.767	100.69
369.993	103.69
370.219	95.69
370.445	102.69
370.672	94.69
370.898	99.69
371.124	98.69
371.35	78.69
371.576	78.69
371.802	85.69
372.028	88.69
372.254	99.69
372.48	91.69
372.706	91.69
372.932	91.69
373.158	76.69
373.384	101.69
373.61	92.69
373.835	88.69
374.061	85.69
374.287	91.69
374.513	105.69
374.739	90.69
374.965	89.69
375.191	88.69
375.416	90.69
375.642	93.69
375.868	101.69
376.094	93.69
376.319	90.69
376.545	97.69
376.771	96.69
376.997	102.69
377.222	95.69
377.448	99.69
377.674	85.69
377.899	89.69
378.125	113.69
378.35	94.69
378.576	100.69
378.802	96.69
379.027	111.69
379.253	103.69
379.478	103.69
379.704	88.69
379.929	95.69
380.155	101.69
380.38	100.69
380.606	104.69
380.831	100.69
381.057	98.69
381.282	113.69
381.507	88.69
381.733	108.69
381.958	97.69
382.184	104.69
382.409	79.69
382.634	101.69
382.86	105.69
383.085	96.69
383.31	93.69
383.535	93.69
383.761	94.69
383.986	113.69
384.211	102.69
384.436	96.69
384.662	104.69
384.887	111.69
385.112	89.69
385.337	98.69
385.562	97.69
385.787	112.69
386.013	116.69
386.238	105.69
386.463	103.69
386.688	108.69
386.913	109.69
387.138	101.69
387.363	109.69
387.588	100.69
387.813	102.69
388.038	104.69
388.263	108.69
388.488	99.69
388.713	102.69
388.938	105.69
389.163	95.69
389.387	101.69
389.612	83.69
389.837	109.69
390.062	105.69
390.287	102.69
390.512	95.69
390.736	93.69
390.961	93.69
391.186	110.69
391.411	106.69
391.636	99.69
391.86	91.69
392.085	87.69
392.31	107.69
392.534	85.69
392.759	104.69
392.984	79.69
393.208	79.69
393.433	80.69
393.658	87.69
393.882	102.69
394.107	80.69
394.331	89.69
394.556	102.69
394.78	93.69
395.005	89.69
395.229	87.69
395.454	100.69
395.678	106.69
395.903	89.69
396.127	91.69
396.352	85.69
396.576	93.69
396.801	90.69
397.025	83.69
397.249	93.69
397.474	78.69
397.698	107.69
397.922	83.69
398.147	77.69
398.371	93.69
398.595	87.69
398.82	96.69
399.044	99.69
399.268	91.69
399.492	93.69
399.717	95.69
399.941	85.69
400.165	89.69
400.389	101.69
400.613	87.69
400.837	90.69
401.062	94.69
401.286	86.69
401.51	87.69
401.734	84.69
401.958	98.69
402.182	117.69
402.406	129.69
402.63	107.69
402.854	94.69
403.078	85.69
403.302	85.69
403.526	81.69
403.75	85.69
403.974	89.69
404.198	94.69
404.422	95.69
404.645	98.69
404.869	87.69
405.093	102.69
405.317	97.69
405.541	100.69
405.765	99.69
405.988	112.69
406.212	145.69
406.436	176.69
406.66	102.69
406.883	73.69
407.107	89.69
407.331	96.69
407.555	99.69
407.778	100.69
408.002	88.69
408.226	88.69
408.449	76.69
408.673	101.69
408.896	86.69
409.12	93.69
409.344	90.69
409.567	91.69
409.791	93.69
410.014	103.69
410.238	111.69
410.461	95.69
410.685	100.69
410.908	99.69
411.132	97.69
411.355	99.69
411.578	83.69
411.802	95.69
412.025	93.69
412.249	85.69
412.472	105.69
412.695	83.69
412.919	93.69
413.142	95.69
413.365	83.69
413.589	79.69
413.812	89.69
414.035	107.69
414.258	91.69
414.482	87.69
414.705	109.69
414.928	86.69
415.151	111.69
415.374	88.69
415.597	95.69
415.821	98.69
416.044	97.69
416.267	87.69
416.49	80.69
416.713	95.69
416.936	85.69
417.159	77.69
417.382	90.69
417.605	96.69
417.828	97.69
418.051	108.69
418.274	104.69
418.497	85.69
418.72	88.69
418.943	94.69
419.166	100.69
419.389	92.69
419.611	90.69
419.834	78.69
420.057	86.69
420.28	91.69
420.503	93.69
420.726	98.69
420.948	92.69
421.171	88.69
421.394	89.69
421.617	79.69
421.839	91.69
422.062	85.69
422.285	92.69
422.507	110.69
422.73	99.69
422.953	102.69
423.175	73.69
423.398	100.69
423.621	78.69
423.843	93.69
424.066	99.69
424.288	93.69
424.511	92.69
424.733	109.69
424.956	104.69
425.178	89.69
425.401	97.69
425.623	94.69
425.846	104.69
426.068	91.69
426.291	103.69
426.513	85.69
426.735	101.69
426.958	87.69
427.18	109.69
427.402	121.69
427.625	140.69
427.847	117.69
428.069	116.69
428.292	97.69
428.514	77.69
428.736	91.69
428.958	91.69
429.181	87.69
429.403	77.69
429.625	84.69
429.847	85.69
430.069	87.69
430.292	95.69
430.514	95.69
430.736	86.69
430.958	95.69
431.18	83.69
431.402	73.69
431.624	83.69
431.846	95.69
432.068	87.69
432.29	84.69
432.512	97.69
432.734	65.69
432.956	101.69
433.178	91.69
433.4	97.69
433.622	95.69
433.844	93.69
434.066	72.69
434.287	93.69
434.509	92.69
434.731	106.69
434.953	92.69
435.175	101.69
435.397	91.69
435.618	103.69
435.84	109.69
436.062	106.69
436.284	108.69
436.505	97.69
436.727	100.69
436.949	84.69
437.17	85.69
437.392	92.69
437.614	88.69
437.835	92.69
438.057	101.69
438.278	116.69
438.5	100.69
438.721	99.69
438.943	91.69
439.165	84.69
439.386	89.69
439.608	91.69
439.829	97.69
440.05	114.69
440.272	131.69
440.493	89.69
440.715	91.69
440.936	96.69
441.158	75.69
441.379	80.69
441.6	85.69
441.822	87.69
442.043	100.69
442.264	95.69
442.486	119.69
442.707	99.69
442.928	111.69
443.149	132.69
443.371	122.69
443.592	121.69
443.813	107.69
444.034	100.69
444.255	83.69
444.476	87.69
444.698	83.69
444.919	86.69
445.14	133.69
445.361	115.69
445.582	107.69
445.803	123.69
446.024	112.69
446.245	118.69
446.466	106.69
446.687	89.69
446.908	86.69
447.129	97.69
447.35	89.69
447.571	81.69
447.792	107.69
448.013	110.69
448.234	108.69
448.455	97.69
448.675	104.69
448.896	106.69
449.117	93.69
449.338	97.69
449.559	124.69
449.779	137.69
450	101.69
450.221	87.69
450.442	89.69
450.662	97.69
450.883	97.69
451.104	96.69
451.324	99.69
451.545	91.69
451.766	77.69
451.986	83.69
452.207	100.69
452.428	87.69
452.648	80.69
452.869	90.69
453.089	98.69
453.31	112.69
453.53	99.69
453.751	100.69
453.971	105.69
454.192	107.69
454.412	92.69
454.633	89.69
454.853	86.69
455.073	96.69
455.294	91.69
455.514	91.69
455.734	101.69
455.955	97.69
456.175	78.69
456.395	72.69
456.616	100.69
456.836	91.69
457.056	83.69
457.276	90.69
457.497	95.69
457.717	81.69
457.937	88.69
458.157	86.69
458.377	84.69
458.598	91.69
458.818	125.69
459.038	127.69
459.258	98.69
459.478	83.69
459.698	101.69
459.918	86.69
460.138	94.69
460.358	86.69
460.578	95.69
460.798	90.69
461.018	80.69
461.238	90.69
461.458	85.69
461.678	91.69
461.898	81.69
462.118	103.69
462.338	87.69
462.558	85.69
462.777	94.69
462.997	96.69
463.217	102.69
463.437	105.69
463.657	78.69
463.876	79.69
464.096	70.69
464.316	92.69
464.536	103.69
464.755	99.69
464.975	119.69
465.195	124.69
465.414	115.69
465.634	86.69
465.854	84.69
466.073	98.69
466.293	81.69
466.512	85.69
466.732	91.69
466.951	105.69
467.171	101.69
467.391	87.69
467.61	101.69
467.829	102.69
468.049	96.69
468.268	96.69
468.488	77.69
468.707	88.69
468.927	83.69
469.146	83.69
469.365	77.69
469.585	87.69
469.804	92.69
470.023	86.69
470.243	99.69
470.462	89.69
470.681	98.69
470.901	104.69
471.12	85.69
471.339	78.69
471.558	82.69
471.777	87.69
471.997	84.69
472.216	113.69
472.435	128.69
472.654	80.69
472.873	88.69
473.092	102.69
473.311	89.69
473.53	90.69
473.749	91.69
473.968	88.69
474.187	101.69
474.406	101.69
474.625	93.69
474.844	92.69
475.063	81.69
475.282	89.69
475.501	78.69
475.72	84.69
475.939	83.69
476.158	84.69
476.377	90.69
476.596	83.69
476.814	95.69
477.033	97.69
477.252	104.69
477.471	91.69
477.69	86.69
477.908	91.69
478.127	91.69
478.346	91.69
478.564	99.69
478.783	98.69
479.002	100.69
479.22	84.69
479.439	86.69
479.658	89.69
479.876	94.69
480.095	91.69
480.313	89.69
480.532	93.69
480.751	90.69
480.969	105.69
481.188	170.69
481.406	138.69
481.624	94.69
481.843	84.69
482.061	85.69
482.28	79.69
482.498	85.69
482.717	99.69
482.935	93.69
483.153	96.69
483.372	94.69
483.59	88.69
483.808	83.69
484.027	91.69
484.245	109.69
484.463	94.69
484.681	95.69
484.9	91.69
485.118	104.69
485.336	91.69
485.554	95.69
485.772	97.69
485.99	99.69
486.209	123.69
486.427	113.69
486.645	105.69
486.863	103.69
487.081	93.69
487.299	100.69
487.517	89.69
487.735	85.69
487.953	88.69
488.171	109.69
488.389	93.69
488.607	87.69
488.825	89.69
489.043	93.69
489.261	88.69
489.479	88.69
489.696	91.69
489.914	105.69
490.132	112.69
490.35	83.69
490.568	103.69
490.786	119.69
491.003	92.69
491.221	101.69
491.439	87.69
491.657	91.69
491.874	87.69
492.092	90.69
492.31	113.69
492.527	87.69
492.745	93.69
492.963	95.69
493.18	103.69
493.398	97.69
493.615	101.69
493.833	89.69
494.05	93.69
494.268	107.69
494.485	95.69
494.703	106.69
494.92	77.69
495.138	92.69
495.355	95.69
495.573	86.69
495.79	92.69
496.008	99.69
496.225	79.69
496.442	89.69
496.66	101.69
496.877	85.69
497.094	90.69
497.312	88.69
497.529	84.69
497.746	101.69
497.963	85.69
498.181	102.69
498.398	92.69
498.615	110.69
498.832	94.69
499.049	76.69
499.267	93.69
499.484	79.69
499.701	78.69
499.918	95.69
500.135	95.69
500.352	78.69
500.569	89.69
500.786	117.69
501.003	91.69
501.22	94.69
501.437	86.69
501.654	99.69
501.871	112.69
502.088	82.69
502.305	101.69
502.522	100.69
502.739	99.69
502.956	90.69
503.172	95.69
503.389	80.69
503.606	95.69
503.823	104.69
504.04	97.69
504.256	96.69
504.473	92.69
504.69	106.69
504.907	95.69
505.123	97.69
505.34	91.69
505.557	90.69
505.773	77.69
505.99	90.69
506.207	87.69
506.423	96.69
506.64	72.69
506.856	91.69
507.073	87.69
507.289	107.69
507.506	90.69
507.722	109.69
507.939	100.69
508.155	110.69
508.372	86.69
508.588	103.69
508.805	97.69
509.021	89.69
509.238	100.69
509.454	97.69
509.67	87.69
509.887	110.69
510.103	141.69
510.319	178.69
510.536	568.69
510.752	1680.69
510.968	477.69
511.184	131.69
511.401	95.69
511.617	110.69
511.833	95.69
512.049	94.69
512.265	86.69
512.481	97.69
512.698	90.69
512.914	100.69
513.13	91.69
513.346	95.69
513.562	89.69
513.778	91.69
513.994	94.69
514.21	97.69
514.426	111.69
514.642	117.69
514.858	116.69
