Data from Uncirc_1981_H10_HRD10591_00006.txt Node
Date: Wed Jan 03 12:33:09 EST 2024
User: Yrep
Spectrometer: HR+D1059
Trigger mode: 1
Integration Time (sec): 1.000000E-1
Scans to average: 1
Electric dark correction enabled: true
Nonlinearity correction enabled: false
Boxcar width: 0
XAxis mode: Wavelengths
Number of Pixels in Spectrum: 2048
>>>>>Begin Spectral Data<<<<<
223.165	-29.06
223.4	-29.06
223.635	-29.06
223.869	-10.06
224.104	-33.06
224.338	-10.06
224.573	-6.06
224.808	-2.06
225.042	-5.06
225.277	2.94
225.511	6.94
225.746	1.94
225.98	1.94
226.215	3.94
226.449	6.94
226.683	22.94
226.918	29.94
227.152	17.94
227.387	39.94
227.621	37.94
227.856	48.94
228.09	45.94
228.324	41.94
228.559	72.94
228.793	51.94
229.027	69.94
229.262	71.94
229.496	73.94
229.73	88.94
229.964	76.94
230.199	75.94
230.433	67.94
230.667	74.94
230.901	85.94
231.136	67.94
231.37	77.94
231.604	72.94
231.838	67.94
232.072	83.94
232.306	75.94
232.541	86.94
232.775	65.94
233.009	85.94
233.243	80.94
233.477	75.94
233.711	78.94
233.945	85.94
234.179	82.94
234.413	86.94
234.647	84.94
234.881	82.94
235.115	76.94
235.349	82.94
235.583	68.94
235.817	68.94
236.051	69.94
236.285	72.94
236.519	93.94
236.753	72.94
236.987	79.94
237.221	77.94
237.455	82.94
237.689	69.94
237.922	76.94
238.156	61.94
238.39	71.94
238.624	77.94
238.858	83.94
239.091	83.94
239.325	69.94
239.559	82.94
239.793	75.94
240.027	72.94
240.26	79.94
240.494	78.94
240.728	75.94
240.961	79.94
241.195	75.94
241.429	72.94
241.662	75.94
241.896	89.94
242.13	83.94
242.363	88.94
242.597	69.94
242.83	71.94
243.064	82.94
243.298	66.94
243.531	76.94
243.765	71.94
243.998	68.94
244.232	86.94
244.465	84.94
244.699	58.94
244.932	85.94
245.166	84.94
245.399	72.94
245.633	93.94
245.866	93.94
246.099	87.94
246.333	90.94
246.566	68.94
246.8	88.94
247.033	64.94
247.266	72.94
247.5	74.94
247.733	97.94
247.966	84.94
248.2	104.94
248.433	83.94
248.666	89.94
248.899	89.94
249.133	80.94
249.366	91.94
249.599	93.94
249.832	71.94
250.066	81.94
250.299	74.94
250.532	84.94
250.765	92.94
250.998	78.94
251.231	92.94
251.465	73.94
251.698	90.94
251.931	84.94
252.164	82.94
252.397	78.94
252.63	84.94
252.863	91.94
253.096	79.94
253.329	71.94
253.562	64.94
253.795	92.94
254.028	92.94
254.261	85.94
254.494	74.94
254.727	82.94
254.96	82.94
255.193	84.94
255.426	81.94
255.659	75.94
255.892	93.94
256.124	86.94
256.357	94.94
256.59	89.94
256.823	66.94
257.056	82.94
257.289	81.94
257.521	89.94
257.754	72.94
257.987	76.94
258.22	72.94
258.452	85.94
258.685	84.94
258.918	84.94
259.151	80.94
259.383	79.94
259.616	90.94
259.849	79.94
260.081	75.94
260.314	100.94
260.547	76.94
260.779	81.94
261.012	70.94
261.244	95.94
261.477	76.94
261.71	80.94
261.942	92.94
262.175	101.94
262.407	71.94
262.64	64.94
262.872	70.94
263.105	86.94
263.337	87.94
263.57	89.94
263.802	77.94
264.035	77.94
264.267	89.94
264.499	92.94
264.732	79.94
264.964	76.94
265.197	82.94
265.429	79.94
265.661	81.94
265.894	85.94
266.126	74.94
266.358	92.94
266.591	82.94
266.823	93.94
267.055	74.94
267.287	79.94
267.52	83.94
267.752	81.94
267.984	75.94
268.216	69.94
268.448	75.94
268.681	74.94
268.913	86.94
269.145	96.94
269.377	81.94
269.609	84.94
269.841	75.94
270.073	96.94
270.306	77.94
270.538	89.94
270.77	90.94
271.002	99.94
271.234	85.94
271.466	95.94
271.698	95.94
271.93	84.94
272.162	94.94
272.394	86.94
272.626	86.94
272.858	85.94
273.09	85.94
273.322	96.94
273.553	67.94
273.785	86.94
274.017	86.94
274.249	82.94
274.481	83.94
274.713	81.94
274.945	92.94
275.176	89.94
275.408	86.94
275.64	84.94
275.872	73.94
276.104	91.94
276.335	80.94
276.567	104.94
276.799	105.94
277.031	93.94
277.262	76.94
277.494	102.94
277.726	85.94
277.957	96.94
278.189	81.94
278.421	84.94
278.652	80.94
278.884	89.94
279.115	82.94
279.347	83.94
279.579	82.94
279.81	80.94
280.042	87.94
280.273	96.94
280.505	82.94
280.736	94.94
280.968	96.94
281.199	88.94
281.431	83.94
281.662	73.94
281.894	80.94
282.125	82.94
282.356	101.94
282.588	101.94
282.819	91.94
283.051	77.94
283.282	93.94
283.513	90.94
283.745	85.94
283.976	91.94
284.207	71.94
284.439	93.94
284.67	95.94
284.901	96.94
285.132	87.94
285.364	93.94
285.595	86.94
285.826	91.94
286.057	78.94
286.288	86.94
286.52	101.94
286.751	81.94
286.982	86.94
287.213	84.94
287.444	93.94
287.675	82.94
287.906	86.94
288.138	102.94
288.369	93.94
288.6	78.94
288.831	86.94
289.062	93.94
289.293	85.94
289.524	82.94
289.755	81.94
289.986	92.94
290.217	80.94
290.448	97.94
290.679	98.94
290.91	102.94
291.141	100.94
291.371	92.94
291.602	77.94
291.833	83.94
292.064	90.94
292.295	65.94
292.526	100.94
292.757	92.94
292.987	74.94
293.218	83.94
293.449	75.94
293.68	84.94
293.91	85.94
294.141	92.94
294.372	95.94
294.603	88.94
294.833	82.94
295.064	86.94
295.295	93.94
295.525	80.94
295.756	98.94
295.987	121.94
296.217	112.94
296.448	92.94
296.679	84.94
296.909	100.94
297.14	92.94
297.37	93.94
297.601	86.94
297.831	82.94
298.062	74.94
298.292	88.94
298.523	86.94
298.753	80.94
298.984	82.94
299.214	87.94
299.445	81.94
299.675	84.94
299.905	98.94
300.136	82.94
300.366	97.94
300.597	84.94
300.827	103.94
301.057	89.94
301.288	101.94
301.518	96.94
301.748	81.94
301.979	105.94
302.209	93.94
302.439	91.94
302.669	96.94
302.9	89.94
303.13	88.94
303.36	105.94
303.59	101.94
303.82	84.94
304.051	88.94
304.281	88.94
304.511	83.94
304.741	106.94
304.971	92.94
305.201	97.94
305.431	94.94
305.661	81.94
305.891	91.94
306.121	91.94
306.352	83.94
306.582	92.94
306.812	92.94
307.042	94.94
307.272	91.94
307.502	88.94
307.731	95.94
307.961	99.94
308.191	96.94
308.421	86.94
308.651	90.94
308.881	76.94
309.111	80.94
309.341	94.94
309.571	100.94
309.8	99.94
310.03	83.94
310.26	85.94
310.49	94.94
310.72	85.94
310.949	72.94
311.179	76.94
311.409	99.94
311.639	79.94
311.868	98.94
312.098	84.94
312.328	92.94
312.557	90.94
312.787	94.94
313.017	105.94
313.246	92.94
313.476	71.94
313.706	83.94
313.935	92.94
314.165	84.94
314.394	87.94
314.624	101.94
314.853	86.94
315.083	99.94
315.312	101.94
315.542	89.94
315.771	102.94
316.001	89.94
316.23	92.94
316.46	102.94
316.689	92.94
316.919	89.94
317.148	94.94
317.377	87.94
317.607	100.94
317.836	84.94
318.065	88.94
318.295	93.94
318.524	85.94
318.753	77.94
318.983	90.94
319.212	101.94
319.441	106.94
319.67	93.94
319.9	90.94
320.129	90.94
320.358	89.94
320.587	94.94
320.816	76.94
321.046	105.94
321.275	90.94
321.504	95.94
321.733	91.94
321.962	91.94
322.191	97.94
322.42	90.94
322.649	86.94
322.878	101.94
323.108	113.94
323.337	117.94
323.566	108.94
323.795	121.94
324.024	162.94
324.253	298.94
324.482	610.94
324.71	1232.94
324.939	1627.94
325.168	592.94
325.397	196.94
325.626	125.94
325.855	112.94
326.084	116.94
326.313	110.94
326.542	134.94
326.77	192.94
326.999	348.94
327.228	714.94
327.457	1301.94
327.686	1035.94
327.914	298.94
328.143	147.94
328.372	121.94
328.6	94.94
328.829	92.94
329.058	121.94
329.287	122.94
329.515	99.94
329.744	97.94
329.972	101.94
330.201	101.94
330.43	113.94
330.658	122.94
330.887	125.94
331.115	97.94
331.344	111.94
331.572	105.94
331.801	99.94
332.03	90.94
332.258	86.94
332.486	99.94
332.715	84.94
332.943	102.94
333.172	94.94
333.4	86.94
333.629	88.94
333.857	97.94
334.085	94.94
334.314	115.94
334.542	102.94
334.771	117.94
334.999	92.94
335.227	94.94
335.455	84.94
335.684	69.94
335.912	98.94
336.14	92.94
336.369	96.94
336.597	92.94
336.825	104.94
337.053	96.94
337.281	88.94
337.51	77.94
337.738	97.94
337.966	90.94
338.194	84.94
338.422	87.94
338.65	95.94
338.878	94.94
339.106	85.94
339.334	89.94
339.562	81.94
339.79	85.94
340.018	105.94
340.246	86.94
340.474	85.94
340.702	88.94
340.93	85.94
341.158	82.94
341.386	94.94
341.614	98.94
341.842	94.94
342.07	90.94
342.298	84.94
342.526	86.94
342.754	100.94
342.981	95.94
343.209	82.94
343.437	104.94
343.665	83.94
343.893	92.94
344.12	90.94
344.348	90.94
344.576	80.94
344.804	97.94
345.031	95.94
345.259	93.94
345.487	85.94
345.714	94.94
345.942	75.94
346.17	72.94
346.397	105.94
346.625	90.94
346.853	101.94
347.08	98.94
347.308	100.94
347.535	93.94
347.763	83.94
347.99	93.94
348.218	107.94
348.445	106.94
348.673	91.94
348.9	92.94
349.128	114.94
349.355	95.94
349.583	108.94
349.81	104.94
350.037	89.94
350.265	105.94
350.492	85.94
350.72	92.94
350.947	90.94
351.174	95.94
351.402	86.94
351.629	90.94
351.856	92.94
352.083	102.94
352.311	114.94
352.538	113.94
352.765	103.94
352.992	97.94
353.22	101.94
353.447	101.94
353.674	98.94
353.901	113.94
354.128	104.94
354.355	98.94
354.583	114.94
354.81	92.94
355.037	102.94
355.264	88.94
355.491	107.94
355.718	91.94
355.945	104.94
356.172	112.94
356.399	93.94
356.626	95.94
356.853	100.94
357.08	93.94
357.307	98.94
357.534	84.94
357.761	89.94
357.988	103.94
358.215	93.94
358.441	114.94
358.668	113.94
358.895	81.94
359.122	96.94
359.349	88.94
359.576	99.94
359.802	93.94
360.029	89.94
360.256	92.94
360.483	90.94
360.709	90.94
360.936	98.94
361.163	89.94
361.39	105.94
361.616	100.94
361.843	97.94
362.07	103.94
362.296	94.94
362.523	85.94
362.749	103.94
362.976	89.94
363.203	77.94
363.429	88.94
363.656	99.94
363.882	89.94
364.109	93.94
364.335	96.94
364.562	80.94
364.788	91.94
365.015	101.94
365.241	99.94
365.468	103.94
365.694	97.94
365.92	82.94
366.147	88.94
366.373	89.94
366.599	85.94
366.826	92.94
367.052	82.94
367.278	96.94
367.505	102.94
367.731	97.94
367.957	92.94
368.184	95.94
368.41	101.94
368.636	91.94
368.862	107.94
369.089	84.94
369.315	80.94
369.541	95.94
369.767	93.94
369.993	84.94
370.219	86.94
370.445	80.94
370.672	84.94
370.898	99.94
371.124	94.94
371.35	80.94
371.576	87.94
371.802	89.94
372.028	87.94
372.254	101.94
372.48	99.94
372.706	86.94
372.932	84.94
373.158	98.94
373.384	105.94
373.61	104.94
373.835	91.94
374.061	101.94
374.287	94.94
374.513	91.94
374.739	80.94
374.965	77.94
375.191	84.94
375.416	99.94
375.642	110.94
375.868	96.94
376.094	109.94
376.319	96.94
376.545	100.94
376.771	94.94
376.997	93.94
377.222	99.94
377.448	97.94
377.674	94.94
377.899	93.94
378.125	115.94
378.35	89.94
378.576	109.94
378.802	76.94
379.027	94.94
379.253	93.94
379.478	107.94
379.704	109.94
379.929	107.94
380.155	113.94
380.38	120.94
380.606	101.94
380.831	100.94
381.057	113.94
381.282	106.94
381.507	108.94
381.733	116.94
381.958	121.94
382.184	113.94
382.409	120.94
382.634	113.94
382.86	122.94
383.085	130.94
383.31	123.94
383.535	123.94
383.761	129.94
383.986	123.94
384.211	116.94
384.436	109.94
384.662	123.94
384.887	129.94
385.112	129.94
385.337	145.94
385.562	146.94
385.787	120.94
386.013	138.94
386.238	151.94
386.463	133.94
386.688	138.94
386.913	138.94
387.138	142.94
387.363	151.94
387.588	141.94
387.813	132.94
388.038	159.94
388.263	150.94
388.488	138.94
388.713	99.94
388.938	98.94
389.163	103.94
389.387	101.94
389.612	88.94
389.837	110.94
390.062	86.94
390.287	72.94
390.512	81.94
390.736	90.94
390.961	96.94
391.186	80.94
391.411	98.94
391.636	93.94
391.86	75.94
392.085	84.94
392.31	105.94
392.534	77.94
392.759	90.94
392.984	85.94
393.208	76.94
393.433	78.94
393.658	90.94
393.882	89.94
394.107	93.94
394.331	83.94
394.556	86.94
394.78	77.94
395.005	96.94
395.229	68.94
395.454	75.94
395.678	78.94
395.903	78.94
396.127	71.94
396.352	92.94
396.576	87.94
396.801	80.94
397.025	87.94
397.249	77.94
397.474	99.94
397.698	85.94
397.922	86.94
398.147	94.94
398.371	85.94
398.595	91.94
398.82	79.94
399.044	89.94
399.268	93.94
399.492	87.94
399.717	84.94
399.941	96.94
400.165	74.94
400.389	90.94
400.613	84.94
400.837	75.94
401.062	74.94
401.286	107.94
401.51	97.94
401.734	72.94
401.958	98.94
402.182	105.94
402.406	110.94
402.63	102.94
402.854	102.94
403.078	93.94
403.302	83.94
403.526	88.94
403.75	109.94
403.974	83.94
404.198	89.94
404.422	90.94
404.645	91.94
404.869	94.94
405.093	100.94
405.317	90.94
405.541	107.94
405.765	92.94
405.988	97.94
406.212	125.94
406.436	149.94
406.66	106.94
406.883	88.94
407.107	98.94
407.331	88.94
407.555	89.94
407.778	109.94
408.002	86.94
408.226	98.94
408.449	96.94
408.673	87.94
408.896	76.94
409.12	91.94
409.344	103.94
409.567	70.94
409.791	98.94
410.014	102.94
410.238	90.94
410.461	97.94
410.685	91.94
410.908	91.94
411.132	95.94
411.355	96.94
411.578	93.94
411.802	81.94
412.025	74.94
412.249	85.94
412.472	96.94
412.695	92.94
412.919	88.94
413.142	94.94
413.365	93.94
413.589	102.94
413.812	89.94
414.035	102.94
414.258	82.94
414.482	100.94
414.705	86.94
414.928	91.94
415.151	112.94
415.374	106.94
415.597	98.94
415.821	83.94
416.044	88.94
416.267	90.94
416.49	96.94
416.713	85.94
416.936	80.94
417.159	86.94
417.382	89.94
417.605	91.94
417.828	107.94
418.051	96.94
418.274	92.94
418.497	91.94
418.72	94.94
418.943	92.94
419.166	80.94
419.389	98.94
419.611	107.94
419.834	86.94
420.057	110.94
420.28	95.94
420.503	86.94
420.726	81.94
420.948	85.94
421.171	88.94
421.394	109.94
421.617	84.94
421.839	66.94
422.062	85.94
422.285	99.94
422.507	105.94
422.73	104.94
422.953	83.94
423.175	96.94
423.398	93.94
423.621	85.94
423.843	93.94
424.066	89.94
424.288	86.94
424.511	89.94
424.733	98.94
424.956	98.94
425.178	81.94
425.401	94.94
425.623	98.94
425.846	90.94
426.068	98.94
426.291	77.94
426.513	69.94
426.735	84.94
426.958	88.94
427.18	106.94
427.402	121.94
427.625	107.94
427.847	93.94
428.069	102.94
428.292	96.94
428.514	86.94
428.736	64.94
428.958	86.94
429.181	75.94
429.403	82.94
429.625	92.94
429.847	89.94
430.069	101.94
430.292	86.94
430.514	84.94
430.736	87.94
430.958	100.94
431.18	82.94
431.402	85.94
431.624	72.94
431.846	80.94
432.068	91.94
432.29	86.94
432.512	90.94
432.734	85.94
432.956	98.94
433.178	77.94
433.4	98.94
433.622	84.94
433.844	93.94
434.066	84.94
434.287	86.94
434.509	93.94
434.731	119.94
434.953	86.94
435.175	101.94
435.397	110.94
435.618	94.94
435.84	74.94
436.062	108.94
436.284	100.94
436.505	92.94
436.727	101.94
436.949	99.94
437.17	74.94
437.392	80.94
437.614	101.94
437.835	92.94
438.057	93.94
438.278	91.94
438.5	88.94
438.721	120.94
438.943	112.94
439.165	75.94
439.386	93.94
439.608	105.94
439.829	89.94
440.05	105.94
440.272	98.94
440.493	100.94
440.715	75.94
440.936	88.94
441.158	88.94
441.379	89.94
441.6	92.94
441.822	97.94
442.043	70.94
442.264	81.94
442.486	82.94
442.707	83.94
442.928	86.94
443.149	100.94
443.371	96.94
443.592	96.94
443.813	84.94
444.034	97.94
444.255	98.94
444.476	84.94
444.698	80.94
444.919	87.94
445.14	132.94
445.361	120.94
445.582	95.94
445.803	110.94
446.024	104.94
446.245	119.94
446.466	95.94
446.687	76.94
446.908	94.94
447.129	82.94
447.35	88.94
447.571	88.94
447.792	78.94
448.013	90.94
448.234	88.94
448.455	88.94
448.675	95.94
448.896	106.94
449.117	89.94
449.338	83.94
449.559	105.94
449.779	126.94
450	99.94
450.221	96.94
450.442	87.94
450.662	88.94
450.883	114.94
451.104	105.94
451.324	87.94
451.545	91.94
451.766	96.94
451.986	84.94
452.207	98.94
452.428	85.94
452.648	85.94
452.869	112.94
453.089	107.94
453.31	103.94
453.53	88.94
453.751	84.94
453.971	92.94
454.192	97.94
454.412	100.94
454.633	77.94
454.853	83.94
455.073	89.94
455.294	82.94
455.514	98.94
455.734	91.94
455.955	85.94
456.175	86.94
456.395	89.94
456.616	82.94
456.836	85.94
457.056	66.94
457.276	88.94
457.497	82.94
457.717	80.94
457.937	83.94
458.157	91.94
458.377	73.94
458.598	97.94
458.818	115.94
459.038	116.94
459.258	91.94
459.478	89.94
459.698	88.94
459.918	98.94
460.138	92.94
460.358	80.94
460.578	80.94
460.798	87.94
461.018	82.94
461.238	74.94
461.458	74.94
461.678	92.94
461.898	78.94
462.118	86.94
462.338	85.94
462.558	98.94
462.777	89.94
462.997	71.94
463.217	75.94
463.437	77.94
463.657	94.94
463.876	96.94
464.096	92.94
464.316	82.94
464.536	94.94
464.755	77.94
464.975	95.94
465.195	118.94
465.414	126.94
465.634	98.94
465.854	92.94
466.073	85.94
466.293	76.94
466.512	84.94
466.732	81.94
466.951	103.94
467.171	96.94
467.391	96.94
467.61	92.94
467.829	80.94
468.049	98.94
468.268	94.94
468.488	100.94
468.707	95.94
468.927	87.94
469.146	77.94
469.365	79.94
469.585	85.94
469.804	109.94
470.023	86.94
470.243	96.94
470.462	79.94
470.681	95.94
470.901	75.94
471.12	77.94
471.339	100.94
471.558	74.94
471.777	70.94
471.997	86.94
472.216	100.94
472.435	122.94
472.654	94.94
472.873	93.94
473.092	88.94
473.311	75.94
473.53	82.94
473.749	84.94
473.968	95.94
474.187	94.94
474.406	99.94
474.625	75.94
474.844	85.94
475.063	79.94
475.282	89.94
475.501	91.94
475.72	93.94
475.939	81.94
476.158	82.94
476.377	86.94
476.596	105.94
476.814	96.94
477.033	88.94
477.252	91.94
477.471	76.94
477.69	85.94
477.908	81.94
478.127	91.94
478.346	98.94
478.564	83.94
478.783	89.94
479.002	89.94
479.22	80.94
479.439	103.94
479.658	96.94
479.876	97.94
480.095	87.94
480.313	93.94
480.532	96.94
480.751	90.94
480.969	90.94
481.188	127.94
481.406	117.94
481.624	93.94
481.843	96.94
482.061	94.94
482.28	96.94
482.498	63.94
482.717	84.94
482.935	86.94
483.153	105.94
483.372	80.94
483.59	84.94
483.808	89.94
484.027	91.94
484.245	88.94
484.463	93.94
484.681	106.94
484.9	87.94
485.118	106.94
485.336	98.94
485.554	84.94
485.772	100.94
485.99	96.94
486.209	113.94
486.427	100.94
486.645	112.94
486.863	112.94
487.081	99.94
487.299	87.94
487.517	73.94
487.735	94.94
487.953	87.94
488.171	92.94
488.389	71.94
488.607	99.94
488.825	97.94
489.043	90.94
489.261	80.94
489.479	94.94
489.696	91.94
489.914	98.94
490.132	84.94
490.35	88.94
490.568	98.94
490.786	86.94
491.003	96.94
491.221	86.94
491.439	88.94
491.657	71.94
491.874	97.94
492.092	91.94
492.31	103.94
492.527	84.94
492.745	84.94
492.963	98.94
493.18	89.94
493.398	98.94
493.615	92.94
493.833	81.94
494.05	80.94
494.268	73.94
494.485	74.94
494.703	101.94
494.92	94.94
495.138	84.94
495.355	94.94
495.573	98.94
495.79	97.94
496.008	89.94
496.225	88.94
496.442	85.94
496.66	97.94
496.877	93.94
497.094	90.94
497.312	106.94
497.529	92.94
497.746	87.94
497.963	75.94
498.181	88.94
498.398	102.94
498.615	124.94
498.832	94.94
499.049	84.94
499.267	92.94
499.484	79.94
499.701	92.94
499.918	92.94
500.135	85.94
500.352	87.94
500.569	96.94
500.786	109.94
501.003	94.94
501.22	94.94
501.437	83.94
501.654	92.94
501.871	90.94
502.088	82.94
502.305	77.94
502.522	96.94
502.739	92.94
502.956	86.94
503.172	88.94
503.389	103.94
503.606	87.94
503.823	91.94
504.04	102.94
504.256	102.94
504.473	95.94
504.69	96.94
504.907	97.94
505.123	99.94
505.34	91.94
505.557	81.94
505.773	90.94
505.99	76.94
506.207	97.94
506.423	85.94
506.64	103.94
506.856	92.94
507.073	84.94
507.289	103.94
507.506	83.94
507.722	105.94
507.939	92.94
508.155	93.94
508.372	92.94
508.588	102.94
508.805	98.94
509.021	82.94
509.238	88.94
509.454	90.94
509.67	87.94
509.887	97.94
510.103	107.94
510.319	174.94
510.536	460.94
510.752	1189.94
510.968	364.94
511.184	118.94
511.401	95.94
511.617	80.94
511.833	84.94
512.049	91.94
512.265	91.94
512.481	94.94
512.698	78.94
512.914	91.94
513.13	88.94
513.346	76.94
513.562	93.94
513.778	92.94
513.994	97.94
514.21	96.94
514.426	118.94
514.642	90.94
514.858	105.94
515.074	119.94
515.29	253.94
515.506	739.94
515.721	284.94
515.937	112.94
516.153	108.94
516.369	86.94
