Data from Uncirc_1981_H10_HRD10591_00016.txt Node
Date: Wed Jan 03 12:33:11 EST 2024
User: Yrep
Spectrometer: HR+D1059
Trigger mode: 1
Integration Time (sec): 1.000000E-1
Scans to average: 1
Electric dark correction enabled: true
Nonlinearity correction enabled: false
Boxcar width: 0
XAxis mode: Wavelengths
Number of Pixels in Spectrum: 2048
>>>>>Begin Spectral Data<<<<<
223.165	-18.06
223.4	-18.06
223.635	-18.06
223.869	-15.06
224.104	-17.06
224.338	-20.06
224.573	-10.06
224.808	-10.06
225.042	-15.06
225.277	-7.06
225.511	-10.06
225.746	-7.06
225.98	3.94
226.215	16.94
226.449	27.94
226.683	26.94
226.918	28.94
227.152	24.94
227.387	26.94
227.621	41.94
227.856	32.94
228.09	48.94
228.324	42.94
228.559	56.94
228.793	145.94
229.027	421.94
229.262	482.94
229.496	546.94
229.73	719.94
229.964	720.94
230.199	495.94
230.433	451.94
230.667	446.94
230.901	426.94
231.136	423.94
231.37	446.94
231.604	431.94
231.838	458.94
232.072	439.94
232.306	461.94
232.541	486.94
232.775	467.94
233.009	446.94
233.243	457.94
233.477	454.94
233.711	462.94
233.945	486.94
234.179	506.94
234.413	491.94
234.647	506.94
234.881	503.94
235.115	526.94
235.349	542.94
235.583	551.94
235.817	583.94
236.051	605.94
236.285	587.94
236.519	615.94
236.753	664.94
236.987	826.94
237.221	1197.94
237.455	1312.94
237.689	843.94
237.922	704.94
238.156	694.94
238.39	642.94
238.624	641.94
238.858	641.94
239.091	632.94
239.325	660.94
239.559	688.94
239.793	696.94
240.027	723.94
240.26	856.94
240.494	906.94
240.728	908.94
240.961	878.94
241.195	813.94
241.429	792.94
241.662	747.94
241.896	776.94
242.13	771.94
242.363	772.94
242.597	801.94
242.83	818.94
243.064	778.94
243.298	816.94
243.531	829.94
243.765	842.94
243.998	827.94
244.232	836.94
244.465	884.94
244.699	892.94
244.932	900.94
245.166	926.94
245.399	915.94
245.633	903.94
245.866	910.94
246.099	919.94
246.333	964.94
246.566	965.94
246.8	969.94
247.033	996.94
247.266	1033.94
247.5	1102.94
247.733	1126.94
247.966	1157.94
248.2	1145.94
248.433	1126.94
248.666	1172.94
248.899	1310.94
249.133	1405.94
249.366	1374.94
249.599	1284.94
249.832	1208.94
250.066	1203.94
250.299	1262.94
250.532	1380.94
250.765	1476.94
250.998	1672.94
251.231	1611.94
251.465	1449.94
251.698	1403.94
251.931	1394.94
252.164	1389.94
252.397	1401.94
252.63	1482.94
252.863	1525.94
253.096	1632.94
253.329	1656.94
253.562	1624.94
253.795	1547.94
254.028	1516.94
254.261	1580.94
254.494	1747.94
254.727	2034.94
254.96	2082.94
255.193	1835.94
255.426	1673.94
255.659	1596.94
255.892	1650.94
256.124	1733.94
256.357	1715.94
256.59	1588.94
256.823	1543.94
257.056	1526.94
257.289	1553.94
257.521	1554.94
257.754	1546.94
257.987	1544.94
258.22	1483.94
258.452	1518.94
258.685	1553.94
258.918	1575.94
259.151	1603.94
259.383	1666.94
259.616	1638.94
259.849	1752.94
260.081	1836.94
260.314	2046.94
260.547	1947.94
260.779	1792.94
261.012	1710.94
261.244	1696.94
261.477	1652.94
261.71	1653.94
261.942	1633.94
262.175	1718.94
262.407	1634.94
262.64	1619.94
262.872	1656.94
263.105	1642.94
263.337	1640.94
263.57	1595.94
263.802	1651.94
264.035	1654.94
264.267	1668.94
264.499	1642.94
264.732	1685.94
264.964	1690.94
265.197	1669.94
265.429	1686.94
265.661	1702.94
265.894	1706.94
266.126	1716.94
266.358	1749.94
266.591	1751.94
266.823	1820.94
267.055	1856.94
267.287	1851.94
267.52	1828.94
267.752	1820.94
267.984	1834.94
268.216	1883.94
268.448	1864.94
268.681	1970.94
268.913	2064.94
269.145	2236.94
269.377	2276.94
269.609	2213.94
269.841	2174.94
270.073	2230.94
270.306	2504.94
270.538	2608.94
270.77	2499.94
271.002	2354.94
271.234	2331.94
271.466	2478.94
271.698	2582.94
271.93	2588.94
272.162	2594.94
272.394	2536.94
272.626	2409.94
272.858	2285.94
273.09	2224.94
273.322	2226.94
273.553	2166.94
273.785	2188.94
274.017	2219.94
274.249	2204.94
274.481	2223.94
274.713	2243.94
274.945	2269.94
275.176	2243.94
275.408	2246.94
275.64	2158.94
275.872	2225.94
276.104	2211.94
276.335	2238.94
276.567	2347.94
276.799	2443.94
277.031	2674.94
277.262	2759.94
277.494	2691.94
277.726	2507.94
277.957	2462.94
278.189	2376.94
278.421	2331.94
278.652	2323.94
278.884	2333.94
279.115	2328.94
279.347	2330.94
279.579	2370.94
279.81	2341.94
280.042	2359.94
280.273	2380.94
280.505	2394.94
280.736	2382.94
280.968	2374.94
281.199	2388.94
281.431	2394.94
281.662	2404.94
281.894	2476.94
282.125	2441.94
282.356	2573.94
282.588	2648.94
282.819	2571.94
283.051	2502.94
283.282	2543.94
283.513	2563.94
283.745	2571.94
283.976	2595.94
284.207	2651.94
284.439	2636.94
284.67	2564.94
284.901	2605.94
285.132	2610.94
285.364	2563.94
285.595	2625.94
285.826	2598.94
286.057	2613.94
286.288	2615.94
286.52	2645.94
286.751	2646.94
286.982	2690.94
287.213	2705.94
287.444	2702.94
287.675	2793.94
287.906	2783.94
288.138	2867.94
288.369	2839.94
288.6	2862.94
288.831	2810.94
289.062	2846.94
289.293	2785.94
289.524	2838.94
289.755	2801.94
289.986	2759.94
290.217	2752.94
290.448	2801.94
290.679	2730.94
290.91	2793.94
291.141	2768.94
291.371	2757.94
291.602	2818.94
291.833	2807.94
292.064	2791.94
292.295	2799.94
292.526	2860.94
292.757	2787.94
292.987	2770.94
293.218	2736.94
293.449	2824.94
293.68	2840.94
293.91	2844.94
294.141	2832.94
294.372	2785.94
294.603	2833.94
294.833	2847.94
295.064	2847.94
295.295	2860.94
295.525	2822.94
295.756	2841.94
295.987	2941.94
296.217	3037.94
296.448	3009.94
296.679	2889.94
296.909	2977.94
297.14	2871.94
297.37	2933.94
297.601	2964.94
297.831	3023.94
298.062	3032.94
298.292	3044.94
298.523	3059.94
298.753	3116.94
298.984	3046.94
299.214	3037.94
299.445	2974.94
299.675	3095.94
299.905	3127.94
300.136	3107.94
300.366	3098.94
300.597	3107.94
300.827	3219.94
301.057	3265.94
301.288	3316.94
301.518	3245.94
301.748	3286.94
301.979	3386.94
302.209	3348.94
302.439	3336.94
302.669	3266.94
302.9	3315.94
303.13	3216.94
303.36	3338.94
303.59	3316.94
303.82	3293.94
304.051	3295.94
304.281	3250.94
304.511	3217.94
304.741	3267.94
304.971	3222.94
305.201	3206.94
305.431	3225.94
305.661	3255.94
305.891	3228.94
306.121	3191.94
306.352	3244.94
306.582	3252.94
306.812	3158.94
307.042	3280.94
307.272	3192.94
307.502	3225.94
307.731	3222.94
307.961	3217.94
308.191	3163.94
308.421	3256.94
308.651	3264.94
308.881	3240.94
309.111	3234.94
309.341	3240.94
309.571	3355.94
309.8	3399.94
310.03	3467.94
310.26	3431.94
310.49	3418.94
310.72	3511.94
310.949	3575.94
311.179	3544.94
311.409	3456.94
311.639	3519.94
311.868	3539.94
312.098	3557.94
312.328	3586.94
312.557	3754.94
312.787	3726.94
313.017	3634.94
313.246	3677.94
313.476	3590.94
313.706	3672.94
313.935	3689.94
314.165	3736.94
314.394	3803.94
314.624	3795.94
314.853	3693.94
315.083	3674.94
315.312	3657.94
315.542	3652.94
315.771	3593.94
316.001	3572.94
316.23	3626.94
316.46	3668.94
316.689	3689.94
316.919	3587.94
317.148	3701.94
317.377	3641.94
317.607	3642.94
317.836	3581.94
318.065	3644.94
318.295	3590.94
318.524	3569.94
318.753	3518.94
318.983	3606.94
319.212	3600.94
319.441	3605.94
319.67	3611.94
319.9	3629.94
320.129	3616.94
320.358	3575.94
320.587	3609.94
320.816	3698.94
321.046	3766.94
321.275	3644.94
321.504	3687.94
321.733	3698.94
321.962	3756.94
322.191	3816.94
322.42	3855.94
322.649	3884.94
322.878	4005.94
323.108	4007.94
323.337	4178.94
323.566	4262.94
323.795	4476.94
324.024	4841.94
324.253	6035.94
324.482	8662.94
324.71	13210.94
324.939	15230.94
325.168	9658.94
325.397	5476.94
325.626	4613.94
325.855	4421.94
326.084	4349.94
326.313	4416.94
326.542	4471.94
326.77	4935.94
326.999	6000.94
327.228	8214.94
327.457	12176.94
327.686	11366.94
327.914	6194.94
328.143	5119.94
328.372	4933.94
328.6	4726.94
328.829	4750.94
329.058	4842.94
329.287	4758.94
329.515	4636.94
329.744	4541.94
329.972	4642.94
330.201	4747.94
330.43	4954.94
330.658	5084.94
330.887	5216.94
331.115	4996.94
331.344	4638.94
331.572	4635.94
331.801	4770.94
332.03	4819.94
332.258	4759.94
332.486	4788.94
332.715	4895.94
332.943	5072.94
333.172	5185.94
333.4	5270.94
333.629	5498.94
333.857	5512.94
334.085	5520.94
334.314	5558.94
334.542	5673.94
334.771	5635.94
334.999	5272.94
335.227	5178.94
335.455	5011.94
335.684	4952.94
335.912	4925.94
336.14	4804.94
336.369	4784.94
336.597	4884.94
336.825	4734.94
337.053	4686.94
337.281	4661.94
337.51	4612.94
337.738	4544.94
337.966	4521.94
338.194	4539.94
338.422	4442.94
338.65	4418.94
338.878	4413.94
339.106	4422.94
339.334	4336.94
339.562	4342.94
339.79	4225.94
340.018	4272.94
340.246	4226.94
340.474	4253.94
340.702	4264.94
340.93	4292.94
341.158	4388.94
341.386	4302.94
341.614	4302.94
341.842	4252.94
342.07	4239.94
342.298	4197.94
342.526	4142.94
342.754	4193.94
342.981	4312.94
343.209	4373.94
343.437	4505.94
343.665	4799.94
343.893	5050.94
344.12	5130.94
344.348	4865.94
344.576	4651.94
344.804	4602.94
345.031	4498.94
345.259	4389.94
345.487	4304.94
345.714	4189.94
345.942	4167.94
346.17	4123.94
346.397	4112.94
346.625	4046.94
346.853	4054.94
347.08	4023.94
347.308	4064.94
347.535	4170.94
347.763	4144.94
347.99	4123.94
348.218	4126.94
348.445	4106.94
348.673	4140.94
348.9	4059.94
349.128	4002.94
349.355	3931.94
349.583	4014.94
349.81	3952.94
350.037	3925.94
350.265	3930.94
350.492	3968.94
350.72	3903.94
350.947	3947.94
351.174	4062.94
351.402	4065.94
351.629	3994.94
351.856	4048.94
352.083	4062.94
352.311	4088.94
352.538	4093.94
352.765	3998.94
352.992	4033.94
353.22	3911.94
353.447	3961.94
353.674	3916.94
353.901	3895.94
354.128	3915.94
354.355	3857.94
354.583	3877.94
354.81	3901.94
355.037	3920.94
355.264	3880.94
355.491	3862.94
355.718	3832.94
355.945	3866.94
356.172	3886.94
356.399	3905.94
356.626	3912.94
356.853	3927.94
357.08	3887.94
357.307	3885.94
357.534	3887.94
357.761	3915.94
357.988	3927.94
358.215	3902.94
358.441	3938.94
358.668	3954.94
358.895	3959.94
359.122	3925.94
359.349	4010.94
359.576	4065.94
359.802	4246.94
360.029	4315.94
360.256	4295.94
360.483	4244.94
360.709	4115.94
360.936	4019.94
361.163	4055.94
361.39	4010.94
361.616	4087.94
361.843	3979.94
362.07	4012.94
362.296	4054.94
362.523	4002.94
362.749	4043.94
362.976	3992.94
363.203	3979.94
363.429	3947.94
363.656	3975.94
363.882	3935.94
364.109	3903.94
364.335	3885.94
364.562	3947.94
364.788	3921.94
365.015	3915.94
365.241	3928.94
365.468	3914.94
365.694	4023.94
365.92	3945.94
366.147	3990.94
366.373	3960.94
366.599	3963.94
366.826	3914.94
367.052	3852.94
367.278	3979.94
367.505	3957.94
367.731	3998.94
367.957	3961.94
368.184	4008.94
368.41	4087.94
368.636	4103.94
368.862	4134.94
369.089	4134.94
369.315	4005.94
369.541	4141.94
369.767	4043.94
369.993	4079.94
370.219	4093.94
370.445	4076.94
370.672	4169.94
370.898	4218.94
371.124	4196.94
371.35	4225.94
371.576	4207.94
371.802	4242.94
372.028	4231.94
372.254	4280.94
372.48	4378.94
372.706	4419.94
372.932	4470.94
373.158	4317.94
373.384	4288.94
373.61	4198.94
373.835	4350.94
374.061	4260.94
374.287	4397.94
374.513	4415.94
374.739	4561.94
374.965	4739.94
375.191	4696.94
375.416	4628.94
375.642	4524.94
375.868	4447.94
376.094	4357.94
376.319	4311.94
376.545	4349.94
376.771	4279.94
376.997	4282.94
377.222	4345.94
377.448	4265.94
377.674	4290.94
377.899	4249.94
378.125	4172.94
378.35	4258.94
378.576	4223.94
378.802	4164.94
379.027	4200.94
379.253	4204.94
379.478	4194.94
379.704	4242.94
379.929	4281.94
380.155	4259.94
380.38	4262.94
380.606	4336.94
380.831	4212.94
381.057	4359.94
381.282	4285.94
381.507	4313.94
381.733	4354.94
381.958	4456.94
382.184	4392.94
382.409	4519.94
382.634	4537.94
382.86	4534.94
383.085	4536.94
383.31	4668.94
383.535	4719.94
383.761	4778.94
383.986	4902.94
384.211	4962.94
384.436	5014.94
384.662	5087.94
384.887	5135.94
385.112	5169.94
385.337	5142.94
385.562	5213.94
385.787	5210.94
386.013	5289.94
386.238	5346.94
386.463	5248.94
386.688	5252.94
386.913	5117.94
387.138	5110.94
387.363	5122.94
387.588	5120.94
387.813	5081.94
388.038	5121.94
388.263	5210.94
388.488	5114.94
388.713	5066.94
388.938	5059.94
389.163	5062.94
389.387	5050.94
389.612	4968.94
389.837	4988.94
390.062	4994.94
390.287	4996.94
390.512	5041.94
390.736	5076.94
390.961	5130.94
391.186	5265.94
391.411	5356.94
391.636	5516.94
391.86	5783.94
392.085	5747.94
392.31	5613.94
392.534	5534.94
392.759	5362.94
392.984	5276.94
393.208	5248.94
393.433	5259.94
393.658	5314.94
393.882	5278.94
394.107	5243.94
394.331	5365.94
394.556	5355.94
394.78	5432.94
395.005	5484.94
395.229	5534.94
395.454	5613.94
395.678	5783.94
395.903	5710.94
396.127	5772.94
396.352	5525.94
396.576	5390.94
396.801	5399.94
397.025	5503.94
397.249	5560.94
397.474	5674.94
397.698	5750.94
397.922	5848.94
398.147	5982.94
398.371	6012.94
398.595	6177.94
398.82	6467.94
399.044	7010.94
399.268	7729.94
399.492	8858.94
399.717	9407.94
399.941	9187.94
400.165	8606.94
400.389	7881.94
400.613	7204.94
400.837	6704.94
401.062	6517.94
401.286	6483.94
401.51	6382.94
401.734	6367.94
401.958	6444.94
402.182	6622.94
402.406	6653.94
402.63	6769.94
402.854	6871.94
403.078	6955.94
403.302	7142.94
403.526	7138.94
403.75	7205.94
403.974	7295.94
404.198	7239.94
404.422	7365.94
404.645	7286.94
404.869	7288.94
405.093	7508.94
405.317	7723.94
405.541	7590.94
405.765	7226.94
405.988	7066.94
406.212	7196.94
406.436	7249.94
406.66	7416.94
406.883	7514.94
407.107	8065.94
407.331	8580.94
407.555	9099.94
407.778	8764.94
408.002	8027.94
408.226	7715.94
408.449	7652.94
408.673	7462.94
408.896	7531.94
409.12	7742.94
409.344	7310.94
409.567	7040.94
409.791	7081.94
410.014	6907.94
410.238	6917.94
410.461	6938.94
410.685	6899.94
410.908	6996.94
411.132	7157.94
411.355	7160.94
411.578	6720.94
411.802	6600.94
412.025	6639.94
412.249	6804.94
412.472	6964.94
412.695	7040.94
412.919	6633.94
413.142	6449.94
413.365	6405.94
413.589	6399.94
413.812	6350.94
414.035	6227.94
414.258	6214.94
414.482	6345.94
414.705	6339.94
414.928	6353.94
415.151	6328.94
415.374	6278.94
415.597	6217.94
415.821	6138.94
416.044	6159.94
416.267	6130.94
416.49	6128.94
416.713	6098.94
416.936	6240.94
417.159	6185.94
417.382	6223.94
417.605	6250.94
417.828	6428.94
418.051	6497.94
418.274	6387.94
418.497	6258.94
418.72	6432.94
418.943	6389.94
419.166	6790.94
419.389	7298.94
419.611	7011.94
419.834	6809.94
420.057	6630.94
420.28	6576.94
420.503	6378.94
420.726	6344.94
420.948	6441.94
421.171	6770.94
421.394	6792.94
421.617	6390.94
421.839	6369.94
422.062	6516.94
422.285	6583.94
422.507	7160.94
422.73	7624.94
422.953	7102.94
423.175	6846.94
423.398	6890.94
423.621	6839.94
423.843	7045.94
424.066	7031.94
424.288	6964.94
424.511	7091.94
424.733	7507.94
424.956	7845.94
425.178	7421.94
425.401	7602.94
425.623	7466.94
425.846	6576.94
426.068	6430.94
426.291	6382.94
426.513	6408.94
426.735	6403.94
426.958	6870.94
427.18	7495.94
427.402	8508.94
427.625	8451.94
427.847	7252.94
428.069	6701.94
428.292	6206.94
428.514	5931.94
428.736	5736.94
428.958	5809.94
429.181	5621.94
429.403	5636.94
429.625	5836.94
429.847	6092.94
430.069	6570.94
430.292	6212.94
430.514	5706.94
430.736	5663.94
430.958	5516.94
431.18	5588.94
431.402	5544.94
431.624	5575.94
431.846	5617.94
432.068	5651.94
432.29	5718.94
432.512	5631.94
432.734	5731.94
432.956	5596.94
433.178	5602.94
433.4	5702.94
433.622	5609.94
433.844	5699.94
434.066	5666.94
434.287	5699.94
434.509	5961.94
434.731	6224.94
434.953	6381.94
435.175	6392.94
435.397	6545.94
435.618	6371.94
435.84	6711.94
436.062	7495.94
436.284	7410.94
436.505	6278.94
436.727	6038.94
436.949	5890.94
437.17	5699.94
437.392	5625.94
437.614	5798.94
437.835	6096.94
438.057	6962.94
438.278	7474.94
438.5	7434.94
438.721	8116.94
438.943	7143.94
439.165	6153.94
439.386	5974.94
439.608	6030.94
439.829	6078.94
440.05	6302.94
440.272	6693.94
440.493	6112.94
440.715	5933.94
440.936	5838.94
441.158	5931.94
441.379	6142.94
441.6	6448.94
441.822	6594.94
442.043	6971.94
442.264	7685.94
442.486	7390.94
442.707	6624.94
442.928	6466.94
443.149	6592.94
443.371	6764.94
443.592	7317.94
443.813	8297.94
444.034	8219.94
444.255	7233.94
444.476	7107.94
444.698	7322.94
444.919	7378.94
445.14	7206.94
445.361	7007.94
445.582	7068.94
445.803	7506.94
446.024	8003.94
446.245	7743.94
446.466	6977.94
446.687	6201.94
446.908	5910.94
447.129	5631.94
447.35	5502.94
447.571	5522.94
447.792	5431.94
448.013	5434.94
448.234	5563.94
448.455	6122.94
448.675	7340.94
448.896	7713.94
449.117	6408.94
449.338	6572.94
449.559	7664.94
449.779	7944.94
450	6071.94
450.221	5560.94
450.442	5330.94
450.662	5247.94
450.883	5351.94
451.104	5377.94
451.324	5260.94
451.545	5159.94
451.766	5052.94
451.986	4932.94
452.207	4898.94
452.428	4897.94
452.648	4894.94
452.869	4938.94
453.089	4911.94
453.31	5136.94
453.53	4924.94
453.751	4940.94
453.971	4832.94
454.192	5022.94
454.412	4819.94
454.633	4728.94
454.853	4696.94
455.073	4777.94
455.294	5148.94
455.514	5567.94
455.734	5137.94
455.955	4674.94
456.175	4613.94
456.395	4592.94
456.616	4536.94
456.836	4535.94
457.056	4539.94
457.276	4506.94
457.497	4688.94
457.717	4573.94
457.937	4649.94
458.157	4751.94
458.377	4770.94
458.598	5066.94
458.818	5616.94
459.038	6252.94
459.258	6246.94
459.478	5750.94
459.698	5677.94
459.918	5745.94
460.138	5860.94
460.358	6108.94
460.578	6144.94
460.798	6270.94
461.018	6203.94
461.238	6239.94
461.458	6088.94
461.678	6061.94
461.898	6339.94
462.118	6256.94
462.338	6579.94
462.558	6717.94
462.777	6995.94
462.997	7576.94
463.217	7992.94
463.437	7839.94
463.657	7206.94
463.876	6998.94
464.096	7041.94
464.316	7033.94
464.536	7023.94
464.755	6774.94
464.975	6680.94
465.195	6694.94
465.414	6643.94
465.634	5990.94
465.854	5670.94
466.073	5492.94
466.293	5332.94
466.512	5206.94
466.732	5086.94
466.951	5136.94
467.171	5110.94
467.391	5191.94
467.61	5153.94
467.829	5123.94
468.049	5083.94
468.268	4976.94
468.488	4921.94
468.707	4958.94
468.927	4938.94
469.146	4841.94
469.365	5003.94
469.585	4998.94
469.804	5154.94
470.023	5271.94
470.243	5228.94
470.462	5332.94
470.681	5347.94
470.901	5322.94
471.12	5228.94
471.339	5196.94
471.558	5124.94
471.777	5093.94
471.997	5026.94
472.216	5054.94
472.435	5115.94
472.654	5001.94
472.873	4866.94
473.092	4804.94
473.311	4835.94
473.53	4936.94
473.749	4978.94
473.968	5394.94
474.187	6263.94
474.406	5931.94
474.625	5143.94
474.844	4951.94
475.063	4934.94
475.282	4930.94
475.501	4984.94
475.72	4936.94
475.939	5024.94
476.158	5086.94
476.377	5082.94
476.596	4989.94
476.814	5182.94
477.033	5242.94
477.252	5387.94
477.471	5354.94
477.69	5550.94
477.908	5638.94
478.127	5855.94
478.346	5828.94
478.564	6007.94
478.783	6036.94
479.002	6168.94
479.22	6180.94
479.439	6274.94
479.658	6377.94
479.876	6458.94
480.095	6690.94
480.313	6966.94
480.532	6950.94
480.751	6753.94
480.969	6702.94
481.188	6928.94
481.406	6709.94
481.624	6208.94
481.843	6114.94
482.061	5944.94
482.28	5947.94
482.498	5860.94
482.717	5819.94
482.935	5787.94
483.153	5776.94
483.372	5767.94
483.59	5677.94
483.808	5725.94
484.027	5781.94
484.245	5841.94
484.463	5839.94
484.681	5947.94
484.9	6006.94
485.118	6035.94
485.336	6143.94
485.554	6130.94
485.772	6095.94
485.99	6140.94
486.209	6273.94
486.427	6249.94
486.645	6288.94
486.863	6292.94
487.081	6372.94
487.299	6177.94
487.517	6207.94
487.735	6192.94
487.953	6222.94
