Data from Uncirc_1981_H10_HRD10591_00092.txt Node
Date: Wed Jan 03 12:33:26 EST 2024
User: Yrep
Spectrometer: HR+D1059
Trigger mode: 1
Integration Time (sec): 1.000000E-1
Scans to average: 1
Electric dark correction enabled: true
Nonlinearity correction enabled: false
Boxcar width: 0
XAxis mode: Wavelengths
Number of Pixels in Spectrum: 2048
>>>>>Begin Spectral Data<<<<<
223.165	-7.81
223.4	-7.81
223.635	-7.81
223.869	-11.81
224.104	-27.81
224.338	-27.81
224.573	-23.81
224.808	-13.81
225.042	-9.81
225.277	-5.81
225.511	0.19
225.746	4.19
225.98	5.19
226.215	24.19
226.449	22.19
226.683	17.19
226.918	20.19
227.152	35.19
227.387	38.19
227.621	44.19
227.856	40.19
228.09	51.19
228.324	42.19
228.559	53.19
228.793	71.19
229.027	68.19
229.262	67.19
229.496	84.19
229.73	91.19
229.964	74.19
230.199	89.19
230.433	83.19
230.667	85.19
230.901	84.19
231.136	85.19
231.37	72.19
231.604	74.19
231.838	84.19
232.072	83.19
232.306	90.19
232.541	88.19
232.775	83.19
233.009	96.19
233.243	83.19
233.477	68.19
233.711	77.19
233.945	92.19
234.179	81.19
234.413	80.19
234.647	80.19
234.881	73.19
235.115	92.19
235.349	63.19
235.583	74.19
235.817	76.19
236.051	71.19
236.285	78.19
236.519	81.19
236.753	75.19
236.987	76.19
237.221	81.19
237.455	94.19
237.689	69.19
237.922	76.19
238.156	85.19
238.39	79.19
238.624	79.19
238.858	80.19
239.091	74.19
239.325	73.19
239.559	79.19
239.793	65.19
240.027	83.19
240.26	71.19
240.494	92.19
240.728	75.19
240.961	67.19
241.195	77.19
241.429	65.19
241.662	84.19
241.896	72.19
242.13	63.19
242.363	64.19
242.597	75.19
242.83	83.19
243.064	87.19
243.298	82.19
243.531	75.19
243.765	61.19
243.998	68.19
244.232	71.19
244.465	91.19
244.699	83.19
244.932	81.19
245.166	83.19
245.399	68.19
245.633	72.19
245.866	81.19
246.099	65.19
246.333	93.19
246.566	75.19
246.8	66.19
247.033	66.19
247.266	92.19
247.5	76.19
247.733	73.19
247.966	70.19
248.2	76.19
248.433	68.19
248.666	72.19
248.899	69.19
249.133	92.19
249.366	90.19
249.599	79.19
249.832	69.19
250.066	78.19
250.299	87.19
250.532	89.19
250.765	101.19
250.998	67.19
251.231	69.19
251.465	76.19
251.698	67.19
251.931	74.19
252.164	66.19
252.397	81.19
252.63	69.19
252.863	87.19
253.096	74.19
253.329	72.19
253.562	69.19
253.795	70.19
254.028	86.19
254.261	79.19
254.494	81.19
254.727	63.19
254.96	94.19
255.193	87.19
255.426	79.19
255.659	91.19
255.892	92.19
256.124	88.19
256.357	85.19
256.59	71.19
256.823	79.19
257.056	97.19
257.289	81.19
257.521	75.19
257.754	73.19
257.987	65.19
258.22	71.19
258.452	72.19
258.685	73.19
258.918	88.19
259.151	72.19
259.383	75.19
259.616	79.19
259.849	79.19
260.081	70.19
260.314	83.19
260.547	95.19
260.779	96.19
261.012	82.19
261.244	86.19
261.477	89.19
261.71	97.19
261.942	94.19
262.175	98.19
262.407	67.19
262.64	75.19
262.872	105.19
263.105	76.19
263.337	90.19
263.57	79.19
263.802	86.19
264.035	107.19
264.267	91.19
264.499	67.19
264.732	87.19
264.964	90.19
265.197	83.19
265.429	87.19
265.661	93.19
265.894	77.19
266.126	85.19
266.358	85.19
266.591	79.19
266.823	87.19
267.055	77.19
267.287	95.19
267.52	79.19
267.752	88.19
267.984	98.19
268.216	73.19
268.448	91.19
268.681	82.19
268.913	74.19
269.145	92.19
269.377	81.19
269.609	91.19
269.841	96.19
270.073	97.19
270.306	85.19
270.538	89.19
270.77	99.19
271.002	83.19
271.234	84.19
271.466	81.19
271.698	77.19
271.93	78.19
272.162	92.19
272.394	87.19
272.626	86.19
272.858	73.19
273.09	72.19
273.322	73.19
273.553	83.19
273.785	93.19
274.017	90.19
274.249	90.19
274.481	79.19
274.713	75.19
274.945	80.19
275.176	82.19
275.408	93.19
275.64	71.19
275.872	85.19
276.104	89.19
276.335	95.19
276.567	93.19
276.799	94.19
277.031	88.19
277.262	106.19
277.494	102.19
277.726	85.19
277.957	91.19
278.189	89.19
278.421	85.19
278.652	73.19
278.884	86.19
279.115	84.19
279.347	75.19
279.579	91.19
279.81	93.19
280.042	91.19
280.273	85.19
280.505	92.19
280.736	95.19
280.968	85.19
281.199	87.19
281.431	80.19
281.662	84.19
281.894	90.19
282.125	81.19
282.356	120.19
282.588	127.19
282.819	99.19
283.051	84.19
283.282	90.19
283.513	81.19
283.745	88.19
283.976	92.19
284.207	90.19
284.439	89.19
284.67	91.19
284.901	73.19
285.132	83.19
285.364	83.19
285.595	92.19
285.826	72.19
286.057	79.19
286.288	93.19
286.52	97.19
286.751	76.19
286.982	88.19
287.213	83.19
287.444	88.19
287.675	91.19
287.906	85.19
288.138	74.19
288.369	90.19
288.6	86.19
288.831	94.19
289.062	92.19
289.293	91.19
289.524	104.19
289.755	92.19
289.986	85.19
290.217	83.19
290.448	71.19
290.679	97.19
290.91	93.19
291.141	86.19
291.371	93.19
291.602	87.19
291.833	86.19
292.064	93.19
292.295	76.19
292.526	81.19
292.757	82.19
292.987	82.19
293.218	81.19
293.449	83.19
293.68	96.19
293.91	95.19
294.141	79.19
294.372	83.19
294.603	79.19
294.833	84.19
295.064	98.19
295.295	95.19
295.525	91.19
295.756	101.19
295.987	104.19
296.217	115.19
296.448	107.19
296.679	79.19
296.909	78.19
297.14	91.19
297.37	92.19
297.601	86.19
297.831	84.19
298.062	92.19
298.292	101.19
298.523	79.19
298.753	99.19
298.984	96.19
299.214	91.19
299.445	98.19
299.675	94.19
299.905	85.19
300.136	98.19
300.366	81.19
300.597	79.19
300.827	95.19
301.057	102.19
301.288	95.19
301.518	91.19
301.748	90.19
301.979	87.19
302.209	100.19
302.439	77.19
302.669	106.19
302.9	76.19
303.13	81.19
303.36	87.19
303.59	95.19
303.82	92.19
304.051	95.19
304.281	90.19
304.511	85.19
304.741	92.19
304.971	92.19
305.201	83.19
305.431	100.19
305.661	103.19
305.891	85.19
306.121	75.19
306.352	87.19
306.582	105.19
306.812	87.19
307.042	87.19
307.272	97.19
307.502	99.19
307.731	82.19
307.961	93.19
308.191	81.19
308.421	97.19
308.651	92.19
308.881	86.19
309.111	93.19
309.341	85.19
309.571	105.19
309.8	96.19
310.03	92.19
310.26	85.19
310.49	92.19
310.72	96.19
310.949	101.19
311.179	105.19
311.409	87.19
311.639	85.19
311.868	89.19
312.098	84.19
312.328	96.19
312.557	92.19
312.787	83.19
313.017	93.19
313.246	96.19
313.476	101.19
313.706	77.19
313.935	104.19
314.165	100.19
314.394	93.19
314.624	89.19
314.853	83.19
315.083	88.19
315.312	94.19
315.542	81.19
315.771	88.19
316.001	88.19
316.23	88.19
316.46	88.19
316.689	92.19
316.919	83.19
317.148	92.19
317.377	82.19
317.607	80.19
317.836	102.19
318.065	95.19
318.295	101.19
318.524	65.19
318.753	84.19
318.983	85.19
319.212	89.19
319.441	96.19
319.67	97.19
319.9	90.19
320.129	86.19
320.358	100.19
320.587	93.19
320.816	100.19
321.046	92.19
321.275	103.19
321.504	107.19
321.733	92.19
321.962	88.19
322.191	92.19
322.42	107.19
322.649	101.19
322.878	116.19
323.108	108.19
323.337	95.19
323.566	118.19
323.795	143.19
324.024	193.19
324.253	326.19
324.482	712.19
324.71	1498.19
324.939	1895.19
325.168	691.19
325.397	232.19
325.626	157.19
325.855	117.19
326.084	115.19
326.313	130.19
326.542	138.19
326.77	199.19
326.999	419.19
327.228	835.19
327.457	1499.19
327.686	1202.19
327.914	320.19
328.143	162.19
328.372	145.19
328.6	112.19
328.829	100.19
329.058	107.19
329.287	119.19
329.515	92.19
329.744	104.19
329.972	98.19
330.201	122.19
330.43	126.19
330.658	121.19
330.887	128.19
331.115	105.19
331.344	95.19
331.572	93.19
331.801	115.19
332.03	109.19
332.258	92.19
332.486	93.19
332.715	97.19
332.943	95.19
333.172	94.19
333.4	99.19
333.629	102.19
333.857	98.19
334.085	94.19
334.314	105.19
334.542	127.19
334.771	112.19
334.999	99.19
335.227	85.19
335.455	99.19
335.684	95.19
335.912	92.19
336.14	96.19
336.369	91.19
336.597	97.19
336.825	93.19
337.053	93.19
337.281	113.19
337.51	85.19
337.738	82.19
337.966	92.19
338.194	86.19
338.422	87.19
338.65	84.19
338.878	83.19
339.106	87.19
339.334	82.19
339.562	76.19
339.79	74.19
340.018	85.19
340.246	93.19
340.474	87.19
340.702	82.19
340.93	88.19
341.158	99.19
341.386	77.19
341.614	89.19
341.842	83.19
342.07	83.19
342.298	99.19
342.526	83.19
342.754	80.19
342.981	101.19
343.209	79.19
343.437	103.19
343.665	77.19
343.893	89.19
344.12	92.19
344.348	83.19
344.576	97.19
344.804	99.19
345.031	94.19
345.259	99.19
345.487	90.19
345.714	98.19
345.942	92.19
346.17	92.19
346.397	85.19
346.625	91.19
346.853	87.19
347.08	104.19
347.308	92.19
347.535	84.19
347.763	101.19
347.99	109.19
348.218	104.19
348.445	106.19
348.673	84.19
348.9	90.19
349.128	87.19
349.355	92.19
349.583	81.19
349.81	83.19
350.037	96.19
350.265	91.19
350.492	83.19
350.72	99.19
350.947	94.19
351.174	96.19
351.402	107.19
351.629	99.19
351.856	107.19
352.083	92.19
352.311	90.19
352.538	106.19
352.765	110.19
352.992	79.19
353.22	116.19
353.447	100.19
353.674	99.19
353.901	100.19
354.128	89.19
354.355	95.19
354.583	95.19
354.81	95.19
355.037	97.19
355.264	100.19
355.491	77.19
355.718	75.19
355.945	96.19
356.172	87.19
356.399	95.19
356.626	103.19
356.853	76.19
357.08	81.19
357.307	99.19
357.534	87.19
357.761	89.19
357.988	100.19
358.215	89.19
358.441	90.19
358.668	79.19
358.895	85.19
359.122	97.19
359.349	73.19
359.576	101.19
359.802	94.19
360.029	98.19
360.256	92.19
360.483	87.19
360.709	91.19
360.936	86.19
361.163	103.19
361.39	92.19
361.616	83.19
361.843	83.19
362.07	88.19
362.296	84.19
362.523	91.19
362.749	86.19
362.976	93.19
363.203	98.19
363.429	93.19
363.656	96.19
363.882	87.19
364.109	105.19
364.335	90.19
364.562	92.19
364.788	89.19
365.015	98.19
365.241	102.19
365.468	97.19
365.694	97.19
365.92	93.19
366.147	86.19
366.373	80.19
366.599	74.19
366.826	92.19
367.052	84.19
367.278	91.19
367.505	83.19
367.731	78.19
367.957	89.19
368.184	93.19
368.41	98.19
368.636	103.19
368.862	97.19
369.089	108.19
369.315	93.19
369.541	87.19
369.767	96.19
369.993	75.19
370.219	101.19
370.445	84.19
370.672	84.19
370.898	92.19
371.124	87.19
371.35	84.19
371.576	90.19
371.802	98.19
372.028	84.19
372.254	80.19
372.48	96.19
372.706	77.19
372.932	87.19
373.158	95.19
373.384	93.19
373.61	84.19
373.835	90.19
374.061	84.19
374.287	95.19
374.513	92.19
374.739	101.19
374.965	88.19
375.191	99.19
375.416	91.19
375.642	87.19
375.868	98.19
376.094	98.19
376.319	91.19
376.545	72.19
376.771	87.19
376.997	100.19
377.222	75.19
377.448	80.19
377.674	89.19
377.899	82.19
378.125	95.19
378.35	96.19
378.576	104.19
378.802	92.19
379.027	96.19
379.253	108.19
379.478	79.19
379.704	95.19
379.929	93.19
380.155	106.19
380.38	87.19
380.606	87.19
380.831	93.19
381.057	96.19
381.282	105.19
381.507	94.19
381.733	92.19
381.958	99.19
382.184	102.19
382.409	112.19
382.634	96.19
382.86	99.19
383.085	95.19
383.31	92.19
383.535	103.19
383.761	90.19
383.986	97.19
384.211	103.19
384.436	88.19
384.662	101.19
384.887	102.19
385.112	95.19
385.337	90.19
385.562	104.19
385.787	99.19
386.013	92.19
386.238	106.19
386.463	92.19
386.688	105.19
386.913	93.19
387.138	115.19
387.363	103.19
387.588	108.19
387.813	88.19
388.038	119.19
388.263	112.19
388.488	104.19
388.713	98.19
388.938	99.19
389.163	87.19
389.387	91.19
389.612	96.19
389.837	112.19
390.062	99.19
390.287	105.19
390.512	102.19
390.736	85.19
390.961	95.19
391.186	104.19
391.411	88.19
391.636	83.19
391.86	91.19
392.085	76.19
392.31	87.19
392.534	83.19
392.759	91.19
392.984	100.19
393.208	82.19
393.433	89.19
393.658	104.19
393.882	69.19
394.107	72.19
394.331	76.19
394.556	101.19
394.78	86.19
395.005	96.19
395.229	79.19
395.454	95.19
395.678	82.19
395.903	79.19
396.127	85.19
396.352	76.19
396.576	75.19
396.801	104.19
397.025	91.19
397.249	88.19
397.474	91.19
397.698	82.19
397.922	89.19
398.147	73.19
398.371	81.19
398.595	79.19
398.82	97.19
399.044	93.19
399.268	87.19
399.492	84.19
399.717	76.19
399.941	92.19
400.165	88.19
400.389	92.19
400.613	81.19
400.837	99.19
401.062	101.19
401.286	97.19
401.51	89.19
401.734	94.19
401.958	96.19
402.182	109.19
402.406	115.19
402.63	100.19
402.854	97.19
403.078	85.19
403.302	79.19
403.526	81.19
403.75	86.19
403.974	89.19
404.198	80.19
404.422	75.19
404.645	77.19
404.869	86.19
405.093	103.19
405.317	97.19
405.541	91.19
405.765	109.19
405.988	88.19
406.212	141.19
406.436	186.19
406.66	107.19
406.883	113.19
407.107	103.19
407.331	88.19
407.555	104.19
407.778	98.19
408.002	95.19
408.226	83.19
408.449	82.19
408.673	84.19
408.896	87.19
409.12	103.19
409.344	86.19
409.567	83.19
409.791	101.19
410.014	88.19
410.238	95.19
410.461	98.19
410.685	97.19
410.908	82.19
411.132	101.19
411.355	94.19
411.578	92.19
411.802	87.19
412.025	87.19
412.249	100.19
412.472	81.19
412.695	84.19
412.919	85.19
413.142	91.19
413.365	85.19
413.589	69.19
413.812	79.19
414.035	79.19
414.258	90.19
414.482	104.19
414.705	97.19
414.928	102.19
415.151	87.19
415.374	101.19
415.597	87.19
415.821	87.19
416.044	93.19
416.267	79.19
416.49	82.19
416.713	91.19
416.936	79.19
417.159	89.19
417.382	79.19
417.605	88.19
417.828	99.19
418.051	98.19
418.274	73.19
418.497	82.19
418.72	79.19
418.943	76.19
419.166	90.19
419.389	88.19
419.611	93.19
419.834	93.19
420.057	103.19
420.28	91.19
420.503	97.19
420.726	81.19
420.948	86.19
421.171	104.19
421.394	88.19
421.617	87.19
421.839	84.19
422.062	76.19
422.285	87.19
422.507	91.19
422.73	110.19
422.953	74.19
423.175	93.19
423.398	76.19
423.621	81.19
423.843	87.19
424.066	93.19
424.288	83.19
424.511	84.19
424.733	99.19
424.956	98.19
425.178	105.19
425.401	101.19
425.623	86.19
425.846	80.19
426.068	93.19
426.291	78.19
426.513	93.19
426.735	92.19
426.958	95.19
427.18	114.19
427.402	116.19
427.625	141.19
427.847	121.19
428.069	106.19
428.292	77.19
428.514	91.19
428.736	83.19
428.958	83.19
429.181	79.19
429.403	99.19
429.625	85.19
429.847	91.19
430.069	104.19
430.292	90.19
430.514	74.19
430.736	87.19
430.958	86.19
431.18	71.19
431.402	92.19
431.624	89.19
431.846	88.19
432.068	97.19
432.29	97.19
432.512	85.19
432.734	73.19
432.956	81.19
433.178	86.19
433.4	99.19
433.622	84.19
433.844	90.19
434.066	82.19
434.287	83.19
434.509	93.19
434.731	81.19
434.953	83.19
435.175	81.19
435.397	94.19
435.618	91.19
435.84	93.19
436.062	128.19
436.284	116.19
436.505	95.19
436.727	99.19
436.949	101.19
437.17	76.19
437.392	100.19
437.614	81.19
437.835	96.19
438.057	98.19
438.278	102.19
438.5	113.19
438.721	126.19
438.943	101.19
439.165	106.19
439.386	96.19
439.608	89.19
439.829	93.19
440.05	113.19
440.272	120.19
440.493	84.19
440.715	90.19
440.936	77.19
441.158	71.19
441.379	81.19
441.6	91.19
441.822	90.19
442.043	99.19
442.264	118.19
442.486	91.19
442.707	109.19
442.928	93.19
443.149	113.19
443.371	107.19
443.592	102.19
443.813	117.19
444.034	106.19
444.255	107.19
444.476	87.19
444.698	74.19
444.919	89.19
445.14	146.19
445.361	125.19
445.582	103.19
445.803	132.19
446.024	140.19
446.245	125.19
446.466	114.19
446.687	87.19
446.908	82.19
447.129	75.19
447.35	85.19
447.571	111.19
447.792	83.19
448.013	88.19
448.234	106.19
448.455	101.19
448.675	102.19
448.896	106.19
449.117	86.19
449.338	85.19
449.559	134.19
449.779	121.19
450	84.19
450.221	85.19
450.442	87.19
450.662	95.19
450.883	96.19
451.104	102.19
451.324	85.19
451.545	83.19
451.766	82.19
451.986	97.19
452.207	97.19
452.428	87.19
452.648	89.19
452.869	101.19
453.089	98.19
453.31	108.19
453.53	90.19
453.751	95.19
453.971	74.19
454.192	103.19
454.412	87.19
454.633	89.19
454.853	82.19
455.073	74.19
455.294	89.19
455.514	91.19
455.734	80.19
455.955	99.19
456.175	79.19
456.395	73.19
456.616	72.19
456.836	90.19
457.056	87.19
457.276	80.19
457.497	80.19
457.717	85.19
457.937	81.19
458.157	97.19
458.377	80.19
458.598	90.19
458.818	137.19
459.038	114.19
459.258	115.19
459.478	94.19
459.698	83.19
459.918	85.19
460.138	88.19
460.358	83.19
460.578	92.19
460.798	65.19
461.018	93.19
461.238	97.19
461.458	89.19
461.678	99.19
461.898	81.19
462.118	81.19
462.338	88.19
462.558	98.19
462.777	85.19
462.997	87.19
463.217	80.19
463.437	80.19
463.657	73.19
463.876	83.19
464.096	79.19
464.316	85.19
464.536	96.19
464.755	86.19
464.975	97.19
465.195	140.19
465.414	137.19
465.634	94.19
465.854	87.19
466.073	91.19
466.293	99.19
466.512	75.19
466.732	72.19
466.951	90.19
467.171	89.19
467.391	85.19
467.61	105.19
467.829	98.19
468.049	99.19
468.268	97.19
468.488	87.19
468.707	100.19
468.927	87.19
469.146	89.19
469.365	88.19
469.585	84.19
469.804	96.19
470.023	86.19
470.243	97.19
470.462	107.19
470.681	99.19
470.901	91.19
471.12	78.19
471.339	83.19
471.558	83.19
471.777	94.19
471.997	92.19
472.216	108.19
472.435	127.19
472.654	97.19
472.873	89.19
473.092	76.19
473.311	72.19
473.53	91.19
473.749	78.19
473.968	88.19
474.187	93.19
474.406	94.19
474.625	75.19
474.844	91.19
475.063	82.19
475.282	84.19
475.501	82.19
475.72	91.19
475.939	75.19
476.158	81.19
476.377	83.19
476.596	79.19
476.814	94.19
477.033	83.19
477.252	85.19
477.471	82.19
477.69	87.19
477.908	74.19
478.127	89.19
478.346	87.19
478.564	84.19
478.783	81.19
479.002	93.19
479.22	89.19
479.439	83.19
479.658	100.19
479.876	70.19
480.095	99.19
480.313	88.19
480.532	90.19
480.751	101.19
480.969	125.19
481.188	164.19
481.406	138.19
481.624	103.19
481.843	90.19
482.061	86.19
482.28	81.19
482.498	91.19
482.717	99.19
482.935	87.19
483.153	95.19
483.372	97.19
483.59	85.19
483.808	91.19
484.027	98.19
484.245	93.19
484.463	79.19
484.681	104.19
484.9	83.19
485.118	99.19
485.336	102.19
485.554	101.19
485.772	100.19
485.99	100.19
486.209	105.19
486.427	104.19
486.645	98.19
486.863	96.19
487.081	103.19
487.299	84.19
487.517	91.19
487.735	84.19
487.953	91.19
488.171	85.19
488.389	95.19
488.607	98.19
488.825	93.19
489.043	93.19
489.261	104.19
489.479	96.19
489.696	81.19
489.914	89.19
490.132	80.19
490.35	86.19
490.568	103.19
490.786	82.19
491.003	86.19
491.221	91.19
491.439	96.19
491.657	104.19
491.874	87.19
492.092	98.19
492.31	97.19
492.527	89.19
492.745	88.19
492.963	94.19
493.18	92.19
493.398	95.19
493.615	93.19
493.833	83.19
494.05	96.19
494.268	95.19
494.485	93.19
494.703	89.19
494.92	69.19
495.138	94.19
495.355	89.19
495.573	88.19
495.79	92.19
496.008	101.19
496.225	94.19
496.442	89.19
496.66	101.19
496.877	92.19
497.094	92.19
497.312	95.19
497.529	103.19
497.746	90.19
497.963	94.19
498.181	100.19
498.398	89.19
498.615	116.19
498.832	105.19
499.049	84.19
499.267	85.19
499.484	82.19
499.701	102.19
499.918	87.19
500.135	90.19
500.352	93.19
500.569	92.19
500.786	90.19
501.003	98.19
501.22	95.19
501.437	83.19
501.654	90.19
501.871	109.19
502.088	101.19
502.305	84.19
502.522	93.19
502.739	83.19
502.956	86.19
503.172	93.19
503.389	92.19
503.606	88.19
503.823	91.19
504.04	89.19
504.256	96.19
504.473	96.19
504.69	85.19
504.907	103.19
505.123	91.19
505.34	84.19
505.557	83.19
505.773	61.19
505.99	89.19
506.207	76.19
506.423	95.19
506.64	87.19
506.856	90.19
507.073	90.19
507.289	88.19
507.506	90.19
507.722	103.19
507.939	90.19
508.155	80.19
508.372	81.19
508.588	84.19
508.805	80.19
509.021	96.19
509.238	92.19
509.454	82.19
509.67	103.19
509.887	102.19
510.103	114.19
510.319	181.19
510.536	553.19
510.752	1695.19
510.968	483.19
511.184	136.19
511.401	103.19
511.617	88.19
511.833	82.19
512.049	79.19
512.265	92.19
512.481	81.19
512.698	86.19
512.914	85.19
513.13	89.19
513.346	104.19
513.562	98.19
513.778	93.19
513.994	100.19
514.21	103.19
514.426	112.19
514.642	119.19
514.858	117.19
515.074	136.19
515.29	330.19
515.506	990.19
515.721	389.19
515.937	133.19
516.153	95.19
516.369	104.19
516.585	79.19
