Data from Uncirc_1981_H10_HRD10591_00025.txt Node
Date: Wed Jan 03 12:33:13 EST 2024
User: Yrep
Spectrometer: HR+D1059
Trigger mode: 1
Integration Time (sec): 1.000000E-1
Scans to average: 1
Electric dark correction enabled: true
Nonlinearity correction enabled: false
Boxcar width: 0
XAxis mode: Wavelengths
Number of Pixels in Spectrum: 2048
>>>>>Begin Spectral Data<<<<<
223.165	-34.62
223.4	-34.62
223.635	-34.62
223.869	-19.62
224.104	-29.62
224.338	-11.62
224.573	-20.62
224.808	-19.62
225.042	-12.62
225.277	13.38
225.511	-4.62
225.746	14.38
225.98	4.38
226.215	8.38
226.449	24.38
226.683	9.38
226.918	35.38
227.152	43.38
227.387	38.38
227.621	34.38
227.856	32.38
228.09	49.38
228.324	46.38
228.559	55.38
228.793	43.38
229.027	59.38
229.262	55.38
229.496	67.38
229.73	88.38
229.964	84.38
230.199	75.38
230.433	62.38
230.667	72.38
230.901	69.38
231.136	77.38
231.37	62.38
231.604	68.38
231.838	66.38
232.072	82.38
232.306	72.38
232.541	88.38
232.775	69.38
233.009	74.38
233.243	72.38
233.477	74.38
233.711	93.38
233.945	83.38
234.179	66.38
234.413	75.38
234.647	77.38
234.881	72.38
235.115	88.38
235.349	66.38
235.583	74.38
235.817	82.38
236.051	67.38
236.285	88.38
236.519	66.38
236.753	86.38
236.987	92.38
237.221	74.38
237.455	78.38
237.689	77.38
237.922	80.38
238.156	69.38
238.39	79.38
238.624	85.38
238.858	64.38
239.091	71.38
239.325	74.38
239.559	95.38
239.793	71.38
240.027	73.38
240.26	90.38
240.494	74.38
240.728	76.38
240.961	66.38
241.195	72.38
241.429	66.38
241.662	87.38
241.896	84.38
242.13	90.38
242.363	79.38
242.597	69.38
242.83	67.38
243.064	66.38
243.298	70.38
243.531	75.38
243.765	83.38
243.998	77.38
244.232	72.38
244.465	79.38
244.699	81.38
244.932	71.38
245.166	81.38
245.399	74.38
245.633	72.38
245.866	83.38
246.099	72.38
246.333	71.38
246.566	72.38
246.8	61.38
247.033	60.38
247.266	94.38
247.5	66.38
247.733	63.38
247.966	75.38
248.2	79.38
248.433	77.38
248.666	86.38
248.899	83.38
249.133	65.38
249.366	77.38
249.599	81.38
249.832	72.38
250.066	67.38
250.299	88.38
250.532	79.38
250.765	89.38
250.998	67.38
251.231	65.38
251.465	77.38
251.698	77.38
251.931	81.38
252.164	73.38
252.397	82.38
252.63	82.38
252.863	79.38
253.096	79.38
253.329	73.38
253.562	77.38
253.795	82.38
254.028	65.38
254.261	82.38
254.494	77.38
254.727	97.38
254.96	69.38
255.193	74.38
255.426	74.38
255.659	82.38
255.892	81.38
256.124	78.38
256.357	77.38
256.59	82.38
256.823	83.38
257.056	71.38
257.289	63.38
257.521	74.38
257.754	68.38
257.987	77.38
258.22	68.38
258.452	73.38
258.685	97.38
258.918	91.38
259.151	93.38
259.383	82.38
259.616	81.38
259.849	72.38
260.081	85.38
260.314	73.38
260.547	84.38
260.779	82.38
261.012	77.38
261.244	88.38
261.477	90.38
261.71	81.38
261.942	106.38
262.175	100.38
262.407	79.38
262.64	65.38
262.872	85.38
263.105	101.38
263.337	77.38
263.57	86.38
263.802	89.38
264.035	77.38
264.267	81.38
264.499	82.38
264.732	79.38
264.964	85.38
265.197	86.38
265.429	81.38
265.661	94.38
265.894	72.38
266.126	78.38
266.358	89.38
266.591	72.38
266.823	86.38
267.055	97.38
267.287	89.38
267.52	79.38
267.752	81.38
267.984	82.38
268.216	77.38
268.448	100.38
268.681	78.38
268.913	80.38
269.145	79.38
269.377	81.38
269.609	80.38
269.841	66.38
270.073	83.38
270.306	69.38
270.538	79.38
270.77	71.38
271.002	73.38
271.234	90.38
271.466	97.38
271.698	87.38
271.93	79.38
272.162	88.38
272.394	85.38
272.626	93.38
272.858	71.38
273.09	85.38
273.322	67.38
273.553	81.38
273.785	61.38
274.017	74.38
274.249	74.38
274.481	88.38
274.713	88.38
274.945	76.38
275.176	85.38
275.408	91.38
275.64	82.38
275.872	93.38
276.104	83.38
276.335	66.38
276.567	85.38
276.799	85.38
277.031	83.38
277.262	78.38
277.494	89.38
277.726	85.38
277.957	85.38
278.189	83.38
278.421	87.38
278.652	83.38
278.884	90.38
279.115	83.38
279.347	77.38
279.579	66.38
279.81	93.38
280.042	83.38
280.273	95.38
280.505	92.38
280.736	74.38
280.968	88.38
281.199	84.38
281.431	101.38
281.662	96.38
281.894	78.38
282.125	97.38
282.356	107.38
282.588	120.38
282.819	93.38
283.051	87.38
283.282	74.38
283.513	90.38
283.745	83.38
283.976	88.38
284.207	80.38
284.439	81.38
284.67	81.38
284.901	95.38
285.132	85.38
285.364	84.38
285.595	88.38
285.826	89.38
286.057	94.38
286.288	65.38
286.52	79.38
286.751	76.38
286.982	98.38
287.213	85.38
287.444	95.38
287.675	87.38
287.906	78.38
288.138	96.38
288.369	83.38
288.6	105.38
288.831	82.38
289.062	87.38
289.293	85.38
289.524	77.38
289.755	75.38
289.986	87.38
290.217	96.38
290.448	90.38
290.679	81.38
290.91	90.38
291.141	84.38
291.371	81.38
291.602	80.38
291.833	85.38
292.064	82.38
292.295	89.38
292.526	80.38
292.757	89.38
292.987	81.38
293.218	86.38
293.449	77.38
293.68	86.38
293.91	66.38
294.141	81.38
294.372	79.38
294.603	85.38
294.833	86.38
295.064	84.38
295.295	84.38
295.525	82.38
295.756	95.38
295.987	92.38
296.217	115.38
296.448	98.38
296.679	83.38
296.909	88.38
297.14	95.38
297.37	71.38
297.601	91.38
297.831	79.38
298.062	104.38
298.292	74.38
298.523	94.38
298.753	73.38
298.984	71.38
299.214	85.38
299.445	87.38
299.675	83.38
299.905	97.38
300.136	70.38
300.366	73.38
300.597	90.38
300.827	93.38
301.057	88.38
301.288	100.38
301.518	82.38
301.748	81.38
301.979	104.38
302.209	92.38
302.439	91.38
302.669	88.38
302.9	86.38
303.13	89.38
303.36	86.38
303.59	98.38
303.82	90.38
304.051	84.38
304.281	90.38
304.511	90.38
304.741	93.38
304.971	93.38
305.201	82.38
305.431	69.38
305.661	91.38
305.891	98.38
306.121	82.38
306.352	89.38
306.582	79.38
306.812	84.38
307.042	89.38
307.272	87.38
307.502	79.38
307.731	90.38
307.961	85.38
308.191	85.38
308.421	86.38
308.651	83.38
308.881	82.38
309.111	82.38
309.341	86.38
309.571	99.38
309.8	97.38
310.03	85.38
310.26	95.38
310.49	96.38
310.72	85.38
310.949	100.38
311.179	73.38
311.409	94.38
311.639	88.38
311.868	93.38
312.098	98.38
312.328	88.38
312.557	90.38
312.787	91.38
313.017	102.38
313.246	94.38
313.476	82.38
313.706	82.38
313.935	82.38
314.165	85.38
314.394	98.38
314.624	99.38
314.853	68.38
315.083	94.38
315.312	81.38
315.542	98.38
315.771	84.38
316.001	88.38
316.23	91.38
316.46	71.38
316.689	79.38
316.919	92.38
317.148	98.38
317.377	91.38
317.607	84.38
317.836	79.38
318.065	84.38
318.295	97.38
318.524	79.38
318.753	95.38
318.983	93.38
319.212	101.38
319.441	107.38
319.67	90.38
319.9	91.38
320.129	86.38
320.358	86.38
320.587	77.38
320.816	97.38
321.046	101.38
321.275	105.38
321.504	99.38
321.733	101.38
321.962	80.38
322.191	89.38
322.42	87.38
322.649	99.38
322.878	82.38
323.108	94.38
323.337	124.38
323.566	125.38
323.795	119.38
324.024	181.38
324.253	305.38
324.482	610.38
324.71	1280.38
324.939	1713.38
325.168	631.38
325.397	207.38
325.626	126.38
325.855	123.38
326.084	119.38
326.313	117.38
326.542	137.38
326.77	178.38
326.999	359.38
327.228	769.38
327.457	1399.38
327.686	1115.38
327.914	294.38
328.143	165.38
328.372	117.38
328.6	112.38
328.829	105.38
329.058	112.38
329.287	104.38
329.515	99.38
329.744	94.38
329.972	104.38
330.201	107.38
330.43	116.38
330.658	111.38
330.887	108.38
331.115	109.38
331.344	86.38
331.572	100.38
331.801	94.38
332.03	94.38
332.258	96.38
332.486	94.38
332.715	88.38
332.943	99.38
333.172	88.38
333.4	90.38
333.629	99.38
333.857	97.38
334.085	101.38
334.314	81.38
334.542	106.38
334.771	115.38
334.999	94.38
335.227	93.38
335.455	90.38
335.684	85.38
335.912	94.38
336.14	86.38
336.369	95.38
336.597	71.38
336.825	93.38
337.053	95.38
337.281	90.38
337.51	85.38
337.738	97.38
337.966	85.38
338.194	98.38
338.422	93.38
338.65	78.38
338.878	80.38
339.106	83.38
339.334	77.38
339.562	89.38
339.79	88.38
340.018	86.38
340.246	94.38
340.474	87.38
340.702	99.38
340.93	88.38
341.158	98.38
341.386	102.38
341.614	82.38
341.842	94.38
342.07	90.38
342.298	95.38
342.526	95.38
342.754	93.38
342.981	83.38
343.209	104.38
343.437	91.38
343.665	84.38
343.893	93.38
344.12	89.38
344.348	101.38
344.576	88.38
344.804	86.38
345.031	98.38
345.259	83.38
345.487	90.38
345.714	96.38
345.942	104.38
346.17	85.38
346.397	87.38
346.625	89.38
346.853	91.38
347.08	91.38
347.308	90.38
347.535	84.38
347.763	81.38
347.99	83.38
348.218	94.38
348.445	95.38
348.673	93.38
348.9	86.38
349.128	83.38
349.355	95.38
349.583	100.38
349.81	97.38
350.037	94.38
350.265	90.38
350.492	91.38
350.72	104.38
350.947	103.38
351.174	100.38
351.402	97.38
351.629	97.38
351.856	106.38
352.083	114.38
352.311	89.38
352.538	85.38
352.765	95.38
352.992	101.38
353.22	104.38
353.447	89.38
353.674	89.38
353.901	92.38
354.128	95.38
354.355	91.38
354.583	107.38
354.81	97.38
355.037	86.38
355.264	86.38
355.491	91.38
355.718	72.38
355.945	88.38
356.172	104.38
356.399	94.38
356.626	93.38
356.853	85.38
357.08	93.38
357.307	93.38
357.534	88.38
357.761	95.38
357.988	96.38
358.215	95.38
358.441	89.38
358.668	81.38
358.895	94.38
359.122	90.38
359.349	83.38
359.576	89.38
359.802	86.38
360.029	91.38
360.256	106.38
360.483	81.38
360.709	101.38
360.936	80.38
361.163	88.38
361.39	80.38
361.616	98.38
361.843	79.38
362.07	85.38
362.296	84.38
362.523	82.38
362.749	79.38
362.976	80.38
363.203	89.38
363.429	74.38
363.656	79.38
363.882	86.38
364.109	98.38
364.335	85.38
364.562	71.38
364.788	89.38
365.015	82.38
365.241	101.38
365.468	95.38
365.694	93.38
365.92	96.38
366.147	88.38
366.373	104.38
366.599	78.38
366.826	82.38
367.052	74.38
367.278	94.38
367.505	81.38
367.731	100.38
367.957	97.38
368.184	110.38
368.41	100.38
368.636	97.38
368.862	100.38
369.089	104.38
369.315	86.38
369.541	88.38
369.767	85.38
369.993	86.38
370.219	91.38
370.445	89.38
370.672	84.38
370.898	75.38
371.124	85.38
371.35	97.38
371.576	86.38
371.802	76.38
372.028	84.38
372.254	82.38
372.48	95.38
372.706	89.38
372.932	83.38
373.158	77.38
373.384	90.38
373.61	84.38
373.835	93.38
374.061	83.38
374.287	93.38
374.513	89.38
374.739	87.38
374.965	85.38
375.191	80.38
375.416	81.38
375.642	97.38
375.868	91.38
376.094	87.38
376.319	75.38
376.545	72.38
376.771	95.38
376.997	95.38
377.222	87.38
377.448	88.38
377.674	90.38
377.899	99.38
378.125	106.38
378.35	101.38
378.576	80.38
378.802	83.38
379.027	89.38
379.253	101.38
379.478	101.38
379.704	88.38
379.929	93.38
380.155	85.38
380.38	74.38
380.606	103.38
380.831	111.38
381.057	99.38
381.282	104.38
381.507	98.38
381.733	93.38
381.958	111.38
382.184	101.38
382.409	110.38
382.634	126.38
382.86	106.38
383.085	101.38
383.31	107.38
383.535	105.38
383.761	85.38
383.986	107.38
384.211	82.38
384.436	117.38
384.662	116.38
384.887	117.38
385.112	114.38
385.337	100.38
385.562	117.38
385.787	125.38
386.013	116.38
386.238	125.38
386.463	124.38
386.688	105.38
386.913	118.38
387.138	116.38
387.363	115.38
387.588	120.38
387.813	83.38
388.038	114.38
388.263	133.38
388.488	118.38
388.713	80.38
388.938	97.38
389.163	102.38
389.387	95.38
389.612	93.38
389.837	98.38
390.062	84.38
390.287	96.38
390.512	108.38
390.736	86.38
390.961	88.38
391.186	91.38
391.411	91.38
391.636	98.38
391.86	77.38
392.085	93.38
392.31	83.38
392.534	78.38
392.759	65.38
392.984	98.38
393.208	86.38
393.433	96.38
393.658	88.38
393.882	82.38
394.107	87.38
394.331	81.38
394.556	86.38
394.78	87.38
395.005	86.38
395.229	84.38
395.454	95.38
395.678	71.38
395.903	91.38
396.127	93.38
396.352	79.38
396.576	84.38
396.801	89.38
397.025	84.38
397.249	81.38
397.474	94.38
397.698	86.38
397.922	78.38
398.147	92.38
398.371	66.38
398.595	88.38
398.82	87.38
399.044	100.38
399.268	75.38
399.492	73.38
399.717	86.38
399.941	87.38
400.165	73.38
400.389	93.38
400.613	83.38
400.837	90.38
401.062	83.38
401.286	97.38
401.51	84.38
401.734	85.38
401.958	89.38
402.182	119.38
402.406	119.38
402.63	96.38
402.854	91.38
403.078	88.38
403.302	85.38
403.526	92.38
403.75	102.38
403.974	83.38
404.198	87.38
404.422	84.38
404.645	80.38
404.869	89.38
405.093	92.38
405.317	90.38
405.541	88.38
405.765	81.38
405.988	90.38
406.212	140.38
406.436	164.38
406.66	126.38
406.883	88.38
407.107	82.38
407.331	78.38
407.555	75.38
407.778	93.38
408.002	89.38
408.226	90.38
408.449	86.38
408.673	93.38
408.896	91.38
409.12	97.38
409.344	105.38
409.567	83.38
409.791	74.38
410.014	85.38
410.238	85.38
410.461	85.38
410.685	107.38
410.908	96.38
411.132	97.38
411.355	87.38
411.578	97.38
411.802	88.38
412.025	94.38
412.249	87.38
412.472	81.38
412.695	81.38
412.919	102.38
413.142	89.38
413.365	99.38
413.589	99.38
413.812	90.38
414.035	97.38
414.258	82.38
414.482	90.38
414.705	87.38
414.928	96.38
415.151	85.38
415.374	97.38
415.597	79.38
415.821	79.38
416.044	115.38
416.267	95.38
416.49	100.38
416.713	93.38
416.936	91.38
417.159	81.38
417.382	85.38
417.605	75.38
417.828	102.38
418.051	86.38
418.274	84.38
418.497	74.38
418.72	81.38
418.943	73.38
419.166	67.38
419.389	90.38
419.611	94.38
419.834	92.38
420.057	84.38
420.28	79.38
420.503	89.38
420.726	70.38
420.948	94.38
421.171	101.38
421.394	87.38
421.617	83.38
421.839	98.38
422.062	89.38
422.285	81.38
422.507	88.38
422.73	95.38
422.953	82.38
423.175	99.38
423.398	93.38
423.621	86.38
423.843	78.38
424.066	91.38
424.288	88.38
424.511	80.38
424.733	85.38
424.956	98.38
425.178	87.38
425.401	97.38
425.623	92.38
425.846	98.38
426.068	89.38
426.291	84.38
426.513	76.38
426.735	95.38
426.958	81.38
427.18	83.38
427.402	119.38
427.625	137.38
427.847	112.38
428.069	94.38
428.292	86.38
428.514	83.38
428.736	70.38
428.958	91.38
429.181	82.38
429.403	86.38
429.625	75.38
429.847	87.38
430.069	94.38
430.292	96.38
430.514	88.38
430.736	88.38
430.958	92.38
431.18	79.38
431.402	81.38
431.624	83.38
431.846	73.38
432.068	83.38
432.29	82.38
432.512	87.38
432.734	97.38
432.956	85.38
433.178	105.38
433.4	89.38
433.622	90.38
433.844	87.38
434.066	90.38
434.287	93.38
434.509	93.38
434.731	86.38
434.953	93.38
435.175	71.38
435.397	101.38
435.618	91.38
435.84	98.38
436.062	103.38
436.284	101.38
436.505	93.38
436.727	103.38
436.949	86.38
437.17	85.38
437.392	84.38
437.614	81.38
437.835	88.38
438.057	89.38
438.278	95.38
438.5	97.38
438.721	105.38
438.943	102.38
439.165	90.38
439.386	104.38
439.608	84.38
439.829	89.38
440.05	94.38
440.272	122.38
440.493	88.38
440.715	88.38
440.936	86.38
441.158	90.38
441.379	85.38
441.6	91.38
441.822	90.38
442.043	95.38
442.264	106.38
442.486	109.38
442.707	74.38
442.928	100.38
443.149	101.38
443.371	118.38
443.592	106.38
443.813	117.38
444.034	91.38
444.255	85.38
444.476	95.38
444.698	86.38
444.919	73.38
445.14	123.38
445.361	119.38
445.582	86.38
445.803	97.38
446.024	118.38
446.245	128.38
446.466	112.38
446.687	79.38
446.908	85.38
447.129	73.38
447.35	87.38
447.571	85.38
447.792	92.38
448.013	87.38
448.234	82.38
448.455	90.38
448.675	109.38
448.896	115.38
449.117	103.38
449.338	107.38
449.559	111.38
449.779	122.38
450	90.38
450.221	90.38
450.442	75.38
450.662	90.38
450.883	105.38
451.104	95.38
451.324	93.38
451.545	80.38
451.766	71.38
451.986	84.38
452.207	87.38
452.428	82.38
452.648	92.38
452.869	88.38
453.089	97.38
453.31	98.38
453.53	83.38
453.751	77.38
453.971	89.38
454.192	94.38
454.412	97.38
454.633	85.38
454.853	78.38
455.073	80.38
455.294	88.38
455.514	83.38
455.734	77.38
455.955	88.38
456.175	77.38
456.395	90.38
456.616	89.38
456.836	102.38
457.056	85.38
457.276	79.38
457.497	69.38
457.717	89.38
457.937	90.38
458.157	100.38
458.377	91.38
458.598	93.38
458.818	104.38
459.038	131.38
459.258	96.38
459.478	86.38
459.698	87.38
459.918	81.38
460.138	79.38
460.358	90.38
460.578	75.38
460.798	90.38
461.018	75.38
461.238	81.38
461.458	64.38
461.678	79.38
461.898	80.38
462.118	85.38
462.338	82.38
462.558	85.38
462.777	83.38
462.997	86.38
463.217	73.38
463.437	81.38
463.657	96.38
463.876	83.38
464.096	93.38
464.316	87.38
464.536	81.38
464.755	82.38
464.975	81.38
465.195	119.38
465.414	95.38
465.634	92.38
465.854	81.38
466.073	78.38
466.293	83.38
466.512	83.38
466.732	68.38
466.951	83.38
467.171	74.38
467.391	89.38
467.61	104.38
467.829	102.38
468.049	92.38
468.268	87.38
468.488	94.38
468.707	64.38
468.927	81.38
469.146	79.38
469.365	81.38
469.585	77.38
469.804	83.38
470.023	84.38
470.243	77.38
470.462	89.38
470.681	89.38
470.901	80.38
471.12	88.38
471.339	68.38
471.558	86.38
471.777	88.38
471.997	89.38
472.216	111.38
472.435	119.38
472.654	82.38
472.873	81.38
473.092	93.38
473.311	87.38
473.53	74.38
473.749	90.38
473.968	85.38
474.187	94.38
474.406	81.38
474.625	73.38
474.844	80.38
475.063	98.38
475.282	90.38
475.501	72.38
475.72	85.38
475.939	95.38
476.158	87.38
476.377	82.38
476.596	84.38
476.814	98.38
477.033	80.38
477.252	85.38
477.471	100.38
477.69	81.38
477.908	95.38
478.127	91.38
478.346	78.38
478.564	78.38
478.783	88.38
479.002	91.38
479.22	89.38
479.439	89.38
479.658	88.38
479.876	92.38
480.095	92.38
480.313	81.38
480.532	87.38
480.751	98.38
480.969	93.38
481.188	133.38
481.406	105.38
481.624	97.38
481.843	95.38
482.061	89.38
482.28	82.38
482.498	90.38
482.717	71.38
482.935	88.38
483.153	84.38
483.372	100.38
483.59	101.38
483.808	74.38
484.027	91.38
484.245	94.38
484.463	98.38
484.681	82.38
484.9	100.38
485.118	100.38
485.336	90.38
485.554	89.38
485.772	111.38
485.99	103.38
486.209	113.38
486.427	96.38
486.645	101.38
486.863	104.38
487.081	112.38
487.299	88.38
487.517	92.38
487.735	83.38
487.953	84.38
488.171	99.38
488.389	90.38
488.607	89.38
488.825	83.38
489.043	75.38
489.261	95.38
489.479	75.38
489.696	86.38
489.914	85.38
490.132	82.38
490.35	92.38
490.568	86.38
490.786	81.38
491.003	96.38
491.221	82.38
491.439	84.38
491.657	94.38
491.874	86.38
492.092	89.38
492.31	86.38
492.527	92.38
492.745	81.38
492.963	83.38
493.18	93.38
493.398	88.38
493.615	90.38
493.833	105.38
494.05	85.38
494.268	93.38
494.485	96.38
494.703	86.38
494.92	94.38
495.138	78.38
495.355	87.38
495.573	88.38
495.79	90.38
496.008	87.38
496.225	85.38
496.442	80.38
496.66	91.38
496.877	74.38
497.094	104.38
497.312	83.38
497.529	89.38
497.746	107.38
497.963	81.38
498.181	80.38
498.398	78.38
498.615	99.38
498.832	85.38
499.049	90.38
499.267	88.38
499.484	75.38
499.701	87.38
499.918	85.38
500.135	87.38
500.352	95.38
500.569	90.38
500.786	106.38
501.003	90.38
501.22	97.38
501.437	100.38
501.654	89.38
501.871	94.38
502.088	83.38
502.305	100.38
502.522	86.38
502.739	89.38
502.956	79.38
503.172	90.38
503.389	106.38
503.606	106.38
503.823	97.38
504.04	87.38
504.256	81.38
504.473	73.38
504.69	80.38
504.907	81.38
505.123	78.38
505.34	85.38
505.557	87.38
505.773	95.38
505.99	97.38
506.207	86.38
506.423	93.38
506.64	93.38
506.856	94.38
507.073	72.38
507.289	90.38
507.506	89.38
507.722	88.38
507.939	104.38
508.155	98.38
508.372	91.38
508.588	86.38
508.805	88.38
509.021	86.38
509.238	89.38
509.454	85.38
509.67	89.38
509.887	104.38
510.103	107.38
510.319	167.38
510.536	481.38
510.752	1379.38
510.968	397.38
511.184	107.38
511.401	83.38
511.617	93.38
511.833	91.38
512.049	91.38
512.265	79.38
512.481	79.38
512.698	90.38
512.914	91.38
513.13	101.38
513.346	85.38
513.562	89.38
513.778	106.38
513.994	80.38
514.21	90.38
514.426	106.38
514.642	122.38
514.858	108.38
515.074	128.38
515.29	278.38
515.506	823.38
515.721	326.38
515.937	113.38
516.153	85.38
516.369	85.38
516.585	81.38
516.801	97.38
517.016	94.38
