Data from Uncirc_1981_H10_HRD10591_00054.txt Node
Date: Wed Jan 03 12:33:18 EST 2024
User: Yrep
Spectrometer: HR+D1059
Trigger mode: 1
Integration Time (sec): 1.000000E-1
Scans to average: 1
Electric dark correction enabled: true
Nonlinearity correction enabled: false
Boxcar width: 0
XAxis mode: Wavelengths
Number of Pixels in Spectrum: 2048
>>>>>Begin Spectral Data<<<<<
223.165	-26.69
223.4	-26.69
223.635	-26.69
223.869	-21.69
224.104	-23.69
224.338	-7.69
224.573	-12.69
224.808	-28.69
225.042	-2.69
225.277	-0.69
225.511	3.31
225.746	9.31
225.98	12.31
226.215	1.31
226.449	30.31
226.683	16.31
226.918	16.31
227.152	35.31
227.387	42.31
227.621	39.31
227.856	53.31
228.09	60.31
228.324	55.31
228.559	59.31
228.793	44.31
229.027	52.31
229.262	73.31
229.496	70.31
229.73	81.31
229.964	86.31
230.199	86.31
230.433	71.31
230.667	66.31
230.901	66.31
231.136	68.31
231.37	72.31
231.604	75.31
231.838	77.31
232.072	79.31
232.306	82.31
232.541	82.31
232.775	93.31
233.009	78.31
233.243	77.31
233.477	80.31
233.711	87.31
233.945	73.31
234.179	66.31
234.413	80.31
234.647	56.31
234.881	83.31
235.115	85.31
235.349	70.31
235.583	91.31
235.817	80.31
236.051	77.31
236.285	82.31
236.519	68.31
236.753	62.31
236.987	67.31
237.221	81.31
237.455	88.31
237.689	77.31
237.922	81.31
238.156	75.31
238.39	68.31
238.624	83.31
238.858	82.31
239.091	69.31
239.325	90.31
239.559	84.31
239.793	74.31
240.027	66.31
240.26	77.31
240.494	77.31
240.728	91.31
240.961	74.31
241.195	77.31
241.429	82.31
241.662	73.31
241.896	80.31
242.13	84.31
242.363	70.31
242.597	85.31
242.83	86.31
243.064	67.31
243.298	66.31
243.531	72.31
243.765	72.31
243.998	88.31
244.232	85.31
244.465	67.31
244.699	85.31
244.932	86.31
245.166	74.31
245.399	85.31
245.633	73.31
245.866	81.31
246.099	82.31
246.333	78.31
246.566	78.31
246.8	82.31
247.033	80.31
247.266	78.31
247.5	83.31
247.733	73.31
247.966	81.31
248.2	77.31
248.433	84.31
248.666	74.31
248.899	75.31
249.133	71.31
249.366	73.31
249.599	98.31
249.832	84.31
250.066	77.31
250.299	78.31
250.532	86.31
250.765	73.31
250.998	70.31
251.231	81.31
251.465	85.31
251.698	70.31
251.931	84.31
252.164	92.31
252.397	75.31
252.63	84.31
252.863	72.31
253.096	86.31
253.329	85.31
253.562	71.31
253.795	82.31
254.028	76.31
254.261	86.31
254.494	73.31
254.727	78.31
254.96	78.31
255.193	85.31
255.426	84.31
255.659	76.31
255.892	64.31
256.124	73.31
256.357	81.31
256.59	85.31
256.823	77.31
257.056	83.31
257.289	68.31
257.521	86.31
257.754	82.31
257.987	73.31
258.22	98.31
258.452	85.31
258.685	78.31
258.918	82.31
259.151	78.31
259.383	82.31
259.616	68.31
259.849	82.31
260.081	76.31
260.314	86.31
260.547	94.31
260.779	83.31
261.012	75.31
261.244	69.31
261.477	84.31
261.71	84.31
261.942	101.31
262.175	92.31
262.407	80.31
262.64	81.31
262.872	74.31
263.105	72.31
263.337	78.31
263.57	73.31
263.802	85.31
264.035	92.31
264.267	69.31
264.499	59.31
264.732	76.31
264.964	73.31
265.197	86.31
265.429	89.31
265.661	75.31
265.894	82.31
266.126	72.31
266.358	65.31
266.591	73.31
266.823	75.31
267.055	75.31
267.287	75.31
267.52	92.31
267.752	78.31
267.984	76.31
268.216	84.31
268.448	75.31
268.681	83.31
268.913	104.31
269.145	75.31
269.377	85.31
269.609	74.31
269.841	73.31
270.073	89.31
270.306	85.31
270.538	81.31
270.77	80.31
271.002	89.31
271.234	100.31
271.466	80.31
271.698	85.31
271.93	82.31
272.162	92.31
272.394	94.31
272.626	77.31
272.858	95.31
273.09	85.31
273.322	85.31
273.553	97.31
273.785	75.31
274.017	84.31
274.249	74.31
274.481	90.31
274.713	82.31
274.945	79.31
275.176	85.31
275.408	93.31
275.64	73.31
275.872	82.31
276.104	83.31
276.335	77.31
276.567	94.31
276.799	90.31
277.031	82.31
277.262	68.31
277.494	85.31
277.726	85.31
277.957	79.31
278.189	82.31
278.421	84.31
278.652	85.31
278.884	91.31
279.115	93.31
279.347	85.31
279.579	88.31
279.81	96.31
280.042	75.31
280.273	78.31
280.505	76.31
280.736	81.31
280.968	74.31
281.199	68.31
281.431	80.31
281.662	84.31
281.894	88.31
282.125	100.31
282.356	105.31
282.588	109.31
282.819	102.31
283.051	100.31
283.282	93.31
283.513	92.31
283.745	80.31
283.976	78.31
284.207	76.31
284.439	86.31
284.67	92.31
284.901	86.31
285.132	105.31
285.364	86.31
285.595	100.31
285.826	91.31
286.057	98.31
286.288	89.31
286.52	91.31
286.751	98.31
286.982	93.31
287.213	77.31
287.444	85.31
287.675	84.31
287.906	98.31
288.138	84.31
288.369	113.31
288.6	86.31
288.831	82.31
289.062	85.31
289.293	93.31
289.524	85.31
289.755	102.31
289.986	87.31
290.217	87.31
290.448	93.31
290.679	77.31
290.91	71.31
291.141	80.31
291.371	82.31
291.602	99.31
291.833	75.31
292.064	96.31
292.295	72.31
292.526	82.31
292.757	84.31
292.987	82.31
293.218	77.31
293.449	89.31
293.68	97.31
293.91	92.31
294.141	93.31
294.372	81.31
294.603	84.31
294.833	79.31
295.064	86.31
295.295	84.31
295.525	86.31
295.756	90.31
295.987	99.31
296.217	102.31
296.448	109.31
296.679	85.31
296.909	81.31
297.14	103.31
297.37	82.31
297.601	88.31
297.831	90.31
298.062	89.31
298.292	90.31
298.523	88.31
298.753	81.31
298.984	96.31
299.214	72.31
299.445	87.31
299.675	92.31
299.905	87.31
300.136	88.31
300.366	88.31
300.597	82.31
300.827	89.31
301.057	101.31
301.288	88.31
301.518	94.31
301.748	104.31
301.979	105.31
302.209	86.31
302.439	75.31
302.669	98.31
302.9	86.31
303.13	82.31
303.36	96.31
303.59	92.31
303.82	93.31
304.051	98.31
304.281	78.31
304.511	84.31
304.741	92.31
304.971	85.31
305.201	87.31
305.431	86.31
305.661	88.31
305.891	80.31
306.121	101.31
306.352	88.31
306.582	100.31
306.812	98.31
307.042	91.31
307.272	115.31
307.502	111.31
307.731	103.31
307.961	99.31
308.191	84.31
308.421	80.31
308.651	90.31
308.881	99.31
309.111	103.31
309.341	84.31
309.571	86.31
309.8	92.31
310.03	83.31
310.26	82.31
310.49	80.31
310.72	93.31
310.949	89.31
311.179	82.31
311.409	78.31
311.639	102.31
311.868	91.31
312.098	100.31
312.328	89.31
312.557	108.31
312.787	88.31
313.017	82.31
313.246	80.31
313.476	88.31
313.706	95.31
313.935	84.31
314.165	88.31
314.394	92.31
314.624	90.31
314.853	84.31
315.083	96.31
315.312	87.31
315.542	96.31
315.771	92.31
316.001	84.31
316.23	97.31
316.46	88.31
316.689	90.31
316.919	89.31
317.148	75.31
317.377	84.31
317.607	89.31
317.836	81.31
318.065	85.31
318.295	84.31
318.524	84.31
318.753	91.31
318.983	92.31
319.212	104.31
319.441	96.31
319.67	97.31
319.9	86.31
320.129	83.31
320.358	85.31
320.587	96.31
320.816	84.31
321.046	93.31
321.275	89.31
321.504	93.31
321.733	91.31
321.962	82.31
322.191	92.31
322.42	96.31
322.649	93.31
322.878	106.31
323.108	104.31
323.337	105.31
323.566	113.31
323.795	120.31
324.024	158.31
324.253	290.31
324.482	630.31
324.71	1326.31
324.939	1681.31
325.168	620.31
325.397	214.31
325.626	135.31
325.855	131.31
326.084	122.31
326.313	130.31
326.542	137.31
326.77	186.31
326.999	350.31
327.228	749.31
327.457	1382.31
327.686	1071.31
327.914	304.31
328.143	160.31
328.372	130.31
328.6	104.31
328.829	107.31
329.058	100.31
329.287	114.31
329.515	87.31
329.744	99.31
329.972	106.31
330.201	114.31
330.43	118.31
330.658	100.31
330.887	110.31
331.115	109.31
331.344	105.31
331.572	102.31
331.801	101.31
332.03	97.31
332.258	96.31
332.486	89.31
332.715	99.31
332.943	88.31
333.172	89.31
333.4	101.31
333.629	101.31
333.857	97.31
334.085	107.31
334.314	103.31
334.542	108.31
334.771	121.31
334.999	92.31
335.227	93.31
335.455	101.31
335.684	103.31
335.912	110.31
336.14	102.31
336.369	85.31
336.597	95.31
336.825	75.31
337.053	80.31
337.281	101.31
337.51	98.31
337.738	77.31
337.966	72.31
338.194	100.31
338.422	93.31
338.65	83.31
338.878	90.31
339.106	94.31
339.334	94.31
339.562	92.31
339.79	95.31
340.018	88.31
340.246	92.31
340.474	80.31
340.702	80.31
340.93	93.31
341.158	87.31
341.386	88.31
341.614	83.31
341.842	95.31
342.07	94.31
342.298	92.31
342.526	83.31
342.754	95.31
342.981	80.31
343.209	103.31
343.437	99.31
343.665	75.31
343.893	74.31
344.12	91.31
344.348	98.31
344.576	90.31
344.804	87.31
345.031	77.31
345.259	84.31
345.487	106.31
345.714	73.31
345.942	75.31
346.17	99.31
346.397	73.31
346.625	93.31
346.853	87.31
347.08	73.31
347.308	86.31
347.535	98.31
347.763	108.31
347.99	90.31
348.218	94.31
348.445	88.31
348.673	92.31
348.9	90.31
349.128	98.31
349.355	92.31
349.583	99.31
349.81	96.31
350.037	94.31
350.265	95.31
350.492	92.31
350.72	89.31
350.947	90.31
351.174	96.31
351.402	95.31
351.629	102.31
351.856	104.31
352.083	110.31
352.311	112.31
352.538	99.31
352.765	88.31
352.992	132.31
353.22	107.31
353.447	100.31
353.674	103.31
353.901	89.31
354.128	91.31
354.355	99.31
354.583	89.31
354.81	89.31
355.037	93.31
355.264	101.31
355.491	92.31
355.718	91.31
355.945	90.31
356.172	92.31
356.399	91.31
356.626	84.31
356.853	83.31
357.08	84.31
357.307	92.31
357.534	94.31
357.761	90.31
357.988	92.31
358.215	104.31
358.441	104.31
358.668	90.31
358.895	82.31
359.122	76.31
359.349	81.31
359.576	84.31
359.802	98.31
360.029	96.31
360.256	93.31
360.483	91.31
360.709	93.31
360.936	90.31
361.163	84.31
361.39	99.31
361.616	67.31
361.843	90.31
362.07	102.31
362.296	88.31
362.523	76.31
362.749	99.31
362.976	84.31
363.203	93.31
363.429	77.31
363.656	89.31
363.882	68.31
364.109	102.31
364.335	93.31
364.562	85.31
364.788	90.31
365.015	88.31
365.241	101.31
365.468	92.31
365.694	93.31
365.92	78.31
366.147	85.31
366.373	88.31
366.599	91.31
366.826	94.31
367.052	93.31
367.278	74.31
367.505	85.31
367.731	82.31
367.957	82.31
368.184	77.31
368.41	89.31
368.636	80.31
368.862	122.31
369.089	90.31
369.315	94.31
369.541	106.31
369.767	96.31
369.993	97.31
370.219	101.31
370.445	84.31
370.672	89.31
370.898	84.31
371.124	92.31
371.35	90.31
371.576	98.31
371.802	86.31
372.028	87.31
372.254	92.31
372.48	96.31
372.706	92.31
372.932	101.31
373.158	99.31
373.384	93.31
373.61	80.31
373.835	86.31
374.061	88.31
374.287	91.31
374.513	84.31
374.739	93.31
374.965	88.31
375.191	84.31
375.416	87.31
375.642	87.31
375.868	102.31
376.094	88.31
376.319	100.31
376.545	72.31
376.771	85.31
376.997	97.31
377.222	87.31
377.448	85.31
377.674	93.31
377.899	96.31
378.125	90.31
378.35	77.31
378.576	87.31
378.802	80.31
379.027	90.31
379.253	101.31
379.478	92.31
379.704	91.31
379.929	83.31
380.155	96.31
380.38	109.31
380.606	89.31
380.831	86.31
381.057	91.31
381.282	98.31
381.507	112.31
381.733	102.31
381.958	93.31
382.184	110.31
382.409	98.31
382.634	102.31
382.86	92.31
383.085	109.31
383.31	116.31
383.535	96.31
383.761	110.31
383.986	102.31
384.211	113.31
384.436	100.31
384.662	81.31
384.887	98.31
385.112	93.31
385.337	93.31
385.562	115.31
385.787	98.31
386.013	98.31
386.238	108.31
386.463	104.31
386.688	115.31
386.913	93.31
387.138	96.31
387.363	112.31
387.588	107.31
387.813	102.31
388.038	108.31
388.263	108.31
388.488	111.31
388.713	93.31
388.938	94.31
389.163	101.31
389.387	104.31
389.612	108.31
389.837	85.31
390.062	77.31
390.287	91.31
390.512	95.31
390.736	98.31
390.961	94.31
391.186	102.31
391.411	93.31
391.636	80.31
391.86	91.31
392.085	88.31
392.31	84.31
392.534	78.31
392.759	83.31
392.984	83.31
393.208	92.31
393.433	74.31
393.658	90.31
393.882	104.31
394.107	99.31
394.331	99.31
394.556	97.31
394.78	101.31
395.005	69.31
395.229	86.31
395.454	80.31
395.678	75.31
395.903	80.31
396.127	97.31
396.352	93.31
396.576	80.31
396.801	84.31
397.025	83.31
397.249	72.31
397.474	89.31
397.698	86.31
397.922	97.31
398.147	84.31
398.371	67.31
398.595	86.31
398.82	74.31
399.044	85.31
399.268	88.31
399.492	89.31
399.717	93.31
399.941	94.31
400.165	85.31
400.389	97.31
400.613	89.31
400.837	88.31
401.062	73.31
401.286	84.31
401.51	100.31
401.734	98.31
401.958	97.31
402.182	96.31
402.406	132.31
402.63	99.31
402.854	87.31
403.078	89.31
403.302	73.31
403.526	94.31
403.75	90.31
403.974	90.31
404.198	72.31
404.422	73.31
404.645	89.31
404.869	83.31
405.093	103.31
405.317	100.31
405.541	84.31
405.765	101.31
405.988	106.31
406.212	121.31
406.436	157.31
406.66	98.31
406.883	98.31
407.107	89.31
407.331	87.31
407.555	96.31
407.778	85.31
408.002	100.31
408.226	103.31
408.449	96.31
408.673	87.31
408.896	88.31
409.12	93.31
409.344	94.31
409.567	93.31
409.791	87.31
410.014	94.31
410.238	90.31
410.461	84.31
410.685	84.31
410.908	96.31
411.132	98.31
411.355	95.31
411.578	86.31
411.802	96.31
412.025	86.31
412.249	89.31
412.472	86.31
412.695	78.31
412.919	78.31
413.142	82.31
413.365	81.31
413.589	94.31
413.812	83.31
414.035	86.31
414.258	84.31
414.482	99.31
414.705	90.31
414.928	91.31
415.151	86.31
415.374	97.31
415.597	79.31
415.821	95.31
416.044	80.31
416.267	88.31
416.49	89.31
416.713	97.31
416.936	83.31
417.159	77.31
417.382	78.31
417.605	84.31
417.828	94.31
418.051	84.31
418.274	90.31
418.497	88.31
418.72	86.31
418.943	91.31
419.166	78.31
419.389	84.31
419.611	86.31
419.834	82.31
420.057	86.31
420.28	90.31
420.503	84.31
420.726	70.31
420.948	86.31
421.171	103.31
421.394	102.31
421.617	85.31
421.839	100.31
422.062	91.31
422.285	82.31
422.507	101.31
422.73	73.31
422.953	94.31
423.175	97.31
423.398	86.31
423.621	90.31
423.843	93.31
424.066	79.31
424.288	84.31
424.511	84.31
424.733	100.31
424.956	96.31
425.178	98.31
425.401	81.31
425.623	87.31
425.846	77.31
426.068	94.31
426.291	97.31
426.513	97.31
426.735	86.31
426.958	96.31
427.18	103.31
427.402	110.31
427.625	122.31
427.847	102.31
428.069	98.31
428.292	84.31
428.514	90.31
428.736	89.31
428.958	96.31
429.181	84.31
429.403	84.31
429.625	91.31
429.847	83.31
430.069	92.31
430.292	84.31
430.514	96.31
430.736	78.31
430.958	87.31
431.18	94.31
431.402	94.31
431.624	87.31
431.846	78.31
432.068	94.31
432.29	84.31
432.512	83.31
432.734	86.31
432.956	93.31
433.178	105.31
433.4	109.31
433.622	89.31
433.844	107.31
434.066	93.31
434.287	97.31
434.509	102.31
434.731	93.31
434.953	88.31
435.175	86.31
435.397	98.31
435.618	89.31
435.84	97.31
436.062	102.31
436.284	115.31
436.505	93.31
436.727	89.31
436.949	101.31
437.17	80.31
437.392	85.31
437.614	89.31
437.835	89.31
438.057	94.31
438.278	90.31
438.5	98.31
438.721	98.31
438.943	96.31
439.165	90.31
439.386	90.31
439.608	93.31
439.829	107.31
440.05	107.31
440.272	121.31
440.493	91.31
440.715	94.31
440.936	75.31
441.158	88.31
441.379	77.31
441.6	84.31
441.822	89.31
442.043	80.31
442.264	98.31
442.486	82.31
442.707	102.31
442.928	85.31
443.149	88.31
443.371	103.31
443.592	86.31
443.813	103.31
444.034	80.31
444.255	94.31
444.476	76.31
444.698	80.31
444.919	90.31
445.14	133.31
445.361	119.31
445.582	110.31
445.803	114.31
446.024	110.31
446.245	121.31
446.466	107.31
446.687	89.31
446.908	80.31
447.129	90.31
447.35	72.31
447.571	71.31
447.792	86.31
448.013	92.31
448.234	94.31
448.455	88.31
448.675	90.31
448.896	105.31
449.117	86.31
449.338	84.31
449.559	108.31
449.779	102.31
450	90.31
450.221	66.31
450.442	90.31
450.662	79.31
450.883	96.31
451.104	96.31
451.324	97.31
451.545	87.31
451.766	80.31
451.986	85.31
452.207	96.31
452.428	88.31
452.648	82.31
452.869	98.31
453.089	102.31
453.31	120.31
453.53	104.31
453.751	90.31
453.971	86.31
454.192	88.31
454.412	90.31
454.633	87.31
454.853	88.31
455.073	70.31
455.294	97.31
455.514	84.31
455.734	77.31
455.955	83.31
456.175	64.31
456.395	92.31
456.616	76.31
456.836	77.31
457.056	74.31
457.276	75.31
457.497	88.31
457.717	61.31
457.937	82.31
458.157	72.31
458.377	92.31
458.598	106.31
458.818	116.31
459.038	105.31
459.258	100.31
459.478	82.31
459.698	83.31
459.918	97.31
460.138	91.31
460.358	107.31
460.578	85.31
460.798	90.31
461.018	86.31
461.238	99.31
461.458	85.31
461.678	75.31
461.898	96.31
462.118	87.31
462.338	90.31
462.558	79.31
462.777	82.31
462.997	88.31
463.217	98.31
463.437	78.31
463.657	81.31
463.876	86.31
464.096	77.31
464.316	72.31
464.536	84.31
464.755	91.31
464.975	92.31
465.195	111.31
465.414	110.31
465.634	93.31
465.854	86.31
466.073	92.31
466.293	83.31
466.512	90.31
466.732	85.31
466.951	86.31
467.171	87.31
467.391	92.31
467.61	92.31
467.829	94.31
468.049	91.31
468.268	96.31
468.488	92.31
468.707	86.31
468.927	97.31
469.146	94.31
469.365	86.31
469.585	82.31
469.804	96.31
470.023	91.31
470.243	86.31
470.462	94.31
470.681	105.31
470.901	86.31
471.12	85.31
471.339	100.31
471.558	85.31
471.777	77.31
471.997	91.31
472.216	117.31
472.435	114.31
472.654	86.31
472.873	90.31
473.092	89.31
473.311	91.31
473.53	84.31
473.749	90.31
473.968	89.31
474.187	103.31
474.406	86.31
474.625	87.31
474.844	87.31
475.063	86.31
475.282	96.31
475.501	84.31
475.72	89.31
475.939	80.31
476.158	94.31
476.377	96.31
476.596	100.31
476.814	100.31
477.033	84.31
477.252	76.31
477.471	83.31
477.69	86.31
477.908	87.31
478.127	87.31
478.346	82.31
478.564	81.31
478.783	96.31
479.002	75.31
479.22	90.31
479.439	94.31
479.658	94.31
479.876	81.31
480.095	89.31
480.313	91.31
480.532	83.31
480.751	95.31
480.969	92.31
481.188	148.31
481.406	122.31
481.624	89.31
481.843	100.31
482.061	80.31
482.28	84.31
482.498	101.31
482.717	87.31
482.935	72.31
483.153	89.31
483.372	95.31
483.59	96.31
483.808	88.31
484.027	86.31
484.245	93.31
484.463	77.31
484.681	98.31
484.9	99.31
485.118	91.31
485.336	97.31
485.554	102.31
485.772	90.31
485.99	97.31
486.209	86.31
486.427	102.31
486.645	104.31
486.863	98.31
487.081	97.31
487.299	96.31
487.517	95.31
487.735	92.31
487.953	88.31
488.171	88.31
488.389	88.31
488.607	81.31
488.825	83.31
489.043	89.31
489.261	96.31
489.479	89.31
489.696	75.31
489.914	92.31
490.132	85.31
490.35	96.31
490.568	96.31
490.786	76.31
491.003	87.31
491.221	94.31
491.439	93.31
491.657	99.31
491.874	116.31
492.092	100.31
492.31	84.31
492.527	89.31
492.745	84.31
492.963	96.31
493.18	85.31
493.398	96.31
493.615	80.31
493.833	87.31
494.05	90.31
494.268	101.31
494.485	93.31
494.703	81.31
494.92	99.31
495.138	96.31
495.355	93.31
495.573	86.31
495.79	96.31
496.008	101.31
496.225	81.31
496.442	88.31
496.66	97.31
496.877	98.31
497.094	93.31
497.312	87.31
497.529	92.31
497.746	81.31
497.963	80.31
498.181	87.31
498.398	89.31
498.615	89.31
498.832	98.31
499.049	103.31
499.267	99.31
499.484	92.31
499.701	92.31
499.918	95.31
500.135	78.31
500.352	71.31
500.569	92.31
500.786	94.31
501.003	83.31
501.22	101.31
501.437	80.31
501.654	82.31
501.871	81.31
502.088	94.31
502.305	91.31
502.522	106.31
502.739	80.31
502.956	98.31
503.172	80.31
503.389	93.31
503.606	80.31
503.823	95.31
504.04	80.31
504.256	74.31
504.473	86.31
504.69	89.31
504.907	87.31
505.123	95.31
505.34	87.31
505.557	82.31
505.773	86.31
505.99	107.31
506.207	88.31
506.423	103.31
506.64	88.31
506.856	93.31
507.073	90.31
507.289	89.31
507.506	87.31
507.722	110.31
507.939	93.31
508.155	89.31
508.372	81.31
508.588	76.31
508.805	94.31
509.021	91.31
509.238	94.31
509.454	92.31
509.67	94.31
509.887	93.31
510.103	118.31
510.319	167.31
510.536	509.31
510.752	1375.31
510.968	397.31
511.184	111.31
511.401	103.31
511.617	100.31
511.833	87.31
512.049	88.31
512.265	88.31
512.481	87.31
512.698	87.31
512.914	94.31
513.13	92.31
513.346	98.31
513.562	83.31
513.778	87.31
513.994	90.31
514.21	102.31
514.426	97.31
514.642	111.31
514.858	110.31
515.074	124.31
515.29	279.31
515.506	807.31
515.721	329.31
515.937	130.31
516.153	111.31
516.369	102.31
516.585	92.31
516.801	96.31
517.016	97.31
