Data from Uncirc_1981_H10_HRD10591_00073.txt Node
Date: Wed Jan 03 12:33:22 EST 2024
User: Yrep
Spectrometer: HR+D1059
Trigger mode: 1
Integration Time (sec): 1.000000E-1
Scans to average: 1
Electric dark correction enabled: true
Nonlinearity correction enabled: false
Boxcar width: 0
XAxis mode: Wavelengths
Number of Pixels in Spectrum: 2048
>>>>>Begin Spectral Data<<<<<
223.165	-22.56
223.4	-22.56
223.635	-22.56
223.869	-10.56
224.104	-24.56
224.338	-15.56
224.573	-22.56
224.808	-17.56
225.042	-14.56
225.277	-5.56
225.511	-3.56
225.746	3.44
225.98	10.44
226.215	20.44
226.449	21.44
226.683	25.44
226.918	18.44
227.152	37.44
227.387	33.44
227.621	43.44
227.856	49.44
228.09	46.44
228.324	49.44
228.559	74.44
228.793	60.44
229.027	69.44
229.262	56.44
229.496	65.44
229.73	76.44
229.964	81.44
230.199	73.44
230.433	67.44
230.667	75.44
230.901	69.44
231.136	66.44
231.37	58.44
231.604	75.44
231.838	76.44
232.072	83.44
232.306	77.44
232.541	75.44
232.775	84.44
233.009	75.44
233.243	79.44
233.477	78.44
233.711	67.44
233.945	69.44
234.179	82.44
234.413	89.44
234.647	84.44
234.881	85.44
235.115	77.44
235.349	82.44
235.583	81.44
235.817	80.44
236.051	66.44
236.285	80.44
236.519	82.44
236.753	74.44
236.987	62.44
237.221	73.44
237.455	75.44
237.689	71.44
237.922	75.44
238.156	85.44
238.39	87.44
238.624	68.44
238.858	74.44
239.091	78.44
239.325	57.44
239.559	59.44
239.793	66.44
240.027	72.44
240.26	85.44
240.494	81.44
240.728	84.44
240.961	76.44
241.195	73.44
241.429	86.44
241.662	77.44
241.896	63.44
242.13	75.44
242.363	75.44
242.597	86.44
242.83	69.44
243.064	65.44
243.298	69.44
243.531	73.44
243.765	64.44
243.998	83.44
244.232	71.44
244.465	63.44
244.699	81.44
244.932	87.44
245.166	80.44
245.399	87.44
245.633	76.44
245.866	83.44
246.099	73.44
246.333	95.44
246.566	66.44
246.8	91.44
247.033	93.44
247.266	74.44
247.5	59.44
247.733	69.44
247.966	75.44
248.2	72.44
248.433	68.44
248.666	88.44
248.899	84.44
249.133	92.44
249.366	91.44
249.599	93.44
249.832	84.44
250.066	68.44
250.299	75.44
250.532	81.44
250.765	79.44
250.998	74.44
251.231	75.44
251.465	73.44
251.698	72.44
251.931	60.44
252.164	75.44
252.397	82.44
252.63	75.44
252.863	72.44
253.096	64.44
253.329	77.44
253.562	78.44
253.795	85.44
254.028	75.44
254.261	76.44
254.494	80.44
254.727	91.44
254.96	72.44
255.193	83.44
255.426	91.44
255.659	67.44
255.892	77.44
256.124	77.44
256.357	72.44
256.59	76.44
256.823	85.44
257.056	82.44
257.289	91.44
257.521	74.44
257.754	76.44
257.987	71.44
258.22	79.44
258.452	76.44
258.685	91.44
258.918	97.44
259.151	94.44
259.383	86.44
259.616	82.44
259.849	76.44
260.081	75.44
260.314	92.44
260.547	89.44
260.779	74.44
261.012	74.44
261.244	84.44
261.477	80.44
261.71	89.44
261.942	108.44
262.175	102.44
262.407	85.44
262.64	76.44
262.872	84.44
263.105	85.44
263.337	80.44
263.57	72.44
263.802	75.44
264.035	92.44
264.267	95.44
264.499	91.44
264.732	72.44
264.964	81.44
265.197	82.44
265.429	81.44
265.661	84.44
265.894	79.44
266.126	64.44
266.358	79.44
266.591	79.44
266.823	90.44
267.055	88.44
267.287	91.44
267.52	89.44
267.752	91.44
267.984	85.44
268.216	89.44
268.448	82.44
268.681	97.44
268.913	84.44
269.145	90.44
269.377	72.44
269.609	83.44
269.841	88.44
270.073	91.44
270.306	84.44
270.538	79.44
270.77	72.44
271.002	69.44
271.234	75.44
271.466	79.44
271.698	84.44
271.93	67.44
272.162	84.44
272.394	84.44
272.626	85.44
272.858	95.44
273.09	82.44
273.322	90.44
273.553	88.44
273.785	84.44
274.017	83.44
274.249	77.44
274.481	87.44
274.713	96.44
274.945	75.44
275.176	73.44
275.408	83.44
275.64	78.44
275.872	93.44
276.104	85.44
276.335	85.44
276.567	97.44
276.799	84.44
277.031	83.44
277.262	83.44
277.494	77.44
277.726	88.44
277.957	89.44
278.189	88.44
278.421	87.44
278.652	84.44
278.884	85.44
279.115	93.44
279.347	104.44
279.579	91.44
279.81	81.44
280.042	76.44
280.273	92.44
280.505	75.44
280.736	97.44
280.968	71.44
281.199	79.44
281.431	79.44
281.662	104.44
281.894	93.44
282.125	75.44
282.356	87.44
282.588	113.44
282.819	92.44
283.051	89.44
283.282	91.44
283.513	107.44
283.745	79.44
283.976	103.44
284.207	89.44
284.439	87.44
284.67	80.44
284.901	74.44
285.132	77.44
285.364	83.44
285.595	83.44
285.826	87.44
286.057	92.44
286.288	90.44
286.52	86.44
286.751	85.44
286.982	91.44
287.213	83.44
287.444	80.44
287.675	89.44
287.906	74.44
288.138	79.44
288.369	72.44
288.6	82.44
288.831	69.44
289.062	95.44
289.293	79.44
289.524	90.44
289.755	85.44
289.986	81.44
290.217	84.44
290.448	90.44
290.679	85.44
290.91	92.44
291.141	83.44
291.371	100.44
291.602	76.44
291.833	74.44
292.064	99.44
292.295	83.44
292.526	83.44
292.757	85.44
292.987	83.44
293.218	98.44
293.449	88.44
293.68	98.44
293.91	81.44
294.141	92.44
294.372	87.44
294.603	90.44
294.833	103.44
295.064	98.44
295.295	81.44
295.525	101.44
295.756	101.44
295.987	102.44
296.217	121.44
296.448	103.44
296.679	89.44
296.909	69.44
297.14	86.44
297.37	94.44
297.601	83.44
297.831	85.44
298.062	96.44
298.292	95.44
298.523	81.44
298.753	83.44
298.984	81.44
299.214	84.44
299.445	74.44
299.675	93.44
299.905	88.44
300.136	95.44
300.366	95.44
300.597	104.44
300.827	77.44
301.057	88.44
301.288	104.44
301.518	100.44
301.748	94.44
301.979	104.44
302.209	83.44
302.439	100.44
302.669	92.44
302.9	93.44
303.13	84.44
303.36	90.44
303.59	91.44
303.82	111.44
304.051	95.44
304.281	76.44
304.511	83.44
304.741	87.44
304.971	86.44
305.201	96.44
305.431	89.44
305.661	90.44
305.891	87.44
306.121	100.44
306.352	103.44
306.582	98.44
306.812	90.44
307.042	88.44
307.272	81.44
307.502	103.44
307.731	91.44
307.961	92.44
308.191	74.44
308.421	80.44
308.651	95.44
308.881	89.44
309.111	87.44
309.341	98.44
309.571	102.44
309.8	93.44
310.03	91.44
310.26	88.44
310.49	96.44
310.72	91.44
310.949	72.44
311.179	100.44
311.409	104.44
311.639	87.44
311.868	110.44
312.098	101.44
312.328	95.44
312.557	99.44
312.787	101.44
313.017	112.44
313.246	90.44
313.476	81.44
313.706	97.44
313.935	89.44
314.165	90.44
314.394	87.44
314.624	95.44
314.853	99.44
315.083	84.44
315.312	84.44
315.542	81.44
315.771	98.44
316.001	88.44
316.23	91.44
316.46	93.44
316.689	93.44
316.919	96.44
317.148	93.44
317.377	91.44
317.607	93.44
317.836	83.44
318.065	85.44
318.295	100.44
318.524	90.44
318.753	95.44
318.983	109.44
319.212	95.44
319.441	103.44
319.67	80.44
319.9	83.44
320.129	83.44
320.358	94.44
320.587	100.44
320.816	95.44
321.046	95.44
321.275	96.44
321.504	89.44
321.733	99.44
321.962	77.44
322.191	93.44
322.42	92.44
322.649	105.44
322.878	103.44
323.108	112.44
323.337	133.44
323.566	123.44
323.795	130.44
324.024	193.44
324.253	337.44
324.482	740.44
324.71	1503.44
324.939	2029.44
325.168	712.44
325.397	206.44
325.626	145.44
325.855	122.44
326.084	116.44
326.313	134.44
326.542	141.44
326.77	218.44
326.999	416.44
327.228	865.44
327.457	1595.44
327.686	1263.44
327.914	345.44
328.143	183.44
328.372	140.44
328.6	117.44
328.829	112.44
329.058	117.44
329.287	103.44
329.515	106.44
329.744	93.44
329.972	110.44
330.201	107.44
330.43	125.44
330.658	113.44
330.887	118.44
331.115	104.44
331.344	94.44
331.572	97.44
331.801	89.44
332.03	92.44
332.258	108.44
332.486	86.44
332.715	100.44
332.943	89.44
333.172	91.44
333.4	97.44
333.629	98.44
333.857	101.44
334.085	96.44
334.314	120.44
334.542	120.44
334.771	107.44
334.999	99.44
335.227	100.44
335.455	93.44
335.684	98.44
335.912	96.44
336.14	110.44
336.369	106.44
336.597	94.44
336.825	101.44
337.053	91.44
337.281	90.44
337.51	80.44
337.738	112.44
337.966	91.44
338.194	83.44
338.422	92.44
338.65	81.44
338.878	84.44
339.106	108.44
339.334	93.44
339.562	92.44
339.79	84.44
340.018	89.44
340.246	96.44
340.474	86.44
340.702	92.44
340.93	107.44
341.158	90.44
341.386	86.44
341.614	88.44
341.842	97.44
342.07	92.44
342.298	98.44
342.526	100.44
342.754	102.44
342.981	99.44
343.209	89.44
343.437	87.44
343.665	88.44
343.893	79.44
344.12	93.44
344.348	89.44
344.576	98.44
344.804	102.44
345.031	99.44
345.259	96.44
345.487	96.44
345.714	85.44
345.942	89.44
346.17	95.44
346.397	94.44
346.625	89.44
346.853	112.44
347.08	74.44
347.308	92.44
347.535	93.44
347.763	100.44
347.99	82.44
348.218	95.44
348.445	94.44
348.673	106.44
348.9	91.44
349.128	91.44
349.355	107.44
349.583	100.44
349.81	101.44
350.037	97.44
350.265	88.44
350.492	81.44
350.72	91.44
350.947	108.44
351.174	100.44
351.402	104.44
351.629	96.44
351.856	99.44
352.083	107.44
352.311	94.44
352.538	104.44
352.765	94.44
352.992	101.44
353.22	98.44
353.447	86.44
353.674	96.44
353.901	97.44
354.128	91.44
354.355	101.44
354.583	89.44
354.81	107.44
355.037	76.44
355.264	95.44
355.491	81.44
355.718	89.44
355.945	93.44
356.172	94.44
356.399	95.44
356.626	85.44
356.853	93.44
357.08	83.44
357.307	88.44
357.534	87.44
357.761	87.44
357.988	99.44
358.215	95.44
358.441	88.44
358.668	85.44
358.895	95.44
359.122	74.44
359.349	84.44
359.576	91.44
359.802	100.44
360.029	105.44
360.256	86.44
360.483	107.44
360.709	93.44
360.936	91.44
361.163	82.44
361.39	85.44
361.616	80.44
361.843	79.44
362.07	92.44
362.296	100.44
362.523	88.44
362.749	89.44
362.976	94.44
363.203	84.44
363.429	89.44
363.656	99.44
363.882	84.44
364.109	90.44
364.335	81.44
364.562	97.44
364.788	87.44
365.015	95.44
365.241	119.44
365.468	103.44
365.694	97.44
365.92	99.44
366.147	86.44
366.373	92.44
366.599	107.44
366.826	77.44
367.052	103.44
367.278	86.44
367.505	101.44
367.731	73.44
367.957	99.44
368.184	87.44
368.41	86.44
368.636	98.44
368.862	95.44
369.089	85.44
369.315	86.44
369.541	78.44
369.767	93.44
369.993	97.44
370.219	92.44
370.445	104.44
370.672	81.44
370.898	85.44
371.124	69.44
371.35	79.44
371.576	97.44
371.802	85.44
372.028	88.44
372.254	96.44
372.48	96.44
372.706	81.44
372.932	87.44
373.158	86.44
373.384	93.44
373.61	93.44
373.835	88.44
374.061	81.44
374.287	88.44
374.513	99.44
374.739	82.44
374.965	99.44
375.191	85.44
375.416	77.44
375.642	99.44
375.868	87.44
376.094	87.44
376.319	88.44
376.545	76.44
376.771	92.44
376.997	90.44
377.222	99.44
377.448	86.44
377.674	90.44
377.899	95.44
378.125	82.44
378.35	87.44
378.576	76.44
378.802	96.44
379.027	92.44
379.253	85.44
379.478	87.44
379.704	91.44
379.929	95.44
380.155	93.44
380.38	101.44
380.606	91.44
380.831	104.44
381.057	113.44
381.282	97.44
381.507	95.44
381.733	99.44
381.958	90.44
382.184	111.44
382.409	92.44
382.634	83.44
382.86	101.44
383.085	120.44
383.31	101.44
383.535	98.44
383.761	110.44
383.986	92.44
384.211	85.44
384.436	101.44
384.662	113.44
384.887	104.44
385.112	95.44
385.337	96.44
385.562	95.44
385.787	109.44
386.013	111.44
386.238	111.44
386.463	93.44
386.688	113.44
386.913	104.44
387.138	101.44
387.363	97.44
387.588	85.44
387.813	100.44
388.038	106.44
388.263	109.44
388.488	107.44
388.713	105.44
388.938	97.44
389.163	84.44
389.387	93.44
389.612	88.44
389.837	92.44
390.062	78.44
390.287	91.44
390.512	87.44
390.736	103.44
390.961	97.44
391.186	104.44
391.411	98.44
391.636	86.44
391.86	76.44
392.085	82.44
392.31	83.44
392.534	74.44
392.759	72.44
392.984	74.44
393.208	88.44
393.433	83.44
393.658	69.44
393.882	81.44
394.107	91.44
394.331	81.44
394.556	88.44
394.78	97.44
395.005	86.44
395.229	95.44
395.454	70.44
395.678	92.44
395.903	75.44
396.127	97.44
396.352	90.44
396.576	96.44
396.801	75.44
397.025	79.44
397.249	83.44
397.474	92.44
397.698	85.44
397.922	88.44
398.147	86.44
398.371	98.44
398.595	91.44
398.82	101.44
399.044	85.44
399.268	92.44
399.492	80.44
399.717	93.44
399.941	88.44
400.165	95.44
400.389	76.44
400.613	89.44
400.837	92.44
401.062	101.44
401.286	83.44
401.51	68.44
401.734	82.44
401.958	100.44
402.182	105.44
402.406	116.44
402.63	121.44
402.854	92.44
403.078	88.44
403.302	89.44
403.526	85.44
403.75	93.44
403.974	75.44
404.198	95.44
404.422	87.44
404.645	85.44
404.869	92.44
405.093	101.44
405.317	85.44
405.541	102.44
405.765	81.44
405.988	108.44
406.212	129.44
406.436	180.44
406.66	120.44
406.883	102.44
407.107	77.44
407.331	107.44
407.555	93.44
407.778	94.44
408.002	95.44
408.226	90.44
408.449	91.44
408.673	90.44
408.896	90.44
409.12	101.44
409.344	94.44
409.567	101.44
409.791	85.44
410.014	92.44
410.238	95.44
410.461	96.44
410.685	87.44
410.908	117.44
411.132	103.44
411.355	90.44
411.578	90.44
411.802	95.44
412.025	99.44
412.249	94.44
412.472	93.44
412.695	87.44
412.919	93.44
413.142	84.44
413.365	83.44
413.589	60.44
413.812	105.44
414.035	93.44
414.258	73.44
414.482	103.44
414.705	103.44
414.928	98.44
415.151	98.44
415.374	92.44
415.597	92.44
415.821	75.44
416.044	77.44
416.267	82.44
416.49	77.44
416.713	94.44
416.936	82.44
417.159	77.44
417.382	81.44
417.605	104.44
417.828	99.44
418.051	88.44
418.274	86.44
418.497	88.44
418.72	92.44
418.943	83.44
419.166	100.44
419.389	83.44
419.611	88.44
419.834	93.44
420.057	82.44
420.28	85.44
420.503	93.44
420.726	81.44
420.948	83.44
421.171	103.44
421.394	79.44
421.617	90.44
421.839	87.44
422.062	99.44
422.285	75.44
422.507	104.44
422.73	104.44
422.953	84.44
423.175	95.44
423.398	92.44
423.621	85.44
423.843	92.44
424.066	83.44
424.288	99.44
424.511	101.44
424.733	100.44
424.956	87.44
425.178	99.44
425.401	90.44
425.623	96.44
425.846	78.44
426.068	100.44
426.291	72.44
426.513	80.44
426.735	90.44
426.958	83.44
427.18	101.44
427.402	125.44
427.625	136.44
427.847	114.44
428.069	106.44
428.292	96.44
428.514	93.44
428.736	81.44
428.958	98.44
429.181	83.44
429.403	90.44
429.625	93.44
429.847	91.44
430.069	95.44
430.292	88.44
430.514	87.44
430.736	84.44
430.958	71.44
431.18	92.44
431.402	85.44
431.624	100.44
431.846	93.44
432.068	83.44
432.29	86.44
432.512	93.44
432.734	76.44
432.956	79.44
433.178	103.44
433.4	99.44
433.622	95.44
433.844	85.44
434.066	95.44
434.287	72.44
434.509	95.44
434.731	89.44
434.953	75.44
435.175	87.44
435.397	105.44
435.618	86.44
435.84	101.44
436.062	120.44
436.284	111.44
436.505	100.44
436.727	93.44
436.949	95.44
437.17	80.44
437.392	82.44
437.614	89.44
437.835	94.44
438.057	97.44
438.278	102.44
438.5	106.44
438.721	99.44
438.943	105.44
439.165	75.44
439.386	82.44
439.608	84.44
439.829	105.44
440.05	103.44
440.272	109.44
440.493	101.44
440.715	93.44
440.936	87.44
441.158	89.44
441.379	90.44
441.6	88.44
441.822	91.44
442.043	85.44
442.264	100.44
442.486	90.44
442.707	97.44
442.928	97.44
443.149	120.44
443.371	119.44
443.592	102.44
443.813	90.44
444.034	95.44
444.255	99.44
444.476	79.44
444.698	80.44
444.919	84.44
445.14	135.44
445.361	114.44
445.582	107.44
445.803	109.44
446.024	120.44
446.245	124.44
446.466	102.44
446.687	95.44
446.908	83.44
447.129	80.44
447.35	74.44
447.571	87.44
447.792	91.44
448.013	96.44
448.234	99.44
448.455	86.44
448.675	81.44
448.896	111.44
449.117	91.44
449.338	99.44
449.559	108.44
449.779	116.44
450	83.44
450.221	100.44
450.442	94.44
450.662	84.44
450.883	93.44
451.104	99.44
451.324	90.44
451.545	89.44
451.766	73.44
451.986	92.44
452.207	99.44
452.428	84.44
452.648	97.44
452.869	97.44
453.089	85.44
453.31	97.44
453.53	89.44
453.751	83.44
453.971	107.44
454.192	97.44
454.412	79.44
454.633	91.44
454.853	79.44
455.073	99.44
455.294	84.44
455.514	99.44
455.734	99.44
455.955	84.44
456.175	89.44
456.395	75.44
456.616	85.44
456.836	72.44
457.056	82.44
457.276	87.44
457.497	81.44
457.717	79.44
457.937	99.44
458.157	76.44
458.377	93.44
458.598	100.44
458.818	118.44
459.038	123.44
459.258	117.44
459.478	92.44
459.698	81.44
459.918	88.44
460.138	74.44
460.358	93.44
460.578	92.44
460.798	97.44
461.018	93.44
461.238	99.44
461.458	62.44
461.678	71.44
461.898	81.44
462.118	88.44
462.338	76.44
462.558	81.44
462.777	90.44
462.997	93.44
463.217	84.44
463.437	99.44
463.657	82.44
463.876	89.44
464.096	98.44
464.316	79.44
464.536	87.44
464.755	89.44
464.975	92.44
465.195	133.44
465.414	134.44
465.634	112.44
465.854	88.44
466.073	83.44
466.293	76.44
466.512	79.44
466.732	75.44
466.951	80.44
467.171	74.44
467.391	95.44
467.61	107.44
467.829	97.44
468.049	82.44
468.268	81.44
468.488	91.44
468.707	82.44
468.927	85.44
469.146	96.44
469.365	83.44
469.585	85.44
469.804	82.44
470.023	96.44
470.243	79.44
470.462	91.44
470.681	102.44
470.901	89.44
471.12	83.44
471.339	89.44
471.558	81.44
471.777	75.44
471.997	103.44
472.216	121.44
472.435	120.44
472.654	106.44
472.873	89.44
473.092	99.44
473.311	84.44
473.53	82.44
473.749	85.44
473.968	96.44
474.187	92.44
474.406	86.44
474.625	85.44
474.844	98.44
475.063	83.44
475.282	99.44
475.501	84.44
475.72	95.44
475.939	80.44
476.158	91.44
476.377	79.44
476.596	84.44
476.814	101.44
477.033	89.44
477.252	91.44
477.471	94.44
477.69	99.44
477.908	104.44
478.127	81.44
478.346	81.44
478.564	93.44
478.783	93.44
479.002	102.44
479.22	81.44
479.439	97.44
479.658	79.44
479.876	90.44
480.095	86.44
480.313	98.44
480.532	93.44
480.751	97.44
480.969	95.44
481.188	172.44
481.406	132.44
481.624	97.44
481.843	87.44
482.061	85.44
482.28	86.44
482.498	99.44
482.717	95.44
482.935	90.44
483.153	79.44
483.372	71.44
483.59	83.44
483.808	95.44
484.027	90.44
484.245	95.44
484.463	74.44
484.681	83.44
484.9	87.44
485.118	96.44
485.336	96.44
485.554	104.44
485.772	99.44
485.99	112.44
486.209	109.44
486.427	112.44
486.645	97.44
486.863	104.44
487.081	94.44
487.299	114.44
487.517	83.44
487.735	83.44
487.953	89.44
488.171	97.44
488.389	91.44
488.607	106.44
488.825	94.44
489.043	107.44
489.261	87.44
489.479	98.44
489.696	79.44
489.914	87.44
490.132	101.44
490.35	112.44
490.568	96.44
490.786	109.44
491.003	89.44
491.221	73.44
491.439	87.44
491.657	76.44
491.874	79.44
492.092	93.44
492.31	98.44
492.527	80.44
492.745	84.44
492.963	87.44
493.18	84.44
493.398	107.44
493.615	118.44
493.833	79.44
494.05	79.44
494.268	85.44
494.485	83.44
494.703	91.44
494.92	86.44
495.138	86.44
495.355	90.44
495.573	87.44
495.79	91.44
496.008	93.44
496.225	83.44
496.442	100.44
496.66	86.44
496.877	79.44
497.094	91.44
497.312	92.44
497.529	89.44
497.746	82.44
497.963	89.44
498.181	95.44
498.398	89.44
498.615	95.44
498.832	88.44
499.049	92.44
499.267	85.44
499.484	76.44
499.701	83.44
499.918	85.44
500.135	88.44
500.352	86.44
500.569	84.44
500.786	90.44
501.003	94.44
501.22	91.44
501.437	92.44
501.654	102.44
501.871	89.44
502.088	88.44
502.305	101.44
502.522	80.44
502.739	90.44
502.956	91.44
503.172	93.44
503.389	85.44
503.606	90.44
503.823	91.44
504.04	93.44
504.256	80.44
504.473	85.44
504.69	91.44
504.907	86.44
505.123	69.44
505.34	93.44
505.557	88.44
505.773	92.44
505.99	80.44
506.207	90.44
506.423	93.44
506.64	97.44
506.856	92.44
507.073	87.44
507.289	97.44
507.506	104.44
507.722	110.44
507.939	102.44
508.155	105.44
508.372	100.44
508.588	92.44
508.805	102.44
509.021	91.44
509.238	96.44
509.454	107.44
509.67	85.44
509.887	112.44
510.103	119.44
510.319	179.44
510.536	569.44
510.752	1716.44
510.968	476.44
511.184	140.44
511.401	116.44
511.617	98.44
511.833	90.44
512.049	81.44
512.265	91.44
512.481	84.44
512.698	75.44
512.914	89.44
513.13	85.44
513.346	90.44
513.562	92.44
513.778	92.44
513.994	89.44
514.21	84.44
514.426	102.44
514.642	101.44
514.858	112.44
515.074	125.44
515.29	343.44
515.506	982.44
515.721	385.44
515.937	129.44
516.153	98.44
516.369	90.44
