Data from Uncirc_1981_H10_HRD10591_00035.txt Node
Date: Wed Jan 03 12:33:15 EST 2024
User: Yrep
Spectrometer: HR+D1059
Trigger mode: 1
Integration Time (sec): 1.000000E-1
Scans to average: 1
Electric dark correction enabled: true
Nonlinearity correction enabled: false
Boxcar width: 0
XAxis mode: Wavelengths
Number of Pixels in Spectrum: 2048
>>>>>Begin Spectral Data<<<<<
223.165	-28.25
223.4	-28.25
223.635	-28.25
223.869	-21.25
224.104	-13.25
224.338	-16.25
224.573	-18.25
224.808	-18.25
225.042	-10.25
225.277	0.75
225.511	-2.25
225.746	-3.25
225.98	9.75
226.215	13.75
226.449	19.75
226.683	19.75
226.918	30.75
227.152	36.75
227.387	30.75
227.621	36.75
227.856	30.75
228.09	45.75
228.324	47.75
228.559	46.75
228.793	56.75
229.027	63.75
229.262	58.75
229.496	90.75
229.73	70.75
229.964	78.75
230.199	68.75
230.433	69.75
230.667	75.75
230.901	74.75
231.136	73.75
231.37	75.75
231.604	88.75
231.838	89.75
232.072	77.75
232.306	74.75
232.541	72.75
232.775	90.75
233.009	75.75
233.243	80.75
233.477	86.75
233.711	82.75
233.945	89.75
234.179	81.75
234.413	69.75
234.647	72.75
234.881	88.75
235.115	84.75
235.349	88.75
235.583	85.75
235.817	82.75
236.051	70.75
236.285	73.75
236.519	82.75
236.753	78.75
236.987	71.75
237.221	68.75
237.455	92.75
237.689	92.75
237.922	83.75
238.156	61.75
238.39	77.75
238.624	82.75
238.858	80.75
239.091	65.75
239.325	63.75
239.559	80.75
239.793	75.75
240.027	78.75
240.26	82.75
240.494	82.75
240.728	64.75
240.961	80.75
241.195	71.75
241.429	69.75
241.662	71.75
241.896	73.75
242.13	59.75
242.363	76.75
242.597	88.75
242.83	91.75
243.064	73.75
243.298	69.75
243.531	82.75
243.765	81.75
243.998	83.75
244.232	81.75
244.465	99.75
244.699	81.75
244.932	76.75
245.166	82.75
245.399	82.75
245.633	84.75
245.866	79.75
246.099	93.75
246.333	80.75
246.566	86.75
246.8	84.75
247.033	74.75
247.266	86.75
247.5	84.75
247.733	69.75
247.966	65.75
248.2	84.75
248.433	80.75
248.666	67.75
248.899	82.75
249.133	80.75
249.366	88.75
249.599	97.75
249.832	83.75
250.066	81.75
250.299	81.75
250.532	84.75
250.765	84.75
250.998	84.75
251.231	85.75
251.465	92.75
251.698	71.75
251.931	81.75
252.164	78.75
252.397	76.75
252.63	72.75
252.863	68.75
253.096	87.75
253.329	80.75
253.562	68.75
253.795	79.75
254.028	70.75
254.261	72.75
254.494	70.75
254.727	69.75
254.96	81.75
255.193	75.75
255.426	71.75
255.659	93.75
255.892	76.75
256.124	74.75
256.357	74.75
256.59	73.75
256.823	80.75
257.056	86.75
257.289	70.75
257.521	85.75
257.754	76.75
257.987	84.75
258.22	90.75
258.452	92.75
258.685	77.75
258.918	84.75
259.151	74.75
259.383	87.75
259.616	84.75
259.849	70.75
260.081	71.75
260.314	89.75
260.547	86.75
260.779	75.75
261.012	68.75
261.244	81.75
261.477	78.75
261.71	86.75
261.942	97.75
262.175	94.75
262.407	80.75
262.64	90.75
262.872	79.75
263.105	66.75
263.337	78.75
263.57	100.75
263.802	85.75
264.035	88.75
264.267	86.75
264.499	64.75
264.732	83.75
264.964	79.75
265.197	83.75
265.429	81.75
265.661	82.75
265.894	74.75
266.126	88.75
266.358	96.75
266.591	88.75
266.823	93.75
267.055	80.75
267.287	67.75
267.52	80.75
267.752	74.75
267.984	73.75
268.216	69.75
268.448	66.75
268.681	77.75
268.913	72.75
269.145	84.75
269.377	85.75
269.609	85.75
269.841	87.75
270.073	93.75
270.306	82.75
270.538	93.75
270.77	83.75
271.002	83.75
271.234	91.75
271.466	83.75
271.698	78.75
271.93	90.75
272.162	105.75
272.394	81.75
272.626	85.75
272.858	73.75
273.09	73.75
273.322	72.75
273.553	81.75
273.785	70.75
274.017	93.75
274.249	79.75
274.481	73.75
274.713	80.75
274.945	93.75
275.176	76.75
275.408	83.75
275.64	105.75
275.872	84.75
276.104	92.75
276.335	97.75
276.567	86.75
276.799	101.75
277.031	99.75
277.262	83.75
277.494	73.75
277.726	98.75
277.957	89.75
278.189	93.75
278.421	76.75
278.652	65.75
278.884	83.75
279.115	97.75
279.347	104.75
279.579	94.75
279.81	88.75
280.042	85.75
280.273	76.75
280.505	91.75
280.736	93.75
280.968	84.75
281.199	70.75
281.431	89.75
281.662	73.75
281.894	81.75
282.125	86.75
282.356	106.75
282.588	103.75
282.819	95.75
283.051	82.75
283.282	93.75
283.513	77.75
283.745	83.75
283.976	90.75
284.207	79.75
284.439	83.75
284.67	77.75
284.901	82.75
285.132	83.75
285.364	89.75
285.595	90.75
285.826	95.75
286.057	85.75
286.288	80.75
286.52	81.75
286.751	86.75
286.982	85.75
287.213	86.75
287.444	88.75
287.675	71.75
287.906	93.75
288.138	76.75
288.369	87.75
288.6	84.75
288.831	88.75
289.062	92.75
289.293	80.75
289.524	97.75
289.755	75.75
289.986	77.75
290.217	80.75
290.448	69.75
290.679	100.75
290.91	89.75
291.141	84.75
291.371	93.75
291.602	64.75
291.833	78.75
292.064	82.75
292.295	96.75
292.526	75.75
292.757	87.75
292.987	91.75
293.218	81.75
293.449	82.75
293.68	86.75
293.91	78.75
294.141	82.75
294.372	96.75
294.603	82.75
294.833	97.75
295.064	84.75
295.295	77.75
295.525	92.75
295.756	96.75
295.987	103.75
296.217	115.75
296.448	109.75
296.679	91.75
296.909	76.75
297.14	105.75
297.37	87.75
297.601	85.75
297.831	96.75
298.062	97.75
298.292	78.75
298.523	93.75
298.753	91.75
298.984	86.75
299.214	101.75
299.445	94.75
299.675	88.75
299.905	91.75
300.136	85.75
300.366	81.75
300.597	100.75
300.827	93.75
301.057	90.75
301.288	98.75
301.518	101.75
301.748	96.75
301.979	99.75
302.209	82.75
302.439	75.75
302.669	88.75
302.9	80.75
303.13	102.75
303.36	84.75
303.59	84.75
303.82	86.75
304.051	91.75
304.281	82.75
304.511	81.75
304.741	89.75
304.971	85.75
305.201	90.75
305.431	91.75
305.661	75.75
305.891	93.75
306.121	87.75
306.352	99.75
306.582	97.75
306.812	81.75
307.042	84.75
307.272	83.75
307.502	93.75
307.731	92.75
307.961	75.75
308.191	83.75
308.421	84.75
308.651	88.75
308.881	93.75
309.111	107.75
309.341	94.75
309.571	90.75
309.8	82.75
310.03	84.75
310.26	101.75
310.49	97.75
310.72	88.75
310.949	97.75
311.179	94.75
311.409	101.75
311.639	94.75
311.868	101.75
312.098	89.75
312.328	86.75
312.557	102.75
312.787	96.75
313.017	91.75
313.246	100.75
313.476	96.75
313.706	95.75
313.935	101.75
314.165	87.75
314.394	80.75
314.624	100.75
314.853	91.75
315.083	74.75
315.312	88.75
315.542	93.75
315.771	93.75
316.001	96.75
316.23	83.75
316.46	91.75
316.689	98.75
316.919	88.75
317.148	91.75
317.377	99.75
317.607	84.75
317.836	80.75
318.065	93.75
318.295	96.75
318.524	97.75
318.753	101.75
318.983	82.75
319.212	93.75
319.441	103.75
319.67	89.75
319.9	102.75
320.129	94.75
320.358	99.75
320.587	84.75
320.816	77.75
321.046	95.75
321.275	92.75
321.504	89.75
321.733	85.75
321.962	91.75
322.191	102.75
322.42	104.75
322.649	104.75
322.878	105.75
323.108	105.75
323.337	125.75
323.566	126.75
323.795	120.75
324.024	184.75
324.253	306.75
324.482	676.75
324.71	1363.75
324.939	1774.75
325.168	661.75
325.397	220.75
325.626	128.75
325.855	127.75
326.084	120.75
326.313	127.75
326.542	126.75
326.77	203.75
326.999	391.75
327.228	795.75
327.457	1402.75
327.686	1116.75
327.914	306.75
328.143	159.75
328.372	111.75
328.6	116.75
328.829	99.75
329.058	111.75
329.287	105.75
329.515	98.75
329.744	101.75
329.972	105.75
330.201	95.75
330.43	116.75
330.658	110.75
330.887	102.75
331.115	106.75
331.344	95.75
331.572	84.75
331.801	104.75
332.03	106.75
332.258	91.75
332.486	90.75
332.715	82.75
332.943	81.75
333.172	87.75
333.4	98.75
333.629	104.75
333.857	104.75
334.085	86.75
334.314	94.75
334.542	106.75
334.771	109.75
334.999	104.75
335.227	109.75
335.455	88.75
335.684	66.75
335.912	108.75
336.14	80.75
336.369	97.75
336.597	104.75
336.825	107.75
337.053	84.75
337.281	101.75
337.51	99.75
337.738	81.75
337.966	80.75
338.194	83.75
338.422	92.75
338.65	92.75
338.878	97.75
339.106	84.75
339.334	89.75
339.562	95.75
339.79	85.75
340.018	94.75
340.246	97.75
340.474	76.75
340.702	86.75
340.93	109.75
341.158	84.75
341.386	84.75
341.614	96.75
341.842	88.75
342.07	88.75
342.298	92.75
342.526	110.75
342.754	90.75
342.981	106.75
343.209	83.75
343.437	103.75
343.665	94.75
343.893	90.75
344.12	107.75
344.348	97.75
344.576	83.75
344.804	98.75
345.031	97.75
345.259	94.75
345.487	86.75
345.714	84.75
345.942	87.75
346.17	80.75
346.397	94.75
346.625	96.75
346.853	94.75
347.08	77.75
347.308	93.75
347.535	86.75
347.763	104.75
347.99	101.75
348.218	105.75
348.445	86.75
348.673	89.75
348.9	93.75
349.128	104.75
349.355	91.75
349.583	93.75
349.81	101.75
350.037	95.75
350.265	102.75
350.492	101.75
350.72	98.75
350.947	111.75
351.174	92.75
351.402	107.75
351.629	85.75
351.856	85.75
352.083	102.75
352.311	88.75
352.538	90.75
352.765	105.75
352.992	109.75
353.22	106.75
353.447	109.75
353.674	90.75
353.901	106.75
354.128	107.75
354.355	76.75
354.583	96.75
354.81	98.75
355.037	99.75
355.264	106.75
355.491	108.75
355.718	91.75
355.945	100.75
356.172	98.75
356.399	97.75
356.626	107.75
356.853	86.75
357.08	89.75
357.307	97.75
357.534	105.75
357.761	91.75
357.988	87.75
358.215	105.75
358.441	94.75
358.668	107.75
358.895	90.75
359.122	89.75
359.349	71.75
359.576	94.75
359.802	93.75
360.029	102.75
360.256	104.75
360.483	112.75
360.709	86.75
360.936	106.75
361.163	90.75
361.39	110.75
361.616	99.75
361.843	87.75
362.07	94.75
362.296	84.75
362.523	105.75
362.749	91.75
362.976	88.75
363.203	89.75
363.429	77.75
363.656	97.75
363.882	96.75
364.109	96.75
364.335	101.75
364.562	98.75
364.788	88.75
365.015	108.75
365.241	98.75
365.468	109.75
365.694	99.75
365.92	88.75
366.147	84.75
366.373	89.75
366.599	105.75
366.826	96.75
367.052	97.75
367.278	100.75
367.505	78.75
367.731	84.75
367.957	87.75
368.184	92.75
368.41	92.75
368.636	100.75
368.862	86.75
369.089	106.75
369.315	102.75
369.541	83.75
369.767	92.75
369.993	98.75
370.219	68.75
370.445	96.75
370.672	85.75
370.898	100.75
371.124	86.75
371.35	93.75
371.576	90.75
371.802	84.75
372.028	80.75
372.254	96.75
372.48	85.75
372.706	73.75
372.932	84.75
373.158	86.75
373.384	90.75
373.61	100.75
373.835	97.75
374.061	85.75
374.287	98.75
374.513	92.75
374.739	84.75
374.965	82.75
375.191	90.75
375.416	99.75
375.642	80.75
375.868	88.75
376.094	70.75
376.319	84.75
376.545	86.75
376.771	96.75
376.997	84.75
377.222	83.75
377.448	100.75
377.674	106.75
377.899	86.75
378.125	90.75
378.35	84.75
378.576	89.75
378.802	80.75
379.027	93.75
379.253	96.75
379.478	92.75
379.704	95.75
379.929	109.75
380.155	109.75
380.38	87.75
380.606	90.75
380.831	99.75
381.057	96.75
381.282	94.75
381.507	109.75
381.733	109.75
381.958	95.75
382.184	91.75
382.409	94.75
382.634	106.75
382.86	102.75
383.085	105.75
383.31	106.75
383.535	101.75
383.761	99.75
383.986	91.75
384.211	104.75
384.436	106.75
384.662	112.75
384.887	123.75
385.112	112.75
385.337	92.75
385.562	110.75
385.787	123.75
386.013	117.75
386.238	122.75
386.463	128.75
386.688	103.75
386.913	121.75
387.138	113.75
387.363	109.75
387.588	119.75
387.813	95.75
388.038	105.75
388.263	130.75
388.488	111.75
388.713	98.75
388.938	111.75
389.163	102.75
389.387	99.75
389.612	89.75
389.837	102.75
390.062	86.75
390.287	78.75
390.512	87.75
390.736	80.75
390.961	89.75
391.186	99.75
391.411	96.75
391.636	99.75
391.86	68.75
392.085	70.75
392.31	80.75
392.534	82.75
392.759	96.75
392.984	83.75
393.208	88.75
393.433	78.75
393.658	84.75
393.882	82.75
394.107	82.75
394.331	83.75
394.556	94.75
394.78	82.75
395.005	86.75
395.229	91.75
395.454	80.75
395.678	82.75
395.903	84.75
396.127	83.75
396.352	93.75
396.576	88.75
396.801	95.75
397.025	92.75
397.249	77.75
397.474	68.75
397.698	76.75
397.922	98.75
398.147	90.75
398.371	91.75
398.595	82.75
398.82	84.75
399.044	84.75
399.268	88.75
399.492	99.75
399.717	88.75
399.941	86.75
400.165	81.75
400.389	69.75
400.613	88.75
400.837	95.75
401.062	94.75
401.286	84.75
401.51	85.75
401.734	86.75
401.958	103.75
402.182	102.75
402.406	116.75
402.63	105.75
402.854	86.75
403.078	90.75
403.302	84.75
403.526	81.75
403.75	88.75
403.974	86.75
404.198	105.75
404.422	84.75
404.645	84.75
404.869	91.75
405.093	90.75
405.317	93.75
405.541	90.75
405.765	91.75
405.988	94.75
406.212	130.75
406.436	154.75
406.66	118.75
406.883	105.75
407.107	89.75
407.331	100.75
407.555	88.75
407.778	102.75
408.002	77.75
408.226	96.75
408.449	84.75
408.673	90.75
408.896	84.75
409.12	93.75
409.344	93.75
409.567	102.75
409.791	104.75
410.014	94.75
410.238	103.75
410.461	89.75
410.685	89.75
410.908	92.75
411.132	94.75
411.355	100.75
411.578	87.75
411.802	94.75
412.025	97.75
412.249	100.75
412.472	89.75
412.695	103.75
412.919	82.75
413.142	102.75
413.365	93.75
413.589	88.75
413.812	75.75
414.035	93.75
414.258	85.75
414.482	93.75
414.705	105.75
414.928	100.75
415.151	93.75
415.374	111.75
415.597	95.75
415.821	89.75
416.044	90.75
416.267	94.75
416.49	77.75
416.713	92.75
416.936	88.75
417.159	92.75
417.382	82.75
417.605	78.75
417.828	80.75
418.051	94.75
418.274	90.75
418.497	95.75
418.72	96.75
418.943	99.75
419.166	72.75
419.389	85.75
419.611	90.75
419.834	97.75
420.057	93.75
420.28	81.75
420.503	94.75
420.726	88.75
420.948	93.75
421.171	88.75
421.394	92.75
421.617	84.75
421.839	83.75
422.062	87.75
422.285	76.75
422.507	90.75
422.73	101.75
422.953	98.75
423.175	101.75
423.398	83.75
423.621	79.75
423.843	75.75
424.066	76.75
424.288	89.75
424.511	78.75
424.733	89.75
424.956	99.75
425.178	90.75
425.401	90.75
425.623	99.75
425.846	92.75
426.068	97.75
426.291	78.75
426.513	81.75
426.735	96.75
426.958	100.75
427.18	98.75
427.402	104.75
427.625	122.75
427.847	115.75
428.069	110.75
428.292	89.75
428.514	90.75
428.736	96.75
428.958	88.75
429.181	92.75
429.403	94.75
429.625	99.75
429.847	81.75
430.069	92.75
430.292	88.75
430.514	81.75
430.736	82.75
430.958	86.75
431.18	77.75
431.402	82.75
431.624	93.75
431.846	94.75
432.068	90.75
432.29	82.75
432.512	84.75
432.734	76.75
432.956	87.75
433.178	85.75
433.4	86.75
433.622	85.75
433.844	87.75
434.066	90.75
434.287	107.75
434.509	98.75
434.731	89.75
434.953	92.75
435.175	78.75
435.397	83.75
435.618	89.75
435.84	99.75
436.062	101.75
436.284	101.75
436.505	94.75
436.727	96.75
436.949	90.75
437.17	80.75
437.392	84.75
437.614	93.75
437.835	108.75
438.057	102.75
438.278	97.75
438.5	99.75
438.721	118.75
438.943	96.75
439.165	86.75
439.386	74.75
439.608	84.75
439.829	100.75
440.05	111.75
440.272	115.75
440.493	106.75
440.715	84.75
440.936	97.75
441.158	93.75
441.379	91.75
441.6	96.75
441.822	95.75
442.043	100.75
442.264	104.75
442.486	96.75
442.707	90.75
442.928	103.75
443.149	113.75
443.371	85.75
443.592	87.75
443.813	101.75
444.034	110.75
444.255	89.75
444.476	81.75
444.698	84.75
444.919	59.75
445.14	116.75
445.361	116.75
445.582	106.75
445.803	115.75
446.024	121.75
446.245	115.75
446.466	100.75
446.687	88.75
446.908	77.75
447.129	103.75
447.35	80.75
447.571	98.75
447.792	100.75
448.013	96.75
448.234	100.75
448.455	90.75
448.675	107.75
448.896	98.75
449.117	84.75
449.338	100.75
449.559	106.75
449.779	99.75
450	84.75
450.221	87.75
450.442	101.75
450.662	87.75
450.883	92.75
451.104	85.75
451.324	85.75
451.545	89.75
451.766	68.75
451.986	82.75
452.207	78.75
452.428	97.75
452.648	92.75
452.869	104.75
453.089	106.75
453.31	101.75
453.53	98.75
453.751	116.75
453.971	100.75
454.192	92.75
454.412	91.75
454.633	84.75
454.853	83.75
455.073	80.75
455.294	91.75
455.514	101.75
455.734	94.75
455.955	84.75
456.175	101.75
456.395	93.75
456.616	89.75
456.836	86.75
457.056	94.75
457.276	109.75
457.497	81.75
457.717	93.75
457.937	94.75
458.157	74.75
458.377	102.75
458.598	99.75
458.818	112.75
459.038	124.75
459.258	93.75
459.478	89.75
459.698	89.75
459.918	83.75
460.138	89.75
460.358	94.75
460.578	77.75
460.798	80.75
461.018	90.75
461.238	81.75
461.458	93.75
461.678	95.75
461.898	93.75
462.118	80.75
462.338	92.75
462.558	82.75
462.777	83.75
462.997	93.75
463.217	85.75
463.437	82.75
463.657	66.75
463.876	83.75
464.096	92.75
464.316	110.75
464.536	92.75
464.755	100.75
464.975	92.75
465.195	125.75
465.414	104.75
465.634	88.75
465.854	84.75
466.073	99.75
466.293	92.75
466.512	77.75
466.732	73.75
466.951	88.75
467.171	100.75
467.391	103.75
467.61	102.75
467.829	100.75
468.049	77.75
468.268	101.75
468.488	81.75
468.707	86.75
468.927	94.75
469.146	80.75
469.365	100.75
469.585	101.75
469.804	93.75
470.023	91.75
470.243	88.75
470.462	100.75
470.681	104.75
470.901	90.75
471.12	77.75
471.339	96.75
471.558	89.75
471.777	96.75
471.997	106.75
472.216	109.75
472.435	126.75
472.654	83.75
472.873	90.75
473.092	70.75
473.311	91.75
473.53	90.75
473.749	81.75
473.968	92.75
474.187	89.75
474.406	104.75
474.625	95.75
474.844	84.75
475.063	84.75
475.282	74.75
475.501	83.75
475.72	106.75
475.939	91.75
476.158	91.75
476.377	89.75
476.596	91.75
476.814	94.75
477.033	93.75
477.252	92.75
477.471	69.75
477.69	89.75
477.908	88.75
478.127	82.75
478.346	92.75
478.564	92.75
478.783	92.75
479.002	90.75
479.22	88.75
479.439	96.75
479.658	99.75
479.876	77.75
480.095	85.75
480.313	90.75
480.532	90.75
480.751	96.75
480.969	100.75
481.188	164.75
481.406	131.75
481.624	89.75
481.843	95.75
482.061	73.75
482.28	84.75
482.498	76.75
482.717	103.75
482.935	88.75
483.153	82.75
483.372	78.75
483.59	99.75
483.808	84.75
484.027	96.75
484.245	77.75
484.463	85.75
484.681	97.75
484.9	99.75
485.118	93.75
485.336	100.75
485.554	89.75
485.772	91.75
485.99	114.75
486.209	108.75
486.427	92.75
486.645	110.75
486.863	107.75
487.081	88.75
487.299	98.75
487.517	87.75
487.735	89.75
487.953	100.75
488.171	86.75
488.389	94.75
488.607	97.75
488.825	92.75
489.043	91.75
489.261	86.75
489.479	89.75
489.696	96.75
489.914	90.75
490.132	92.75
490.35	90.75
490.568	85.75
490.786	92.75
491.003	95.75
491.221	85.75
491.439	94.75
491.657	100.75
491.874	103.75
492.092	80.75
492.31	94.75
492.527	87.75
492.745	104.75
492.963	86.75
493.18	84.75
493.398	100.75
493.615	91.75
493.833	92.75
494.05	97.75
494.268	83.75
494.485	82.75
494.703	86.75
494.92	87.75
495.138	85.75
495.355	88.75
495.573	92.75
495.79	84.75
496.008	88.75
496.225	88.75
496.442	84.75
496.66	96.75
496.877	100.75
497.094	91.75
497.312	105.75
497.529	89.75
497.746	92.75
497.963	104.75
498.181	90.75
498.398	89.75
498.615	96.75
498.832	98.75
499.049	82.75
499.267	90.75
499.484	91.75
499.701	105.75
499.918	89.75
500.135	90.75
500.352	96.75
500.569	97.75
500.786	87.75
501.003	88.75
501.22	87.75
501.437	103.75
501.654	80.75
501.871	103.75
502.088	90.75
502.305	110.75
502.522	93.75
502.739	101.75
502.956	76.75
503.172	71.75
503.389	86.75
503.606	111.75
503.823	98.75
504.04	82.75
504.256	98.75
504.473	94.75
504.69	86.75
504.907	101.75
505.123	91.75
505.34	84.75
505.557	82.75
505.773	89.75
505.99	96.75
506.207	82.75
506.423	80.75
506.64	96.75
506.856	84.75
507.073	93.75
507.289	88.75
507.506	107.75
507.722	97.75
507.939	100.75
508.155	96.75
508.372	93.75
508.588	94.75
508.805	84.75
509.021	86.75
509.238	84.75
509.454	101.75
509.67	101.75
509.887	92.75
510.103	107.75
510.319	162.75
510.536	534.75
510.752	1477.75
510.968	419.75
511.184	112.75
511.401	100.75
511.617	97.75
511.833	101.75
512.049	88.75
512.265	101.75
512.481	78.75
512.698	88.75
512.914	93.75
513.13	100.75
513.346	86.75
513.562	83.75
513.778	93.75
513.994	92.75
514.21	104.75
514.426	107.75
514.642	106.75
514.858	106.75
515.074	125.75
515.29	294.75
515.506	872.75
515.721	317.75
515.937	120.75
