Data from Uncirc_1981_H10_HRD10591_00066.txt Node
Date: Wed Jan 03 12:33:21 EST 2024
User: Yrep
Spectrometer: HR+D1059
Trigger mode: 1
Integration Time (sec): 1.000000E-1
Scans to average: 1
Electric dark correction enabled: true
Nonlinearity correction enabled: false
Boxcar width: 0
XAxis mode: Wavelengths
Number of Pixels in Spectrum: 2048
>>>>>Begin Spectral Data<<<<<
223.165	-23.75
223.4	-23.75
223.635	-23.75
223.869	-19.75
224.104	-14.75
224.338	-36.75
224.573	-18.75
224.808	-9.75
225.042	-8.75
225.277	-6.75
225.511	3.25
225.746	-3.75
225.98	7.25
226.215	19.25
226.449	15.25
226.683	18.25
226.918	33.25
227.152	46.25
227.387	36.25
227.621	40.25
227.856	56.25
228.09	43.25
228.324	54.25
228.559	49.25
228.793	72.25
229.027	70.25
229.262	83.25
229.496	89.25
229.73	88.25
229.964	74.25
230.199	84.25
230.433	69.25
230.667	68.25
230.901	89.25
231.136	71.25
231.37	70.25
231.604	95.25
231.838	89.25
232.072	75.25
232.306	92.25
232.541	85.25
232.775	88.25
233.009	81.25
233.243	78.25
233.477	94.25
233.711	94.25
233.945	87.25
234.179	81.25
234.413	81.25
234.647	84.25
234.881	81.25
235.115	83.25
235.349	92.25
235.583	93.25
235.817	89.25
236.051	92.25
236.285	80.25
236.519	90.25
236.753	95.25
236.987	83.25
237.221	79.25
237.455	85.25
237.689	85.25
237.922	68.25
238.156	87.25
238.39	79.25
238.624	89.25
238.858	90.25
239.091	93.25
239.325	73.25
239.559	98.25
239.793	76.25
240.027	85.25
240.26	83.25
240.494	93.25
240.728	73.25
240.961	95.25
241.195	83.25
241.429	85.25
241.662	78.25
241.896	75.25
242.13	93.25
242.363	80.25
242.597	86.25
242.83	93.25
243.064	88.25
243.298	75.25
243.531	92.25
243.765	79.25
243.998	75.25
244.232	88.25
244.465	89.25
244.699	70.25
244.932	83.25
245.166	79.25
245.399	74.25
245.633	71.25
245.866	85.25
246.099	78.25
246.333	90.25
246.566	74.25
246.8	75.25
247.033	76.25
247.266	86.25
247.5	69.25
247.733	66.25
247.966	78.25
248.2	92.25
248.433	91.25
248.666	97.25
248.899	95.25
249.133	88.25
249.366	87.25
249.599	95.25
249.832	86.25
250.066	99.25
250.299	67.25
250.532	77.25
250.765	91.25
250.998	84.25
251.231	87.25
251.465	75.25
251.698	79.25
251.931	80.25
252.164	84.25
252.397	75.25
252.63	91.25
252.863	88.25
253.096	80.25
253.329	83.25
253.562	88.25
253.795	82.25
254.028	95.25
254.261	79.25
254.494	85.25
254.727	92.25
254.96	79.25
255.193	80.25
255.426	79.25
255.659	78.25
255.892	88.25
256.124	86.25
256.357	81.25
256.59	85.25
256.823	73.25
257.056	90.25
257.289	101.25
257.521	87.25
257.754	88.25
257.987	91.25
258.22	81.25
258.452	80.25
258.685	93.25
258.918	96.25
259.151	77.25
259.383	94.25
259.616	75.25
259.849	83.25
260.081	87.25
260.314	97.25
260.547	95.25
260.779	75.25
261.012	91.25
261.244	92.25
261.477	96.25
261.71	91.25
261.942	105.25
262.175	104.25
262.407	84.25
262.64	81.25
262.872	92.25
263.105	87.25
263.337	77.25
263.57	80.25
263.802	97.25
264.035	77.25
264.267	85.25
264.499	97.25
264.732	92.25
264.964	87.25
265.197	91.25
265.429	83.25
265.661	89.25
265.894	79.25
266.126	83.25
266.358	100.25
266.591	87.25
266.823	94.25
267.055	92.25
267.287	94.25
267.52	95.25
267.752	89.25
267.984	102.25
268.216	76.25
268.448	93.25
268.681	78.25
268.913	86.25
269.145	87.25
269.377	92.25
269.609	91.25
269.841	86.25
270.073	80.25
270.306	80.25
270.538	75.25
270.77	83.25
271.002	80.25
271.234	94.25
271.466	96.25
271.698	83.25
271.93	86.25
272.162	89.25
272.394	99.25
272.626	87.25
272.858	76.25
273.09	76.25
273.322	86.25
273.553	84.25
273.785	83.25
274.017	80.25
274.249	92.25
274.481	95.25
274.713	82.25
274.945	91.25
275.176	86.25
275.408	84.25
275.64	102.25
275.872	80.25
276.104	100.25
276.335	98.25
276.567	97.25
276.799	111.25
277.031	103.25
277.262	105.25
277.494	80.25
277.726	91.25
277.957	92.25
278.189	84.25
278.421	95.25
278.652	94.25
278.884	100.25
279.115	89.25
279.347	92.25
279.579	87.25
279.81	86.25
280.042	95.25
280.273	84.25
280.505	99.25
280.736	97.25
280.968	79.25
281.199	77.25
281.431	87.25
281.662	77.25
281.894	93.25
282.125	102.25
282.356	108.25
282.588	116.25
282.819	109.25
283.051	93.25
283.282	82.25
283.513	88.25
283.745	85.25
283.976	90.25
284.207	87.25
284.439	88.25
284.67	95.25
284.901	81.25
285.132	78.25
285.364	69.25
285.595	89.25
285.826	87.25
286.057	104.25
286.288	81.25
286.52	85.25
286.751	87.25
286.982	87.25
287.213	63.25
287.444	86.25
287.675	93.25
287.906	98.25
288.138	95.25
288.369	90.25
288.6	100.25
288.831	86.25
289.062	106.25
289.293	94.25
289.524	88.25
289.755	77.25
289.986	79.25
290.217	99.25
290.448	92.25
290.679	80.25
290.91	87.25
291.141	97.25
291.371	91.25
291.602	91.25
291.833	90.25
292.064	84.25
292.295	85.25
292.526	102.25
292.757	96.25
292.987	88.25
293.218	89.25
293.449	93.25
293.68	75.25
293.91	86.25
294.141	89.25
294.372	97.25
294.603	99.25
294.833	90.25
295.064	94.25
295.295	92.25
295.525	81.25
295.756	113.25
295.987	105.25
296.217	122.25
296.448	107.25
296.679	83.25
296.909	102.25
297.14	100.25
297.37	110.25
297.601	95.25
297.831	112.25
298.062	90.25
298.292	83.25
298.523	83.25
298.753	84.25
298.984	83.25
299.214	92.25
299.445	92.25
299.675	88.25
299.905	85.25
300.136	106.25
300.366	96.25
300.597	83.25
300.827	89.25
301.057	83.25
301.288	97.25
301.518	91.25
301.748	104.25
301.979	111.25
302.209	103.25
302.439	95.25
302.669	83.25
302.9	93.25
303.13	101.25
303.36	99.25
303.59	92.25
303.82	100.25
304.051	93.25
304.281	102.25
304.511	101.25
304.741	95.25
304.971	88.25
305.201	91.25
305.431	83.25
305.661	95.25
305.891	94.25
306.121	94.25
306.352	90.25
306.582	93.25
306.812	102.25
307.042	98.25
307.272	76.25
307.502	87.25
307.731	104.25
307.961	100.25
308.191	99.25
308.421	93.25
308.651	92.25
308.881	95.25
309.111	87.25
309.341	95.25
309.571	96.25
309.8	104.25
310.03	100.25
310.26	112.25
310.49	91.25
310.72	101.25
310.949	93.25
311.179	95.25
311.409	97.25
311.639	105.25
311.868	101.25
312.098	96.25
312.328	97.25
312.557	94.25
312.787	99.25
313.017	93.25
313.246	97.25
313.476	89.25
313.706	100.25
313.935	89.25
314.165	89.25
314.394	117.25
314.624	93.25
314.853	111.25
315.083	105.25
315.312	86.25
315.542	90.25
315.771	87.25
316.001	87.25
316.23	87.25
316.46	94.25
316.689	91.25
316.919	113.25
317.148	75.25
317.377	92.25
317.607	101.25
317.836	85.25
318.065	90.25
318.295	101.25
318.524	72.25
318.753	89.25
318.983	89.25
319.212	105.25
319.441	114.25
319.67	98.25
319.9	96.25
320.129	95.25
320.358	84.25
320.587	101.25
320.816	101.25
321.046	101.25
321.275	98.25
321.504	84.25
321.733	98.25
321.962	104.25
322.191	101.25
322.42	101.25
322.649	96.25
322.878	101.25
323.108	109.25
323.337	113.25
323.566	119.25
323.795	138.25
324.024	193.25
324.253	371.25
324.482	774.25
324.71	1565.25
324.939	2111.25
325.168	780.25
325.397	241.25
325.626	152.25
325.855	120.25
326.084	117.25
326.313	126.25
326.542	144.25
326.77	214.25
326.999	433.25
327.228	924.25
327.457	1659.25
327.686	1313.25
327.914	350.25
328.143	165.25
328.372	138.25
328.6	128.25
328.829	106.25
329.058	127.25
329.287	116.25
329.515	112.25
329.744	96.25
329.972	106.25
330.201	106.25
330.43	116.25
330.658	122.25
330.887	120.25
331.115	111.25
331.344	93.25
331.572	95.25
331.801	96.25
332.03	94.25
332.258	107.25
332.486	87.25
332.715	96.25
332.943	101.25
333.172	109.25
333.4	100.25
333.629	105.25
333.857	101.25
334.085	115.25
334.314	103.25
334.542	111.25
334.771	136.25
334.999	97.25
335.227	89.25
335.455	108.25
335.684	102.25
335.912	99.25
336.14	96.25
336.369	101.25
336.597	106.25
336.825	100.25
337.053	97.25
337.281	98.25
337.51	101.25
337.738	94.25
337.966	90.25
338.194	91.25
338.422	111.25
338.65	94.25
338.878	95.25
339.106	92.25
339.334	111.25
339.562	100.25
339.79	103.25
340.018	98.25
340.246	99.25
340.474	80.25
340.702	110.25
340.93	93.25
341.158	106.25
341.386	98.25
341.614	105.25
341.842	104.25
342.07	101.25
342.298	92.25
342.526	93.25
342.754	85.25
342.981	91.25
343.209	91.25
343.437	91.25
343.665	96.25
343.893	105.25
344.12	89.25
344.348	103.25
344.576	95.25
344.804	84.25
345.031	101.25
345.259	107.25
345.487	91.25
345.714	85.25
345.942	95.25
346.17	87.25
346.397	85.25
346.625	106.25
346.853	101.25
347.08	103.25
347.308	95.25
347.535	108.25
347.763	99.25
347.99	110.25
348.218	96.25
348.445	88.25
348.673	95.25
348.9	98.25
349.128	104.25
349.355	85.25
349.583	93.25
349.81	102.25
350.037	104.25
350.265	105.25
350.492	106.25
350.72	96.25
350.947	101.25
351.174	113.25
351.402	97.25
351.629	111.25
351.856	106.25
352.083	113.25
352.311	102.25
352.538	101.25
352.765	100.25
352.992	105.25
353.22	99.25
353.447	101.25
353.674	109.25
353.901	104.25
354.128	93.25
354.355	98.25
354.583	103.25
354.81	91.25
355.037	96.25
355.264	113.25
355.491	101.25
355.718	102.25
355.945	97.25
356.172	94.25
356.399	92.25
356.626	103.25
356.853	99.25
357.08	100.25
357.307	89.25
357.534	84.25
357.761	106.25
357.988	100.25
358.215	95.25
358.441	90.25
358.668	106.25
358.895	99.25
359.122	91.25
359.349	90.25
359.576	89.25
359.802	89.25
360.029	102.25
360.256	108.25
360.483	99.25
360.709	100.25
360.936	102.25
361.163	101.25
361.39	104.25
361.616	96.25
361.843	88.25
362.07	108.25
362.296	96.25
362.523	91.25
362.749	84.25
362.976	107.25
363.203	85.25
363.429	107.25
363.656	91.25
363.882	89.25
364.109	79.25
364.335	98.25
364.562	103.25
364.788	79.25
365.015	107.25
365.241	93.25
365.468	102.25
365.694	108.25
365.92	104.25
366.147	96.25
366.373	93.25
366.599	78.25
366.826	91.25
367.052	94.25
367.278	91.25
367.505	73.25
367.731	96.25
367.957	80.25
368.184	96.25
368.41	105.25
368.636	112.25
368.862	121.25
369.089	106.25
369.315	95.25
369.541	90.25
369.767	93.25
369.993	94.25
370.219	99.25
370.445	102.25
370.672	89.25
370.898	85.25
371.124	96.25
371.35	85.25
371.576	97.25
371.802	102.25
372.028	100.25
372.254	99.25
372.48	105.25
372.706	107.25
372.932	88.25
373.158	93.25
373.384	92.25
373.61	90.25
373.835	89.25
374.061	95.25
374.287	85.25
374.513	101.25
374.739	102.25
374.965	86.25
375.191	84.25
375.416	94.25
375.642	85.25
375.868	84.25
376.094	95.25
376.319	104.25
376.545	96.25
376.771	84.25
376.997	88.25
377.222	92.25
377.448	90.25
377.674	100.25
377.899	84.25
378.125	102.25
378.35	90.25
378.576	102.25
378.802	93.25
379.027	99.25
379.253	82.25
379.478	104.25
379.704	94.25
379.929	83.25
380.155	92.25
380.38	87.25
380.606	89.25
380.831	87.25
381.057	101.25
381.282	87.25
381.507	117.25
381.733	94.25
381.958	93.25
382.184	98.25
382.409	90.25
382.634	96.25
382.86	115.25
383.085	100.25
383.31	97.25
383.535	92.25
383.761	100.25
383.986	106.25
384.211	110.25
384.436	104.25
384.662	105.25
384.887	94.25
385.112	107.25
385.337	115.25
385.562	100.25
385.787	112.25
386.013	103.25
386.238	110.25
386.463	105.25
386.688	97.25
386.913	101.25
387.138	111.25
387.363	113.25
387.588	99.25
387.813	101.25
388.038	96.25
388.263	110.25
388.488	125.25
388.713	90.25
388.938	102.25
389.163	97.25
389.387	111.25
389.612	87.25
389.837	97.25
390.062	95.25
390.287	93.25
390.512	108.25
390.736	88.25
390.961	110.25
391.186	88.25
391.411	115.25
391.636	109.25
391.86	91.25
392.085	76.25
392.31	81.25
392.534	93.25
392.759	68.25
392.984	86.25
393.208	91.25
393.433	94.25
393.658	91.25
393.882	73.25
394.107	87.25
394.331	85.25
394.556	94.25
394.78	110.25
395.005	96.25
395.229	90.25
395.454	109.25
395.678	86.25
395.903	101.25
396.127	93.25
396.352	102.25
396.576	87.25
396.801	75.25
397.025	89.25
397.249	95.25
397.474	91.25
397.698	81.25
397.922	101.25
398.147	85.25
398.371	79.25
398.595	106.25
398.82	91.25
399.044	96.25
399.268	95.25
399.492	84.25
399.717	88.25
399.941	96.25
400.165	92.25
400.389	88.25
400.613	93.25
400.837	81.25
401.062	83.25
401.286	90.25
401.51	99.25
401.734	92.25
401.958	105.25
402.182	105.25
402.406	140.25
402.63	93.25
402.854	92.25
403.078	86.25
403.302	97.25
403.526	99.25
403.75	86.25
403.974	88.25
404.198	103.25
404.422	89.25
404.645	91.25
404.869	78.25
405.093	91.25
405.317	99.25
405.541	113.25
405.765	93.25
405.988	116.25
406.212	156.25
406.436	177.25
406.66	139.25
406.883	111.25
407.107	96.25
407.331	90.25
407.555	109.25
407.778	108.25
408.002	88.25
408.226	94.25
408.449	86.25
408.673	88.25
408.896	98.25
409.12	94.25
409.344	93.25
409.567	90.25
409.791	91.25
410.014	95.25
410.238	88.25
410.461	81.25
410.685	87.25
410.908	89.25
411.132	101.25
411.355	91.25
411.578	94.25
411.802	95.25
412.025	98.25
412.249	95.25
412.472	93.25
412.695	100.25
412.919	97.25
413.142	90.25
413.365	84.25
413.589	94.25
413.812	107.25
414.035	99.25
414.258	89.25
414.482	89.25
414.705	88.25
414.928	99.25
415.151	87.25
415.374	88.25
415.597	84.25
415.821	89.25
416.044	93.25
416.267	93.25
416.49	85.25
416.713	84.25
416.936	100.25
417.159	87.25
417.382	72.25
417.605	88.25
417.828	92.25
418.051	107.25
418.274	105.25
418.497	77.25
418.72	87.25
418.943	90.25
419.166	107.25
419.389	91.25
419.611	99.25
419.834	96.25
420.057	87.25
420.28	96.25
420.503	85.25
420.726	91.25
420.948	84.25
421.171	94.25
421.394	107.25
421.617	87.25
421.839	95.25
422.062	90.25
422.285	91.25
422.507	100.25
422.73	115.25
422.953	93.25
423.175	90.25
423.398	96.25
423.621	103.25
423.843	88.25
424.066	84.25
424.288	89.25
424.511	103.25
424.733	85.25
424.956	105.25
425.178	99.25
425.401	94.25
425.623	106.25
425.846	100.25
426.068	90.25
426.291	80.25
426.513	92.25
426.735	105.25
426.958	92.25
427.18	109.25
427.402	124.25
427.625	136.25
427.847	115.25
428.069	99.25
428.292	102.25
428.514	87.25
428.736	96.25
428.958	83.25
429.181	81.25
429.403	95.25
429.625	89.25
429.847	91.25
430.069	106.25
430.292	108.25
430.514	104.25
430.736	80.25
430.958	83.25
431.18	99.25
431.402	96.25
431.624	104.25
431.846	100.25
432.068	101.25
432.29	100.25
432.512	83.25
432.734	101.25
432.956	88.25
433.178	99.25
433.4	90.25
433.622	98.25
433.844	100.25
434.066	94.25
434.287	94.25
434.509	86.25
434.731	96.25
434.953	83.25
435.175	81.25
435.397	103.25
435.618	76.25
435.84	102.25
436.062	114.25
436.284	127.25
436.505	109.25
436.727	108.25
436.949	112.25
437.17	86.25
437.392	76.25
437.614	90.25
437.835	107.25
438.057	95.25
438.278	108.25
438.5	104.25
438.721	111.25
438.943	102.25
439.165	91.25
439.386	99.25
439.608	93.25
439.829	91.25
440.05	108.25
440.272	139.25
440.493	99.25
440.715	83.25
440.936	96.25
441.158	107.25
441.379	95.25
441.6	108.25
441.822	106.25
442.043	94.25
442.264	105.25
442.486	100.25
442.707	106.25
442.928	101.25
443.149	120.25
443.371	119.25
443.592	108.25
443.813	117.25
444.034	119.25
444.255	101.25
444.476	91.25
444.698	98.25
444.919	76.25
445.14	130.25
445.361	119.25
445.582	98.25
445.803	102.25
446.024	123.25
446.245	134.25
446.466	124.25
446.687	88.25
446.908	85.25
447.129	96.25
447.35	86.25
447.571	81.25
447.792	85.25
448.013	93.25
448.234	100.25
448.455	99.25
448.675	105.25
448.896	106.25
449.117	95.25
449.338	105.25
449.559	119.25
449.779	110.25
450	97.25
450.221	91.25
450.442	88.25
450.662	94.25
450.883	99.25
451.104	94.25
451.324	96.25
451.545	88.25
451.766	90.25
451.986	85.25
452.207	85.25
452.428	83.25
452.648	108.25
452.869	114.25
453.089	123.25
453.31	103.25
453.53	98.25
453.751	95.25
453.971	104.25
454.192	113.25
454.412	97.25
454.633	85.25
454.853	91.25
455.073	102.25
455.294	95.25
455.514	107.25
455.734	91.25
455.955	88.25
456.175	102.25
456.395	93.25
456.616	86.25
456.836	87.25
457.056	96.25
457.276	87.25
457.497	92.25
457.717	88.25
457.937	102.25
458.157	91.25
458.377	90.25
458.598	111.25
458.818	128.25
459.038	130.25
459.258	102.25
459.478	97.25
459.698	101.25
459.918	82.25
460.138	89.25
460.358	78.25
460.578	96.25
460.798	91.25
461.018	94.25
461.238	79.25
461.458	80.25
461.678	87.25
461.898	83.25
462.118	95.25
462.338	84.25
462.558	90.25
462.777	81.25
462.997	87.25
463.217	84.25
463.437	84.25
463.657	99.25
463.876	95.25
464.096	87.25
464.316	86.25
464.536	91.25
464.755	88.25
464.975	107.25
465.195	136.25
465.414	126.25
465.634	85.25
465.854	99.25
466.073	93.25
466.293	96.25
466.512	104.25
466.732	79.25
466.951	90.25
467.171	99.25
467.391	84.25
467.61	101.25
467.829	113.25
468.049	96.25
468.268	100.25
468.488	87.25
468.707	89.25
468.927	93.25
469.146	90.25
469.365	94.25
469.585	87.25
469.804	91.25
470.023	96.25
470.243	98.25
470.462	87.25
470.681	101.25
470.901	83.25
471.12	86.25
471.339	89.25
471.558	92.25
471.777	98.25
471.997	86.25
472.216	104.25
472.435	125.25
472.654	105.25
472.873	90.25
473.092	90.25
473.311	100.25
473.53	89.25
473.749	76.25
473.968	103.25
474.187	89.25
474.406	101.25
474.625	93.25
474.844	84.25
475.063	95.25
475.282	98.25
475.501	79.25
475.72	89.25
475.939	91.25
476.158	84.25
476.377	99.25
476.596	94.25
476.814	103.25
477.033	99.25
477.252	84.25
477.471	89.25
477.69	83.25
477.908	87.25
478.127	109.25
478.346	89.25
478.564	93.25
478.783	92.25
479.002	95.25
479.22	93.25
479.439	89.25
479.658	96.25
479.876	88.25
480.095	87.25
480.313	94.25
480.532	98.25
480.751	87.25
480.969	105.25
481.188	167.25
481.406	133.25
481.624	92.25
481.843	89.25
482.061	79.25
482.28	91.25
482.498	82.25
482.717	80.25
482.935	81.25
483.153	86.25
483.372	83.25
483.59	94.25
483.808	89.25
484.027	84.25
484.245	89.25
484.463	84.25
484.681	106.25
484.9	111.25
485.118	83.25
485.336	95.25
485.554	95.25
485.772	111.25
485.99	92.25
486.209	100.25
486.427	113.25
486.645	106.25
486.863	103.25
487.081	98.25
487.299	91.25
487.517	87.25
487.735	101.25
487.953	95.25
488.171	99.25
488.389	95.25
488.607	94.25
488.825	99.25
489.043	95.25
489.261	95.25
489.479	100.25
489.696	91.25
489.914	93.25
490.132	101.25
490.35	91.25
490.568	87.25
490.786	95.25
491.003	82.25
491.221	101.25
491.439	96.25
491.657	95.25
491.874	101.25
492.092	94.25
492.31	87.25
492.527	95.25
492.745	93.25
492.963	85.25
493.18	91.25
493.398	100.25
493.615	97.25
493.833	99.25
494.05	101.25
494.268	96.25
494.485	97.25
494.703	94.25
494.92	108.25
495.138	73.25
495.355	96.25
495.573	95.25
495.79	81.25
496.008	86.25
496.225	86.25
496.442	88.25
496.66	110.25
496.877	107.25
497.094	96.25
497.312	96.25
497.529	101.25
497.746	99.25
497.963	96.25
498.181	95.25
498.398	91.25
498.615	110.25
498.832	115.25
499.049	103.25
499.267	96.25
499.484	100.25
499.701	97.25
499.918	85.25
500.135	84.25
500.352	114.25
500.569	84.25
500.786	95.25
501.003	83.25
501.22	95.25
501.437	106.25
501.654	99.25
501.871	95.25
502.088	99.25
502.305	89.25
502.522	104.25
502.739	111.25
502.956	101.25
503.172	92.25
503.389	87.25
503.606	105.25
503.823	93.25
504.04	99.25
504.256	101.25
504.473	95.25
504.69	92.25
504.907	81.25
505.123	80.25
505.34	88.25
505.557	83.25
505.773	96.25
505.99	80.25
506.207	84.25
506.423	77.25
506.64	94.25
506.856	97.25
507.073	86.25
507.289	98.25
507.506	105.25
507.722	100.25
507.939	113.25
508.155	100.25
508.372	87.25
508.588	93.25
508.805	111.25
509.021	99.25
509.238	106.25
509.454	109.25
509.67	102.25
509.887	109.25
510.103	125.25
510.319	175.25
510.536	596.25
510.752	1861.25
510.968	517.25
511.184	134.25
511.401	109.25
511.617	93.25
511.833	100.25
512.049	92.25
512.265	97.25
512.481	90.25
512.698	98.25
512.914	93.25
513.13	100.25
513.346	97.25
513.562	93.25
513.778	107.25
513.994	108.25
514.21	93.25
514.426	110.25
514.642	134.25
