Data from Uncirc_1981_H10_HRD10591_00052.txt Node
Date: Wed Jan 03 12:33:18 EST 2024
User: Yrep
Spectrometer: HR+D1059
Trigger mode: 1
Integration Time (sec): 1.000000E-1
Scans to average: 1
Electric dark correction enabled: true
Nonlinearity correction enabled: false
Boxcar width: 0
XAxis mode: Wavelengths
Number of Pixels in Spectrum: 2048
>>>>>Begin Spectral Data<<<<<
223.165	-11.25
223.4	-11.25
223.635	-11.25
223.869	-16.25
224.104	-17.25
224.338	-21.25
224.573	-22.25
224.808	-15.25
225.042	2.75
225.277	-7.25
225.511	-8.25
225.746	9.75
225.98	16.75
226.215	7.75
226.449	23.75
226.683	14.75
226.918	19.75
227.152	23.75
227.387	31.75
227.621	48.75
227.856	52.75
228.09	38.75
228.324	33.75
228.559	59.75
228.793	45.75
229.027	56.75
229.262	80.75
229.496	70.75
229.73	84.75
229.964	79.75
230.199	77.75
230.433	82.75
230.667	76.75
230.901	64.75
231.136	67.75
231.37	58.75
231.604	84.75
231.838	75.75
232.072	66.75
232.306	95.75
232.541	67.75
232.775	79.75
233.009	90.75
233.243	75.75
233.477	85.75
233.711	83.75
233.945	82.75
234.179	81.75
234.413	79.75
234.647	80.75
234.881	86.75
235.115	70.75
235.349	81.75
235.583	92.75
235.817	66.75
236.051	92.75
236.285	66.75
236.519	82.75
236.753	75.75
236.987	66.75
237.221	71.75
237.455	86.75
237.689	72.75
237.922	62.75
238.156	73.75
238.39	85.75
238.624	78.75
238.858	71.75
239.091	80.75
239.325	63.75
239.559	54.75
239.793	75.75
240.027	83.75
240.26	74.75
240.494	85.75
240.728	74.75
240.961	67.75
241.195	73.75
241.429	80.75
241.662	70.75
241.896	65.75
242.13	84.75
242.363	75.75
242.597	72.75
242.83	72.75
243.064	87.75
243.298	69.75
243.531	80.75
243.765	56.75
243.998	67.75
244.232	73.75
244.465	88.75
244.699	89.75
244.932	94.75
245.166	75.75
245.399	73.75
245.633	74.75
245.866	79.75
246.099	80.75
246.333	64.75
246.566	75.75
246.8	84.75
247.033	80.75
247.266	76.75
247.5	69.75
247.733	81.75
247.966	71.75
248.2	72.75
248.433	74.75
248.666	84.75
248.899	69.75
249.133	86.75
249.366	82.75
249.599	90.75
249.832	83.75
250.066	88.75
250.299	74.75
250.532	76.75
250.765	93.75
250.998	86.75
251.231	75.75
251.465	73.75
251.698	78.75
251.931	79.75
252.164	63.75
252.397	83.75
252.63	80.75
252.863	83.75
253.096	81.75
253.329	82.75
253.562	77.75
253.795	68.75
254.028	73.75
254.261	70.75
254.494	84.75
254.727	83.75
254.96	70.75
255.193	80.75
255.426	75.75
255.659	84.75
255.892	82.75
256.124	90.75
256.357	66.75
256.59	71.75
256.823	73.75
257.056	74.75
257.289	79.75
257.521	87.75
257.754	65.75
257.987	80.75
258.22	87.75
258.452	89.75
258.685	78.75
258.918	83.75
259.151	87.75
259.383	86.75
259.616	81.75
259.849	71.75
260.081	75.75
260.314	79.75
260.547	88.75
260.779	74.75
261.012	78.75
261.244	80.75
261.477	86.75
261.71	78.75
261.942	86.75
262.175	96.75
262.407	83.75
262.64	81.75
262.872	83.75
263.105	93.75
263.337	83.75
263.57	86.75
263.802	64.75
264.035	75.75
264.267	78.75
264.499	76.75
264.732	62.75
264.964	85.75
265.197	88.75
265.429	91.75
265.661	79.75
265.894	83.75
266.126	99.75
266.358	71.75
266.591	79.75
266.823	65.75
267.055	80.75
267.287	73.75
267.52	70.75
267.752	71.75
267.984	86.75
268.216	85.75
268.448	78.75
268.681	87.75
268.913	90.75
269.145	89.75
269.377	63.75
269.609	84.75
269.841	89.75
270.073	87.75
270.306	92.75
270.538	78.75
270.77	76.75
271.002	93.75
271.234	74.75
271.466	78.75
271.698	86.75
271.93	75.75
272.162	79.75
272.394	84.75
272.626	72.75
272.858	100.75
273.09	73.75
273.322	90.75
273.553	72.75
273.785	87.75
274.017	76.75
274.249	92.75
274.481	84.75
274.713	81.75
274.945	99.75
275.176	83.75
275.408	88.75
275.64	81.75
275.872	64.75
276.104	71.75
276.335	92.75
276.567	87.75
276.799	94.75
277.031	96.75
277.262	96.75
277.494	80.75
277.726	79.75
277.957	88.75
278.189	90.75
278.421	82.75
278.652	83.75
278.884	89.75
279.115	86.75
279.347	71.75
279.579	84.75
279.81	78.75
280.042	82.75
280.273	77.75
280.505	95.75
280.736	95.75
280.968	98.75
281.199	94.75
281.431	94.75
281.662	92.75
281.894	84.75
282.125	70.75
282.356	107.75
282.588	106.75
282.819	87.75
283.051	83.75
283.282	87.75
283.513	87.75
283.745	93.75
283.976	83.75
284.207	75.75
284.439	82.75
284.67	83.75
284.901	72.75
285.132	84.75
285.364	96.75
285.595	81.75
285.826	88.75
286.057	71.75
286.288	87.75
286.52	93.75
286.751	82.75
286.982	86.75
287.213	62.75
287.444	73.75
287.675	95.75
287.906	81.75
288.138	84.75
288.369	76.75
288.6	82.75
288.831	87.75
289.062	87.75
289.293	91.75
289.524	96.75
289.755	89.75
289.986	89.75
290.217	90.75
290.448	73.75
290.679	80.75
290.91	87.75
291.141	94.75
291.371	94.75
291.602	80.75
291.833	95.75
292.064	76.75
292.295	81.75
292.526	90.75
292.757	88.75
292.987	92.75
293.218	82.75
293.449	85.75
293.68	92.75
293.91	80.75
294.141	100.75
294.372	80.75
294.603	94.75
294.833	86.75
295.064	94.75
295.295	90.75
295.525	78.75
295.756	83.75
295.987	103.75
296.217	98.75
296.448	113.75
296.679	100.75
296.909	88.75
297.14	88.75
297.37	92.75
297.601	80.75
297.831	75.75
298.062	109.75
298.292	68.75
298.523	70.75
298.753	85.75
298.984	83.75
299.214	78.75
299.445	80.75
299.675	88.75
299.905	98.75
300.136	92.75
300.366	91.75
300.597	63.75
300.827	90.75
301.057	92.75
301.288	95.75
301.518	96.75
301.748	85.75
301.979	98.75
302.209	89.75
302.439	79.75
302.669	102.75
302.9	86.75
303.13	82.75
303.36	91.75
303.59	94.75
303.82	81.75
304.051	72.75
304.281	107.75
304.511	97.75
304.741	89.75
304.971	85.75
305.201	80.75
305.431	84.75
305.661	84.75
305.891	88.75
306.121	86.75
306.352	99.75
306.582	74.75
306.812	67.75
307.042	87.75
307.272	89.75
307.502	104.75
307.731	94.75
307.961	97.75
308.191	91.75
308.421	100.75
308.651	91.75
308.881	86.75
309.111	80.75
309.341	90.75
309.571	94.75
309.8	95.75
310.03	70.75
310.26	93.75
310.49	96.75
310.72	95.75
310.949	88.75
311.179	100.75
311.409	103.75
311.639	88.75
311.868	94.75
312.098	105.75
312.328	84.75
312.557	93.75
312.787	111.75
313.017	101.75
313.246	91.75
313.476	83.75
313.706	92.75
313.935	100.75
314.165	100.75
314.394	101.75
314.624	93.75
314.853	95.75
315.083	95.75
315.312	72.75
315.542	67.75
315.771	89.75
316.001	102.75
316.23	82.75
316.46	78.75
316.689	98.75
316.919	78.75
317.148	103.75
317.377	94.75
317.607	89.75
317.836	76.75
318.065	75.75
318.295	92.75
318.524	72.75
318.753	95.75
318.983	87.75
319.212	97.75
319.441	87.75
319.67	95.75
319.9	96.75
320.129	91.75
320.358	103.75
320.587	88.75
320.816	93.75
321.046	97.75
321.275	102.75
321.504	101.75
321.733	90.75
321.962	95.75
322.191	103.75
322.42	100.75
322.649	107.75
322.878	98.75
323.108	105.75
323.337	108.75
323.566	113.75
323.795	137.75
324.024	174.75
324.253	344.75
324.482	683.75
324.71	1343.75
324.939	1784.75
325.168	663.75
325.397	212.75
325.626	140.75
325.855	114.75
326.084	132.75
326.313	119.75
326.542	132.75
326.77	182.75
326.999	365.75
327.228	806.75
327.457	1443.75
327.686	1162.75
327.914	319.75
328.143	165.75
328.372	125.75
328.6	101.75
328.829	106.75
329.058	124.75
329.287	112.75
329.515	104.75
329.744	102.75
329.972	88.75
330.201	103.75
330.43	104.75
330.658	104.75
330.887	105.75
331.115	112.75
331.344	79.75
331.572	92.75
331.801	92.75
332.03	89.75
332.258	87.75
332.486	92.75
332.715	98.75
332.943	90.75
333.172	68.75
333.4	91.75
333.629	93.75
333.857	103.75
334.085	97.75
334.314	91.75
334.542	108.75
334.771	116.75
334.999	97.75
335.227	98.75
335.455	90.75
335.684	91.75
335.912	75.75
336.14	106.75
336.369	103.75
336.597	84.75
336.825	86.75
337.053	92.75
337.281	89.75
337.51	87.75
337.738	92.75
337.966	90.75
338.194	99.75
338.422	100.75
338.65	93.75
338.878	101.75
339.106	94.75
339.334	92.75
339.562	89.75
339.79	90.75
340.018	84.75
340.246	89.75
340.474	86.75
340.702	80.75
340.93	89.75
341.158	103.75
341.386	87.75
341.614	102.75
341.842	84.75
342.07	86.75
342.298	86.75
342.526	89.75
342.754	86.75
342.981	79.75
343.209	87.75
343.437	87.75
343.665	96.75
343.893	84.75
344.12	81.75
344.348	91.75
344.576	98.75
344.804	80.75
345.031	105.75
345.259	91.75
345.487	95.75
345.714	87.75
345.942	90.75
346.17	105.75
346.397	87.75
346.625	98.75
346.853	83.75
347.08	76.75
347.308	94.75
347.535	89.75
347.763	112.75
347.99	98.75
348.218	89.75
348.445	95.75
348.673	77.75
348.9	91.75
349.128	102.75
349.355	90.75
349.583	95.75
349.81	98.75
350.037	90.75
350.265	94.75
350.492	100.75
350.72	86.75
350.947	85.75
351.174	92.75
351.402	107.75
351.629	91.75
351.856	92.75
352.083	86.75
352.311	99.75
352.538	90.75
352.765	107.75
352.992	108.75
353.22	105.75
353.447	106.75
353.674	102.75
353.901	90.75
354.128	106.75
354.355	100.75
354.583	92.75
354.81	91.75
355.037	106.75
355.264	98.75
355.491	97.75
355.718	88.75
355.945	86.75
356.172	101.75
356.399	106.75
356.626	98.75
356.853	86.75
357.08	86.75
357.307	85.75
357.534	96.75
357.761	94.75
357.988	89.75
358.215	103.75
358.441	100.75
358.668	81.75
358.895	86.75
359.122	89.75
359.349	70.75
359.576	72.75
359.802	97.75
360.029	103.75
360.256	98.75
360.483	87.75
360.709	69.75
360.936	100.75
361.163	109.75
361.39	90.75
361.616	99.75
361.843	88.75
362.07	87.75
362.296	83.75
362.523	85.75
362.749	97.75
362.976	75.75
363.203	84.75
363.429	82.75
363.656	72.75
363.882	85.75
364.109	86.75
364.335	87.75
364.562	96.75
364.788	99.75
365.015	86.75
365.241	94.75
365.468	96.75
365.694	102.75
365.92	98.75
366.147	82.75
366.373	78.75
366.599	91.75
366.826	84.75
367.052	93.75
367.278	104.75
367.505	92.75
367.731	93.75
367.957	84.75
368.184	85.75
368.41	77.75
368.636	96.75
368.862	105.75
369.089	76.75
369.315	95.75
369.541	101.75
369.767	97.75
369.993	92.75
370.219	81.75
370.445	98.75
370.672	105.75
370.898	78.75
371.124	88.75
371.35	88.75
371.576	89.75
371.802	86.75
372.028	88.75
372.254	95.75
372.48	82.75
372.706	76.75
372.932	73.75
373.158	69.75
373.384	83.75
373.61	79.75
373.835	96.75
374.061	98.75
374.287	100.75
374.513	107.75
374.739	87.75
374.965	84.75
375.191	90.75
375.416	91.75
375.642	88.75
375.868	83.75
376.094	95.75
376.319	96.75
376.545	87.75
376.771	89.75
376.997	101.75
377.222	105.75
377.448	70.75
377.674	82.75
377.899	90.75
378.125	93.75
378.35	98.75
378.576	86.75
378.802	88.75
379.027	89.75
379.253	88.75
379.478	76.75
379.704	96.75
379.929	85.75
380.155	101.75
380.38	101.75
380.606	93.75
380.831	99.75
381.057	101.75
381.282	94.75
381.507	97.75
381.733	104.75
381.958	103.75
382.184	106.75
382.409	98.75
382.634	96.75
382.86	109.75
383.085	113.75
383.31	93.75
383.535	109.75
383.761	95.75
383.986	108.75
384.211	95.75
384.436	104.75
384.662	90.75
384.887	104.75
385.112	93.75
385.337	112.75
385.562	108.75
385.787	102.75
386.013	102.75
386.238	111.75
386.463	100.75
386.688	95.75
386.913	98.75
387.138	109.75
387.363	101.75
387.588	114.75
387.813	95.75
388.038	122.75
388.263	117.75
388.488	117.75
388.713	94.75
388.938	90.75
389.163	95.75
389.387	80.75
389.612	92.75
389.837	82.75
390.062	82.75
390.287	84.75
390.512	84.75
390.736	86.75
390.961	98.75
391.186	98.75
391.411	106.75
391.636	102.75
391.86	82.75
392.085	82.75
392.31	83.75
392.534	70.75
392.759	76.75
392.984	80.75
393.208	88.75
393.433	92.75
393.658	74.75
393.882	74.75
394.107	92.75
394.331	92.75
394.556	93.75
394.78	101.75
395.005	89.75
395.229	100.75
395.454	84.75
395.678	72.75
395.903	79.75
396.127	92.75
396.352	91.75
396.576	79.75
396.801	91.75
397.025	83.75
397.249	85.75
397.474	88.75
397.698	92.75
397.922	90.75
398.147	77.75
398.371	86.75
398.595	87.75
398.82	75.75
399.044	72.75
399.268	83.75
399.492	84.75
399.717	99.75
399.941	89.75
400.165	97.75
400.389	72.75
400.613	84.75
400.837	92.75
401.062	86.75
401.286	95.75
401.51	86.75
401.734	88.75
401.958	98.75
402.182	113.75
402.406	124.75
402.63	110.75
402.854	95.75
403.078	99.75
403.302	97.75
403.526	92.75
403.75	83.75
403.974	81.75
404.198	102.75
404.422	90.75
404.645	88.75
404.869	80.75
405.093	74.75
405.317	86.75
405.541	101.75
405.765	91.75
405.988	102.75
406.212	132.75
406.436	153.75
406.66	114.75
406.883	88.75
407.107	84.75
407.331	91.75
407.555	76.75
407.778	89.75
408.002	86.75
408.226	96.75
408.449	89.75
408.673	73.75
408.896	95.75
409.12	87.75
409.344	76.75
409.567	79.75
409.791	84.75
410.014	97.75
410.238	97.75
410.461	90.75
410.685	96.75
410.908	103.75
411.132	89.75
411.355	115.75
411.578	82.75
411.802	83.75
412.025	75.75
412.249	94.75
412.472	81.75
412.695	103.75
412.919	94.75
413.142	97.75
413.365	91.75
413.589	74.75
413.812	84.75
414.035	82.75
414.258	102.75
414.482	88.75
414.705	82.75
414.928	89.75
415.151	91.75
415.374	91.75
415.597	103.75
415.821	99.75
416.044	96.75
416.267	93.75
416.49	94.75
416.713	75.75
416.936	86.75
417.159	84.75
417.382	99.75
417.605	81.75
417.828	86.75
418.051	84.75
418.274	91.75
418.497	89.75
418.72	92.75
418.943	91.75
419.166	80.75
419.389	84.75
419.611	106.75
419.834	91.75
420.057	98.75
420.28	69.75
420.503	90.75
420.726	84.75
420.948	89.75
421.171	86.75
421.394	77.75
421.617	102.75
421.839	75.75
422.062	89.75
422.285	83.75
422.507	107.75
422.73	106.75
422.953	97.75
423.175	86.75
423.398	84.75
423.621	74.75
423.843	85.75
424.066	70.75
424.288	76.75
424.511	72.75
424.733	79.75
424.956	86.75
425.178	88.75
425.401	106.75
425.623	94.75
425.846	78.75
426.068	90.75
426.291	86.75
426.513	79.75
426.735	98.75
426.958	92.75
427.18	103.75
427.402	122.75
427.625	128.75
427.847	113.75
428.069	113.75
428.292	94.75
428.514	92.75
428.736	75.75
428.958	84.75
429.181	83.75
429.403	82.75
429.625	79.75
429.847	96.75
430.069	100.75
430.292	94.75
430.514	86.75
430.736	79.75
430.958	68.75
431.18	78.75
431.402	88.75
431.624	89.75
431.846	92.75
432.068	93.75
432.29	67.75
432.512	89.75
432.734	67.75
432.956	83.75
433.178	90.75
433.4	89.75
433.622	90.75
433.844	87.75
434.066	83.75
434.287	74.75
434.509	93.75
434.731	80.75
434.953	86.75
435.175	82.75
435.397	99.75
435.618	100.75
435.84	101.75
436.062	108.75
436.284	97.75
436.505	106.75
436.727	101.75
436.949	75.75
437.17	79.75
437.392	87.75
437.614	92.75
437.835	88.75
438.057	103.75
438.278	95.75
438.5	103.75
438.721	103.75
438.943	83.75
439.165	103.75
439.386	96.75
439.608	90.75
439.829	83.75
440.05	99.75
440.272	123.75
440.493	102.75
440.715	79.75
440.936	86.75
441.158	67.75
441.379	94.75
441.6	79.75
441.822	94.75
442.043	83.75
442.264	86.75
442.486	90.75
442.707	81.75
442.928	84.75
443.149	115.75
443.371	112.75
443.592	97.75
443.813	99.75
444.034	98.75
444.255	89.75
444.476	82.75
444.698	76.75
444.919	80.75
445.14	116.75
445.361	125.75
445.582	112.75
445.803	116.75
446.024	126.75
446.245	122.75
446.466	103.75
446.687	92.75
446.908	86.75
447.129	75.75
447.35	84.75
447.571	87.75
447.792	91.75
448.013	99.75
448.234	103.75
448.455	91.75
448.675	92.75
448.896	93.75
449.117	96.75
449.338	84.75
449.559	109.75
449.779	121.75
450	80.75
450.221	81.75
450.442	90.75
450.662	81.75
450.883	97.75
451.104	86.75
451.324	81.75
451.545	82.75
451.766	96.75
451.986	83.75
452.207	89.75
452.428	90.75
452.648	83.75
452.869	97.75
453.089	107.75
453.31	101.75
453.53	83.75
453.751	90.75
453.971	79.75
454.192	73.75
454.412	82.75
454.633	88.75
454.853	79.75
455.073	82.75
455.294	86.75
455.514	91.75
455.734	86.75
455.955	88.75
456.175	82.75
456.395	84.75
456.616	81.75
456.836	78.75
457.056	88.75
457.276	88.75
457.497	74.75
457.717	70.75
457.937	75.75
458.157	70.75
458.377	78.75
458.598	85.75
458.818	105.75
459.038	114.75
459.258	88.75
459.478	81.75
459.698	69.75
459.918	81.75
460.138	85.75
460.358	72.75
460.578	82.75
460.798	88.75
461.018	74.75
461.238	90.75
461.458	83.75
461.678	80.75
461.898	83.75
462.118	89.75
462.338	81.75
462.558	81.75
462.777	96.75
462.997	81.75
463.217	85.75
463.437	83.75
463.657	74.75
463.876	104.75
464.096	88.75
464.316	88.75
464.536	92.75
464.755	90.75
464.975	82.75
465.195	122.75
465.414	119.75
465.634	69.75
465.854	87.75
466.073	91.75
466.293	83.75
466.512	85.75
466.732	85.75
466.951	83.75
467.171	96.75
467.391	80.75
467.61	93.75
467.829	91.75
468.049	85.75
468.268	104.75
468.488	84.75
468.707	96.75
468.927	76.75
469.146	74.75
469.365	86.75
469.585	93.75
469.804	90.75
470.023	86.75
470.243	79.75
470.462	86.75
470.681	112.75
470.901	73.75
471.12	91.75
471.339	81.75
471.558	99.75
471.777	65.75
471.997	94.75
472.216	101.75
472.435	124.75
472.654	97.75
472.873	95.75
473.092	81.75
473.311	80.75
473.53	87.75
473.749	85.75
473.968	77.75
474.187	93.75
474.406	99.75
474.625	99.75
474.844	82.75
475.063	82.75
475.282	87.75
475.501	89.75
475.72	74.75
475.939	68.75
476.158	90.75
476.377	88.75
476.596	104.75
476.814	98.75
477.033	79.75
477.252	96.75
477.471	88.75
477.69	85.75
477.908	83.75
478.127	94.75
478.346	94.75
478.564	96.75
478.783	104.75
479.002	94.75
479.22	95.75
479.439	95.75
479.658	95.75
479.876	90.75
480.095	88.75
480.313	83.75
480.532	103.75
480.751	87.75
480.969	102.75
481.188	146.75
481.406	132.75
481.624	88.75
481.843	92.75
482.061	83.75
482.28	78.75
482.498	83.75
482.717	85.75
482.935	82.75
483.153	101.75
483.372	74.75
483.59	91.75
483.808	83.75
484.027	85.75
484.245	96.75
484.463	91.75
484.681	95.75
484.9	83.75
485.118	105.75
485.336	94.75
485.554	85.75
485.772	93.75
485.99	92.75
486.209	92.75
486.427	98.75
486.645	109.75
486.863	106.75
487.081	93.75
487.299	90.75
487.517	100.75
487.735	75.75
487.953	93.75
488.171	91.75
488.389	96.75
488.607	88.75
488.825	90.75
489.043	104.75
489.261	92.75
489.479	94.75
489.696	86.75
489.914	86.75
490.132	88.75
490.35	86.75
490.568	100.75
490.786	87.75
491.003	105.75
491.221	74.75
491.439	87.75
491.657	93.75
491.874	99.75
492.092	80.75
492.31	87.75
492.527	95.75
492.745	82.75
492.963	89.75
493.18	95.75
493.398	83.75
493.615	91.75
493.833	101.75
494.05	84.75
494.268	74.75
494.485	94.75
494.703	87.75
494.92	116.75
495.138	96.75
495.355	90.75
495.573	88.75
495.79	99.75
496.008	100.75
496.225	93.75
496.442	89.75
496.66	91.75
496.877	90.75
497.094	83.75
497.312	90.75
497.529	89.75
497.746	82.75
497.963	91.75
498.181	81.75
498.398	92.75
498.615	104.75
498.832	93.75
499.049	98.75
499.267	101.75
499.484	93.75
499.701	106.75
499.918	82.75
500.135	96.75
500.352	83.75
500.569	98.75
500.786	101.75
501.003	94.75
501.22	100.75
501.437	89.75
501.654	94.75
501.871	108.75
502.088	82.75
502.305	91.75
502.522	93.75
502.739	91.75
502.956	83.75
503.172	75.75
503.389	99.75
503.606	96.75
503.823	91.75
504.04	103.75
504.256	90.75
504.473	78.75
504.69	85.75
504.907	93.75
505.123	95.75
505.34	77.75
505.557	86.75
505.773	88.75
505.99	82.75
506.207	98.75
506.423	91.75
506.64	81.75
506.856	84.75
507.073	81.75
507.289	82.75
507.506	88.75
507.722	99.75
507.939	86.75
508.155	83.75
508.372	94.75
508.588	99.75
508.805	104.75
509.021	89.75
509.238	103.75
509.454	95.75
509.67	93.75
509.887	99.75
510.103	98.75
510.319	169.75
510.536	543.75
510.752	1517.75
510.968	424.75
511.184	123.75
511.401	121.75
511.617	95.75
511.833	78.75
512.049	82.75
512.265	87.75
512.481	92.75
512.698	71.75
512.914	73.75
513.13	102.75
513.346	97.75
513.562	97.75
513.778	96.75
513.994	82.75
514.21	102.75
514.426	102.75
514.642	100.75
514.858	96.75
515.074	112.75
515.29	304.75
515.506	861.75
515.721	328.75
515.937	110.75
516.153	90.75
516.369	90.75
516.585	87.75
516.801	92.75
