Data from Uncirc_1981_H10_HRD10591_00067.txt Node
Date: Wed Jan 03 12:33:21 EST 2024
User: Yrep
Spectrometer: HR+D1059
Trigger mode: 1
Integration Time (sec): 1.000000E-1
Scans to average: 1
Electric dark correction enabled: true
Nonlinearity correction enabled: false
Boxcar width: 0
XAxis mode: Wavelengths
Number of Pixels in Spectrum: 2048
>>>>>Begin Spectral Data<<<<<
223.165	-33.25
223.4	-33.25
223.635	-33.25
223.869	-11.25
224.104	-21.25
224.338	-3.25
224.573	-7.25
224.808	-4.25
225.042	6.75
225.277	-12.25
225.511	-13.25
225.746	-4.25
225.98	5.75
226.215	17.75
226.449	6.75
226.683	17.75
226.918	26.75
227.152	28.75
227.387	36.75
227.621	42.75
227.856	36.75
228.09	49.75
228.324	55.75
228.559	45.75
228.793	46.75
229.027	65.75
229.262	57.75
229.496	56.75
229.73	83.75
229.964	73.75
230.199	68.75
230.433	61.75
230.667	80.75
230.901	82.75
231.136	70.75
231.37	92.75
231.604	74.75
231.838	68.75
232.072	85.75
232.306	73.75
232.541	72.75
232.775	86.75
233.009	81.75
233.243	92.75
233.477	82.75
233.711	89.75
233.945	77.75
234.179	78.75
234.413	91.75
234.647	73.75
234.881	66.75
235.115	89.75
235.349	77.75
235.583	75.75
235.817	69.75
236.051	84.75
236.285	71.75
236.519	81.75
236.753	83.75
236.987	91.75
237.221	83.75
237.455	84.75
237.689	77.75
237.922	75.75
238.156	81.75
238.39	72.75
238.624	67.75
238.858	82.75
239.091	73.75
239.325	61.75
239.559	87.75
239.793	80.75
240.027	76.75
240.26	79.75
240.494	79.75
240.728	83.75
240.961	80.75
241.195	75.75
241.429	77.75
241.662	61.75
241.896	68.75
242.13	90.75
242.363	67.75
242.597	79.75
242.83	79.75
243.064	75.75
243.298	74.75
243.531	73.75
243.765	76.75
243.998	80.75
244.232	79.75
244.465	83.75
244.699	72.75
244.932	83.75
245.166	73.75
245.399	77.75
245.633	85.75
245.866	73.75
246.099	86.75
246.333	79.75
246.566	70.75
246.8	71.75
247.033	72.75
247.266	83.75
247.5	89.75
247.733	92.75
247.966	79.75
248.2	61.75
248.433	85.75
248.666	76.75
248.899	80.75
249.133	69.75
249.366	87.75
249.599	76.75
249.832	82.75
250.066	72.75
250.299	74.75
250.532	66.75
250.765	58.75
250.998	81.75
251.231	90.75
251.465	92.75
251.698	80.75
251.931	69.75
252.164	90.75
252.397	74.75
252.63	76.75
252.863	86.75
253.096	67.75
253.329	87.75
253.562	80.75
253.795	81.75
254.028	87.75
254.261	86.75
254.494	75.75
254.727	68.75
254.96	95.75
255.193	90.75
255.426	91.75
255.659	88.75
255.892	83.75
256.124	77.75
256.357	75.75
256.59	86.75
256.823	75.75
257.056	76.75
257.289	67.75
257.521	72.75
257.754	77.75
257.987	70.75
258.22	83.75
258.452	71.75
258.685	58.75
258.918	80.75
259.151	87.75
259.383	81.75
259.616	88.75
259.849	83.75
260.081	70.75
260.314	84.75
260.547	65.75
260.779	90.75
261.012	79.75
261.244	89.75
261.477	97.75
261.71	91.75
261.942	94.75
262.175	103.75
262.407	104.75
262.64	87.75
262.872	92.75
263.105	83.75
263.337	85.75
263.57	91.75
263.802	84.75
264.035	81.75
264.267	90.75
264.499	85.75
264.732	88.75
264.964	81.75
265.197	82.75
265.429	68.75
265.661	75.75
265.894	95.75
266.126	84.75
266.358	83.75
266.591	79.75
266.823	95.75
267.055	74.75
267.287	96.75
267.52	76.75
267.752	83.75
267.984	82.75
268.216	69.75
268.448	87.75
268.681	95.75
268.913	76.75
269.145	69.75
269.377	91.75
269.609	74.75
269.841	81.75
270.073	79.75
270.306	73.75
270.538	78.75
270.77	73.75
271.002	89.75
271.234	85.75
271.466	90.75
271.698	84.75
271.93	85.75
272.162	84.75
272.394	86.75
272.626	92.75
272.858	93.75
273.09	80.75
273.322	68.75
273.553	90.75
273.785	87.75
274.017	97.75
274.249	92.75
274.481	90.75
274.713	87.75
274.945	84.75
275.176	75.75
275.408	91.75
275.64	87.75
275.872	69.75
276.104	87.75
276.335	77.75
276.567	105.75
276.799	90.75
277.031	91.75
277.262	86.75
277.494	67.75
277.726	83.75
277.957	83.75
278.189	73.75
278.421	83.75
278.652	75.75
278.884	76.75
279.115	83.75
279.347	89.75
279.579	82.75
279.81	79.75
280.042	91.75
280.273	69.75
280.505	88.75
280.736	103.75
280.968	80.75
281.199	67.75
281.431	94.75
281.662	89.75
281.894	73.75
282.125	91.75
282.356	107.75
282.588	111.75
282.819	104.75
283.051	79.75
283.282	93.75
283.513	81.75
283.745	88.75
283.976	75.75
284.207	86.75
284.439	83.75
284.67	84.75
284.901	88.75
285.132	83.75
285.364	78.75
285.595	83.75
285.826	85.75
286.057	96.75
286.288	73.75
286.52	81.75
286.751	77.75
286.982	86.75
287.213	89.75
287.444	79.75
287.675	87.75
287.906	93.75
288.138	75.75
288.369	92.75
288.6	84.75
288.831	101.75
289.062	98.75
289.293	83.75
289.524	85.75
289.755	89.75
289.986	73.75
290.217	93.75
290.448	90.75
290.679	91.75
290.91	87.75
291.141	101.75
291.371	96.75
291.602	72.75
291.833	100.75
292.064	81.75
292.295	102.75
292.526	87.75
292.757	86.75
292.987	98.75
293.218	91.75
293.449	96.75
293.68	87.75
293.91	81.75
294.141	82.75
294.372	84.75
294.603	80.75
294.833	81.75
295.064	93.75
295.295	98.75
295.525	86.75
295.756	89.75
295.987	106.75
296.217	114.75
296.448	107.75
296.679	86.75
296.909	73.75
297.14	89.75
297.37	80.75
297.601	82.75
297.831	81.75
298.062	83.75
298.292	86.75
298.523	81.75
298.753	92.75
298.984	81.75
299.214	88.75
299.445	91.75
299.675	77.75
299.905	69.75
300.136	73.75
300.366	91.75
300.597	80.75
300.827	80.75
301.057	89.75
301.288	95.75
301.518	85.75
301.748	84.75
301.979	94.75
302.209	87.75
302.439	105.75
302.669	88.75
302.9	73.75
303.13	88.75
303.36	94.75
303.59	83.75
303.82	89.75
304.051	95.75
304.281	87.75
304.511	82.75
304.741	82.75
304.971	103.75
305.201	89.75
305.431	93.75
305.661	87.75
305.891	98.75
306.121	89.75
306.352	86.75
306.582	102.75
306.812	87.75
307.042	99.75
307.272	83.75
307.502	97.75
307.731	102.75
307.961	86.75
308.191	93.75
308.421	100.75
308.651	91.75
308.881	100.75
309.111	85.75
309.341	94.75
309.571	89.75
309.8	102.75
310.03	98.75
310.26	89.75
310.49	78.75
310.72	95.75
310.949	107.75
311.179	84.75
311.409	87.75
311.639	81.75
311.868	79.75
312.098	103.75
312.328	81.75
312.557	109.75
312.787	98.75
313.017	91.75
313.246	90.75
313.476	89.75
313.706	90.75
313.935	91.75
314.165	72.75
314.394	89.75
314.624	90.75
314.853	106.75
315.083	85.75
315.312	91.75
315.542	102.75
315.771	91.75
316.001	73.75
316.23	87.75
316.46	85.75
316.689	88.75
316.919	97.75
317.148	101.75
317.377	91.75
317.607	93.75
317.836	77.75
318.065	82.75
318.295	96.75
318.524	86.75
318.753	96.75
318.983	112.75
319.212	89.75
319.441	106.75
319.67	89.75
319.9	91.75
320.129	79.75
320.358	92.75
320.587	94.75
320.816	86.75
321.046	85.75
321.275	93.75
321.504	104.75
321.733	89.75
321.962	88.75
322.191	97.75
322.42	95.75
322.649	91.75
322.878	103.75
323.108	108.75
323.337	117.75
323.566	105.75
323.795	129.75
324.024	189.75
324.253	315.75
324.482	695.75
324.71	1429.75
324.939	1829.75
325.168	677.75
325.397	210.75
325.626	126.75
325.855	134.75
326.084	118.75
326.313	117.75
326.542	121.75
326.77	195.75
326.999	401.75
327.228	824.75
327.457	1507.75
327.686	1149.75
327.914	311.75
328.143	170.75
328.372	128.75
328.6	125.75
328.829	114.75
329.058	111.75
329.287	114.75
329.515	95.75
329.744	108.75
329.972	105.75
330.201	112.75
330.43	114.75
330.658	117.75
330.887	134.75
331.115	104.75
331.344	98.75
331.572	111.75
331.801	107.75
332.03	105.75
332.258	83.75
332.486	84.75
332.715	86.75
332.943	90.75
333.172	91.75
333.4	95.75
333.629	95.75
333.857	100.75
334.085	97.75
334.314	115.75
334.542	112.75
334.771	118.75
334.999	96.75
335.227	100.75
335.455	90.75
335.684	90.75
335.912	76.75
336.14	90.75
336.369	105.75
336.597	96.75
336.825	103.75
337.053	92.75
337.281	89.75
337.51	85.75
337.738	84.75
337.966	82.75
338.194	84.75
338.422	86.75
338.65	105.75
338.878	94.75
339.106	73.75
339.334	90.75
339.562	89.75
339.79	81.75
340.018	84.75
340.246	82.75
340.474	87.75
340.702	92.75
340.93	83.75
341.158	94.75
341.386	92.75
341.614	89.75
341.842	101.75
342.07	93.75
342.298	81.75
342.526	104.75
342.754	98.75
342.981	93.75
343.209	92.75
343.437	100.75
343.665	79.75
343.893	87.75
344.12	86.75
344.348	92.75
344.576	89.75
344.804	91.75
345.031	94.75
345.259	79.75
345.487	85.75
345.714	70.75
345.942	88.75
346.17	89.75
346.397	79.75
346.625	89.75
346.853	102.75
347.08	92.75
347.308	84.75
347.535	103.75
347.763	97.75
347.99	105.75
348.218	114.75
348.445	107.75
348.673	102.75
348.9	84.75
349.128	88.75
349.355	93.75
349.583	95.75
349.81	81.75
350.037	91.75
350.265	91.75
350.492	96.75
350.72	87.75
350.947	88.75
351.174	95.75
351.402	99.75
351.629	107.75
351.856	85.75
352.083	102.75
352.311	83.75
352.538	110.75
352.765	119.75
352.992	96.75
353.22	99.75
353.447	88.75
353.674	94.75
353.901	103.75
354.128	103.75
354.355	107.75
354.583	96.75
354.81	101.75
355.037	104.75
355.264	99.75
355.491	93.75
355.718	81.75
355.945	92.75
356.172	88.75
356.399	89.75
356.626	103.75
356.853	80.75
357.08	87.75
357.307	84.75
357.534	92.75
357.761	96.75
357.988	79.75
358.215	89.75
358.441	103.75
358.668	83.75
358.895	78.75
359.122	94.75
359.349	97.75
359.576	96.75
359.802	98.75
360.029	97.75
360.256	84.75
360.483	97.75
360.709	91.75
360.936	85.75
361.163	92.75
361.39	99.75
361.616	90.75
361.843	105.75
362.07	96.75
362.296	85.75
362.523	85.75
362.749	80.75
362.976	89.75
363.203	89.75
363.429	93.75
363.656	82.75
363.882	101.75
364.109	88.75
364.335	89.75
364.562	87.75
364.788	91.75
365.015	96.75
365.241	107.75
365.468	97.75
365.694	85.75
365.92	85.75
366.147	92.75
366.373	88.75
366.599	80.75
366.826	94.75
367.052	99.75
367.278	85.75
367.505	84.75
367.731	93.75
367.957	97.75
368.184	97.75
368.41	96.75
368.636	98.75
368.862	87.75
369.089	96.75
369.315	93.75
369.541	87.75
369.767	87.75
369.993	99.75
370.219	89.75
370.445	75.75
370.672	84.75
370.898	70.75
371.124	85.75
371.35	82.75
371.576	95.75
371.802	86.75
372.028	96.75
372.254	92.75
372.48	97.75
372.706	93.75
372.932	93.75
373.158	87.75
373.384	86.75
373.61	70.75
373.835	92.75
374.061	95.75
374.287	106.75
374.513	79.75
374.739	84.75
374.965	91.75
375.191	95.75
375.416	88.75
375.642	89.75
375.868	65.75
376.094	82.75
376.319	80.75
376.545	88.75
376.771	84.75
376.997	91.75
377.222	83.75
377.448	75.75
377.674	88.75
377.899	109.75
378.125	73.75
378.35	91.75
378.576	92.75
378.802	81.75
379.027	101.75
379.253	93.75
379.478	85.75
379.704	106.75
379.929	84.75
380.155	80.75
380.38	95.75
380.606	92.75
380.831	99.75
381.057	108.75
381.282	95.75
381.507	98.75
381.733	85.75
381.958	96.75
382.184	91.75
382.409	94.75
382.634	105.75
382.86	102.75
383.085	96.75
383.31	100.75
383.535	105.75
383.761	89.75
383.986	81.75
384.211	105.75
384.436	98.75
384.662	115.75
384.887	103.75
385.112	87.75
385.337	102.75
385.562	96.75
385.787	106.75
386.013	124.75
386.238	112.75
386.463	99.75
386.688	113.75
386.913	97.75
387.138	97.75
387.363	99.75
387.588	100.75
387.813	92.75
388.038	97.75
388.263	105.75
388.488	120.75
388.713	82.75
388.938	101.75
389.163	106.75
389.387	97.75
389.612	85.75
389.837	92.75
390.062	81.75
390.287	91.75
390.512	98.75
390.736	96.75
390.961	89.75
391.186	106.75
391.411	92.75
391.636	82.75
391.86	95.75
392.085	79.75
392.31	84.75
392.534	85.75
392.759	94.75
392.984	97.75
393.208	88.75
393.433	97.75
393.658	90.75
393.882	83.75
394.107	87.75
394.331	83.75
394.556	73.75
394.78	89.75
395.005	85.75
395.229	83.75
395.454	88.75
395.678	83.75
395.903	79.75
396.127	74.75
396.352	79.75
396.576	76.75
396.801	91.75
397.025	75.75
397.249	97.75
397.474	99.75
397.698	89.75
397.922	87.75
398.147	83.75
398.371	88.75
398.595	95.75
398.82	76.75
399.044	79.75
399.268	82.75
399.492	85.75
399.717	83.75
399.941	81.75
400.165	99.75
400.389	83.75
400.613	88.75
400.837	89.75
401.062	65.75
401.286	83.75
401.51	72.75
401.734	97.75
401.958	107.75
402.182	121.75
402.406	136.75
402.63	110.75
402.854	91.75
403.078	85.75
403.302	71.75
403.526	93.75
403.75	81.75
403.974	96.75
404.198	95.75
404.422	95.75
404.645	83.75
404.869	90.75
405.093	89.75
405.317	91.75
405.541	101.75
405.765	89.75
405.988	106.75
406.212	131.75
406.436	172.75
406.66	108.75
406.883	93.75
407.107	88.75
407.331	89.75
407.555	90.75
407.778	86.75
408.002	85.75
408.226	81.75
408.449	79.75
408.673	95.75
408.896	88.75
409.12	80.75
409.344	84.75
409.567	86.75
409.791	91.75
410.014	92.75
410.238	87.75
410.461	91.75
410.685	103.75
410.908	90.75
411.132	96.75
411.355	105.75
411.578	77.75
411.802	92.75
412.025	84.75
412.249	84.75
412.472	91.75
412.695	97.75
412.919	92.75
413.142	96.75
413.365	86.75
413.589	100.75
413.812	99.75
414.035	84.75
414.258	92.75
414.482	82.75
414.705	88.75
414.928	93.75
415.151	96.75
415.374	102.75
415.597	74.75
415.821	92.75
416.044	92.75
416.267	80.75
416.49	87.75
416.713	79.75
416.936	77.75
417.159	81.75
417.382	101.75
417.605	92.75
417.828	93.75
418.051	88.75
418.274	97.75
418.497	78.75
418.72	94.75
418.943	92.75
419.166	87.75
419.389	97.75
419.611	85.75
419.834	91.75
420.057	93.75
420.28	92.75
420.503	95.75
420.726	82.75
420.948	92.75
421.171	101.75
421.394	87.75
421.617	98.75
421.839	85.75
422.062	80.75
422.285	77.75
422.507	84.75
422.73	90.75
422.953	90.75
423.175	90.75
423.398	83.75
423.621	78.75
423.843	89.75
424.066	90.75
424.288	92.75
424.511	77.75
424.733	91.75
424.956	99.75
425.178	92.75
425.401	103.75
425.623	99.75
425.846	95.75
426.068	90.75
426.291	80.75
426.513	94.75
426.735	96.75
426.958	93.75
427.18	92.75
427.402	123.75
427.625	135.75
427.847	101.75
428.069	107.75
428.292	86.75
428.514	90.75
428.736	74.75
428.958	78.75
429.181	81.75
429.403	83.75
429.625	75.75
429.847	83.75
430.069	84.75
430.292	83.75
430.514	92.75
430.736	77.75
430.958	79.75
431.18	83.75
431.402	84.75
431.624	87.75
431.846	97.75
432.068	87.75
432.29	95.75
432.512	92.75
432.734	87.75
432.956	91.75
433.178	106.75
433.4	89.75
433.622	99.75
433.844	104.75
434.066	91.75
434.287	84.75
434.509	104.75
434.731	90.75
434.953	96.75
435.175	95.75
435.397	90.75
435.618	91.75
435.84	91.75
436.062	107.75
436.284	109.75
436.505	101.75
436.727	88.75
436.949	91.75
437.17	93.75
437.392	86.75
437.614	91.75
437.835	98.75
438.057	104.75
438.278	91.75
438.5	97.75
438.721	124.75
438.943	88.75
439.165	84.75
439.386	82.75
439.608	84.75
439.829	96.75
440.05	100.75
440.272	133.75
440.493	92.75
440.715	92.75
440.936	91.75
441.158	84.75
441.379	93.75
441.6	96.75
441.822	96.75
442.043	90.75
442.264	102.75
442.486	97.75
442.707	86.75
442.928	87.75
443.149	109.75
443.371	107.75
443.592	89.75
443.813	90.75
444.034	87.75
444.255	89.75
444.476	83.75
444.698	74.75
444.919	79.75
445.14	126.75
445.361	116.75
445.582	104.75
445.803	115.75
446.024	115.75
446.245	115.75
446.466	88.75
446.687	89.75
446.908	90.75
447.129	84.75
447.35	87.75
447.571	79.75
447.792	81.75
448.013	89.75
448.234	112.75
448.455	84.75
448.675	98.75
448.896	94.75
449.117	102.75
449.338	98.75
449.559	103.75
449.779	128.75
450	100.75
450.221	84.75
450.442	90.75
450.662	106.75
450.883	91.75
451.104	87.75
451.324	87.75
451.545	90.75
451.766	91.75
451.986	83.75
452.207	92.75
452.428	88.75
452.648	86.75
452.869	104.75
453.089	100.75
453.31	94.75
453.53	84.75
453.751	86.75
453.971	99.75
454.192	104.75
454.412	79.75
454.633	95.75
454.853	80.75
455.073	84.75
455.294	66.75
455.514	79.75
455.734	86.75
455.955	91.75
456.175	90.75
456.395	101.75
456.616	95.75
456.836	92.75
457.056	81.75
457.276	83.75
457.497	85.75
457.717	90.75
457.937	88.75
458.157	85.75
458.377	82.75
458.598	91.75
458.818	134.75
459.038	130.75
459.258	93.75
459.478	89.75
459.698	92.75
459.918	94.75
460.138	89.75
460.358	66.75
460.578	93.75
460.798	93.75
461.018	90.75
461.238	83.75
461.458	90.75
461.678	79.75
461.898	87.75
462.118	88.75
462.338	93.75
462.558	98.75
462.777	82.75
462.997	97.75
463.217	91.75
463.437	92.75
463.657	81.75
463.876	83.75
464.096	84.75
464.316	94.75
464.536	80.75
464.755	99.75
464.975	91.75
465.195	127.75
465.414	116.75
465.634	85.75
465.854	87.75
466.073	95.75
466.293	74.75
466.512	74.75
466.732	82.75
466.951	75.75
467.171	93.75
467.391	97.75
467.61	99.75
467.829	109.75
468.049	98.75
468.268	101.75
468.488	84.75
468.707	85.75
468.927	77.75
469.146	81.75
469.365	82.75
469.585	95.75
469.804	82.75
470.023	97.75
470.243	79.75
470.462	89.75
470.681	105.75
470.901	87.75
471.12	82.75
471.339	80.75
471.558	79.75
471.777	92.75
471.997	94.75
472.216	91.75
472.435	115.75
472.654	82.75
472.873	81.75
473.092	92.75
473.311	81.75
473.53	81.75
473.749	91.75
473.968	109.75
474.187	99.75
474.406	91.75
474.625	83.75
474.844	85.75
475.063	95.75
475.282	87.75
475.501	95.75
475.72	90.75
475.939	85.75
476.158	100.75
476.377	90.75
476.596	85.75
476.814	71.75
477.033	91.75
477.252	94.75
477.471	94.75
477.69	88.75
477.908	88.75
478.127	92.75
478.346	72.75
478.564	84.75
478.783	102.75
479.002	91.75
479.22	93.75
479.439	96.75
479.658	81.75
479.876	99.75
480.095	90.75
480.313	86.75
480.532	97.75
480.751	88.75
480.969	101.75
481.188	161.75
481.406	139.75
481.624	89.75
481.843	92.75
482.061	113.75
482.28	85.75
482.498	89.75
482.717	79.75
482.935	86.75
483.153	89.75
483.372	95.75
483.59	90.75
483.808	95.75
484.027	103.75
484.245	97.75
484.463	87.75
484.681	87.75
484.9	93.75
485.118	87.75
485.336	92.75
485.554	106.75
485.772	96.75
485.99	98.75
486.209	105.75
486.427	102.75
486.645	107.75
486.863	105.75
487.081	94.75
487.299	97.75
487.517	88.75
487.735	98.75
487.953	83.75
488.171	93.75
488.389	89.75
488.607	88.75
488.825	94.75
489.043	88.75
489.261	86.75
489.479	89.75
489.696	97.75
489.914	81.75
490.132	85.75
490.35	85.75
490.568	86.75
490.786	82.75
491.003	85.75
491.221	89.75
491.439	83.75
491.657	84.75
491.874	87.75
492.092	92.75
492.31	100.75
492.527	84.75
492.745	99.75
492.963	101.75
493.18	91.75
493.398	104.75
493.615	99.75
493.833	92.75
494.05	89.75
494.268	89.75
494.485	92.75
494.703	83.75
494.92	81.75
495.138	88.75
495.355	87.75
495.573	90.75
495.79	85.75
496.008	86.75
496.225	87.75
496.442	82.75
496.66	85.75
496.877	89.75
497.094	101.75
497.312	105.75
497.529	83.75
497.746	84.75
497.963	87.75
498.181	91.75
498.398	91.75
498.615	90.75
498.832	97.75
499.049	100.75
499.267	73.75
499.484	87.75
499.701	79.75
499.918	90.75
500.135	102.75
500.352	101.75
500.569	86.75
500.786	89.75
501.003	92.75
501.22	97.75
501.437	99.75
501.654	92.75
501.871	91.75
502.088	85.75
502.305	96.75
502.522	99.75
502.739	85.75
502.956	89.75
503.172	95.75
503.389	75.75
503.606	91.75
503.823	88.75
504.04	100.75
504.256	96.75
504.473	84.75
504.69	85.75
504.907	101.75
505.123	101.75
505.34	81.75
505.557	88.75
505.773	77.75
505.99	92.75
506.207	75.75
506.423	93.75
506.64	93.75
506.856	82.75
507.073	97.75
507.289	93.75
507.506	98.75
507.722	97.75
507.939	103.75
508.155	91.75
508.372	87.75
508.588	98.75
508.805	81.75
509.021	100.75
509.238	95.75
509.454	87.75
509.67	100.75
509.887	111.75
510.103	116.75
510.319	188.75
510.536	569.75
510.752	1623.75
510.968	472.75
511.184	129.75
511.401	87.75
511.617	87.75
511.833	101.75
512.049	93.75
512.265	87.75
512.481	77.75
512.698	89.75
512.914	91.75
513.13	91.75
513.346	99.75
513.562	87.75
513.778	96.75
513.994	88.75
514.21	103.75
514.426	100.75
514.642	125.75
514.858	108.75
515.074	146.75
515.29	301.75
515.506	973.75
515.721	357.75
515.937	141.75
516.153	98.75
516.369	93.75
516.585	89.75
516.801	95.75
517.016	98.75
