Data from Uncirc_1981_H10_HRD10591_00015.txt Node
Date: Wed Jan 03 12:33:11 EST 2024
User: Yrep
Spectrometer: HR+D1059
Trigger mode: 1
Integration Time (sec): 1.000000E-1
Scans to average: 1
Electric dark correction enabled: true
Nonlinearity correction enabled: false
Boxcar width: 0
XAxis mode: Wavelengths
Number of Pixels in Spectrum: 2048
>>>>>Begin Spectral Data<<<<<
223.165	-16.44
223.4	-16.44
223.635	-16.44
223.869	-22.44
224.104	-19.44
224.338	-25.44
224.573	-16.44
224.808	-22.44
225.042	1.56
225.277	-17.44
225.511	1.56
225.746	11.56
225.98	10.56
226.215	25.56
226.449	13.56
226.683	24.56
226.918	20.56
227.152	30.56
227.387	21.56
227.621	37.56
227.856	55.56
228.09	40.56
228.324	59.56
228.559	61.56
228.793	65.56
229.027	66.56
229.262	61.56
229.496	66.56
229.73	87.56
229.964	81.56
230.199	61.56
230.433	70.56
230.667	57.56
230.901	63.56
231.136	65.56
231.37	70.56
231.604	74.56
231.838	72.56
232.072	81.56
232.306	67.56
232.541	76.56
232.775	87.56
233.009	65.56
233.243	81.56
233.477	74.56
233.711	69.56
233.945	82.56
234.179	72.56
234.413	81.56
234.647	77.56
234.881	83.56
235.115	66.56
235.349	60.56
235.583	80.56
235.817	77.56
236.051	69.56
236.285	58.56
236.519	61.56
236.753	75.56
236.987	73.56
237.221	73.56
237.455	88.56
237.689	72.56
237.922	77.56
238.156	77.56
238.39	82.56
238.624	73.56
238.858	81.56
239.091	66.56
239.325	52.56
239.559	79.56
239.793	75.56
240.027	69.56
240.26	77.56
240.494	78.56
240.728	78.56
240.961	71.56
241.195	71.56
241.429	65.56
241.662	70.56
241.896	85.56
242.13	70.56
242.363	74.56
242.597	78.56
242.83	83.56
243.064	75.56
243.298	69.56
243.531	62.56
243.765	81.56
243.998	77.56
244.232	77.56
244.465	73.56
244.699	72.56
244.932	72.56
245.166	74.56
245.399	81.56
245.633	74.56
245.866	73.56
246.099	92.56
246.333	68.56
246.566	67.56
246.8	82.56
247.033	89.56
247.266	58.56
247.5	62.56
247.733	83.56
247.966	73.56
248.2	66.56
248.433	72.56
248.666	85.56
248.899	81.56
249.133	82.56
249.366	69.56
249.599	75.56
249.832	78.56
250.066	73.56
250.299	80.56
250.532	65.56
250.765	79.56
250.998	71.56
251.231	87.56
251.465	77.56
251.698	78.56
251.931	79.56
252.164	74.56
252.397	66.56
252.63	87.56
252.863	81.56
253.096	92.56
253.329	81.56
253.562	83.56
253.795	87.56
254.028	77.56
254.261	82.56
254.494	83.56
254.727	76.56
254.96	72.56
255.193	77.56
255.426	67.56
255.659	72.56
255.892	75.56
256.124	74.56
256.357	94.56
256.59	88.56
256.823	77.56
257.056	84.56
257.289	63.56
257.521	67.56
257.754	66.56
257.987	82.56
258.22	79.56
258.452	79.56
258.685	81.56
258.918	90.56
259.151	65.56
259.383	68.56
259.616	77.56
259.849	83.56
260.081	78.56
260.314	87.56
260.547	68.56
260.779	79.56
261.012	72.56
261.244	89.56
261.477	91.56
261.71	83.56
261.942	80.56
262.175	102.56
262.407	82.56
262.64	83.56
262.872	91.56
263.105	88.56
263.337	75.56
263.57	66.56
263.802	87.56
264.035	81.56
264.267	79.56
264.499	71.56
264.732	82.56
264.964	79.56
265.197	65.56
265.429	92.56
265.661	74.56
265.894	59.56
266.126	84.56
266.358	70.56
266.591	85.56
266.823	82.56
267.055	79.56
267.287	87.56
267.52	71.56
267.752	72.56
267.984	71.56
268.216	84.56
268.448	71.56
268.681	83.56
268.913	83.56
269.145	73.56
269.377	95.56
269.609	84.56
269.841	91.56
270.073	91.56
270.306	65.56
270.538	89.56
270.77	73.56
271.002	80.56
271.234	72.56
271.466	97.56
271.698	80.56
271.93	80.56
272.162	95.56
272.394	85.56
272.626	82.56
272.858	81.56
273.09	68.56
273.322	71.56
273.553	78.56
273.785	91.56
274.017	73.56
274.249	84.56
274.481	94.56
274.713	78.56
274.945	77.56
275.176	86.56
275.408	88.56
275.64	99.56
275.872	87.56
276.104	81.56
276.335	78.56
276.567	80.56
276.799	96.56
277.031	95.56
277.262	87.56
277.494	61.56
277.726	88.56
277.957	83.56
278.189	79.56
278.421	89.56
278.652	86.56
278.884	98.56
279.115	86.56
279.347	77.56
279.579	88.56
279.81	75.56
280.042	93.56
280.273	88.56
280.505	82.56
280.736	89.56
280.968	73.56
281.199	66.56
281.431	85.56
281.662	71.56
281.894	104.56
282.125	87.56
282.356	77.56
282.588	101.56
282.819	100.56
283.051	91.56
283.282	82.56
283.513	100.56
283.745	74.56
283.976	71.56
284.207	87.56
284.439	74.56
284.67	83.56
284.901	99.56
285.132	85.56
285.364	94.56
285.595	83.56
285.826	61.56
286.057	95.56
286.288	95.56
286.52	78.56
286.751	82.56
286.982	88.56
287.213	82.56
287.444	89.56
287.675	83.56
287.906	83.56
288.138	79.56
288.369	83.56
288.6	77.56
288.831	84.56
289.062	87.56
289.293	77.56
289.524	103.56
289.755	71.56
289.986	68.56
290.217	82.56
290.448	69.56
290.679	80.56
290.91	71.56
291.141	79.56
291.371	83.56
291.602	81.56
291.833	82.56
292.064	86.56
292.295	101.56
292.526	97.56
292.757	86.56
292.987	73.56
293.218	81.56
293.449	77.56
293.68	87.56
293.91	96.56
294.141	88.56
294.372	89.56
294.603	78.56
294.833	82.56
295.064	73.56
295.295	82.56
295.525	97.56
295.756	81.56
295.987	104.56
296.217	116.56
296.448	100.56
296.679	92.56
296.909	96.56
297.14	79.56
297.37	82.56
297.601	86.56
297.831	75.56
298.062	93.56
298.292	87.56
298.523	91.56
298.753	97.56
298.984	71.56
299.214	72.56
299.445	72.56
299.675	93.56
299.905	85.56
300.136	88.56
300.366	87.56
300.597	89.56
300.827	97.56
301.057	92.56
301.288	91.56
301.518	82.56
301.748	92.56
301.979	105.56
302.209	89.56
302.439	93.56
302.669	87.56
302.9	80.56
303.13	64.56
303.36	105.56
303.59	89.56
303.82	87.56
304.051	98.56
304.281	86.56
304.511	86.56
304.741	78.56
304.971	84.56
305.201	89.56
305.431	74.56
305.661	93.56
305.891	79.56
306.121	96.56
306.352	96.56
306.582	96.56
306.812	82.56
307.042	85.56
307.272	80.56
307.502	79.56
307.731	101.56
307.961	88.56
308.191	82.56
308.421	82.56
308.651	97.56
308.881	74.56
309.111	75.56
309.341	96.56
309.571	101.56
309.8	90.56
310.03	74.56
310.26	88.56
310.49	95.56
310.72	83.56
310.949	79.56
311.179	101.56
311.409	82.56
311.639	86.56
311.868	82.56
312.098	94.56
312.328	91.56
312.557	93.56
312.787	89.56
313.017	100.56
313.246	86.56
313.476	81.56
313.706	77.56
313.935	88.56
314.165	91.56
314.394	93.56
314.624	95.56
314.853	81.56
315.083	81.56
315.312	90.56
315.542	84.56
315.771	86.56
316.001	90.56
316.23	87.56
316.46	69.56
316.689	89.56
316.919	86.56
317.148	90.56
317.377	84.56
317.607	97.56
317.836	81.56
318.065	86.56
318.295	86.56
318.524	80.56
318.753	82.56
318.983	89.56
319.212	78.56
319.441	88.56
319.67	79.56
319.9	85.56
320.129	92.56
320.358	86.56
320.587	94.56
320.816	81.56
321.046	89.56
321.275	103.56
321.504	101.56
321.733	87.56
321.962	99.56
322.191	84.56
322.42	95.56
322.649	90.56
322.878	105.56
323.108	103.56
323.337	106.56
323.566	119.56
323.795	123.56
324.024	157.56
324.253	303.56
324.482	618.56
324.71	1258.56
324.939	1587.56
325.168	579.56
325.397	189.56
325.626	130.56
325.855	125.56
326.084	101.56
326.313	111.56
326.542	139.56
326.77	184.56
326.999	362.56
327.228	717.56
327.457	1315.56
327.686	1028.56
327.914	278.56
328.143	157.56
328.372	129.56
328.6	117.56
328.829	114.56
329.058	120.56
329.287	86.56
329.515	106.56
329.744	91.56
329.972	95.56
330.201	116.56
330.43	87.56
330.658	98.56
330.887	101.56
331.115	90.56
331.344	87.56
331.572	94.56
331.801	93.56
332.03	88.56
332.258	88.56
332.486	87.56
332.715	96.56
332.943	91.56
333.172	83.56
333.4	92.56
333.629	93.56
333.857	88.56
334.085	97.56
334.314	98.56
334.542	97.56
334.771	112.56
334.999	101.56
335.227	101.56
335.455	96.56
335.684	90.56
335.912	88.56
336.14	81.56
336.369	88.56
336.597	93.56
336.825	78.56
337.053	86.56
337.281	111.56
337.51	93.56
337.738	99.56
337.966	94.56
338.194	89.56
338.422	102.56
338.65	102.56
338.878	90.56
339.106	81.56
339.334	83.56
339.562	87.56
339.79	100.56
340.018	82.56
340.246	93.56
340.474	75.56
340.702	83.56
340.93	70.56
341.158	102.56
341.386	88.56
341.614	84.56
341.842	91.56
342.07	94.56
342.298	93.56
342.526	85.56
342.754	73.56
342.981	77.56
343.209	86.56
343.437	89.56
343.665	80.56
343.893	87.56
344.12	83.56
344.348	93.56
344.576	87.56
344.804	86.56
345.031	97.56
345.259	98.56
345.487	100.56
345.714	99.56
345.942	101.56
346.17	86.56
346.397	86.56
346.625	85.56
346.853	89.56
347.08	86.56
347.308	96.56
347.535	103.56
347.763	86.56
347.99	92.56
348.218	83.56
348.445	89.56
348.673	87.56
348.9	88.56
349.128	88.56
349.355	90.56
349.583	111.56
349.81	85.56
350.037	100.56
350.265	100.56
350.492	93.56
350.72	84.56
350.947	89.56
351.174	96.56
351.402	99.56
351.629	94.56
351.856	113.56
352.083	122.56
352.311	100.56
352.538	96.56
352.765	87.56
352.992	100.56
353.22	110.56
353.447	96.56
353.674	94.56
353.901	98.56
354.128	89.56
354.355	101.56
354.583	93.56
354.81	88.56
355.037	105.56
355.264	81.56
355.491	97.56
355.718	89.56
355.945	98.56
356.172	102.56
356.399	94.56
356.626	94.56
356.853	91.56
357.08	109.56
357.307	90.56
357.534	109.56
357.761	97.56
357.988	101.56
358.215	89.56
358.441	99.56
358.668	94.56
358.895	85.56
359.122	95.56
359.349	98.56
359.576	78.56
359.802	91.56
360.029	101.56
360.256	95.56
360.483	81.56
360.709	89.56
360.936	87.56
361.163	90.56
361.39	97.56
361.616	94.56
361.843	100.56
362.07	91.56
362.296	95.56
362.523	99.56
362.749	80.56
362.976	81.56
363.203	82.56
363.429	93.56
363.656	86.56
363.882	81.56
364.109	83.56
364.335	83.56
364.562	89.56
364.788	86.56
365.015	77.56
365.241	104.56
365.468	105.56
365.694	90.56
365.92	98.56
366.147	92.56
366.373	93.56
366.599	93.56
366.826	86.56
367.052	85.56
367.278	77.56
367.505	85.56
367.731	87.56
367.957	75.56
368.184	88.56
368.41	93.56
368.636	99.56
368.862	102.56
369.089	96.56
369.315	81.56
369.541	89.56
369.767	96.56
369.993	78.56
370.219	83.56
370.445	75.56
370.672	83.56
370.898	86.56
371.124	92.56
371.35	85.56
371.576	91.56
371.802	94.56
372.028	86.56
372.254	85.56
372.48	78.56
372.706	85.56
372.932	79.56
373.158	75.56
373.384	92.56
373.61	81.56
373.835	90.56
374.061	98.56
374.287	91.56
374.513	94.56
374.739	83.56
374.965	100.56
375.191	83.56
375.416	80.56
375.642	89.56
375.868	81.56
376.094	114.56
376.319	83.56
376.545	98.56
376.771	86.56
376.997	89.56
377.222	94.56
377.448	102.56
377.674	93.56
377.899	86.56
378.125	90.56
378.35	99.56
378.576	97.56
378.802	86.56
379.027	96.56
379.253	103.56
379.478	98.56
379.704	89.56
379.929	76.56
380.155	104.56
380.38	104.56
380.606	99.56
380.831	89.56
381.057	99.56
381.282	100.56
381.507	97.56
381.733	106.56
381.958	100.56
382.184	112.56
382.409	113.56
382.634	111.56
382.86	101.56
383.085	106.56
383.31	108.56
383.535	93.56
383.761	119.56
383.986	124.56
384.211	113.56
384.436	91.56
384.662	105.56
384.887	127.56
385.112	120.56
385.337	124.56
385.562	125.56
385.787	128.56
386.013	137.56
386.238	146.56
386.463	133.56
386.688	124.56
386.913	133.56
387.138	127.56
387.363	122.56
387.588	96.56
387.813	99.56
388.038	122.56
388.263	144.56
388.488	121.56
388.713	107.56
388.938	100.56
389.163	90.56
389.387	105.56
389.612	87.56
389.837	94.56
390.062	96.56
390.287	99.56
390.512	78.56
390.736	87.56
390.961	82.56
391.186	89.56
391.411	90.56
391.636	113.56
391.86	88.56
392.085	86.56
392.31	82.56
392.534	77.56
392.759	84.56
392.984	68.56
393.208	86.56
393.433	82.56
393.658	94.56
393.882	74.56
394.107	81.56
394.331	87.56
394.556	89.56
394.78	88.56
395.005	84.56
395.229	88.56
395.454	94.56
395.678	86.56
395.903	75.56
396.127	86.56
396.352	79.56
396.576	70.56
396.801	84.56
397.025	77.56
397.249	78.56
397.474	88.56
397.698	83.56
397.922	88.56
398.147	64.56
398.371	85.56
398.595	92.56
398.82	87.56
399.044	84.56
399.268	90.56
399.492	79.56
399.717	83.56
399.941	77.56
400.165	85.56
400.389	83.56
400.613	90.56
400.837	90.56
401.062	71.56
401.286	70.56
401.51	76.56
401.734	73.56
401.958	82.56
402.182	106.56
402.406	119.56
402.63	101.56
402.854	92.56
403.078	76.56
403.302	90.56
403.526	85.56
403.75	77.56
403.974	88.56
404.198	89.56
404.422	89.56
404.645	83.56
404.869	78.56
405.093	82.56
405.317	70.56
405.541	95.56
405.765	87.56
405.988	102.56
406.212	128.56
406.436	151.56
406.66	106.56
406.883	97.56
407.107	87.56
407.331	97.56
407.555	93.56
407.778	87.56
408.002	92.56
408.226	86.56
408.449	91.56
408.673	86.56
408.896	80.56
409.12	91.56
409.344	106.56
409.567	83.56
409.791	103.56
410.014	105.56
410.238	101.56
410.461	97.56
410.685	90.56
410.908	83.56
411.132	114.56
411.355	85.56
411.578	86.56
411.802	85.56
412.025	77.56
412.249	90.56
412.472	83.56
412.695	91.56
412.919	86.56
413.142	87.56
413.365	78.56
413.589	82.56
413.812	81.56
414.035	88.56
414.258	93.56
414.482	90.56
414.705	84.56
414.928	83.56
415.151	98.56
415.374	97.56
415.597	80.56
415.821	84.56
416.044	86.56
416.267	91.56
416.49	82.56
416.713	85.56
416.936	84.56
417.159	82.56
417.382	85.56
417.605	95.56
417.828	93.56
418.051	93.56
418.274	93.56
418.497	82.56
418.72	87.56
418.943	73.56
419.166	90.56
419.389	85.56
419.611	78.56
419.834	97.56
420.057	86.56
420.28	91.56
420.503	78.56
420.726	74.56
420.948	78.56
421.171	70.56
421.394	89.56
421.617	95.56
421.839	78.56
422.062	86.56
422.285	98.56
422.507	102.56
422.73	107.56
422.953	80.56
423.175	82.56
423.398	87.56
423.621	85.56
423.843	78.56
424.066	77.56
424.288	69.56
424.511	98.56
424.733	88.56
424.956	84.56
425.178	83.56
425.401	70.56
425.623	87.56
425.846	90.56
426.068	99.56
426.291	87.56
426.513	82.56
426.735	92.56
426.958	75.56
427.18	101.56
427.402	111.56
427.625	123.56
427.847	116.56
428.069	117.56
428.292	84.56
428.514	108.56
428.736	61.56
428.958	84.56
429.181	77.56
429.403	74.56
429.625	73.56
429.847	71.56
430.069	88.56
430.292	94.56
430.514	84.56
430.736	89.56
430.958	82.56
431.18	81.56
431.402	75.56
431.624	82.56
431.846	86.56
432.068	75.56
432.29	86.56
432.512	80.56
432.734	78.56
432.956	86.56
433.178	89.56
433.4	85.56
433.622	91.56
433.844	90.56
434.066	106.56
434.287	83.56
434.509	95.56
434.731	91.56
434.953	101.56
435.175	77.56
435.397	79.56
435.618	86.56
435.84	96.56
436.062	107.56
436.284	94.56
436.505	91.56
436.727	89.56
436.949	88.56
437.17	80.56
437.392	90.56
437.614	80.56
437.835	76.56
438.057	73.56
438.278	90.56
438.5	93.56
438.721	106.56
438.943	77.56
439.165	66.56
439.386	83.56
439.608	79.56
439.829	81.56
440.05	99.56
440.272	114.56
440.493	84.56
440.715	80.56
440.936	93.56
441.158	87.56
441.379	92.56
441.6	81.56
441.822	85.56
442.043	81.56
442.264	88.56
442.486	81.56
442.707	78.56
442.928	95.56
443.149	96.56
443.371	99.56
443.592	103.56
443.813	110.56
444.034	101.56
444.255	76.56
444.476	81.56
444.698	101.56
444.919	77.56
445.14	125.56
445.361	112.56
445.582	125.56
445.803	120.56
446.024	109.56
446.245	106.56
446.466	83.56
446.687	83.56
446.908	82.56
447.129	86.56
447.35	95.56
447.571	79.56
447.792	79.56
448.013	78.56
448.234	106.56
448.455	113.56
448.675	114.56
448.896	94.56
449.117	90.56
449.338	103.56
449.559	121.56
449.779	111.56
450	87.56
450.221	69.56
450.442	101.56
450.662	85.56
450.883	87.56
451.104	89.56
451.324	86.56
451.545	84.56
451.766	77.56
451.986	81.56
452.207	85.56
452.428	86.56
452.648	102.56
452.869	99.56
453.089	94.56
453.31	94.56
453.53	98.56
453.751	88.56
453.971	82.56
454.192	102.56
454.412	86.56
454.633	84.56
454.853	75.56
455.073	82.56
455.294	83.56
455.514	87.56
455.734	85.56
455.955	74.56
456.175	83.56
456.395	71.56
456.616	77.56
456.836	89.56
457.056	79.56
457.276	93.56
457.497	73.56
457.717	69.56
457.937	82.56
458.157	87.56
458.377	88.56
458.598	77.56
458.818	106.56
459.038	111.56
459.258	82.56
459.478	87.56
459.698	87.56
459.918	93.56
460.138	75.56
460.358	68.56
460.578	79.56
460.798	79.56
461.018	83.56
461.238	90.56
461.458	88.56
461.678	92.56
461.898	89.56
462.118	83.56
462.338	69.56
462.558	79.56
462.777	80.56
462.997	79.56
463.217	82.56
463.437	81.56
463.657	75.56
463.876	76.56
464.096	93.56
464.316	93.56
464.536	91.56
464.755	91.56
464.975	78.56
465.195	117.56
465.414	117.56
465.634	98.56
465.854	74.56
466.073	84.56
466.293	83.56
466.512	89.56
466.732	78.56
466.951	79.56
467.171	96.56
467.391	88.56
467.61	86.56
467.829	86.56
468.049	77.56
468.268	89.56
468.488	88.56
468.707	74.56
468.927	83.56
469.146	92.56
469.365	85.56
469.585	93.56
469.804	94.56
470.023	88.56
470.243	86.56
470.462	95.56
470.681	87.56
470.901	78.56
471.12	82.56
471.339	89.56
471.558	89.56
471.777	84.56
471.997	93.56
472.216	112.56
472.435	115.56
472.654	92.56
472.873	82.56
473.092	89.56
473.311	81.56
473.53	85.56
473.749	71.56
473.968	89.56
474.187	89.56
474.406	91.56
474.625	78.56
474.844	88.56
475.063	75.56
475.282	88.56
475.501	82.56
475.72	68.56
475.939	82.56
476.158	83.56
476.377	88.56
476.596	87.56
476.814	86.56
477.033	78.56
477.252	86.56
477.471	79.56
477.69	89.56
477.908	82.56
478.127	79.56
478.346	69.56
478.564	90.56
478.783	89.56
479.002	90.56
479.22	82.56
479.439	88.56
479.658	82.56
479.876	79.56
480.095	72.56
480.313	75.56
480.532	88.56
480.751	99.56
480.969	103.56
481.188	136.56
481.406	125.56
481.624	87.56
481.843	92.56
482.061	74.56
482.28	79.56
482.498	89.56
482.717	81.56
482.935	99.56
483.153	81.56
483.372	75.56
483.59	79.56
483.808	86.56
484.027	88.56
484.245	102.56
484.463	96.56
484.681	97.56
484.9	77.56
485.118	90.56
485.336	94.56
485.554	96.56
485.772	90.56
485.99	98.56
486.209	119.56
486.427	100.56
486.645	102.56
486.863	97.56
487.081	105.56
487.299	92.56
487.517	96.56
487.735	93.56
487.953	105.56
488.171	95.56
488.389	114.56
488.607	100.56
488.825	96.56
489.043	74.56
489.261	96.56
489.479	86.56
489.696	82.56
489.914	86.56
490.132	81.56
490.35	87.56
490.568	84.56
490.786	102.56
491.003	86.56
491.221	88.56
491.439	87.56
491.657	83.56
491.874	101.56
492.092	91.56
492.31	97.56
492.527	96.56
492.745	91.56
492.963	71.56
493.18	89.56
493.398	101.56
493.615	94.56
493.833	96.56
494.05	78.56
494.268	96.56
494.485	83.56
494.703	88.56
494.92	86.56
495.138	85.56
495.355	90.56
495.573	86.56
495.79	72.56
496.008	104.56
496.225	95.56
496.442	87.56
496.66	94.56
496.877	85.56
497.094	84.56
497.312	77.56
497.529	79.56
497.746	95.56
497.963	85.56
498.181	83.56
498.398	80.56
498.615	102.56
498.832	92.56
499.049	87.56
499.267	84.56
499.484	93.56
499.701	96.56
499.918	89.56
500.135	78.56
500.352	86.56
500.569	73.56
500.786	97.56
501.003	78.56
501.22	93.56
501.437	88.56
501.654	93.56
501.871	82.56
502.088	87.56
502.305	99.56
502.522	64.56
502.739	87.56
502.956	76.56
503.172	83.56
503.389	86.56
503.606	89.56
503.823	89.56
504.04	83.56
504.256	87.56
504.473	82.56
504.69	98.56
504.907	89.56
505.123	90.56
505.34	79.56
505.557	92.56
505.773	97.56
505.99	83.56
506.207	86.56
506.423	85.56
506.64	89.56
506.856	86.56
507.073	77.56
507.289	91.56
507.506	96.56
507.722	105.56
507.939	91.56
508.155	77.56
508.372	72.56
508.588	89.56
508.805	90.56
509.021	89.56
509.238	88.56
509.454	94.56
509.67	78.56
509.887	101.56
510.103	129.56
510.319	151.56
510.536	445.56
510.752	1199.56
510.968	361.56
511.184	116.56
511.401	88.56
511.617	99.56
511.833	93.56
512.049	83.56
512.265	83.56
512.481	88.56
512.698	80.56
512.914	88.56
513.13	97.56
513.346	89.56
513.562	91.56
513.778	81.56
513.994	93.56
514.21	93.56
514.426	106.56
514.642	106.56
514.858	105.56
515.074	111.56
515.29	260.56
515.506	714.56
515.721	294.56
515.937	128.56
516.153	100.56
516.369	98.56
516.585	102.56
516.801	83.56
517.016	79.56
517.232	75.56
