Data from Circ_2023_H10_HRD10591_00074.txt Node
Date: Wed Jan 03 09:50:45 EST 2024
User: Yrep
Spectrometer: HR+D1059
Trigger mode: 1
Integration Time (sec): 1.000000E-1
Scans to average: 1
Electric dark correction enabled: true
Nonlinearity correction enabled: false
Boxcar width: 0
XAxis mode: Wavelengths
Number of Pixels in Spectrum: 2048
>>>>>Begin Spectral Data<<<<<
223.165	-12.81
223.4	-12.81
223.635	-12.81
223.869	-24.81
224.104	-27.81
224.338	-16.81
224.573	-13.81
224.808	-2.81
225.042	-0.81
225.277	-12.81
225.511	5.19
225.746	3.19
225.98	9.19
226.215	17.19
226.449	12.19
226.683	17.19
226.918	25.19
227.152	23.19
227.387	40.19
227.621	33.19
227.856	49.19
228.09	48.19
228.324	51.19
228.559	68.19
228.793	60.19
229.027	64.19
229.262	72.19
229.496	70.19
229.73	101.19
229.964	111.19
230.199	83.19
230.433	72.19
230.667	75.19
230.901	85.19
231.136	75.19
231.37	61.19
231.604	76.19
231.838	72.19
232.072	73.19
232.306	87.19
232.541	84.19
232.775	67.19
233.009	89.19
233.243	84.19
233.477	78.19
233.711	72.19
233.945	81.19
234.179	79.19
234.413	77.19
234.647	94.19
234.881	74.19
235.115	89.19
235.349	71.19
235.583	91.19
235.817	78.19
236.051	76.19
236.285	77.19
236.519	73.19
236.753	85.19
236.987	78.19
237.221	104.19
237.455	96.19
237.689	77.19
237.922	80.19
238.156	81.19
238.39	85.19
238.624	82.19
238.858	77.19
239.091	77.19
239.325	87.19
239.559	89.19
239.793	76.19
240.027	83.19
240.26	83.19
240.494	87.19
240.728	83.19
240.961	95.19
241.195	87.19
241.429	73.19
241.662	82.19
241.896	63.19
242.13	77.19
242.363	75.19
242.597	61.19
242.83	82.19
243.064	93.19
243.298	86.19
243.531	81.19
243.765	90.19
243.998	85.19
244.232	84.19
244.465	91.19
244.699	79.19
244.932	80.19
245.166	77.19
245.399	91.19
245.633	75.19
245.866	95.19
246.099	82.19
246.333	82.19
246.566	80.19
246.8	97.19
247.033	82.19
247.266	94.19
247.5	75.19
247.733	65.19
247.966	86.19
248.2	65.19
248.433	87.19
248.666	89.19
248.899	90.19
249.133	88.19
249.366	107.19
249.599	103.19
249.832	83.19
250.066	81.19
250.299	86.19
250.532	97.19
250.765	91.19
250.998	90.19
251.231	89.19
251.465	91.19
251.698	80.19
251.931	100.19
252.164	74.19
252.397	84.19
252.63	77.19
252.863	95.19
253.096	79.19
253.329	85.19
253.562	81.19
253.795	85.19
254.028	81.19
254.261	88.19
254.494	88.19
254.727	79.19
254.96	85.19
255.193	86.19
255.426	71.19
255.659	93.19
255.892	102.19
256.124	117.19
256.357	101.19
256.59	97.19
256.823	88.19
257.056	102.19
257.289	107.19
257.521	92.19
257.754	87.19
257.987	99.19
258.22	92.19
258.452	99.19
258.685	107.19
258.918	93.19
259.151	87.19
259.383	88.19
259.616	91.19
259.849	88.19
260.081	97.19
260.314	91.19
260.547	86.19
260.779	99.19
261.012	122.19
261.244	109.19
261.477	114.19
261.71	105.19
261.942	131.19
262.175	137.19
262.407	112.19
262.64	83.19
262.872	99.19
263.105	82.19
263.337	85.19
263.57	80.19
263.802	86.19
264.035	93.19
264.267	81.19
264.499	75.19
264.732	81.19
264.964	69.19
265.197	94.19
265.429	85.19
265.661	87.19
265.894	73.19
266.126	88.19
266.358	85.19
266.591	97.19
266.823	84.19
267.055	92.19
267.287	94.19
267.52	90.19
267.752	81.19
267.984	82.19
268.216	85.19
268.448	110.19
268.681	98.19
268.913	82.19
269.145	80.19
269.377	80.19
269.609	86.19
269.841	83.19
270.073	89.19
270.306	91.19
270.538	90.19
270.77	97.19
271.002	82.19
271.234	82.19
271.466	96.19
271.698	106.19
271.93	82.19
272.162	74.19
272.394	104.19
272.626	101.19
272.858	83.19
273.09	78.19
273.322	76.19
273.553	81.19
273.785	99.19
274.017	95.19
274.249	106.19
274.481	87.19
274.713	85.19
274.945	85.19
275.176	90.19
275.408	107.19
275.64	115.19
275.872	152.19
276.104	128.19
276.335	120.19
276.567	135.19
276.799	159.19
277.031	204.19
277.262	232.19
277.494	175.19
277.726	105.19
277.957	107.19
278.189	92.19
278.421	83.19
278.652	95.19
278.884	108.19
279.115	96.19
279.347	112.19
279.579	104.19
279.81	133.19
280.042	226.19
280.273	322.19
280.505	212.19
280.736	115.19
280.968	115.19
281.199	96.19
281.431	112.19
281.662	97.19
281.894	93.19
282.125	117.19
282.356	149.19
282.588	175.19
282.819	143.19
283.051	94.19
283.282	98.19
283.513	88.19
283.745	93.19
283.976	92.19
284.207	96.19
284.439	103.19
284.67	99.19
284.901	85.19
285.132	96.19
285.364	93.19
285.595	97.19
285.826	86.19
286.057	89.19
286.288	89.19
286.52	91.19
286.751	91.19
286.982	80.19
287.213	102.19
287.444	91.19
287.675	105.19
287.906	88.19
288.138	87.19
288.369	90.19
288.6	103.19
288.831	113.19
289.062	98.19
289.293	87.19
289.524	87.19
289.755	81.19
289.986	105.19
290.217	97.19
290.448	92.19
290.679	98.19
290.91	91.19
291.141	83.19
291.371	90.19
291.602	86.19
291.833	96.19
292.064	89.19
292.295	107.19
292.526	84.19
292.757	88.19
292.987	80.19
293.218	93.19
293.449	92.19
293.68	91.19
293.91	92.19
294.141	98.19
294.372	79.19
294.603	88.19
294.833	99.19
295.064	92.19
295.295	91.19
295.525	93.19
295.756	91.19
295.987	131.19
296.217	163.19
296.448	143.19
296.679	103.19
296.909	89.19
297.14	92.19
297.37	90.19
297.601	93.19
297.831	91.19
298.062	83.19
298.292	103.19
298.523	107.19
298.753	103.19
298.984	93.19
299.214	108.19
299.445	96.19
299.675	98.19
299.905	107.19
300.136	99.19
300.366	83.19
300.597	76.19
300.827	103.19
301.057	96.19
301.288	108.19
301.518	112.19
301.748	116.19
301.979	117.19
302.209	106.19
302.439	105.19
302.669	85.19
302.9	87.19
303.13	100.19
303.36	117.19
303.59	150.19
303.82	160.19
304.051	107.19
304.281	99.19
304.511	100.19
304.741	91.19
304.971	98.19
305.201	95.19
305.431	98.19
305.661	75.19
305.891	96.19
306.121	100.19
306.352	120.19
306.582	132.19
306.812	116.19
307.042	135.19
307.272	162.19
307.502	196.19
307.731	183.19
307.961	136.19
308.191	85.19
308.421	98.19
308.651	96.19
308.881	104.19
309.111	90.19
309.341	95.19
309.571	109.19
309.8	108.19
310.03	114.19
310.26	115.19
310.49	99.19
310.72	113.19
310.949	113.19
311.179	116.19
311.409	116.19
311.639	102.19
311.868	106.19
312.098	108.19
312.328	113.19
312.557	106.19
312.787	112.19
313.017	147.19
313.246	115.19
313.476	104.19
313.706	90.19
313.935	112.19
314.165	103.19
314.394	125.19
314.624	123.19
314.853	111.19
315.083	93.19
315.312	94.19
315.542	106.19
315.771	106.19
316.001	91.19
316.23	85.19
316.46	105.19
316.689	99.19
316.919	97.19
317.148	123.19
317.377	108.19
317.607	93.19
317.836	93.19
318.065	93.19
318.295	104.19
318.524	98.19
318.753	99.19
318.983	102.19
319.212	120.19
319.441	118.19
319.67	137.19
319.9	98.19
320.129	94.19
320.358	89.19
320.587	102.19
320.816	112.19
321.046	103.19
321.275	102.19
321.504	90.19
321.733	107.19
321.962	109.19
322.191	114.19
322.42	138.19
322.649	137.19
322.878	134.19
323.108	136.19
323.337	150.19
323.566	161.19
323.795	184.19
324.024	259.19
324.253	516.19
324.482	1137.19
324.71	2315.19
324.939	3048.19
325.168	1114.19
325.397	323.19
325.626	187.19
325.855	170.19
326.084	151.19
326.313	159.19
326.542	183.19
326.77	296.19
326.999	615.19
327.228	1235.19
327.457	2201.19
327.686	1783.19
327.914	668.19
328.143	626.19
328.372	859.19
328.6	469.19
328.829	209.19
329.058	217.19
329.287	226.19
329.515	224.19
329.744	330.19
329.972	592.19
330.201	1244.19
330.43	1873.19
330.658	810.19
330.887	355.19
331.115	220.19
331.344	142.19
331.572	133.19
331.801	143.19
332.03	135.19
332.258	137.19
332.486	131.19
332.715	116.19
332.943	114.19
333.172	142.19
333.4	155.19
333.629	184.19
333.857	280.19
334.085	545.19
334.314	1205.19
334.542	2370.19
334.771	2243.19
334.999	536.19
335.227	194.19
335.455	134.19
335.684	132.19
335.912	121.19
336.14	121.19
336.369	112.19
336.597	126.19
336.825	116.19
337.053	100.19
337.281	100.19
337.51	97.19
337.738	107.19
337.966	106.19
338.194	107.19
338.422	93.19
338.65	109.19
338.878	101.19
339.106	91.19
339.334	97.19
339.562	95.19
339.79	113.19
340.018	97.19
340.246	102.19
340.474	101.19
340.702	98.19
340.93	90.19
341.158	100.19
341.386	112.19
341.614	106.19
341.842	113.19
342.07	119.19
342.298	93.19
342.526	78.19
342.754	87.19
342.981	88.19
343.209	84.19
343.437	99.19
343.665	98.19
343.893	103.19
344.12	111.19
344.348	82.19
344.576	84.19
344.804	83.19
345.031	100.19
345.259	113.19
345.487	115.19
345.714	101.19
345.942	92.19
346.17	111.19
346.397	86.19
346.625	108.19
346.853	115.19
347.08	100.19
347.308	101.19
347.535	100.19
347.763	104.19
347.99	103.19
348.218	118.19
348.445	131.19
348.673	111.19
348.9	120.19
349.128	108.19
349.355	99.19
349.583	113.19
349.81	116.19
350.037	88.19
350.265	100.19
350.492	100.19
350.72	97.19
350.947	100.19
351.174	112.19
351.402	128.19
351.629	109.19
351.856	103.19
352.083	105.19
352.311	118.19
352.538	125.19
352.765	131.19
352.992	127.19
353.22	103.19
353.447	112.19
353.674	97.19
353.901	103.19
354.128	105.19
354.355	98.19
354.583	103.19
354.81	102.19
355.037	108.19
355.264	91.19
355.491	88.19
355.718	84.19
355.945	96.19
356.172	101.19
356.399	99.19
356.626	94.19
356.853	97.19
357.08	99.19
357.307	88.19
357.534	92.19
357.761	95.19
357.988	101.19
358.215	103.19
358.441	92.19
358.668	96.19
358.895	86.19
359.122	100.19
359.349	82.19
359.576	92.19
359.802	119.19
360.029	151.19
360.256	147.19
360.483	123.19
360.709	101.19
360.936	103.19
361.163	92.19
361.39	102.19
361.616	98.19
361.843	93.19
362.07	113.19
362.296	118.19
362.523	111.19
362.749	107.19
362.976	123.19
363.203	92.19
363.429	95.19
363.656	84.19
363.882	91.19
364.109	97.19
364.335	95.19
364.562	112.19
364.788	108.19
365.015	106.19
365.241	107.19
365.468	131.19
365.694	124.19
365.92	110.19
366.147	106.19
366.373	95.19
366.599	95.19
366.826	98.19
367.052	101.19
367.278	99.19
367.505	108.19
367.731	121.19
367.957	101.19
368.184	117.19
368.41	120.19
368.636	139.19
368.862	140.19
369.089	118.19
369.315	97.19
369.541	91.19
369.767	106.19
369.993	106.19
370.219	96.19
370.445	91.19
370.672	89.19
370.898	92.19
371.124	103.19
371.35	95.19
371.576	90.19
371.802	102.19
372.028	80.19
372.254	107.19
372.48	88.19
372.706	95.19
372.932	91.19
373.158	102.19
373.384	88.19
373.61	99.19
373.835	89.19
374.061	116.19
374.287	98.19
374.513	94.19
374.739	80.19
374.965	77.19
375.191	81.19
375.416	104.19
375.642	88.19
375.868	102.19
376.094	94.19
376.319	112.19
376.545	96.19
376.771	102.19
376.997	88.19
377.222	99.19
377.448	100.19
377.674	98.19
377.899	87.19
378.125	96.19
378.35	96.19
378.576	89.19
378.802	88.19
379.027	104.19
379.253	104.19
379.478	109.19
379.704	105.19
379.929	87.19
380.155	103.19
380.38	109.19
380.606	103.19
380.831	101.19
381.057	93.19
381.282	93.19
381.507	91.19
381.733	86.19
381.958	106.19
382.184	90.19
382.409	95.19
382.634	111.19
382.86	107.19
383.085	99.19
383.31	104.19
383.535	112.19
383.761	109.19
383.986	95.19
384.211	81.19
384.436	99.19
384.662	90.19
384.887	86.19
385.112	89.19
385.337	102.19
385.562	96.19
385.787	94.19
386.013	110.19
386.238	119.19
386.463	112.19
386.688	113.19
386.913	97.19
387.138	96.19
387.363	97.19
387.588	112.19
387.813	96.19
388.038	114.19
388.263	109.19
388.488	94.19
388.713	102.19
388.938	109.19
389.163	99.19
389.387	107.19
389.612	101.19
389.837	81.19
390.062	91.19
390.287	99.19
390.512	98.19
390.736	101.19
390.961	95.19
391.186	90.19
391.411	91.19
391.636	96.19
391.86	90.19
392.085	87.19
392.31	99.19
392.534	88.19
392.759	91.19
392.984	90.19
393.208	98.19
393.433	84.19
393.658	98.19
393.882	95.19
394.107	79.19
394.331	97.19
394.556	85.19
394.78	95.19
395.005	114.19
395.229	90.19
395.454	90.19
395.678	88.19
395.903	85.19
396.127	95.19
396.352	88.19
396.576	91.19
396.801	101.19
397.025	90.19
397.249	80.19
397.474	98.19
397.698	81.19
397.922	99.19
398.147	96.19
398.371	86.19
398.595	86.19
398.82	84.19
399.044	90.19
399.268	88.19
399.492	99.19
399.717	94.19
399.941	97.19
400.165	105.19
400.389	113.19
400.613	100.19
400.837	99.19
401.062	87.19
401.286	97.19
401.51	97.19
401.734	111.19
401.958	100.19
402.182	149.19
402.406	208.19
402.63	177.19
402.854	108.19
403.078	108.19
403.302	92.19
403.526	99.19
403.75	74.19
403.974	89.19
404.198	98.19
404.422	102.19
404.645	102.19
404.869	105.19
405.093	131.19
405.317	179.19
405.541	177.19
405.765	123.19
405.988	146.19
406.212	231.19
406.436	324.19
406.66	215.19
406.883	125.19
407.107	109.19
407.331	132.19
407.555	123.19
407.778	131.19
408.002	102.19
408.226	90.19
408.449	100.19
408.673	105.19
408.896	108.19
409.12	104.19
409.344	102.19
409.567	89.19
409.791	86.19
410.014	90.19
410.238	102.19
410.461	103.19
410.685	101.19
410.908	107.19
411.132	104.19
411.355	119.19
411.578	87.19
411.802	92.19
412.025	95.19
412.249	124.19
412.472	132.19
412.695	156.19
412.919	123.19
413.142	104.19
413.365	88.19
413.589	90.19
413.812	100.19
414.035	89.19
414.258	101.19
414.482	95.19
414.705	103.19
414.928	97.19
415.151	94.19
415.374	96.19
415.597	93.19
415.821	96.19
416.044	84.19
416.267	106.19
416.49	90.19
416.713	90.19
416.936	102.19
417.159	91.19
417.382	94.19
417.605	123.19
417.828	125.19
418.051	110.19
418.274	116.19
418.497	84.19
418.72	102.19
418.943	93.19
419.166	88.19
419.389	77.19
419.611	102.19
419.834	107.19
420.057	91.19
420.28	99.19
420.503	113.19
420.726	88.19
420.948	99.19
421.171	121.19
421.394	114.19
421.617	102.19
421.839	98.19
422.062	97.19
422.285	100.19
422.507	109.19
422.73	116.19
422.953	95.19
423.175	98.19
423.398	85.19
423.621	99.19
423.843	96.19
424.066	88.19
424.288	115.19
424.511	110.19
424.733	131.19
424.956	133.19
425.178	119.19
425.401	139.19
425.623	120.19
425.846	113.19
426.068	126.19
426.291	103.19
426.513	103.19
426.735	100.19
426.958	112.19
427.18	120.19
427.402	203.19
427.625	297.19
427.847	275.19
428.069	255.19
428.292	152.19
428.514	95.19
428.736	104.19
428.958	102.19
429.181	93.19
429.403	85.19
429.625	84.19
429.847	96.19
430.069	130.19
430.292	107.19
430.514	92.19
430.736	90.19
430.958	97.19
431.18	97.19
431.402	67.19
431.624	100.19
431.846	85.19
432.068	104.19
432.29	94.19
432.512	84.19
432.734	103.19
432.956	99.19
433.178	100.19
433.4	92.19
433.622	98.19
433.844	101.19
434.066	107.19
434.287	98.19
434.509	86.19
434.731	96.19
434.953	96.19
435.175	74.19
435.397	92.19
435.618	111.19
435.84	113.19
436.062	161.19
436.284	142.19
436.505	125.19
436.727	114.19
436.949	103.19
437.17	111.19
437.392	104.19
437.614	105.19
437.835	146.19
438.057	175.19
438.278	167.19
438.5	141.19
438.721	164.19
438.943	125.19
439.165	96.19
439.386	105.19
439.608	117.19
439.829	121.19
440.05	175.19
440.272	201.19
440.493	116.19
440.715	108.19
440.936	88.19
441.158	90.19
441.379	84.19
441.6	116.19
441.822	113.19
442.043	103.19
442.264	146.19
442.486	147.19
442.707	122.19
442.928	131.19
443.149	189.19
443.371	189.19
443.592	152.19
443.813	143.19
444.034	139.19
444.255	113.19
444.476	88.19
444.698	90.19
444.919	97.19
445.14	144.19
445.361	144.19
445.582	146.19
445.803	203.19
446.024	197.19
446.245	196.19
446.466	161.19
446.687	100.19
446.908	103.19
447.129	97.19
447.35	85.19
447.571	104.19
447.792	98.19
448.013	126.19
448.234	146.19
448.455	131.19
448.675	149.19
448.896	157.19
449.117	106.19
449.338	125.19
449.559	157.19
449.779	186.19
450	100.19
450.221	85.19
450.442	98.19
450.662	108.19
450.883	133.19
451.104	158.19
451.324	101.19
451.545	100.19
451.766	101.19
451.986	96.19
452.207	104.19
452.428	102.19
452.648	109.19
452.869	126.19
453.089	154.19
453.31	138.19
453.53	107.19
453.751	96.19
453.971	120.19
454.192	126.19
454.412	115.19
454.633	94.19
454.853	86.19
455.073	88.19
455.294	100.19
455.514	131.19
455.734	107.19
455.955	94.19
456.175	87.19
456.395	95.19
456.616	83.19
456.836	100.19
457.056	93.19
457.276	79.19
457.497	90.19
457.717	84.19
457.937	89.19
458.157	94.19
458.377	91.19
458.598	131.19
458.818	232.19
459.038	249.19
459.258	159.19
459.478	111.19
459.698	86.19
459.918	91.19
460.138	98.19
460.358	88.19
460.578	84.19
460.798	102.19
461.018	100.19
461.238	87.19
461.458	100.19
461.678	66.19
461.898	105.19
462.118	81.19
462.338	102.19
462.558	97.19
462.777	87.19
462.997	96.19
463.217	122.19
463.437	111.19
463.657	83.19
463.876	111.19
464.096	106.19
464.316	111.19
464.536	107.19
464.755	117.19
464.975	127.19
465.195	246.19
465.414	252.19
465.634	113.19
465.854	101.19
466.073	96.19
466.293	98.19
466.512	88.19
466.732	85.19
466.951	115.19
467.171	120.19
467.391	129.19
467.61	155.19
467.829	245.19
468.049	696.19
468.268	1125.19
468.488	265.19
468.707	136.19
468.927	105.19
469.146	100.19
469.365	114.19
469.585	99.19
469.804	113.19
470.023	100.19
470.243	102.19
470.462	129.19
470.681	130.19
470.901	118.19
471.12	97.19
471.339	112.19
471.558	129.19
471.777	178.19
471.997	358.19
472.216	1339.19
472.435	3247.19
472.654	782.19
472.873	199.19
473.092	132.19
473.311	97.19
473.53	83.19
473.749	101.19
473.968	110.19
474.187	156.19
474.406	141.19
474.625	99.19
474.844	109.19
475.063	101.19
475.282	76.19
475.501	89.19
475.72	88.19
475.939	89.19
476.158	87.19
476.377	87.19
476.596	99.19
476.814	106.19
477.033	111.19
477.252	91.19
477.471	92.19
477.69	84.19
477.908	86.19
478.127	96.19
478.346	92.19
478.564	116.19
478.783	128.19
479.002	114.19
479.22	116.19
479.439	127.19
479.658	141.19
479.876	129.19
480.095	139.19
480.313	159.19
480.532	192.19
480.751	328.19
480.969	1223.19
481.188	5392.19
481.406	3313.19
481.624	472.19
481.843	160.19
482.061	117.19
482.28	108.19
482.498	102.19
482.717	111.19
482.935	103.19
483.153	95.19
483.372	112.19
483.59	106.19
483.808	101.19
484.027	92.19
484.245	98.19
484.463	103.19
484.681	111.19
484.9	111.19
485.118	88.19
485.336	84.19
485.554	104.19
485.772	114.19
485.99	104.19
486.209	108.19
486.427	111.19
486.645	132.19
486.863	150.19
487.081	137.19
487.299	103.19
487.517	113.19
487.735	122.19
487.953	84.19
488.171	93.19
488.389	112.19
488.607	126.19
488.825	99.19
489.043	101.19
489.261	92.19
489.479	89.19
489.696	86.19
489.914	94.19
490.132	86.19
490.35	101.19
490.568	90.19
490.786	97.19
491.003	103.19
491.221	127.19
491.439	105.19
491.657	100.19
491.874	101.19
492.092	91.19
492.31	99.19
492.527	123.19
492.745	115.19
492.963	98.19
493.18	89.19
493.398	89.19
493.615	88.19
493.833	98.19
494.05	99.19
494.268	100.19
494.485	97.19
494.703	85.19
494.92	96.19
495.138	98.19
495.355	93.19
495.573	94.19
495.79	90.19
496.008	92.19
496.225	82.19
496.442	97.19
496.66	101.19
496.877	94.19
497.094	100.19
497.312	99.19
497.529	97.19
497.746	100.19
497.963	102.19
498.181	91.19
498.398	87.19
498.615	106.19
498.832	120.19
499.049	82.19
499.267	96.19
499.484	98.19
499.701	89.19
499.918	100.19
500.135	97.19
500.352	91.19
500.569	101.19
500.786	120.19
501.003	94.19
501.22	100.19
501.437	112.19
501.654	105.19
501.871	135.19
502.088	106.19
502.305	105.19
502.522	95.19
502.739	95.19
502.956	108.19
503.172	120.19
503.389	116.19
503.606	130.19
503.823	116.19
504.04	105.19
504.256	97.19
504.473	98.19
504.69	100.19
504.907	86.19
505.123	101.19
505.34	95.19
505.557	103.19
505.773	98.19
505.99	95.19
506.207	92.19
506.423	95.19
506.64	95.19
506.856	90.19
507.073	88.19
507.289	85.19
507.506	105.19
507.722	150.19
507.939	142.19
508.155	112.19
508.372	92.19
508.588	104.19
508.805	93.19
509.021	103.19
509.238	114.19
509.454	100.19
509.67	118.19
509.887	124.19
510.103	157.19
510.319	246.19
510.536	973.19
510.752	3371.19
