Data from Circ_2023_H10_HRD10591_00084.txt Node
Date: Wed Jan 03 09:50:47 EST 2024
User: Yrep
Spectrometer: HR+D1059
Trigger mode: 1
Integration Time (sec): 1.000000E-1
Scans to average: 1
Electric dark correction enabled: true
Nonlinearity correction enabled: false
Boxcar width: 0
XAxis mode: Wavelengths
Number of Pixels in Spectrum: 2048
>>>>>Begin Spectral Data<<<<<
223.165	-41.62
223.4	-41.62
223.635	-41.62
223.869	-26.62
224.104	-19.62
224.338	-6.62
224.573	-3.62
224.808	-9.62
225.042	-2.62
225.277	-2.62
225.511	-11.62
225.746	-2.62
225.98	1.38
226.215	11.38
226.449	22.38
226.683	14.38
226.918	28.38
227.152	49.38
227.387	44.38
227.621	39.38
227.856	36.38
228.09	59.38
228.324	40.38
228.559	65.38
228.793	50.38
229.027	89.38
229.262	83.38
229.496	73.38
229.73	95.38
229.964	101.38
230.199	74.38
230.433	75.38
230.667	80.38
230.901	79.38
231.136	77.38
231.37	82.38
231.604	77.38
231.838	84.38
232.072	89.38
232.306	98.38
232.541	94.38
232.775	100.38
233.009	85.38
233.243	81.38
233.477	78.38
233.711	84.38
233.945	97.38
234.179	77.38
234.413	81.38
234.647	83.38
234.881	81.38
235.115	86.38
235.349	88.38
235.583	78.38
235.817	77.38
236.051	75.38
236.285	73.38
236.519	82.38
236.753	95.38
236.987	88.38
237.221	92.38
237.455	106.38
237.689	98.38
237.922	77.38
238.156	76.38
238.39	72.38
238.624	71.38
238.858	80.38
239.091	77.38
239.325	72.38
239.559	87.38
239.793	100.38
240.027	85.38
240.26	83.38
240.494	98.38
240.728	99.38
240.961	85.38
241.195	90.38
241.429	89.38
241.662	85.38
241.896	66.38
242.13	82.38
242.363	77.38
242.597	79.38
242.83	73.38
243.064	78.38
243.298	68.38
243.531	85.38
243.765	73.38
243.998	88.38
244.232	76.38
244.465	98.38
244.699	92.38
244.932	82.38
245.166	99.38
245.399	100.38
245.633	72.38
245.866	72.38
246.099	84.38
246.333	86.38
246.566	95.38
246.8	88.38
247.033	75.38
247.266	91.38
247.5	86.38
247.733	93.38
247.966	82.38
248.2	84.38
248.433	82.38
248.666	81.38
248.899	92.38
249.133	89.38
249.366	114.38
249.599	113.38
249.832	98.38
250.066	77.38
250.299	97.38
250.532	98.38
250.765	100.38
250.998	87.38
251.231	90.38
251.465	93.38
251.698	90.38
251.931	82.38
252.164	94.38
252.397	84.38
252.63	95.38
252.863	87.38
253.096	98.38
253.329	77.38
253.562	78.38
253.795	89.38
254.028	99.38
254.261	84.38
254.494	72.38
254.727	89.38
254.96	75.38
255.193	91.38
255.426	84.38
255.659	105.38
255.892	101.38
256.124	113.38
256.357	85.38
256.59	77.38
256.823	90.38
257.056	96.38
257.289	84.38
257.521	94.38
257.754	91.38
257.987	92.38
258.22	109.38
258.452	109.38
258.685	103.38
258.918	100.38
259.151	87.38
259.383	96.38
259.616	100.38
259.849	91.38
260.081	91.38
260.314	90.38
260.547	103.38
260.779	113.38
261.012	129.38
261.244	134.38
261.477	105.38
261.71	108.38
261.942	125.38
262.175	146.38
262.407	102.38
262.64	85.38
262.872	91.38
263.105	102.38
263.337	80.38
263.57	79.38
263.802	101.38
264.035	93.38
264.267	84.38
264.499	90.38
264.732	95.38
264.964	98.38
265.197	100.38
265.429	102.38
265.661	92.38
265.894	90.38
266.126	96.38
266.358	91.38
266.591	79.38
266.823	91.38
267.055	97.38
267.287	91.38
267.52	94.38
267.752	70.38
267.984	84.38
268.216	110.38
268.448	103.38
268.681	88.38
268.913	98.38
269.145	92.38
269.377	91.38
269.609	101.38
269.841	79.38
270.073	97.38
270.306	84.38
270.538	93.38
270.77	87.38
271.002	91.38
271.234	96.38
271.466	91.38
271.698	80.38
271.93	95.38
272.162	97.38
272.394	105.38
272.626	92.38
272.858	97.38
273.09	86.38
273.322	91.38
273.553	84.38
273.785	88.38
274.017	84.38
274.249	90.38
274.481	93.38
274.713	109.38
274.945	105.38
275.176	93.38
275.408	121.38
275.64	121.38
275.872	145.38
276.104	117.38
276.335	118.38
276.567	134.38
276.799	164.38
277.031	215.38
277.262	264.38
277.494	193.38
277.726	112.38
277.957	97.38
278.189	114.38
278.421	107.38
278.652	99.38
278.884	97.38
279.115	99.38
279.347	106.38
279.579	119.38
279.81	160.38
280.042	249.38
280.273	372.38
280.505	250.38
280.736	136.38
280.968	115.38
281.199	107.38
281.431	88.38
281.662	88.38
281.894	115.38
282.125	122.38
282.356	147.38
282.588	186.38
282.819	124.38
283.051	116.38
283.282	92.38
283.513	92.38
283.745	91.38
283.976	86.38
284.207	87.38
284.439	94.38
284.67	87.38
284.901	93.38
285.132	91.38
285.364	97.38
285.595	92.38
285.826	84.38
286.057	96.38
286.288	100.38
286.52	93.38
286.751	90.38
286.982	90.38
287.213	76.38
287.444	96.38
287.675	85.38
287.906	97.38
288.138	101.38
288.369	103.38
288.6	106.38
288.831	83.38
289.062	85.38
289.293	109.38
289.524	101.38
289.755	94.38
289.986	86.38
290.217	87.38
290.448	105.38
290.679	83.38
290.91	115.38
291.141	104.38
291.371	86.38
291.602	96.38
291.833	90.38
292.064	95.38
292.295	91.38
292.526	98.38
292.757	99.38
292.987	96.38
293.218	88.38
293.449	90.38
293.68	93.38
293.91	101.38
294.141	104.38
294.372	93.38
294.603	89.38
294.833	97.38
295.064	92.38
295.295	98.38
295.525	100.38
295.756	109.38
295.987	148.38
296.217	183.38
296.448	151.38
296.679	100.38
296.909	92.38
297.14	96.38
297.37	86.38
297.601	91.38
297.831	99.38
298.062	104.38
298.292	101.38
298.523	91.38
298.753	99.38
298.984	102.38
299.214	82.38
299.445	94.38
299.675	121.38
299.905	104.38
300.136	103.38
300.366	90.38
300.597	91.38
300.827	101.38
301.057	108.38
301.288	120.38
301.518	105.38
301.748	102.38
301.979	130.38
302.209	112.38
302.439	92.38
302.669	107.38
302.9	99.38
303.13	100.38
303.36	129.38
303.59	149.38
303.82	177.38
304.051	134.38
304.281	91.38
304.511	99.38
304.741	93.38
304.971	102.38
305.201	102.38
305.431	102.38
305.661	88.38
305.891	100.38
306.121	107.38
306.352	128.38
306.582	135.38
306.812	105.38
307.042	138.38
307.272	195.38
307.502	235.38
307.731	219.38
307.961	150.38
308.191	100.38
308.421	103.38
308.651	102.38
308.881	101.38
309.111	103.38
309.341	99.38
309.571	106.38
309.8	108.38
310.03	109.38
310.26	108.38
310.49	118.38
310.72	102.38
310.949	133.38
311.179	114.38
311.409	108.38
311.639	91.38
311.868	120.38
312.098	108.38
312.328	132.38
312.557	122.38
312.787	130.38
313.017	117.38
313.246	106.38
313.476	98.38
313.706	103.38
313.935	106.38
314.165	125.38
314.394	103.38
314.624	112.38
314.853	112.38
315.083	87.38
315.312	109.38
315.542	93.38
315.771	102.38
316.001	109.38
316.23	98.38
316.46	107.38
316.689	100.38
316.919	106.38
317.148	113.38
317.377	112.38
317.607	112.38
317.836	121.38
318.065	118.38
318.295	124.38
318.524	101.38
318.753	96.38
318.983	93.38
319.212	117.38
319.441	129.38
319.67	124.38
319.9	101.38
320.129	96.38
320.358	114.38
320.587	98.38
320.816	112.38
321.046	128.38
321.275	106.38
321.504	104.38
321.733	130.38
321.962	113.38
322.191	114.38
322.42	130.38
322.649	140.38
322.878	124.38
323.108	149.38
323.337	164.38
323.566	172.38
323.795	210.38
324.024	288.38
324.253	601.38
324.482	1258.38
324.71	2582.38
324.939	3469.38
325.168	1248.38
325.397	332.38
325.626	206.38
325.855	176.38
326.084	163.38
326.313	167.38
326.542	209.38
326.77	312.38
326.999	672.38
327.228	1377.38
327.457	2529.38
327.686	2056.38
327.914	721.38
328.143	724.38
328.372	964.38
328.6	524.38
328.829	224.38
329.058	219.38
329.287	242.38
329.515	210.38
329.744	359.38
329.972	709.38
330.201	1519.38
330.43	2244.38
330.658	959.38
330.887	358.38
331.115	243.38
331.344	157.38
331.572	146.38
331.801	143.38
332.03	150.38
332.258	126.38
332.486	122.38
332.715	108.38
332.943	125.38
333.172	140.38
333.4	153.38
333.629	194.38
333.857	297.38
334.085	637.38
334.314	1382.38
334.542	2753.38
334.771	2580.38
334.999	643.38
335.227	225.38
335.455	140.38
335.684	130.38
335.912	112.38
336.14	121.38
336.369	133.38
336.597	131.38
336.825	133.38
337.053	104.38
337.281	101.38
337.51	100.38
337.738	105.38
337.966	112.38
338.194	117.38
338.422	113.38
338.65	111.38
338.878	107.38
339.106	98.38
339.334	102.38
339.562	92.38
339.79	104.38
340.018	97.38
340.246	103.38
340.474	106.38
340.702	89.38
340.93	92.38
341.158	100.38
341.386	111.38
341.614	114.38
341.842	116.38
342.07	101.38
342.298	114.38
342.526	94.38
342.754	97.38
342.981	91.38
343.209	109.38
343.437	99.38
343.665	92.38
343.893	77.38
344.12	107.38
344.348	100.38
344.576	98.38
344.804	113.38
345.031	118.38
345.259	115.38
345.487	129.38
345.714	108.38
345.942	89.38
346.17	84.38
346.397	100.38
346.625	100.38
346.853	107.38
347.08	100.38
347.308	110.38
347.535	109.38
347.763	111.38
347.99	114.38
348.218	124.38
348.445	126.38
348.673	105.38
348.9	122.38
349.128	100.38
349.355	84.38
349.583	92.38
349.81	96.38
350.037	121.38
350.265	112.38
350.492	99.38
350.72	104.38
350.947	116.38
351.174	123.38
351.402	139.38
351.629	117.38
351.856	120.38
352.083	116.38
352.311	125.38
352.538	126.38
352.765	120.38
352.992	119.38
353.22	122.38
353.447	113.38
353.674	120.38
353.901	110.38
354.128	105.38
354.355	89.38
354.583	112.38
354.81	95.38
355.037	104.38
355.264	99.38
355.491	88.38
355.718	104.38
355.945	102.38
356.172	99.38
356.399	105.38
356.626	97.38
356.853	113.38
357.08	92.38
357.307	100.38
357.534	98.38
357.761	88.38
357.988	93.38
358.215	93.38
358.441	92.38
358.668	98.38
358.895	87.38
359.122	103.38
359.349	112.38
359.576	114.38
359.802	130.38
360.029	153.38
360.256	155.38
360.483	133.38
360.709	103.38
360.936	93.38
361.163	109.38
361.39	108.38
361.616	102.38
361.843	107.38
362.07	114.38
362.296	102.38
362.523	97.38
362.749	112.38
362.976	101.38
363.203	102.38
363.429	107.38
363.656	99.38
363.882	107.38
364.109	100.38
364.335	110.38
364.562	107.38
364.788	113.38
365.015	102.38
365.241	116.38
365.468	143.38
365.694	120.38
365.92	105.38
366.147	99.38
366.373	92.38
366.599	101.38
366.826	96.38
367.052	98.38
367.278	101.38
367.505	103.38
367.731	101.38
367.957	98.38
368.184	98.38
368.41	116.38
368.636	141.38
368.862	137.38
369.089	136.38
369.315	104.38
369.541	103.38
369.767	114.38
369.993	103.38
370.219	106.38
370.445	98.38
370.672	86.38
370.898	83.38
371.124	99.38
371.35	86.38
371.576	87.38
371.802	91.38
372.028	96.38
372.254	97.38
372.48	80.38
372.706	97.38
372.932	92.38
373.158	88.38
373.384	100.38
373.61	81.38
373.835	99.38
374.061	109.38
374.287	103.38
374.513	105.38
374.739	101.38
374.965	104.38
375.191	93.38
375.416	96.38
375.642	98.38
375.868	99.38
376.094	85.38
376.319	93.38
376.545	98.38
376.771	95.38
376.997	98.38
377.222	107.38
377.448	102.38
377.674	93.38
377.899	91.38
378.125	88.38
378.35	107.38
378.576	97.38
378.802	78.38
379.027	90.38
379.253	99.38
379.478	92.38
379.704	93.38
379.929	89.38
380.155	90.38
380.38	103.38
380.606	103.38
380.831	98.38
381.057	102.38
381.282	102.38
381.507	101.38
381.733	103.38
381.958	109.38
382.184	97.38
382.409	102.38
382.634	119.38
382.86	112.38
383.085	89.38
383.31	96.38
383.535	99.38
383.761	95.38
383.986	85.38
384.211	105.38
384.436	107.38
384.662	102.38
384.887	118.38
385.112	101.38
385.337	105.38
385.562	94.38
385.787	100.38
386.013	99.38
386.238	126.38
386.463	116.38
386.688	94.38
386.913	108.38
387.138	89.38
387.363	98.38
387.588	104.38
387.813	95.38
388.038	96.38
388.263	105.38
388.488	105.38
388.713	105.38
388.938	101.38
389.163	104.38
389.387	100.38
389.612	93.38
389.837	107.38
390.062	83.38
390.287	102.38
390.512	97.38
390.736	91.38
390.961	104.38
391.186	91.38
391.411	99.38
391.636	89.38
391.86	88.38
392.085	102.38
392.31	104.38
392.534	96.38
392.759	89.38
392.984	95.38
393.208	87.38
393.433	89.38
393.658	91.38
393.882	92.38
394.107	86.38
394.331	95.38
394.556	106.38
394.78	83.38
395.005	86.38
395.229	86.38
395.454	87.38
395.678	93.38
395.903	112.38
396.127	92.38
396.352	91.38
396.576	87.38
396.801	81.38
397.025	75.38
397.249	94.38
397.474	97.38
397.698	98.38
397.922	94.38
398.147	100.38
398.371	81.38
398.595	90.38
398.82	89.38
399.044	92.38
399.268	79.38
399.492	93.38
399.717	104.38
399.941	112.38
400.165	105.38
400.389	95.38
400.613	89.38
400.837	101.38
401.062	68.38
401.286	87.38
401.51	91.38
401.734	98.38
401.958	119.38
402.182	162.38
402.406	208.38
402.63	157.38
402.854	119.38
403.078	92.38
403.302	92.38
403.526	110.38
403.75	101.38
403.974	82.38
404.198	105.38
404.422	112.38
404.645	98.38
404.869	110.38
405.093	135.38
405.317	167.38
405.541	180.38
405.765	124.38
405.988	153.38
406.212	227.38
406.436	334.38
406.66	217.38
406.883	142.38
407.107	108.38
407.331	106.38
407.555	138.38
407.778	126.38
408.002	102.38
408.226	107.38
408.449	89.38
408.673	99.38
408.896	106.38
409.12	117.38
409.344	97.38
409.567	93.38
409.791	102.38
410.014	101.38
410.238	98.38
410.461	81.38
410.685	101.38
410.908	109.38
411.132	129.38
411.355	113.38
411.578	102.38
411.802	98.38
412.025	82.38
412.249	122.38
412.472	138.38
412.695	178.38
412.919	136.38
413.142	122.38
413.365	100.38
413.589	95.38
413.812	89.38
414.035	95.38
414.258	109.38
414.482	110.38
414.705	87.38
414.928	89.38
415.151	88.38
415.374	95.38
415.597	94.38
415.821	100.38
416.044	106.38
416.267	78.38
416.49	103.38
416.713	99.38
416.936	92.38
417.159	93.38
417.382	105.38
417.605	131.38
417.828	132.38
418.051	117.38
418.274	78.38
418.497	90.38
418.72	109.38
418.943	93.38
419.166	84.38
419.389	89.38
419.611	98.38
419.834	107.38
420.057	98.38
420.28	106.38
420.503	99.38
420.726	96.38
420.948	102.38
421.171	116.38
421.394	124.38
421.617	98.38
421.839	98.38
422.062	91.38
422.285	99.38
422.507	111.38
422.73	125.38
422.953	103.38
423.175	83.38
423.398	97.38
423.621	81.38
423.843	75.38
424.066	99.38
424.288	112.38
424.511	109.38
424.733	116.38
424.956	121.38
425.178	102.38
425.401	124.38
425.623	114.38
425.846	107.38
426.068	107.38
426.291	89.38
426.513	108.38
426.735	99.38
426.958	121.38
427.18	122.38
427.402	201.38
427.625	286.38
427.847	290.38
428.069	273.38
428.292	157.38
428.514	115.38
428.736	108.38
428.958	91.38
429.181	89.38
429.403	98.38
429.625	95.38
429.847	105.38
430.069	132.38
430.292	115.38
430.514	93.38
430.736	99.38
430.958	94.38
431.18	82.38
431.402	100.38
431.624	94.38
431.846	81.38
432.068	92.38
432.29	102.38
432.512	81.38
432.734	99.38
432.956	104.38
433.178	125.38
433.4	117.38
433.622	95.38
433.844	89.38
434.066	91.38
434.287	101.38
434.509	86.38
434.731	87.38
434.953	104.38
435.175	104.38
435.397	99.38
435.618	99.38
435.84	125.38
436.062	171.38
436.284	153.38
436.505	125.38
436.727	116.38
436.949	104.38
437.17	76.38
437.392	105.38
437.614	101.38
437.835	138.38
438.057	169.38
438.278	147.38
438.5	139.38
438.721	156.38
438.943	143.38
439.165	112.38
439.386	106.38
439.608	100.38
439.829	121.38
440.05	182.38
440.272	220.38
440.493	140.38
440.715	107.38
440.936	101.38
441.158	102.38
441.379	107.38
441.6	109.38
441.822	131.38
442.043	101.38
442.264	126.38
442.486	132.38
442.707	117.38
442.928	138.38
443.149	176.38
443.371	185.38
443.592	134.38
443.813	161.38
444.034	132.38
444.255	116.38
444.476	95.38
444.698	94.38
444.919	104.38
445.14	144.38
445.361	163.38
445.582	154.38
445.803	216.38
446.024	212.38
446.245	220.38
446.466	142.38
446.687	105.38
446.908	108.38
447.129	95.38
447.35	93.38
447.571	109.38
447.792	77.38
448.013	110.38
448.234	128.38
448.455	127.38
448.675	143.38
448.896	164.38
449.117	112.38
449.338	131.38
449.559	177.38
449.779	180.38
450	113.38
450.221	95.38
450.442	103.38
450.662	110.38
450.883	132.38
451.104	149.38
451.324	122.38
451.545	95.38
451.766	101.38
451.986	90.38
452.207	105.38
452.428	110.38
452.648	114.38
452.869	146.38
453.089	153.38
453.31	162.38
453.53	104.38
453.751	115.38
453.971	123.38
454.192	152.38
454.412	110.38
454.633	97.38
454.853	85.38
455.073	90.38
455.294	89.38
455.514	129.38
455.734	124.38
455.955	91.38
456.175	86.38
456.395	100.38
456.616	100.38
456.836	99.38
457.056	97.38
457.276	77.38
457.497	85.38
457.717	93.38
457.937	73.38
458.157	105.38
458.377	108.38
458.598	146.38
458.818	236.38
459.038	270.38
459.258	186.38
459.478	101.38
459.698	99.38
459.918	89.38
460.138	103.38
460.358	93.38
460.578	103.38
460.798	107.38
461.018	107.38
461.238	89.38
461.458	84.38
461.678	100.38
461.898	100.38
462.118	113.38
462.338	78.38
462.558	93.38
462.777	94.38
462.997	109.38
463.217	118.38
463.437	112.38
463.657	99.38
463.876	108.38
464.096	89.38
464.316	116.38
464.536	101.38
464.755	107.38
464.975	142.38
465.195	255.38
465.414	256.38
465.634	123.38
465.854	108.38
466.073	103.38
466.293	116.38
466.512	100.38
466.732	101.38
466.951	103.38
467.171	118.38
467.391	134.38
467.61	164.38
467.829	278.38
468.049	788.38
468.268	1274.38
468.488	303.38
468.707	136.38
468.927	105.38
469.146	96.38
469.365	94.38
469.585	106.38
469.804	135.38
470.023	145.38
470.243	110.38
470.462	128.38
470.681	146.38
470.901	121.38
471.12	116.38
471.339	126.38
471.558	137.38
471.777	197.38
471.997	425.38
472.216	1581.38
472.435	3745.38
472.654	863.38
472.873	202.38
473.092	129.38
473.311	113.38
473.53	110.38
473.749	109.38
473.968	105.38
474.187	149.38
474.406	139.38
474.625	97.38
474.844	88.38
475.063	94.38
475.282	91.38
475.501	97.38
475.72	102.38
475.939	96.38
476.158	73.38
476.377	87.38
476.596	112.38
476.814	106.38
477.033	108.38
477.252	108.38
477.471	103.38
477.69	94.38
477.908	104.38
478.127	103.38
478.346	94.38
478.564	114.38
478.783	121.38
479.002	127.38
479.22	134.38
479.439	144.38
479.658	155.38
479.876	136.38
480.095	141.38
480.313	158.38
480.532	195.38
480.751	396.38
480.969	1445.38
481.188	6281.38
481.406	3848.38
481.624	517.38
481.843	173.38
482.061	131.38
482.28	102.38
482.498	120.38
482.717	109.38
482.935	98.38
483.153	104.38
483.372	123.38
483.59	96.38
483.808	90.38
484.027	99.38
484.245	96.38
484.463	98.38
484.681	95.38
484.9	104.38
485.118	101.38
485.336	102.38
485.554	101.38
485.772	96.38
485.99	129.38
486.209	112.38
486.427	117.38
486.645	133.38
486.863	136.38
487.081	110.38
487.299	108.38
487.517	89.38
487.735	96.38
487.953	100.38
488.171	112.38
488.389	108.38
488.607	111.38
488.825	90.38
489.043	107.38
489.261	89.38
489.479	85.38
489.696	95.38
489.914	92.38
490.132	97.38
490.35	78.38
490.568	105.38
490.786	91.38
491.003	90.38
491.221	101.38
491.439	114.38
491.657	99.38
491.874	97.38
492.092	97.38
492.31	105.38
492.527	112.38
492.745	128.38
492.963	95.38
493.18	109.38
493.398	112.38
493.615	104.38
493.833	103.38
494.05	98.38
494.268	99.38
494.485	90.38
494.703	104.38
494.92	102.38
495.138	98.38
495.355	102.38
495.573	104.38
495.79	92.38
496.008	107.38
496.225	90.38
496.442	101.38
496.66	99.38
496.877	87.38
497.094	96.38
497.312	81.38
497.529	100.38
497.746	105.38
497.963	103.38
498.181	94.38
498.398	94.38
498.615	132.38
498.832	125.38
499.049	106.38
499.267	104.38
499.484	91.38
499.701	110.38
499.918	105.38
500.135	104.38
500.352	104.38
500.569	113.38
500.786	122.38
501.003	106.38
501.22	82.38
501.437	98.38
501.654	128.38
501.871	131.38
502.088	101.38
502.305	88.38
502.522	85.38
502.739	107.38
502.956	118.38
503.172	121.38
503.389	104.38
503.606	131.38
503.823	120.38
504.04	109.38
504.256	90.38
504.473	96.38
504.69	95.38
504.907	107.38
505.123	103.38
505.34	90.38
505.557	98.38
505.773	95.38
505.99	101.38
506.207	90.38
506.423	96.38
506.64	103.38
506.856	113.38
507.073	88.38
507.289	101.38
507.506	90.38
507.722	152.38
507.939	154.38
508.155	100.38
508.372	110.38
508.588	99.38
508.805	94.38
509.021	97.38
509.238	95.38
509.454	115.38
509.67	112.38
