Data from Circ_2023_H10_HRD10591_00086.txt Node
Date: Wed Jan 03 09:50:48 EST 2024
User: Yrep
Spectrometer: HR+D1059
Trigger mode: 1
Integration Time (sec): 1.000000E-1
Scans to average: 1
Electric dark correction enabled: true
Nonlinearity correction enabled: false
Boxcar width: 0
XAxis mode: Wavelengths
Number of Pixels in Spectrum: 2048
>>>>>Begin Spectral Data<<<<<
223.165	-14.44
223.4	-14.44
223.635	-14.44
223.869	-12.44
224.104	-25.44
224.338	-10.44
224.573	-14.44
224.808	-13.44
225.042	-5.44
225.277	-8.44
225.511	9.56
225.746	2.56
225.98	10.56
226.215	2.56
226.449	14.56
226.683	15.56
226.918	19.56
227.152	29.56
227.387	33.56
227.621	49.56
227.856	41.56
228.09	49.56
228.324	48.56
228.559	60.56
228.793	72.56
229.027	63.56
229.262	57.56
229.496	75.56
229.73	90.56
229.964	75.56
230.199	69.56
230.433	73.56
230.667	67.56
230.901	85.56
231.136	80.56
231.37	84.56
231.604	78.56
231.838	77.56
232.072	83.56
232.306	90.56
232.541	73.56
232.775	81.56
233.009	67.56
233.243	87.56
233.477	96.56
233.711	73.56
233.945	82.56
234.179	66.56
234.413	82.56
234.647	77.56
234.881	70.56
235.115	79.56
235.349	86.56
235.583	69.56
235.817	87.56
236.051	70.56
236.285	92.56
236.519	81.56
236.753	74.56
236.987	80.56
237.221	93.56
237.455	110.56
237.689	79.56
237.922	69.56
238.156	77.56
238.39	73.56
238.624	77.56
238.858	69.56
239.091	72.56
239.325	86.56
239.559	80.56
239.793	68.56
240.027	86.56
240.26	79.56
240.494	91.56
240.728	85.56
240.961	82.56
241.195	75.56
241.429	73.56
241.662	79.56
241.896	73.56
242.13	75.56
242.363	70.56
242.597	75.56
242.83	84.56
243.064	79.56
243.298	72.56
243.531	70.56
243.765	72.56
243.998	81.56
244.232	92.56
244.465	95.56
244.699	73.56
244.932	74.56
245.166	84.56
245.399	73.56
245.633	77.56
245.866	82.56
246.099	70.56
246.333	68.56
246.566	88.56
246.8	60.56
247.033	68.56
247.266	73.56
247.5	87.56
247.733	82.56
247.966	79.56
248.2	90.56
248.433	92.56
248.666	84.56
248.899	71.56
249.133	91.56
249.366	98.56
249.599	96.56
249.832	80.56
250.066	74.56
250.299	90.56
250.532	88.56
250.765	89.56
250.998	81.56
251.231	93.56
251.465	80.56
251.698	86.56
251.931	79.56
252.164	94.56
252.397	74.56
252.63	80.56
252.863	88.56
253.096	78.56
253.329	80.56
253.562	81.56
253.795	67.56
254.028	84.56
254.261	80.56
254.494	72.56
254.727	78.56
254.96	76.56
255.193	88.56
255.426	79.56
255.659	87.56
255.892	96.56
256.124	102.56
256.357	95.56
256.59	91.56
256.823	82.56
257.056	84.56
257.289	97.56
257.521	86.56
257.754	109.56
257.987	79.56
258.22	94.56
258.452	95.56
258.685	89.56
258.918	78.56
259.151	74.56
259.383	87.56
259.616	85.56
259.849	87.56
260.081	88.56
260.314	98.56
260.547	95.56
260.779	94.56
261.012	119.56
261.244	133.56
261.477	111.56
261.71	113.56
261.942	125.56
262.175	126.56
262.407	85.56
262.64	93.56
262.872	73.56
263.105	78.56
263.337	79.56
263.57	97.56
263.802	76.56
264.035	82.56
264.267	86.56
264.499	91.56
264.732	70.56
264.964	82.56
265.197	93.56
265.429	96.56
265.661	93.56
265.894	89.56
266.126	92.56
266.358	88.56
266.591	84.56
266.823	89.56
267.055	79.56
267.287	89.56
267.52	86.56
267.752	81.56
267.984	88.56
268.216	87.56
268.448	83.56
268.681	83.56
268.913	89.56
269.145	89.56
269.377	70.56
269.609	84.56
269.841	74.56
270.073	95.56
270.306	88.56
270.538	86.56
270.77	103.56
271.002	74.56
271.234	78.56
271.466	79.56
271.698	92.56
271.93	86.56
272.162	81.56
272.394	83.56
272.626	79.56
272.858	95.56
273.09	80.56
273.322	98.56
273.553	95.56
273.785	84.56
274.017	82.56
274.249	82.56
274.481	85.56
274.713	82.56
274.945	90.56
275.176	91.56
275.408	98.56
275.64	113.56
275.872	133.56
276.104	90.56
276.335	106.56
276.567	105.56
276.799	136.56
277.031	179.56
277.262	198.56
277.494	161.56
277.726	109.56
277.957	92.56
278.189	91.56
278.421	79.56
278.652	97.56
278.884	98.56
279.115	110.56
279.347	92.56
279.579	100.56
279.81	137.56
280.042	215.56
280.273	280.56
280.505	203.56
280.736	123.56
280.968	75.56
281.199	99.56
281.431	104.56
281.662	88.56
281.894	93.56
282.125	99.56
282.356	129.56
282.588	153.56
282.819	134.56
283.051	92.56
283.282	79.56
283.513	88.56
283.745	97.56
283.976	86.56
284.207	101.56
284.439	88.56
284.67	97.56
284.901	90.56
285.132	90.56
285.364	79.56
285.595	86.56
285.826	95.56
286.057	94.56
286.288	89.56
286.52	93.56
286.751	85.56
286.982	90.56
287.213	91.56
287.444	81.56
287.675	74.56
287.906	81.56
288.138	92.56
288.369	89.56
288.6	86.56
288.831	82.56
289.062	89.56
289.293	95.56
289.524	107.56
289.755	95.56
289.986	87.56
290.217	93.56
290.448	82.56
290.679	89.56
290.91	82.56
291.141	76.56
291.371	93.56
291.602	83.56
291.833	94.56
292.064	81.56
292.295	80.56
292.526	93.56
292.757	82.56
292.987	87.56
293.218	93.56
293.449	77.56
293.68	93.56
293.91	103.56
294.141	80.56
294.372	82.56
294.603	91.56
294.833	90.56
295.064	101.56
295.295	95.56
295.525	86.56
295.756	103.56
295.987	127.56
296.217	162.56
296.448	145.56
296.679	104.56
296.909	86.56
297.14	80.56
297.37	104.56
297.601	90.56
297.831	91.56
298.062	98.56
298.292	96.56
298.523	88.56
298.753	99.56
298.984	93.56
299.214	82.56
299.445	98.56
299.675	87.56
299.905	98.56
300.136	98.56
300.366	80.56
300.597	84.56
300.827	100.56
301.057	98.56
301.288	102.56
301.518	108.56
301.748	94.56
301.979	101.56
302.209	97.56
302.439	87.56
302.669	96.56
302.9	103.56
303.13	95.56
303.36	117.56
303.59	145.56
303.82	134.56
304.051	91.56
304.281	104.56
304.511	96.56
304.741	91.56
304.971	97.56
305.201	92.56
305.431	80.56
305.661	95.56
305.891	108.56
306.121	83.56
306.352	110.56
306.582	111.56
306.812	105.56
307.042	117.56
307.272	151.56
307.502	180.56
307.731	181.56
307.961	142.56
308.191	91.56
308.421	94.56
308.651	89.56
308.881	101.56
309.111	97.56
309.341	90.56
309.571	109.56
309.8	91.56
310.03	93.56
310.26	94.56
310.49	100.56
310.72	97.56
310.949	102.56
311.179	101.56
311.409	93.56
311.639	105.56
311.868	94.56
312.098	112.56
312.328	119.56
312.557	119.56
312.787	99.56
313.017	91.56
313.246	91.56
313.476	84.56
313.706	91.56
313.935	109.56
314.165	111.56
314.394	112.56
314.624	95.56
314.853	96.56
315.083	89.56
315.312	84.56
315.542	88.56
315.771	87.56
316.001	89.56
316.23	89.56
316.46	82.56
316.689	95.56
316.919	79.56
317.148	98.56
317.377	95.56
317.607	80.56
317.836	107.56
318.065	92.56
318.295	91.56
318.524	99.56
318.753	90.56
318.983	95.56
319.212	105.56
319.441	113.56
319.67	118.56
319.9	88.56
320.129	94.56
320.358	95.56
320.587	109.56
320.816	102.56
321.046	95.56
321.275	114.56
321.504	103.56
321.733	85.56
321.962	110.56
322.191	112.56
322.42	105.56
322.649	117.56
322.878	106.56
323.108	123.56
323.337	130.56
323.566	144.56
323.795	155.56
324.024	230.56
324.253	426.56
324.482	929.56
324.71	1866.56
324.939	2407.56
325.168	874.56
325.397	257.56
325.626	149.56
325.855	148.56
326.084	140.56
326.313	145.56
326.542	158.56
326.77	246.56
326.999	490.56
327.228	991.56
327.457	1808.56
327.686	1451.56
327.914	526.56
328.143	542.56
328.372	725.56
328.6	417.56
328.829	185.56
329.058	186.56
329.287	177.56
329.515	197.56
329.744	271.56
329.972	547.56
330.201	1121.56
330.43	1632.56
330.658	712.56
330.887	287.56
331.115	180.56
331.344	129.56
331.572	130.56
331.801	125.56
332.03	128.56
332.258	106.56
332.486	91.56
332.715	110.56
332.943	131.56
333.172	130.56
333.4	132.56
333.629	164.56
333.857	234.56
334.085	469.56
334.314	1004.56
334.542	1952.56
334.771	1906.56
334.999	484.56
335.227	189.56
335.455	132.56
335.684	121.56
335.912	117.56
336.14	109.56
336.369	103.56
336.597	118.56
336.825	98.56
337.053	95.56
337.281	94.56
337.51	108.56
337.738	102.56
337.966	98.56
338.194	112.56
338.422	106.56
338.65	118.56
338.878	98.56
339.106	93.56
339.334	97.56
339.562	89.56
339.79	94.56
340.018	90.56
340.246	98.56
340.474	105.56
340.702	88.56
340.93	90.56
341.158	90.56
341.386	104.56
341.614	98.56
341.842	113.56
342.07	88.56
342.298	97.56
342.526	87.56
342.754	83.56
342.981	95.56
343.209	106.56
343.437	88.56
343.665	90.56
343.893	107.56
344.12	88.56
344.348	91.56
344.576	92.56
344.804	93.56
345.031	97.56
345.259	102.56
345.487	93.56
345.714	96.56
345.942	102.56
346.17	106.56
346.397	95.56
346.625	96.56
346.853	90.56
347.08	99.56
347.308	96.56
347.535	94.56
347.763	95.56
347.99	108.56
348.218	122.56
348.445	112.56
348.673	111.56
348.9	127.56
349.128	96.56
349.355	96.56
349.583	92.56
349.81	85.56
350.037	106.56
350.265	111.56
350.492	98.56
350.72	109.56
350.947	119.56
351.174	103.56
351.402	131.56
351.629	122.56
351.856	103.56
352.083	106.56
352.311	100.56
352.538	116.56
352.765	110.56
352.992	112.56
353.22	115.56
353.447	101.56
353.674	113.56
353.901	85.56
354.128	88.56
354.355	97.56
354.583	99.56
354.81	94.56
355.037	98.56
355.264	98.56
355.491	105.56
355.718	95.56
355.945	77.56
356.172	101.56
356.399	92.56
356.626	91.56
356.853	94.56
357.08	89.56
357.307	94.56
357.534	87.56
357.761	94.56
357.988	87.56
358.215	94.56
358.441	103.56
358.668	93.56
358.895	84.56
359.122	102.56
359.349	88.56
359.576	87.56
359.802	96.56
360.029	118.56
360.256	130.56
360.483	105.56
360.709	91.56
360.936	92.56
361.163	91.56
361.39	94.56
361.616	98.56
361.843	86.56
362.07	105.56
362.296	115.56
362.523	94.56
362.749	83.56
362.976	89.56
363.203	96.56
363.429	93.56
363.656	87.56
363.882	93.56
364.109	76.56
364.335	94.56
364.562	81.56
364.788	88.56
365.015	107.56
365.241	107.56
365.468	112.56
365.694	110.56
365.92	114.56
366.147	102.56
366.373	85.56
366.599	80.56
366.826	89.56
367.052	93.56
367.278	81.56
367.505	86.56
367.731	94.56
367.957	82.56
368.184	95.56
368.41	123.56
368.636	121.56
368.862	116.56
369.089	107.56
369.315	92.56
369.541	95.56
369.767	90.56
369.993	82.56
370.219	87.56
370.445	95.56
370.672	81.56
370.898	75.56
371.124	82.56
371.35	85.56
371.576	100.56
371.802	101.56
372.028	85.56
372.254	94.56
372.48	78.56
372.706	93.56
372.932	86.56
373.158	85.56
373.384	95.56
373.61	90.56
373.835	88.56
374.061	84.56
374.287	98.56
374.513	85.56
374.739	84.56
374.965	95.56
375.191	79.56
375.416	88.56
375.642	89.56
375.868	86.56
376.094	100.56
376.319	89.56
376.545	94.56
376.771	88.56
376.997	91.56
377.222	109.56
377.448	90.56
377.674	80.56
377.899	81.56
378.125	98.56
378.35	98.56
378.576	93.56
378.802	104.56
379.027	104.56
379.253	81.56
379.478	83.56
379.704	91.56
379.929	78.56
380.155	89.56
380.38	106.56
380.606	97.56
380.831	104.56
381.057	104.56
381.282	88.56
381.507	90.56
381.733	101.56
381.958	100.56
382.184	101.56
382.409	97.56
382.634	91.56
382.86	91.56
383.085	106.56
383.31	107.56
383.535	83.56
383.761	99.56
383.986	98.56
384.211	103.56
384.436	93.56
384.662	94.56
384.887	97.56
385.112	93.56
385.337	102.56
385.562	101.56
385.787	98.56
386.013	106.56
386.238	106.56
386.463	107.56
386.688	105.56
386.913	93.56
387.138	96.56
387.363	97.56
387.588	94.56
387.813	103.56
388.038	88.56
388.263	108.56
388.488	88.56
388.713	94.56
388.938	110.56
389.163	93.56
389.387	94.56
389.612	95.56
389.837	95.56
390.062	104.56
390.287	93.56
390.512	92.56
390.736	92.56
390.961	87.56
391.186	94.56
391.411	96.56
391.636	103.56
391.86	86.56
392.085	79.56
392.31	82.56
392.534	96.56
392.759	87.56
392.984	75.56
393.208	98.56
393.433	96.56
393.658	88.56
393.882	92.56
394.107	93.56
394.331	86.56
394.556	94.56
394.78	94.56
395.005	89.56
395.229	94.56
395.454	96.56
395.678	81.56
395.903	96.56
396.127	97.56
396.352	90.56
396.576	90.56
396.801	87.56
397.025	95.56
397.249	94.56
397.474	92.56
397.698	93.56
397.922	87.56
398.147	98.56
398.371	96.56
398.595	90.56
398.82	96.56
399.044	90.56
399.268	87.56
399.492	79.56
399.717	95.56
399.941	103.56
400.165	96.56
400.389	101.56
400.613	92.56
400.837	92.56
401.062	81.56
401.286	94.56
401.51	86.56
401.734	103.56
401.958	110.56
402.182	137.56
402.406	177.56
402.63	147.56
402.854	110.56
403.078	108.56
403.302	98.56
403.526	87.56
403.75	100.56
403.974	98.56
404.198	81.56
404.422	102.56
404.645	93.56
404.869	92.56
405.093	126.56
405.317	148.56
405.541	140.56
405.765	117.56
405.988	136.56
406.212	195.56
406.436	277.56
406.66	171.56
406.883	113.56
407.107	104.56
407.331	97.56
407.555	107.56
407.778	93.56
408.002	84.56
408.226	89.56
408.449	99.56
408.673	98.56
408.896	113.56
409.12	101.56
409.344	87.56
409.567	92.56
409.791	94.56
410.014	100.56
410.238	87.56
410.461	79.56
410.685	89.56
410.908	96.56
411.132	119.56
411.355	112.56
411.578	98.56
411.802	90.56
412.025	87.56
412.249	110.56
412.472	130.56
412.695	151.56
412.919	123.56
413.142	104.56
413.365	91.56
413.589	73.56
413.812	87.56
414.035	89.56
414.258	89.56
414.482	85.56
414.705	94.56
414.928	92.56
415.151	86.56
415.374	92.56
415.597	98.56
415.821	88.56
416.044	104.56
416.267	85.56
416.49	90.56
416.713	93.56
416.936	87.56
417.159	85.56
417.382	93.56
417.605	109.56
417.828	112.56
418.051	99.56
418.274	82.56
418.497	86.56
418.72	77.56
418.943	103.56
419.166	99.56
419.389	97.56
419.611	102.56
419.834	94.56
420.057	68.56
420.28	98.56
420.503	98.56
420.726	90.56
420.948	90.56
421.171	110.56
421.394	99.56
421.617	88.56
421.839	87.56
422.062	86.56
422.285	95.56
422.507	103.56
422.73	105.56
422.953	90.56
423.175	81.56
423.398	103.56
423.621	94.56
423.843	89.56
424.066	99.56
424.288	88.56
424.511	95.56
424.733	113.56
424.956	122.56
425.178	111.56
425.401	103.56
425.623	111.56
425.846	82.56
426.068	98.56
426.291	91.56
426.513	97.56
426.735	99.56
426.958	106.56
427.18	134.56
427.402	184.56
427.625	239.56
427.847	231.56
428.069	209.56
428.292	125.56
428.514	97.56
428.736	96.56
428.958	93.56
429.181	87.56
429.403	82.56
429.625	78.56
429.847	104.56
430.069	121.56
430.292	105.56
430.514	102.56
430.736	101.56
430.958	86.56
431.18	85.56
431.402	87.56
431.624	86.56
431.846	81.56
432.068	74.56
432.29	98.56
432.512	89.56
432.734	90.56
432.956	84.56
433.178	105.56
433.4	112.56
433.622	89.56
433.844	89.56
434.066	88.56
434.287	90.56
434.509	90.56
434.731	87.56
434.953	91.56
435.175	86.56
435.397	90.56
435.618	106.56
435.84	122.56
436.062	143.56
436.284	130.56
436.505	100.56
436.727	97.56
436.949	87.56
437.17	76.56
437.392	97.56
437.614	87.56
437.835	120.56
438.057	149.56
438.278	146.56
438.5	125.56
438.721	128.56
438.943	113.56
439.165	85.56
439.386	94.56
439.608	111.56
439.829	110.56
440.05	134.56
440.272	175.56
440.493	100.56
440.715	79.56
440.936	88.56
441.158	96.56
441.379	86.56
441.6	85.56
441.822	103.56
442.043	96.56
442.264	114.56
442.486	117.56
442.707	115.56
442.928	127.56
443.149	156.56
443.371	149.56
443.592	144.56
443.813	133.56
444.034	125.56
444.255	101.56
444.476	90.56
444.698	93.56
444.919	90.56
445.14	116.56
445.361	115.56
445.582	141.56
445.803	161.56
446.024	173.56
446.245	158.56
446.466	110.56
446.687	83.56
446.908	88.56
447.129	93.56
447.35	85.56
447.571	102.56
447.792	106.56
448.013	103.56
448.234	118.56
448.455	115.56
448.675	127.56
448.896	131.56
449.117	114.56
449.338	120.56
449.559	154.56
449.779	161.56
450	103.56
450.221	101.56
450.442	83.56
450.662	103.56
450.883	104.56
451.104	115.56
451.324	95.56
451.545	85.56
451.766	93.56
451.986	102.56
452.207	104.56
452.428	101.56
452.648	94.56
452.869	115.56
453.089	117.56
453.31	139.56
453.53	112.56
453.751	100.56
453.971	106.56
454.192	104.56
454.412	96.56
454.633	91.56
454.853	99.56
455.073	103.56
455.294	102.56
455.514	120.56
455.734	87.56
455.955	88.56
456.175	94.56
456.395	92.56
456.616	84.56
456.836	83.56
457.056	93.56
457.276	84.56
457.497	88.56
457.717	84.56
457.937	89.56
458.157	97.56
458.377	93.56
458.598	122.56
458.818	174.56
459.038	198.56
459.258	163.56
459.478	93.56
459.698	79.56
459.918	70.56
460.138	88.56
460.358	92.56
460.578	85.56
460.798	91.56
461.018	91.56
461.238	80.56
461.458	88.56
461.678	75.56
461.898	82.56
462.118	94.56
462.338	87.56
462.558	95.56
462.777	101.56
462.997	93.56
463.217	104.56
463.437	91.56
463.657	99.56
463.876	105.56
464.096	100.56
464.316	104.56
464.536	98.56
464.755	107.56
464.975	123.56
465.195	202.56
465.414	211.56
465.634	91.56
465.854	81.56
466.073	99.56
466.293	103.56
466.512	81.56
466.732	93.56
466.951	87.56
467.171	83.56
467.391	105.56
467.61	132.56
467.829	243.56
468.049	645.56
468.268	1033.56
468.488	259.56
468.707	109.56
468.927	90.56
469.146	95.56
469.365	97.56
469.585	89.56
469.804	99.56
470.023	112.56
470.243	111.56
470.462	129.56
470.681	152.56
470.901	114.56
471.12	101.56
471.339	105.56
471.558	126.56
471.777	169.56
471.997	294.56
472.216	1219.56
472.435	2923.56
472.654	685.56
472.873	173.56
473.092	99.56
473.311	111.56
473.53	97.56
473.749	103.56
473.968	106.56
474.187	127.56
474.406	104.56
474.625	87.56
474.844	89.56
475.063	80.56
475.282	95.56
475.501	91.56
475.72	95.56
475.939	83.56
476.158	88.56
476.377	105.56
476.596	102.56
476.814	99.56
477.033	93.56
477.252	90.56
477.471	97.56
477.69	94.56
477.908	98.56
478.127	110.56
478.346	98.56
478.564	93.56
478.783	108.56
479.002	112.56
479.22	122.56
479.439	111.56
479.658	122.56
479.876	127.56
480.095	114.56
480.313	140.56
480.532	174.56
480.751	310.56
480.969	1087.56
481.188	4786.56
481.406	2968.56
481.624	412.56
481.843	162.56
482.061	120.56
482.28	101.56
482.498	90.56
482.717	98.56
482.935	96.56
483.153	86.56
483.372	100.56
483.59	106.56
483.808	98.56
484.027	89.56
484.245	88.56
484.463	103.56
484.681	115.56
484.9	104.56
485.118	99.56
485.336	109.56
485.554	111.56
485.772	114.56
485.99	94.56
486.209	117.56
486.427	109.56
486.645	123.56
486.863	119.56
487.081	93.56
487.299	107.56
487.517	90.56
487.735	101.56
487.953	95.56
488.171	111.56
488.389	104.56
488.607	100.56
488.825	99.56
489.043	86.56
489.261	93.56
489.479	101.56
489.696	83.56
489.914	103.56
490.132	94.56
490.35	97.56
490.568	87.56
490.786	102.56
491.003	92.56
491.221	94.56
491.439	107.56
491.657	91.56
491.874	95.56
492.092	81.56
492.31	88.56
492.527	97.56
492.745	106.56
492.963	75.56
493.18	91.56
493.398	85.56
493.615	86.56
493.833	111.56
494.05	97.56
494.268	86.56
494.485	107.56
494.703	91.56
494.92	98.56
495.138	87.56
495.355	106.56
495.573	97.56
495.79	105.56
496.008	90.56
496.225	94.56
496.442	89.56
496.66	100.56
496.877	85.56
497.094	92.56
497.312	82.56
497.529	83.56
497.746	89.56
497.963	87.56
498.181	110.56
498.398	98.56
498.615	114.56
498.832	110.56
499.049	101.56
499.267	88.56
499.484	89.56
499.701	85.56
499.918	88.56
500.135	81.56
500.352	97.56
500.569	104.56
500.786	106.56
501.003	93.56
501.22	98.56
501.437	92.56
501.654	82.56
501.871	110.56
502.088	85.56
502.305	83.56
502.522	92.56
502.739	100.56
502.956	83.56
503.172	90.56
503.389	94.56
503.606	127.56
503.823	129.56
504.04	92.56
504.256	99.56
504.473	99.56
504.69	93.56
504.907	83.56
505.123	103.56
505.34	94.56
505.557	99.56
505.773	101.56
505.99	85.56
506.207	90.56
506.423	88.56
506.64	92.56
506.856	101.56
507.073	94.56
507.289	93.56
507.506	95.56
507.722	133.56
507.939	130.56
508.155	91.56
508.372	100.56
508.588	101.56
508.805	90.56
509.021	90.56
509.238	106.56
509.454	97.56
509.67	96.56
509.887	120.56
510.103	130.56
510.319	230.56
510.536	827.56
510.752	2758.56
510.968	797.56
511.184	177.56
511.401	131.56
511.617	111.56
511.833	139.56
512.049	101.56
512.265	86.56
512.481	92.56
512.698	88.56
512.914	106.56
513.13	115.56
513.346	95.56
