Data from Circ_2023_H10_HRD10591_00050.txt Node
Date: Wed Jan 03 09:50:41 EST 2024
User: Yrep
Spectrometer: HR+D1059
Trigger mode: 1
Integration Time (sec): 1.000000E-1
Scans to average: 1
Electric dark correction enabled: true
Nonlinearity correction enabled: false
Boxcar width: 0
XAxis mode: Wavelengths
Number of Pixels in Spectrum: 2048
>>>>>Begin Spectral Data<<<<<
223.165	-2.06
223.4	-2.06
223.635	-2.06
223.869	-20.06
224.104	-23.06
224.338	-33.06
224.573	-23.06
224.808	-16.06
225.042	-4.06
225.277	-1.06
225.511	1.94
225.746	6.94
225.98	7.94
226.215	11.94
226.449	26.94
226.683	18.94
226.918	13.94
227.152	33.94
227.387	30.94
227.621	31.94
227.856	45.94
228.09	57.94
228.324	44.94
228.559	66.94
228.793	49.94
229.027	71.94
229.262	78.94
229.496	86.94
229.73	118.94
229.964	117.94
230.199	82.94
230.433	71.94
230.667	80.94
230.901	83.94
231.136	69.94
231.37	83.94
231.604	77.94
231.838	84.94
232.072	82.94
232.306	86.94
232.541	81.94
232.775	75.94
233.009	83.94
233.243	90.94
233.477	92.94
233.711	89.94
233.945	89.94
234.179	80.94
234.413	81.94
234.647	84.94
234.881	81.94
235.115	86.94
235.349	85.94
235.583	97.94
235.817	86.94
236.051	81.94
236.285	81.94
236.519	87.94
236.753	80.94
236.987	82.94
237.221	109.94
237.455	114.94
237.689	72.94
237.922	88.94
238.156	70.94
238.39	69.94
238.624	61.94
238.858	73.94
239.091	71.94
239.325	89.94
239.559	89.94
239.793	77.94
240.027	86.94
240.26	89.94
240.494	92.94
240.728	79.94
240.961	81.94
241.195	64.94
241.429	71.94
241.662	79.94
241.896	65.94
242.13	80.94
242.363	91.94
242.597	72.94
242.83	73.94
243.064	75.94
243.298	81.94
243.531	92.94
243.765	86.94
243.998	71.94
244.232	97.94
244.465	94.94
244.699	89.94
244.932	89.94
245.166	87.94
245.399	86.94
245.633	85.94
245.866	66.94
246.099	75.94
246.333	87.94
246.566	86.94
246.8	71.94
247.033	85.94
247.266	90.94
247.5	89.94
247.733	62.94
247.966	99.94
248.2	88.94
248.433	89.94
248.666	91.94
248.899	88.94
249.133	95.94
249.366	124.94
249.599	112.94
249.832	76.94
250.066	100.94
250.299	93.94
250.532	99.94
250.765	81.94
250.998	94.94
251.231	90.94
251.465	93.94
251.698	99.94
251.931	87.94
252.164	86.94
252.397	81.94
252.63	81.94
252.863	90.94
253.096	84.94
253.329	80.94
253.562	70.94
253.795	71.94
254.028	80.94
254.261	81.94
254.494	77.94
254.727	97.94
254.96	98.94
255.193	99.94
255.426	86.94
255.659	82.94
255.892	109.94
256.124	100.94
256.357	103.94
256.59	94.94
256.823	84.94
257.056	84.94
257.289	92.94
257.521	88.94
257.754	80.94
257.987	94.94
258.22	96.94
258.452	119.94
258.685	96.94
258.918	93.94
259.151	101.94
259.383	79.94
259.616	85.94
259.849	75.94
260.081	88.94
260.314	88.94
260.547	86.94
260.779	97.94
261.012	126.94
261.244	138.94
261.477	102.94
261.71	113.94
261.942	155.94
262.175	181.94
262.407	103.94
262.64	98.94
262.872	80.94
263.105	81.94
263.337	105.94
263.57	93.94
263.802	85.94
264.035	80.94
264.267	91.94
264.499	79.94
264.732	100.94
264.964	82.94
265.197	84.94
265.429	85.94
265.661	90.94
265.894	78.94
266.126	84.94
266.358	86.94
266.591	92.94
266.823	93.94
267.055	88.94
267.287	86.94
267.52	79.94
267.752	76.94
267.984	72.94
268.216	90.94
268.448	96.94
268.681	98.94
268.913	104.94
269.145	95.94
269.377	88.94
269.609	80.94
269.841	74.94
270.073	78.94
270.306	81.94
270.538	96.94
270.77	94.94
271.002	96.94
271.234	103.94
271.466	104.94
271.698	96.94
271.93	95.94
272.162	100.94
272.394	83.94
272.626	93.94
272.858	93.94
273.09	105.94
273.322	91.94
273.553	97.94
273.785	93.94
274.017	78.94
274.249	88.94
274.481	90.94
274.713	86.94
274.945	106.94
275.176	100.94
275.408	104.94
275.64	120.94
275.872	143.94
276.104	116.94
276.335	112.94
276.567	149.94
276.799	173.94
277.031	228.94
277.262	271.94
277.494	197.94
277.726	116.94
277.957	110.94
278.189	98.94
278.421	97.94
278.652	104.94
278.884	90.94
279.115	96.94
279.347	93.94
279.579	105.94
279.81	152.94
280.042	249.94
280.273	368.94
280.505	239.94
280.736	133.94
280.968	107.94
281.199	94.94
281.431	90.94
281.662	93.94
281.894	86.94
282.125	117.94
282.356	160.94
282.588	194.94
282.819	144.94
283.051	94.94
283.282	96.94
283.513	85.94
283.745	102.94
283.976	91.94
284.207	95.94
284.439	87.94
284.67	81.94
284.901	81.94
285.132	89.94
285.364	89.94
285.595	81.94
285.826	97.94
286.057	82.94
286.288	88.94
286.52	109.94
286.751	72.94
286.982	99.94
287.213	89.94
287.444	88.94
287.675	98.94
287.906	93.94
288.138	104.94
288.369	96.94
288.6	103.94
288.831	97.94
289.062	94.94
289.293	87.94
289.524	93.94
289.755	90.94
289.986	90.94
290.217	89.94
290.448	95.94
290.679	90.94
290.91	97.94
291.141	81.94
291.371	84.94
291.602	84.94
291.833	91.94
292.064	89.94
292.295	105.94
292.526	87.94
292.757	81.94
292.987	93.94
293.218	98.94
293.449	90.94
293.68	87.94
293.91	85.94
294.141	98.94
294.372	89.94
294.603	91.94
294.833	109.94
295.064	90.94
295.295	89.94
295.525	86.94
295.756	107.94
295.987	139.94
296.217	179.94
296.448	178.94
296.679	101.94
296.909	91.94
297.14	87.94
297.37	83.94
297.601	91.94
297.831	104.94
298.062	102.94
298.292	95.94
298.523	98.94
298.753	99.94
298.984	92.94
299.214	86.94
299.445	97.94
299.675	100.94
299.905	100.94
300.136	94.94
300.366	86.94
300.597	94.94
300.827	89.94
301.057	120.94
301.288	118.94
301.518	115.94
301.748	98.94
301.979	121.94
302.209	119.94
302.439	96.94
302.669	94.94
302.9	86.94
303.13	97.94
303.36	117.94
303.59	151.94
303.82	183.94
304.051	119.94
304.281	89.94
304.511	99.94
304.741	98.94
304.971	93.94
305.201	104.94
305.431	85.94
305.661	89.94
305.891	93.94
306.121	111.94
306.352	119.94
306.582	130.94
306.812	114.94
307.042	135.94
307.272	182.94
307.502	216.94
307.731	194.94
307.961	140.94
308.191	86.94
308.421	87.94
308.651	105.94
308.881	104.94
309.111	93.94
309.341	109.94
309.571	106.94
309.8	112.94
310.03	110.94
310.26	125.94
310.49	118.94
310.72	130.94
310.949	129.94
311.179	128.94
311.409	101.94
311.639	108.94
311.868	124.94
312.098	113.94
312.328	134.94
312.557	134.94
312.787	132.94
313.017	134.94
313.246	107.94
313.476	103.94
313.706	103.94
313.935	111.94
314.165	115.94
314.394	130.94
314.624	120.94
314.853	103.94
315.083	113.94
315.312	104.94
315.542	80.94
315.771	87.94
316.001	100.94
316.23	102.94
316.46	98.94
316.689	106.94
316.919	125.94
317.148	114.94
317.377	109.94
317.607	118.94
317.836	100.94
318.065	98.94
318.295	111.94
318.524	95.94
318.753	99.94
318.983	104.94
319.212	110.94
319.441	129.94
319.67	119.94
319.9	112.94
320.129	109.94
320.358	99.94
320.587	112.94
320.816	115.94
321.046	119.94
321.275	106.94
321.504	106.94
321.733	112.94
321.962	110.94
322.191	113.94
322.42	105.94
322.649	140.94
322.878	145.94
323.108	151.94
323.337	166.94
323.566	200.94
323.795	208.94
324.024	302.94
324.253	629.94
324.482	1355.94
324.71	2754.94
324.939	3745.94
325.168	1349.94
325.397	373.94
325.626	202.94
325.855	167.94
326.084	162.94
326.313	169.94
326.542	209.94
326.77	315.94
326.999	680.94
327.228	1409.94
327.457	2670.94
327.686	2223.94
327.914	720.94
328.143	724.94
328.372	973.94
328.6	535.94
328.829	231.94
329.058	250.94
329.287	249.94
329.515	222.94
329.744	319.94
329.972	636.94
330.201	1390.94
330.43	2112.94
330.658	939.94
330.887	369.94
331.115	274.94
331.344	161.94
331.572	143.94
331.801	155.94
332.03	137.94
332.258	128.94
332.486	117.94
332.715	115.94
332.943	131.94
333.172	139.94
333.4	143.94
333.629	202.94
333.857	286.94
334.085	582.94
334.314	1242.94
334.542	2583.94
334.771	2440.94
334.999	623.94
335.227	230.94
335.455	153.94
335.684	125.94
335.912	117.94
336.14	116.94
336.369	116.94
336.597	140.94
336.825	133.94
337.053	128.94
337.281	99.94
337.51	94.94
337.738	111.94
337.966	113.94
338.194	122.94
338.422	110.94
338.65	120.94
338.878	107.94
339.106	116.94
339.334	98.94
339.562	97.94
339.79	114.94
340.018	111.94
340.246	114.94
340.474	111.94
340.702	120.94
340.93	109.94
341.158	111.94
341.386	103.94
341.614	115.94
341.842	110.94
342.07	101.94
342.298	113.94
342.526	95.94
342.754	88.94
342.981	92.94
343.209	96.94
343.437	109.94
343.665	99.94
343.893	105.94
344.12	105.94
344.348	81.94
344.576	90.94
344.804	98.94
345.031	115.94
345.259	128.94
345.487	102.94
345.714	97.94
345.942	121.94
346.17	106.94
346.397	85.94
346.625	88.94
346.853	109.94
347.08	107.94
347.308	99.94
347.535	103.94
347.763	128.94
347.99	117.94
348.218	115.94
348.445	150.94
348.673	116.94
348.9	111.94
349.128	82.94
349.355	100.94
349.583	106.94
349.81	111.94
350.037	96.94
350.265	94.94
350.492	95.94
350.72	105.94
350.947	110.94
351.174	121.94
351.402	132.94
351.629	110.94
351.856	123.94
352.083	119.94
352.311	135.94
352.538	153.94
352.765	136.94
352.992	141.94
353.22	121.94
353.447	109.94
353.674	98.94
353.901	104.94
354.128	95.94
354.355	105.94
354.583	106.94
354.81	101.94
355.037	99.94
355.264	94.94
355.491	101.94
355.718	89.94
355.945	90.94
356.172	95.94
356.399	102.94
356.626	90.94
356.853	103.94
357.08	98.94
357.307	98.94
357.534	101.94
357.761	101.94
357.988	97.94
358.215	104.94
358.441	86.94
358.668	88.94
358.895	87.94
359.122	89.94
359.349	84.94
359.576	113.94
359.802	119.94
360.029	180.94
360.256	184.94
360.483	139.94
360.709	101.94
360.936	98.94
361.163	94.94
361.39	125.94
361.616	123.94
361.843	94.94
362.07	116.94
362.296	119.94
362.523	101.94
362.749	114.94
362.976	92.94
363.203	93.94
363.429	117.94
363.656	104.94
363.882	103.94
364.109	97.94
364.335	108.94
364.562	93.94
364.788	93.94
365.015	110.94
365.241	125.94
365.468	113.94
365.694	136.94
365.92	121.94
366.147	112.94
366.373	105.94
366.599	86.94
366.826	88.94
367.052	81.94
367.278	105.94
367.505	117.94
367.731	104.94
367.957	103.94
368.184	101.94
368.41	114.94
368.636	139.94
368.862	149.94
369.089	132.94
369.315	117.94
369.541	97.94
369.767	111.94
369.993	106.94
370.219	90.94
370.445	107.94
370.672	97.94
370.898	84.94
371.124	92.94
371.35	93.94
371.576	89.94
371.802	81.94
372.028	93.94
372.254	103.94
372.48	85.94
372.706	71.94
372.932	98.94
373.158	91.94
373.384	100.94
373.61	99.94
373.835	96.94
374.061	90.94
374.287	102.94
374.513	98.94
374.739	91.94
374.965	80.94
375.191	96.94
375.416	83.94
375.642	85.94
375.868	93.94
376.094	80.94
376.319	98.94
376.545	90.94
376.771	91.94
376.997	89.94
377.222	89.94
377.448	93.94
377.674	94.94
377.899	78.94
378.125	96.94
378.35	111.94
378.576	88.94
378.802	86.94
379.027	93.94
379.253	91.94
379.478	89.94
379.704	91.94
379.929	95.94
380.155	92.94
380.38	108.94
380.606	97.94
380.831	103.94
381.057	95.94
381.282	104.94
381.507	91.94
381.733	93.94
381.958	105.94
382.184	107.94
382.409	89.94
382.634	99.94
382.86	96.94
383.085	102.94
383.31	103.94
383.535	114.94
383.761	106.94
383.986	83.94
384.211	104.94
384.436	106.94
384.662	101.94
384.887	99.94
385.112	108.94
385.337	104.94
385.562	83.94
385.787	102.94
386.013	123.94
386.238	133.94
386.463	122.94
386.688	118.94
386.913	90.94
387.138	105.94
387.363	94.94
387.588	101.94
387.813	93.94
388.038	106.94
388.263	93.94
388.488	100.94
388.713	98.94
388.938	91.94
389.163	100.94
389.387	106.94
389.612	85.94
389.837	102.94
390.062	96.94
390.287	93.94
390.512	91.94
390.736	93.94
390.961	94.94
391.186	99.94
391.411	95.94
391.636	98.94
391.86	89.94
392.085	95.94
392.31	90.94
392.534	87.94
392.759	99.94
392.984	89.94
393.208	87.94
393.433	84.94
393.658	94.94
393.882	80.94
394.107	83.94
394.331	87.94
394.556	96.94
394.78	89.94
395.005	93.94
395.229	82.94
395.454	78.94
395.678	95.94
395.903	92.94
396.127	94.94
396.352	91.94
396.576	77.94
396.801	96.94
397.025	83.94
397.249	68.94
397.474	86.94
397.698	103.94
397.922	103.94
398.147	95.94
398.371	98.94
398.595	103.94
398.82	98.94
399.044	90.94
399.268	97.94
399.492	107.94
399.717	92.94
399.941	98.94
400.165	107.94
400.389	99.94
400.613	88.94
400.837	96.94
401.062	97.94
401.286	98.94
401.51	105.94
401.734	106.94
401.958	124.94
402.182	166.94
402.406	240.94
402.63	184.94
402.854	113.94
403.078	97.94
403.302	101.94
403.526	104.94
403.75	91.94
403.974	96.94
404.198	94.94
404.422	98.94
404.645	102.94
404.869	116.94
405.093	142.94
405.317	161.94
405.541	184.94
405.765	136.94
405.988	152.94
406.212	251.94
406.436	383.94
406.66	265.94
406.883	151.94
407.107	114.94
407.331	111.94
407.555	114.94
407.778	117.94
408.002	99.94
408.226	100.94
408.449	105.94
408.673	96.94
408.896	100.94
409.12	115.94
409.344	102.94
409.567	102.94
409.791	110.94
410.014	83.94
410.238	92.94
410.461	96.94
410.685	102.94
410.908	97.94
411.132	101.94
411.355	110.94
411.578	99.94
411.802	101.94
412.025	112.94
412.249	102.94
412.472	131.94
412.695	163.94
412.919	138.94
413.142	113.94
413.365	94.94
413.589	100.94
413.812	88.94
414.035	106.94
414.258	93.94
414.482	90.94
414.705	90.94
414.928	99.94
415.151	111.94
415.374	92.94
415.597	89.94
415.821	104.94
416.044	99.94
416.267	110.94
416.49	91.94
416.713	95.94
416.936	95.94
417.159	107.94
417.382	109.94
417.605	125.94
417.828	131.94
418.051	125.94
418.274	107.94
418.497	93.94
418.72	89.94
418.943	117.94
419.166	91.94
419.389	79.94
419.611	87.94
419.834	83.94
420.057	105.94
420.28	106.94
420.503	112.94
420.726	103.94
420.948	105.94
421.171	114.94
421.394	98.94
421.617	87.94
421.839	97.94
422.062	95.94
422.285	109.94
422.507	98.94
422.73	133.94
422.953	95.94
423.175	95.94
423.398	90.94
423.621	101.94
423.843	101.94
424.066	104.94
424.288	103.94
424.511	101.94
424.733	118.94
424.956	158.94
425.178	134.94
425.401	122.94
425.623	117.94
425.846	97.94
426.068	112.94
426.291	103.94
426.513	103.94
426.735	112.94
426.958	90.94
427.18	137.94
427.402	215.94
427.625	326.94
427.847	309.94
428.069	274.94
428.292	149.94
428.514	109.94
428.736	96.94
428.958	100.94
429.181	92.94
429.403	105.94
429.625	102.94
429.847	113.94
430.069	122.94
430.292	118.94
430.514	94.94
430.736	93.94
430.958	88.94
431.18	85.94
431.402	97.94
431.624	83.94
431.846	80.94
432.068	84.94
432.29	82.94
432.512	92.94
432.734	92.94
432.956	106.94
433.178	117.94
433.4	127.94
433.622	88.94
433.844	101.94
434.066	94.94
434.287	104.94
434.509	83.94
434.731	103.94
434.953	89.94
435.175	96.94
435.397	98.94
435.618	98.94
435.84	124.94
436.062	177.94
436.284	159.94
436.505	134.94
436.727	133.94
436.949	109.94
437.17	95.94
437.392	107.94
437.614	127.94
437.835	146.94
438.057	191.94
438.278	153.94
438.5	127.94
438.721	173.94
438.943	121.94
439.165	95.94
439.386	92.94
439.608	110.94
439.829	123.94
440.05	174.94
440.272	223.94
440.493	123.94
440.715	84.94
440.936	94.94
441.158	86.94
441.379	102.94
441.6	94.94
441.822	112.94
442.043	117.94
442.264	148.94
442.486	129.94
442.707	103.94
442.928	138.94
443.149	204.94
443.371	208.94
443.592	168.94
443.813	158.94
444.034	131.94
444.255	123.94
444.476	101.94
444.698	94.94
444.919	109.94
445.14	145.94
445.361	159.94
445.582	175.94
445.803	244.94
446.024	211.94
446.245	217.94
446.466	155.94
446.687	103.94
446.908	83.94
447.129	98.94
447.35	101.94
447.571	80.94
447.792	87.94
448.013	105.94
448.234	132.94
448.455	126.94
448.675	174.94
448.896	164.94
449.117	126.94
449.338	118.94
449.559	174.94
449.779	184.94
450	99.94
450.221	98.94
450.442	100.94
450.662	106.94
450.883	145.94
451.104	165.94
451.324	107.94
451.545	91.94
451.766	96.94
451.986	108.94
452.207	95.94
452.428	109.94
452.648	112.94
452.869	141.94
453.089	146.94
453.31	174.94
453.53	112.94
453.751	106.94
453.971	136.94
454.192	175.94
454.412	104.94
454.633	93.94
454.853	94.94
455.073	103.94
455.294	105.94
455.514	122.94
455.734	115.94
455.955	84.94
456.175	111.94
456.395	82.94
456.616	85.94
456.836	90.94
457.056	93.94
457.276	94.94
457.497	90.94
457.717	84.94
457.937	104.94
458.157	97.94
458.377	116.94
458.598	164.94
458.818	265.94
459.038	303.94
459.258	181.94
459.478	108.94
459.698	89.94
459.918	88.94
460.138	91.94
460.358	93.94
460.578	98.94
460.798	99.94
461.018	100.94
461.238	95.94
461.458	91.94
461.678	70.94
461.898	96.94
462.118	91.94
462.338	86.94
462.558	82.94
462.777	90.94
462.997	112.94
463.217	125.94
463.437	102.94
463.657	97.94
463.876	115.94
464.096	99.94
464.316	113.94
464.536	106.94
464.755	107.94
464.975	144.94
465.195	310.94
465.414	332.94
465.634	128.94
465.854	90.94
466.073	102.94
466.293	88.94
466.512	86.94
466.732	95.94
466.951	101.94
467.171	110.94
467.391	122.94
467.61	172.94
467.829	275.94
468.049	751.94
468.268	1221.94
468.488	287.94
468.707	125.94
468.927	104.94
469.146	106.94
469.365	110.94
469.585	103.94
469.804	126.94
470.023	130.94
470.243	106.94
470.462	128.94
470.681	174.94
470.901	121.94
471.12	105.94
471.339	123.94
471.558	145.94
471.777	184.94
471.997	356.94
472.216	1430.94
472.435	3613.94
472.654	847.94
472.873	205.94
473.092	117.94
473.311	121.94
473.53	103.94
473.749	108.94
473.968	113.94
474.187	149.94
474.406	136.94
474.625	101.94
474.844	95.94
475.063	101.94
475.282	89.94
475.501	105.94
475.72	79.94
475.939	85.94
476.158	104.94
476.377	95.94
476.596	101.94
476.814	118.94
477.033	116.94
477.252	106.94
477.471	100.94
477.69	103.94
477.908	110.94
478.127	112.94
478.346	102.94
478.564	102.94
478.783	124.94
479.002	117.94
479.22	125.94
479.439	151.94
479.658	148.94
479.876	129.94
480.095	133.94
480.313	152.94
480.532	198.94
480.751	346.94
480.969	1301.94
481.188	5742.94
481.406	3628.94
481.624	499.94
481.843	174.94
482.061	125.94
482.28	110.94
482.498	107.94
482.717	100.94
482.935	87.94
483.153	93.94
483.372	96.94
483.59	96.94
483.808	98.94
484.027	106.94
484.245	107.94
484.463	110.94
484.681	113.94
484.9	91.94
485.118	104.94
485.336	93.94
485.554	103.94
485.772	113.94
485.99	117.94
486.209	119.94
486.427	105.94
486.645	137.94
486.863	138.94
487.081	131.94
487.299	106.94
487.517	90.94
487.735	96.94
487.953	110.94
488.171	85.94
488.389	105.94
488.607	123.94
488.825	106.94
489.043	97.94
489.261	103.94
489.479	97.94
489.696	77.94
489.914	82.94
490.132	103.94
490.35	97.94
490.568	81.94
490.786	89.94
491.003	89.94
491.221	105.94
491.439	102.94
491.657	107.94
491.874	100.94
492.092	101.94
492.31	99.94
492.527	107.94
492.745	116.94
492.963	93.94
493.18	89.94
493.398	98.94
493.615	100.94
493.833	81.94
494.05	105.94
494.268	87.94
494.485	97.94
494.703	96.94
494.92	97.94
495.138	95.94
495.355	93.94
495.573	107.94
495.79	115.94
496.008	92.94
496.225	94.94
496.442	96.94
496.66	105.94
496.877	91.94
497.094	92.94
497.312	77.94
497.529	81.94
497.746	89.94
497.963	87.94
498.181	109.94
498.398	113.94
498.615	132.94
498.832	129.94
499.049	82.94
499.267	95.94
499.484	93.94
499.701	80.94
499.918	98.94
500.135	91.94
500.352	88.94
500.569	116.94
500.786	103.94
501.003	109.94
501.22	93.94
501.437	99.94
501.654	110.94
501.871	134.94
502.088	114.94
502.305	103.94
502.522	97.94
502.739	100.94
502.956	97.94
503.172	110.94
503.389	101.94
503.606	155.94
503.823	128.94
504.04	94.94
504.256	91.94
504.473	80.94
504.69	98.94
504.907	106.94
505.123	101.94
505.34	89.94
505.557	83.94
505.773	123.94
505.99	97.94
506.207	93.94
506.423	104.94
506.64	99.94
506.856	90.94
507.073	90.94
507.289	108.94
507.506	104.94
507.722	160.94
507.939	168.94
508.155	112.94
508.372	95.94
508.588	99.94
508.805	102.94
509.021	105.94
509.238	106.94
509.454	103.94
509.67	117.94
509.887	105.94
510.103	144.94
510.319	285.94
510.536	1096.94
