Data from Circ_2023_H10_HRD10591_00059.txt Node
Date: Wed Jan 03 09:50:42 EST 2024
User: Yrep
Spectrometer: HR+D1059
Trigger mode: 1
Integration Time (sec): 1.000000E-1
Scans to average: 1
Electric dark correction enabled: true
Nonlinearity correction enabled: false
Boxcar width: 0
XAxis mode: Wavelengths
Number of Pixels in Spectrum: 2048
>>>>>Begin Spectral Data<<<<<
223.165	-28.38
223.4	-28.38
223.635	-28.38
223.869	-17.38
224.104	-13.38
224.338	2.62
224.573	-9.38
224.808	-13.38
225.042	-1.38
225.277	-9.38
225.511	-3.38
225.746	-3.38
225.98	-0.38
226.215	23.62
226.449	11.62
226.683	13.62
226.918	19.62
227.152	28.62
227.387	24.62
227.621	30.62
227.856	45.62
228.09	55.62
228.324	48.62
228.559	54.62
228.793	56.62
229.027	61.62
229.262	76.62
229.496	86.62
229.73	108.62
229.964	98.62
230.199	57.62
230.433	71.62
230.667	96.62
230.901	73.62
231.136	71.62
231.37	84.62
231.604	66.62
231.838	69.62
232.072	75.62
232.306	71.62
232.541	73.62
232.775	70.62
233.009	75.62
233.243	89.62
233.477	83.62
233.711	70.62
233.945	71.62
234.179	71.62
234.413	80.62
234.647	93.62
234.881	77.62
235.115	85.62
235.349	78.62
235.583	78.62
235.817	76.62
236.051	66.62
236.285	87.62
236.519	75.62
236.753	87.62
236.987	85.62
237.221	95.62
237.455	100.62
237.689	72.62
237.922	79.62
238.156	74.62
238.39	80.62
238.624	77.62
238.858	74.62
239.091	65.62
239.325	81.62
239.559	83.62
239.793	74.62
240.027	82.62
240.26	75.62
240.494	76.62
240.728	81.62
240.961	92.62
241.195	78.62
241.429	75.62
241.662	57.62
241.896	75.62
242.13	86.62
242.363	77.62
242.597	77.62
242.83	93.62
243.064	73.62
243.298	75.62
243.531	82.62
243.765	78.62
243.998	68.62
244.232	91.62
244.465	94.62
244.699	76.62
244.932	75.62
245.166	75.62
245.399	86.62
245.633	77.62
245.866	76.62
246.099	75.62
246.333	86.62
246.566	81.62
246.8	74.62
247.033	94.62
247.266	83.62
247.5	71.62
247.733	75.62
247.966	73.62
248.2	64.62
248.433	71.62
248.666	66.62
248.899	91.62
249.133	84.62
249.366	105.62
249.599	107.62
249.832	92.62
250.066	79.62
250.299	71.62
250.532	96.62
250.765	81.62
250.998	78.62
251.231	69.62
251.465	79.62
251.698	90.62
251.931	75.62
252.164	90.62
252.397	70.62
252.63	81.62
252.863	94.62
253.096	91.62
253.329	73.62
253.562	71.62
253.795	62.62
254.028	80.62
254.261	81.62
254.494	76.62
254.727	82.62
254.96	74.62
255.193	71.62
255.426	61.62
255.659	85.62
255.892	95.62
256.124	101.62
256.357	88.62
256.59	93.62
256.823	103.62
257.056	94.62
257.289	90.62
257.521	62.62
257.754	88.62
257.987	74.62
258.22	90.62
258.452	97.62
258.685	110.62
258.918	93.62
259.151	86.62
259.383	83.62
259.616	80.62
259.849	79.62
260.081	82.62
260.314	90.62
260.547	82.62
260.779	89.62
261.012	110.62
261.244	110.62
261.477	106.62
261.71	107.62
261.942	129.62
262.175	154.62
262.407	106.62
262.64	97.62
262.872	78.62
263.105	78.62
263.337	71.62
263.57	89.62
263.802	84.62
264.035	75.62
264.267	86.62
264.499	77.62
264.732	76.62
264.964	77.62
265.197	77.62
265.429	68.62
265.661	84.62
265.894	84.62
266.126	58.62
266.358	74.62
266.591	70.62
266.823	90.62
267.055	78.62
267.287	85.62
267.52	75.62
267.752	86.62
267.984	74.62
268.216	100.62
268.448	92.62
268.681	82.62
268.913	89.62
269.145	70.62
269.377	79.62
269.609	84.62
269.841	91.62
270.073	61.62
270.306	83.62
270.538	95.62
270.77	88.62
271.002	70.62
271.234	91.62
271.466	97.62
271.698	86.62
271.93	80.62
272.162	76.62
272.394	100.62
272.626	90.62
272.858	76.62
273.09	79.62
273.322	97.62
273.553	92.62
273.785	89.62
274.017	86.62
274.249	81.62
274.481	98.62
274.713	73.62
274.945	96.62
275.176	85.62
275.408	98.62
275.64	125.62
275.872	130.62
276.104	108.62
276.335	109.62
276.567	117.62
276.799	159.62
277.031	202.62
277.262	239.62
277.494	166.62
277.726	100.62
277.957	99.62
278.189	93.62
278.421	86.62
278.652	94.62
278.884	104.62
279.115	90.62
279.347	86.62
279.579	101.62
279.81	129.62
280.042	220.62
280.273	327.62
280.505	221.62
280.736	120.62
280.968	97.62
281.199	93.62
281.431	75.62
281.662	92.62
281.894	83.62
282.125	121.62
282.356	127.62
282.588	189.62
282.819	136.62
283.051	93.62
283.282	71.62
283.513	94.62
283.745	80.62
283.976	82.62
284.207	104.62
284.439	91.62
284.67	86.62
284.901	79.62
285.132	77.62
285.364	75.62
285.595	81.62
285.826	81.62
286.057	78.62
286.288	83.62
286.52	92.62
286.751	82.62
286.982	66.62
287.213	77.62
287.444	90.62
287.675	82.62
287.906	83.62
288.138	90.62
288.369	93.62
288.6	106.62
288.831	80.62
289.062	90.62
289.293	84.62
289.524	95.62
289.755	90.62
289.986	79.62
290.217	87.62
290.448	105.62
290.679	93.62
290.91	86.62
291.141	76.62
291.371	84.62
291.602	74.62
291.833	86.62
292.064	96.62
292.295	89.62
292.526	86.62
292.757	95.62
292.987	93.62
293.218	91.62
293.449	95.62
293.68	86.62
293.91	89.62
294.141	80.62
294.372	94.62
294.603	83.62
294.833	81.62
295.064	86.62
295.295	92.62
295.525	95.62
295.756	118.62
295.987	137.62
296.217	188.62
296.448	171.62
296.679	101.62
296.909	90.62
297.14	82.62
297.37	79.62
297.601	78.62
297.831	94.62
298.062	89.62
298.292	92.62
298.523	80.62
298.753	79.62
298.984	96.62
299.214	93.62
299.445	87.62
299.675	94.62
299.905	98.62
300.136	103.62
300.366	118.62
300.597	82.62
300.827	105.62
301.057	95.62
301.288	117.62
301.518	99.62
301.748	90.62
301.979	122.62
302.209	105.62
302.439	92.62
302.669	109.62
302.9	81.62
303.13	87.62
303.36	121.62
303.59	150.62
303.82	158.62
304.051	132.62
304.281	97.62
304.511	82.62
304.741	81.62
304.971	96.62
305.201	95.62
305.431	95.62
305.661	86.62
305.891	98.62
306.121	116.62
306.352	123.62
306.582	115.62
306.812	106.62
307.042	126.62
307.272	177.62
307.502	203.62
307.731	173.62
307.961	139.62
308.191	94.62
308.421	100.62
308.651	97.62
308.881	90.62
309.111	94.62
309.341	94.62
309.571	93.62
309.8	109.62
310.03	89.62
310.26	101.62
310.49	102.62
310.72	91.62
310.949	119.62
311.179	109.62
311.409	95.62
311.639	101.62
311.868	98.62
312.098	100.62
312.328	103.62
312.557	117.62
312.787	114.62
313.017	110.62
313.246	99.62
313.476	99.62
313.706	100.62
313.935	92.62
314.165	110.62
314.394	115.62
314.624	116.62
314.853	84.62
315.083	100.62
315.312	92.62
315.542	75.62
315.771	103.62
316.001	93.62
316.23	95.62
316.46	91.62
316.689	93.62
316.919	96.62
317.148	111.62
317.377	97.62
317.607	107.62
317.836	90.62
318.065	91.62
318.295	84.62
318.524	88.62
318.753	94.62
318.983	97.62
319.212	94.62
319.441	135.62
319.67	133.62
319.9	79.62
320.129	76.62
320.358	90.62
320.587	98.62
320.816	109.62
321.046	125.62
321.275	100.62
321.504	95.62
321.733	96.62
321.962	100.62
322.191	100.62
322.42	132.62
322.649	128.62
322.878	122.62
323.108	135.62
323.337	149.62
323.566	186.62
323.795	183.62
324.024	257.62
324.253	525.62
324.482	1126.62
324.71	2288.62
324.939	3036.62
325.168	1158.62
325.397	326.62
325.626	163.62
325.855	141.62
326.084	149.62
326.313	156.62
326.542	174.62
326.77	270.62
326.999	560.62
327.228	1189.62
327.457	2155.62
327.686	1789.62
327.914	628.62
328.143	635.62
328.372	835.62
328.6	476.62
328.829	217.62
329.058	233.62
329.287	224.62
329.515	199.62
329.744	304.62
329.972	598.62
330.201	1212.62
330.43	1882.62
330.658	850.62
330.887	351.62
331.115	229.62
331.344	139.62
331.572	143.62
331.801	144.62
332.03	139.62
332.258	113.62
332.486	125.62
332.715	122.62
332.943	114.62
333.172	117.62
333.4	145.62
333.629	173.62
333.857	274.62
334.085	517.62
334.314	1102.62
334.542	2289.62
334.771	2241.62
334.999	554.62
335.227	208.62
335.455	137.62
335.684	129.62
335.912	113.62
336.14	113.62
336.369	113.62
336.597	107.62
336.825	113.62
337.053	100.62
337.281	85.62
337.51	94.62
337.738	96.62
337.966	111.62
338.194	101.62
338.422	106.62
338.65	107.62
338.878	96.62
339.106	84.62
339.334	110.62
339.562	106.62
339.79	83.62
340.018	102.62
340.246	84.62
340.474	97.62
340.702	99.62
340.93	101.62
341.158	109.62
341.386	99.62
341.614	106.62
341.842	112.62
342.07	105.62
342.298	101.62
342.526	99.62
342.754	100.62
342.981	91.62
343.209	87.62
343.437	84.62
343.665	91.62
343.893	81.62
344.12	107.62
344.348	90.62
344.576	93.62
344.804	94.62
345.031	114.62
345.259	112.62
345.487	110.62
345.714	86.62
345.942	90.62
346.17	94.62
346.397	98.62
346.625	87.62
346.853	81.62
347.08	96.62
347.308	102.62
347.535	99.62
347.763	107.62
347.99	115.62
348.218	111.62
348.445	128.62
348.673	115.62
348.9	105.62
349.128	95.62
349.355	94.62
349.583	93.62
349.81	90.62
350.037	93.62
350.265	95.62
350.492	92.62
350.72	96.62
350.947	109.62
351.174	123.62
351.402	124.62
351.629	97.62
351.856	107.62
352.083	107.62
352.311	118.62
352.538	134.62
352.765	131.62
352.992	125.62
353.22	107.62
353.447	107.62
353.674	112.62
353.901	89.62
354.128	99.62
354.355	78.62
354.583	102.62
354.81	101.62
355.037	94.62
355.264	98.62
355.491	84.62
355.718	88.62
355.945	97.62
356.172	86.62
356.399	111.62
356.626	90.62
356.853	84.62
357.08	91.62
357.307	101.62
357.534	85.62
357.761	87.62
357.988	89.62
358.215	94.62
358.441	82.62
358.668	90.62
358.895	84.62
359.122	114.62
359.349	89.62
359.576	111.62
359.802	118.62
360.029	148.62
360.256	145.62
360.483	137.62
360.709	96.62
360.936	91.62
361.163	83.62
361.39	93.62
361.616	99.62
361.843	104.62
362.07	108.62
362.296	110.62
362.523	109.62
362.749	101.62
362.976	98.62
363.203	87.62
363.429	96.62
363.656	77.62
363.882	84.62
364.109	110.62
364.335	115.62
364.562	92.62
364.788	101.62
365.015	94.62
365.241	106.62
365.468	130.62
365.694	123.62
365.92	98.62
366.147	108.62
366.373	68.62
366.599	90.62
366.826	98.62
367.052	86.62
367.278	95.62
367.505	92.62
367.731	105.62
367.957	92.62
368.184	101.62
368.41	121.62
368.636	139.62
368.862	142.62
369.089	119.62
369.315	106.62
369.541	94.62
369.767	93.62
369.993	93.62
370.219	117.62
370.445	89.62
370.672	74.62
370.898	85.62
371.124	80.62
371.35	90.62
371.576	83.62
371.802	81.62
372.028	82.62
372.254	85.62
372.48	77.62
372.706	90.62
372.932	86.62
373.158	75.62
373.384	89.62
373.61	95.62
373.835	92.62
374.061	99.62
374.287	86.62
374.513	98.62
374.739	88.62
374.965	88.62
375.191	79.62
375.416	92.62
375.642	89.62
375.868	83.62
376.094	81.62
376.319	93.62
376.545	87.62
376.771	90.62
376.997	100.62
377.222	89.62
377.448	109.62
377.674	97.62
377.899	89.62
378.125	76.62
378.35	84.62
378.576	87.62
378.802	96.62
379.027	74.62
379.253	95.62
379.478	90.62
379.704	100.62
379.929	105.62
380.155	90.62
380.38	85.62
380.606	95.62
380.831	100.62
381.057	98.62
381.282	101.62
381.507	100.62
381.733	83.62
381.958	92.62
382.184	88.62
382.409	101.62
382.634	93.62
382.86	91.62
383.085	99.62
383.31	102.62
383.535	77.62
383.761	101.62
383.986	94.62
384.211	102.62
384.436	95.62
384.662	91.62
384.887	94.62
385.112	101.62
385.337	92.62
385.562	87.62
385.787	93.62
386.013	113.62
386.238	127.62
386.463	99.62
386.688	109.62
386.913	100.62
387.138	92.62
387.363	97.62
387.588	88.62
387.813	93.62
388.038	93.62
388.263	97.62
388.488	94.62
388.713	85.62
388.938	100.62
389.163	99.62
389.387	86.62
389.612	97.62
389.837	93.62
390.062	89.62
390.287	90.62
390.512	84.62
390.736	74.62
390.961	86.62
391.186	96.62
391.411	98.62
391.636	93.62
391.86	83.62
392.085	73.62
392.31	95.62
392.534	90.62
392.759	91.62
392.984	69.62
393.208	76.62
393.433	85.62
393.658	92.62
393.882	77.62
394.107	88.62
394.331	89.62
394.556	90.62
394.78	98.62
395.005	92.62
395.229	74.62
395.454	90.62
395.678	96.62
395.903	97.62
396.127	95.62
396.352	86.62
396.576	100.62
396.801	89.62
397.025	72.62
397.249	98.62
397.474	90.62
397.698	97.62
397.922	81.62
398.147	81.62
398.371	71.62
398.595	68.62
398.82	85.62
399.044	75.62
399.268	79.62
399.492	86.62
399.717	79.62
399.941	85.62
400.165	95.62
400.389	87.62
400.613	85.62
400.837	100.62
401.062	97.62
401.286	86.62
401.51	84.62
401.734	90.62
401.958	110.62
402.182	162.62
402.406	235.62
402.63	169.62
402.854	110.62
403.078	98.62
403.302	85.62
403.526	89.62
403.75	88.62
403.974	92.62
404.198	93.62
404.422	96.62
404.645	74.62
404.869	97.62
405.093	115.62
405.317	145.62
405.541	153.62
405.765	131.62
405.988	147.62
406.212	238.62
406.436	385.62
406.66	240.62
406.883	120.62
407.107	106.62
407.331	108.62
407.555	108.62
407.778	108.62
408.002	87.62
408.226	87.62
408.449	85.62
408.673	92.62
408.896	105.62
409.12	107.62
409.344	93.62
409.567	76.62
409.791	94.62
410.014	89.62
410.238	83.62
410.461	103.62
410.685	110.62
410.908	89.62
411.132	119.62
411.355	101.62
411.578	89.62
411.802	80.62
412.025	80.62
412.249	86.62
412.472	111.62
412.695	135.62
412.919	133.62
413.142	90.62
413.365	90.62
413.589	79.62
413.812	95.62
414.035	90.62
414.258	93.62
414.482	93.62
414.705	84.62
414.928	78.62
415.151	100.62
415.374	75.62
415.597	74.62
415.821	92.62
416.044	98.62
416.267	86.62
416.49	79.62
416.713	97.62
416.936	78.62
417.159	92.62
417.382	104.62
417.605	108.62
417.828	121.62
418.051	102.62
418.274	92.62
418.497	78.62
418.72	84.62
418.943	92.62
419.166	86.62
419.389	85.62
419.611	79.62
419.834	94.62
420.057	87.62
420.28	98.62
420.503	94.62
420.726	75.62
420.948	89.62
421.171	105.62
421.394	98.62
421.617	98.62
421.839	94.62
422.062	80.62
422.285	87.62
422.507	109.62
422.73	113.62
422.953	114.62
423.175	100.62
423.398	83.62
423.621	85.62
423.843	82.62
424.066	88.62
424.288	94.62
424.511	89.62
424.733	114.62
424.956	123.62
425.178	97.62
425.401	101.62
425.623	113.62
425.846	89.62
426.068	114.62
426.291	93.62
426.513	87.62
426.735	90.62
426.958	106.62
427.18	142.62
427.402	186.62
427.625	302.62
427.847	262.62
428.069	237.62
428.292	141.62
428.514	92.62
428.736	77.62
428.958	108.62
429.181	82.62
429.403	99.62
429.625	87.62
429.847	104.62
430.069	102.62
430.292	90.62
430.514	96.62
430.736	77.62
430.958	88.62
431.18	84.62
431.402	86.62
431.624	78.62
431.846	84.62
432.068	77.62
432.29	83.62
432.512	102.62
432.734	81.62
432.956	82.62
433.178	97.62
433.4	107.62
433.622	107.62
433.844	90.62
434.066	84.62
434.287	101.62
434.509	98.62
434.731	86.62
434.953	86.62
435.175	98.62
435.397	92.62
435.618	91.62
435.84	110.62
436.062	143.62
436.284	146.62
436.505	108.62
436.727	97.62
436.949	108.62
437.17	96.62
437.392	97.62
437.614	95.62
437.835	136.62
438.057	149.62
438.278	138.62
438.5	122.62
438.721	160.62
438.943	111.62
439.165	99.62
439.386	94.62
439.608	80.62
439.829	110.62
440.05	155.62
440.272	202.62
440.493	120.62
440.715	93.62
440.936	94.62
441.158	100.62
441.379	110.62
441.6	97.62
441.822	117.62
442.043	106.62
442.264	118.62
442.486	117.62
442.707	85.62
442.928	130.62
443.149	175.62
443.371	191.62
443.592	142.62
443.813	128.62
444.034	133.62
444.255	93.62
444.476	94.62
444.698	82.62
444.919	105.62
445.14	143.62
445.361	150.62
445.582	159.62
445.803	193.62
446.024	189.62
446.245	166.62
446.466	135.62
446.687	82.62
446.908	95.62
447.129	97.62
447.35	106.62
447.571	83.62
447.792	94.62
448.013	102.62
448.234	133.62
448.455	135.62
448.675	128.62
448.896	145.62
449.117	111.62
449.338	121.62
449.559	152.62
449.779	164.62
450	125.62
450.221	92.62
450.442	82.62
450.662	95.62
450.883	142.62
451.104	150.62
451.324	100.62
451.545	91.62
451.766	88.62
451.986	87.62
452.207	96.62
452.428	101.62
452.648	119.62
452.869	133.62
453.089	143.62
453.31	149.62
453.53	92.62
453.751	104.62
453.971	125.62
454.192	149.62
454.412	99.62
454.633	85.62
454.853	98.62
455.073	89.62
455.294	109.62
455.514	119.62
455.734	93.62
455.955	92.62
456.175	87.62
456.395	75.62
456.616	86.62
456.836	86.62
457.056	83.62
457.276	80.62
457.497	90.62
457.717	84.62
457.937	98.62
458.157	82.62
458.377	92.62
458.598	133.62
458.818	237.62
459.038	259.62
459.258	171.62
459.478	90.62
459.698	82.62
459.918	92.62
460.138	73.62
460.358	87.62
460.578	83.62
460.798	98.62
461.018	105.62
461.238	92.62
461.458	81.62
461.678	87.62
461.898	90.62
462.118	86.62
462.338	87.62
462.558	82.62
462.777	85.62
462.997	103.62
463.217	112.62
463.437	107.62
463.657	106.62
463.876	101.62
464.096	88.62
464.316	91.62
464.536	107.62
464.755	94.62
464.975	128.62
465.195	265.62
465.414	294.62
465.634	110.62
465.854	103.62
466.073	89.62
466.293	89.62
466.512	82.62
466.732	96.62
466.951	87.62
467.171	92.62
467.391	130.62
467.61	164.62
467.829	247.62
468.049	738.62
468.268	1175.62
468.488	278.62
468.707	119.62
468.927	93.62
469.146	90.62
469.365	93.62
469.585	97.62
469.804	121.62
470.023	116.62
470.243	105.62
470.462	118.62
470.681	150.62
470.901	97.62
471.12	97.62
471.339	113.62
471.558	134.62
471.777	161.62
471.997	367.62
472.216	1358.62
472.435	3357.62
472.654	802.62
472.873	194.62
473.092	114.62
473.311	102.62
473.53	84.62
473.749	107.62
473.968	110.62
474.187	124.62
474.406	96.62
474.625	95.62
474.844	92.62
475.063	90.62
475.282	90.62
475.501	100.62
475.72	97.62
475.939	89.62
476.158	94.62
476.377	97.62
476.596	97.62
476.814	94.62
477.033	108.62
477.252	94.62
477.471	102.62
477.69	81.62
477.908	94.62
478.127	100.62
478.346	90.62
478.564	94.62
478.783	121.62
479.002	124.62
479.22	123.62
479.439	142.62
479.658	158.62
479.876	114.62
480.095	136.62
480.313	149.62
480.532	180.62
480.751	333.62
480.969	1197.62
481.188	5441.62
481.406	3427.62
481.624	450.62
481.843	157.62
482.061	132.62
482.28	110.62
482.498	100.62
482.717	96.62
482.935	96.62
483.153	86.62
483.372	99.62
483.59	103.62
483.808	85.62
484.027	77.62
484.245	90.62
484.463	90.62
484.681	101.62
484.9	84.62
485.118	98.62
485.336	111.62
485.554	101.62
485.772	107.62
485.99	105.62
486.209	112.62
486.427	122.62
486.645	124.62
486.863	128.62
487.081	106.62
487.299	94.62
487.517	95.62
487.735	95.62
487.953	92.62
488.171	87.62
488.389	104.62
488.607	117.62
488.825	109.62
489.043	87.62
489.261	88.62
489.479	96.62
489.696	84.62
489.914	93.62
490.132	81.62
490.35	76.62
490.568	85.62
490.786	80.62
491.003	79.62
491.221	99.62
491.439	93.62
491.657	92.62
491.874	88.62
492.092	102.62
492.31	95.62
492.527	94.62
492.745	92.62
492.963	80.62
493.18	94.62
493.398	106.62
493.615	100.62
493.833	95.62
494.05	95.62
494.268	105.62
494.485	80.62
494.703	87.62
494.92	77.62
495.138	93.62
495.355	93.62
495.573	93.62
495.79	97.62
496.008	93.62
496.225	102.62
496.442	88.62
496.66	96.62
496.877	82.62
497.094	83.62
497.312	87.62
497.529	88.62
497.746	89.62
497.963	84.62
498.181	98.62
498.398	97.62
498.615	118.62
498.832	126.62
499.049	89.62
499.267	94.62
499.484	79.62
499.701	84.62
499.918	95.62
500.135	80.62
500.352	77.62
500.569	95.62
500.786	87.62
501.003	94.62
501.22	87.62
501.437	109.62
501.654	110.62
501.871	142.62
502.088	105.62
502.305	97.62
502.522	94.62
502.739	93.62
502.956	93.62
503.172	105.62
503.389	117.62
503.606	136.62
503.823	118.62
504.04	108.62
504.256	92.62
504.473	98.62
504.69	96.62
504.907	91.62
505.123	91.62
505.34	85.62
505.557	85.62
505.773	79.62
505.99	85.62
506.207	84.62
506.423	90.62
506.64	95.62
506.856	95.62
507.073	90.62
507.289	86.62
507.506	109.62
507.722	121.62
507.939	148.62
508.155	105.62
508.372	89.62
508.588	106.62
508.805	99.62
509.021	91.62
509.238	115.62
509.454	100.62
509.67	113.62
509.887	112.62
510.103	163.62
510.319	287.62
510.536	1098.62
510.752	3970.62
510.968	1103.62
511.184	222.62
511.401	152.62
511.617	122.62
511.833	113.62
512.049	98.62
512.265	116.62
512.481	89.62
512.698	107.62
512.914	105.62
513.13	105.62
