Data from Circ_2023_H10_HRD10591_00035.txt Node
Date: Wed Jan 03 09:50:38 EST 2024
User: Yrep
Spectrometer: HR+D1059
Trigger mode: 1
Integration Time (sec): 1.000000E-1
Scans to average: 1
Electric dark correction enabled: true
Nonlinearity correction enabled: false
Boxcar width: 0
XAxis mode: Wavelengths
Number of Pixels in Spectrum: 2048
>>>>>Begin Spectral Data<<<<<
223.165	-22.56
223.4	-22.56
223.635	-22.56
223.869	-14.56
224.104	-13.56
224.338	-18.56
224.573	-5.56
224.808	-10.56
225.042	-4.56
225.277	-11.56
225.511	-9.56
225.746	-1.56
225.98	3.44
226.215	10.44
226.449	15.44
226.683	17.44
226.918	18.44
227.152	47.44
227.387	43.44
227.621	34.44
227.856	41.44
228.09	53.44
228.324	58.44
228.559	33.44
228.793	69.44
229.027	53.44
229.262	67.44
229.496	80.44
229.73	82.44
229.964	87.44
230.199	76.44
230.433	75.44
230.667	68.44
230.901	87.44
231.136	80.44
231.37	77.44
231.604	82.44
231.838	81.44
232.072	71.44
232.306	73.44
232.541	93.44
232.775	81.44
233.009	75.44
233.243	80.44
233.477	77.44
233.711	74.44
233.945	75.44
234.179	76.44
234.413	73.44
234.647	91.44
234.881	89.44
235.115	84.44
235.349	72.44
235.583	72.44
235.817	88.44
236.051	85.44
236.285	71.44
236.519	80.44
236.753	100.44
236.987	87.44
237.221	98.44
237.455	97.44
237.689	79.44
237.922	76.44
238.156	74.44
238.39	71.44
238.624	89.44
238.858	71.44
239.091	85.44
239.325	74.44
239.559	82.44
239.793	77.44
240.027	70.44
240.26	83.44
240.494	88.44
240.728	64.44
240.961	84.44
241.195	83.44
241.429	88.44
241.662	63.44
241.896	69.44
242.13	63.44
242.363	77.44
242.597	76.44
242.83	81.44
243.064	86.44
243.298	85.44
243.531	82.44
243.765	83.44
243.998	75.44
244.232	87.44
244.465	98.44
244.699	73.44
244.932	74.44
245.166	82.44
245.399	79.44
245.633	74.44
245.866	83.44
246.099	76.44
246.333	81.44
246.566	75.44
246.8	83.44
247.033	78.44
247.266	77.44
247.5	82.44
247.733	79.44
247.966	86.44
248.2	96.44
248.433	79.44
248.666	103.44
248.899	95.44
249.133	88.44
249.366	102.44
249.599	108.44
249.832	82.44
250.066	96.44
250.299	85.44
250.532	85.44
250.765	77.44
250.998	85.44
251.231	66.44
251.465	79.44
251.698	77.44
251.931	72.44
252.164	75.44
252.397	78.44
252.63	73.44
252.863	80.44
253.096	88.44
253.329	95.44
253.562	75.44
253.795	85.44
254.028	89.44
254.261	78.44
254.494	92.44
254.727	83.44
254.96	84.44
255.193	73.44
255.426	90.44
255.659	87.44
255.892	95.44
256.124	90.44
256.357	75.44
256.59	92.44
256.823	84.44
257.056	96.44
257.289	81.44
257.521	89.44
257.754	74.44
257.987	89.44
258.22	84.44
258.452	96.44
258.685	96.44
258.918	87.44
259.151	89.44
259.383	87.44
259.616	78.44
259.849	81.44
260.081	78.44
260.314	85.44
260.547	89.44
260.779	98.44
261.012	95.44
261.244	107.44
261.477	99.44
261.71	92.44
261.942	120.44
262.175	133.44
262.407	97.44
262.64	62.44
262.872	90.44
263.105	88.44
263.337	90.44
263.57	86.44
263.802	84.44
264.035	94.44
264.267	85.44
264.499	86.44
264.732	88.44
264.964	85.44
265.197	85.44
265.429	87.44
265.661	88.44
265.894	80.44
266.126	88.44
266.358	79.44
266.591	80.44
266.823	102.44
267.055	89.44
267.287	91.44
267.52	82.44
267.752	85.44
267.984	77.44
268.216	87.44
268.448	82.44
268.681	82.44
268.913	77.44
269.145	98.44
269.377	81.44
269.609	72.44
269.841	82.44
270.073	94.44
270.306	87.44
270.538	94.44
270.77	58.44
271.002	77.44
271.234	84.44
271.466	96.44
271.698	90.44
271.93	89.44
272.162	88.44
272.394	78.44
272.626	86.44
272.858	97.44
273.09	90.44
273.322	87.44
273.553	84.44
273.785	80.44
274.017	90.44
274.249	87.44
274.481	87.44
274.713	94.44
274.945	102.44
275.176	87.44
275.408	99.44
275.64	117.44
275.872	111.44
276.104	96.44
276.335	94.44
276.567	101.44
276.799	135.44
277.031	149.44
277.262	186.44
277.494	135.44
277.726	91.44
277.957	80.44
278.189	89.44
278.421	88.44
278.652	97.44
278.884	89.44
279.115	100.44
279.347	85.44
279.579	100.44
279.81	128.44
280.042	171.44
280.273	234.44
280.505	165.44
280.736	115.44
280.968	94.44
281.199	96.44
281.431	84.44
281.662	91.44
281.894	83.44
282.125	98.44
282.356	128.44
282.588	167.44
282.819	132.44
283.051	102.44
283.282	89.44
283.513	92.44
283.745	91.44
283.976	98.44
284.207	90.44
284.439	75.44
284.67	80.44
284.901	84.44
285.132	72.44
285.364	85.44
285.595	91.44
285.826	85.44
286.057	92.44
286.288	76.44
286.52	84.44
286.751	93.44
286.982	90.44
287.213	77.44
287.444	101.44
287.675	101.44
287.906	90.44
288.138	93.44
288.369	79.44
288.6	89.44
288.831	77.44
289.062	93.44
289.293	99.44
289.524	100.44
289.755	89.44
289.986	89.44
290.217	112.44
290.448	77.44
290.679	93.44
290.91	95.44
291.141	82.44
291.371	80.44
291.602	97.44
291.833	90.44
292.064	69.44
292.295	81.44
292.526	91.44
292.757	90.44
292.987	84.44
293.218	85.44
293.449	81.44
293.68	90.44
293.91	65.44
294.141	86.44
294.372	97.44
294.603	87.44
294.833	87.44
295.064	94.44
295.295	97.44
295.525	96.44
295.756	96.44
295.987	133.44
296.217	158.44
296.448	134.44
296.679	85.44
296.909	83.44
297.14	92.44
297.37	93.44
297.601	78.44
297.831	94.44
298.062	96.44
298.292	94.44
298.523	83.44
298.753	94.44
298.984	90.44
299.214	98.44
299.445	90.44
299.675	84.44
299.905	98.44
300.136	89.44
300.366	90.44
300.597	88.44
300.827	95.44
301.057	100.44
301.288	119.44
301.518	106.44
301.748	75.44
301.979	102.44
302.209	100.44
302.439	94.44
302.669	92.44
302.9	98.44
303.13	112.44
303.36	106.44
303.59	118.44
303.82	129.44
304.051	112.44
304.281	88.44
304.511	90.44
304.741	79.44
304.971	82.44
305.201	98.44
305.431	78.44
305.661	78.44
305.891	86.44
306.121	94.44
306.352	113.44
306.582	99.44
306.812	98.44
307.042	112.44
307.272	142.44
307.502	158.44
307.731	162.44
307.961	118.44
308.191	88.44
308.421	86.44
308.651	86.44
308.881	93.44
309.111	89.44
309.341	102.44
309.571	111.44
309.8	102.44
310.03	86.44
310.26	79.44
310.49	102.44
310.72	107.44
310.949	123.44
311.179	103.44
311.409	103.44
311.639	90.44
311.868	86.44
312.098	89.44
312.328	117.44
312.557	118.44
312.787	128.44
313.017	113.44
313.246	96.44
313.476	80.44
313.706	93.44
313.935	95.44
314.165	100.44
314.394	99.44
314.624	96.44
314.853	103.44
315.083	96.44
315.312	90.44
315.542	86.44
315.771	93.44
316.001	89.44
316.23	94.44
316.46	101.44
316.689	90.44
316.919	92.44
317.148	103.44
317.377	91.44
317.607	95.44
317.836	94.44
318.065	93.44
318.295	88.44
318.524	100.44
318.753	88.44
318.983	94.44
319.212	98.44
319.441	103.44
319.67	121.44
319.9	106.44
320.129	100.44
320.358	93.44
320.587	100.44
320.816	100.44
321.046	100.44
321.275	102.44
321.504	95.44
321.733	93.44
321.962	98.44
322.191	97.44
322.42	118.44
322.649	125.44
322.878	127.44
323.108	130.44
323.337	138.44
323.566	145.44
323.795	170.44
324.024	235.44
324.253	474.44
324.482	996.44
324.71	2056.44
324.939	2664.44
325.168	983.44
325.397	289.44
325.626	167.44
325.855	136.44
326.084	129.44
326.313	133.44
326.542	186.44
326.77	265.44
326.999	539.44
327.228	1102.44
327.457	2006.44
327.686	1618.44
327.914	526.44
328.143	452.44
328.372	582.44
328.6	333.44
328.829	170.44
329.058	197.44
329.287	189.44
329.515	165.44
329.744	218.44
329.972	429.44
330.201	833.44
330.43	1244.44
330.658	603.44
330.887	259.44
331.115	172.44
331.344	121.44
331.572	117.44
331.801	131.44
332.03	115.44
332.258	114.44
332.486	112.44
332.715	110.44
332.943	116.44
333.172	125.44
333.4	123.44
333.629	165.44
333.857	211.44
334.085	401.44
334.314	777.44
334.542	1540.44
334.771	1511.44
334.999	408.44
335.227	164.44
335.455	131.44
335.684	106.44
335.912	102.44
336.14	105.44
336.369	103.44
336.597	101.44
336.825	111.44
337.053	106.44
337.281	92.44
337.51	103.44
337.738	84.44
337.966	90.44
338.194	99.44
338.422	100.44
338.65	99.44
338.878	95.44
339.106	86.44
339.334	98.44
339.562	100.44
339.79	102.44
340.018	89.44
340.246	107.44
340.474	100.44
340.702	106.44
340.93	89.44
341.158	97.44
341.386	106.44
341.614	101.44
341.842	105.44
342.07	103.44
342.298	104.44
342.526	93.44
342.754	88.44
342.981	95.44
343.209	97.44
343.437	98.44
343.665	98.44
343.893	99.44
344.12	95.44
344.348	86.44
344.576	95.44
344.804	95.44
345.031	98.44
345.259	102.44
345.487	111.44
345.714	89.44
345.942	96.44
346.17	105.44
346.397	94.44
346.625	92.44
346.853	89.44
347.08	98.44
347.308	96.44
347.535	102.44
347.763	112.44
347.99	105.44
348.218	119.44
348.445	103.44
348.673	104.44
348.9	99.44
349.128	95.44
349.355	90.44
349.583	102.44
349.81	80.44
350.037	93.44
350.265	98.44
350.492	92.44
350.72	90.44
350.947	101.44
351.174	106.44
351.402	117.44
351.629	105.44
351.856	111.44
352.083	128.44
352.311	117.44
352.538	124.44
352.765	121.44
352.992	130.44
353.22	98.44
353.447	109.44
353.674	111.44
353.901	111.44
354.128	105.44
354.355	84.44
354.583	104.44
354.81	85.44
355.037	96.44
355.264	87.44
355.491	109.44
355.718	86.44
355.945	89.44
356.172	91.44
356.399	92.44
356.626	102.44
356.853	101.44
357.08	88.44
357.307	95.44
357.534	87.44
357.761	99.44
357.988	99.44
358.215	93.44
358.441	92.44
358.668	80.44
358.895	86.44
359.122	83.44
359.349	83.44
359.576	99.44
359.802	118.44
360.029	137.44
360.256	143.44
360.483	110.44
360.709	85.44
360.936	85.44
361.163	111.44
361.39	98.44
361.616	105.44
361.843	95.44
362.07	99.44
362.296	98.44
362.523	90.44
362.749	92.44
362.976	87.44
363.203	100.44
363.429	102.44
363.656	105.44
363.882	95.44
364.109	73.44
364.335	91.44
364.562	87.44
364.788	84.44
365.015	95.44
365.241	94.44
365.468	101.44
365.694	118.44
365.92	106.44
366.147	93.44
366.373	91.44
366.599	87.44
366.826	75.44
367.052	74.44
367.278	96.44
367.505	84.44
367.731	111.44
367.957	93.44
368.184	89.44
368.41	113.44
368.636	121.44
368.862	127.44
369.089	123.44
369.315	98.44
369.541	88.44
369.767	111.44
369.993	92.44
370.219	101.44
370.445	86.44
370.672	88.44
370.898	92.44
371.124	98.44
371.35	71.44
371.576	85.44
371.802	90.44
372.028	93.44
372.254	90.44
372.48	88.44
372.706	87.44
372.932	90.44
373.158	90.44
373.384	80.44
373.61	91.44
373.835	89.44
374.061	80.44
374.287	84.44
374.513	93.44
374.739	99.44
374.965	91.44
375.191	85.44
375.416	85.44
375.642	85.44
375.868	82.44
376.094	76.44
376.319	92.44
376.545	90.44
376.771	89.44
376.997	82.44
377.222	90.44
377.448	85.44
377.674	100.44
377.899	82.44
378.125	90.44
378.35	98.44
378.576	91.44
378.802	90.44
379.027	86.44
379.253	86.44
379.478	95.44
379.704	89.44
379.929	86.44
380.155	89.44
380.38	102.44
380.606	101.44
380.831	97.44
381.057	97.44
381.282	87.44
381.507	99.44
381.733	99.44
381.958	84.44
382.184	92.44
382.409	97.44
382.634	109.44
382.86	108.44
383.085	87.44
383.31	99.44
383.535	90.44
383.761	95.44
383.986	113.44
384.211	106.44
384.436	89.44
384.662	84.44
384.887	89.44
385.112	95.44
385.337	89.44
385.562	101.44
385.787	98.44
386.013	102.44
386.238	100.44
386.463	101.44
386.688	102.44
386.913	93.44
387.138	105.44
387.363	95.44
387.588	79.44
387.813	96.44
388.038	89.44
388.263	107.44
388.488	99.44
388.713	99.44
388.938	97.44
389.163	84.44
389.387	95.44
389.612	91.44
389.837	96.44
390.062	85.44
390.287	89.44
390.512	99.44
390.736	98.44
390.961	88.44
391.186	93.44
391.411	105.44
391.636	99.44
391.86	82.44
392.085	79.44
392.31	92.44
392.534	103.44
392.759	96.44
392.984	87.44
393.208	78.44
393.433	88.44
393.658	94.44
393.882	95.44
394.107	89.44
394.331	84.44
394.556	91.44
394.78	98.44
395.005	93.44
395.229	90.44
395.454	80.44
395.678	92.44
395.903	95.44
396.127	90.44
396.352	96.44
396.576	84.44
396.801	92.44
397.025	92.44
397.249	102.44
397.474	89.44
397.698	89.44
397.922	80.44
398.147	95.44
398.371	89.44
398.595	83.44
398.82	88.44
399.044	102.44
399.268	83.44
399.492	92.44
399.717	88.44
399.941	100.44
400.165	101.44
400.389	93.44
400.613	101.44
400.837	93.44
401.062	91.44
401.286	89.44
401.51	83.44
401.734	102.44
401.958	104.44
402.182	150.44
402.406	182.44
402.63	151.44
402.854	106.44
403.078	104.44
403.302	89.44
403.526	88.44
403.75	85.44
403.974	103.44
404.198	84.44
404.422	90.44
404.645	97.44
404.869	103.44
405.093	116.44
405.317	125.44
405.541	135.44
405.765	127.44
405.988	132.44
406.212	225.44
406.436	288.44
406.66	184.44
406.883	99.44
407.107	94.44
407.331	102.44
407.555	120.44
407.778	110.44
408.002	94.44
408.226	101.44
408.449	96.44
408.673	82.44
408.896	82.44
409.12	102.44
409.344	88.44
409.567	77.44
409.791	96.44
410.014	106.44
410.238	104.44
410.461	113.44
410.685	106.44
410.908	101.44
411.132	126.44
411.355	97.44
411.578	88.44
411.802	89.44
412.025	88.44
412.249	106.44
412.472	97.44
412.695	125.44
412.919	102.44
413.142	116.44
413.365	99.44
413.589	98.44
413.812	83.44
414.035	93.44
414.258	88.44
414.482	90.44
414.705	91.44
414.928	81.44
415.151	103.44
415.374	90.44
415.597	93.44
415.821	89.44
416.044	95.44
416.267	101.44
416.49	80.44
416.713	88.44
416.936	82.44
417.159	90.44
417.382	89.44
417.605	103.44
417.828	104.44
418.051	103.44
418.274	96.44
418.497	80.44
418.72	81.44
418.943	83.44
419.166	91.44
419.389	91.44
419.611	75.44
419.834	91.44
420.057	86.44
420.28	109.44
420.503	97.44
420.726	84.44
420.948	101.44
421.171	101.44
421.394	99.44
421.617	96.44
421.839	92.44
422.062	89.44
422.285	103.44
422.507	116.44
422.73	97.44
422.953	101.44
423.175	93.44
423.398	84.44
423.621	97.44
423.843	83.44
424.066	91.44
424.288	82.44
424.511	76.44
424.733	106.44
424.956	135.44
425.178	103.44
425.401	109.44
425.623	110.44
425.846	96.44
426.068	100.44
426.291	106.44
426.513	97.44
426.735	83.44
426.958	105.44
427.18	122.44
427.402	178.44
427.625	228.44
427.847	232.44
428.069	221.44
428.292	114.44
428.514	105.44
428.736	91.44
428.958	93.44
429.181	85.44
429.403	82.44
429.625	105.44
429.847	102.44
430.069	124.44
430.292	105.44
430.514	93.44
430.736	79.44
430.958	91.44
431.18	93.44
431.402	88.44
431.624	79.44
431.846	80.44
432.068	94.44
432.29	95.44
432.512	94.44
432.734	96.44
432.956	96.44
433.178	82.44
433.4	121.44
433.622	96.44
433.844	88.44
434.066	101.44
434.287	98.44
434.509	102.44
434.731	93.44
434.953	100.44
435.175	102.44
435.397	99.44
435.618	95.44
435.84	118.44
436.062	140.44
436.284	129.44
436.505	110.44
436.727	104.44
436.949	88.44
437.17	88.44
437.392	88.44
437.614	95.44
437.835	136.44
438.057	141.44
438.278	133.44
438.5	118.44
438.721	139.44
438.943	123.44
439.165	111.44
439.386	100.44
439.608	79.44
439.829	114.44
440.05	141.44
440.272	170.44
440.493	110.44
440.715	98.44
440.936	84.44
441.158	94.44
441.379	103.44
441.6	100.44
441.822	106.44
442.043	119.44
442.264	123.44
442.486	120.44
442.707	113.44
442.928	118.44
443.149	157.44
443.371	170.44
443.592	129.44
443.813	118.44
444.034	128.44
444.255	115.44
444.476	99.44
444.698	94.44
444.919	107.44
445.14	138.44
445.361	131.44
445.582	128.44
445.803	183.44
446.024	183.44
446.245	174.44
446.466	141.44
446.687	88.44
446.908	96.44
447.129	86.44
447.35	88.44
447.571	107.44
447.792	89.44
448.013	111.44
448.234	119.44
448.455	114.44
448.675	139.44
448.896	142.44
449.117	114.44
449.338	110.44
449.559	148.44
449.779	164.44
450	118.44
450.221	95.44
450.442	96.44
450.662	94.44
450.883	123.44
451.104	123.44
451.324	117.44
451.545	91.44
451.766	94.44
451.986	73.44
452.207	98.44
452.428	94.44
452.648	109.44
452.869	121.44
453.089	125.44
453.31	134.44
453.53	92.44
453.751	96.44
453.971	119.44
454.192	138.44
454.412	97.44
454.633	99.44
454.853	98.44
455.073	92.44
455.294	103.44
455.514	115.44
455.734	98.44
455.955	90.44
456.175	82.44
456.395	85.44
456.616	93.44
456.836	98.44
457.056	80.44
457.276	83.44
457.497	93.44
457.717	91.44
457.937	102.44
458.157	93.44
458.377	93.44
458.598	127.44
458.818	189.44
459.038	217.44
459.258	135.44
459.478	104.44
459.698	100.44
459.918	88.44
460.138	89.44
460.358	80.44
460.578	99.44
460.798	96.44
461.018	92.44
461.238	98.44
461.458	82.44
461.678	74.44
461.898	81.44
462.118	83.44
462.338	73.44
462.558	97.44
462.777	90.44
462.997	98.44
463.217	107.44
463.437	85.44
463.657	85.44
463.876	99.44
464.096	94.44
464.316	89.44
464.536	112.44
464.755	104.44
464.975	113.44
465.195	220.44
465.414	203.44
465.634	116.44
465.854	79.44
466.073	99.44
466.293	81.44
466.512	92.44
466.732	93.44
466.951	97.44
467.171	102.44
467.391	122.44
467.61	139.44
467.829	187.44
468.049	486.44
468.268	731.44
468.488	204.44
468.707	114.44
468.927	108.44
469.146	85.44
469.365	104.44
469.585	86.44
469.804	97.44
470.023	109.44
470.243	104.44
470.462	118.44
470.681	142.44
470.901	112.44
471.12	97.44
471.339	98.44
471.558	97.44
471.777	154.44
471.997	261.44
472.216	913.44
472.435	2142.44
472.654	564.44
472.873	151.44
473.092	111.44
473.311	100.44
473.53	98.44
473.749	100.44
473.968	95.44
474.187	121.44
474.406	107.44
474.625	91.44
474.844	77.44
475.063	99.44
475.282	97.44
475.501	110.44
475.72	101.44
475.939	83.44
476.158	101.44
476.377	91.44
476.596	94.44
476.814	104.44
477.033	100.44
477.252	98.44
477.471	99.44
477.69	96.44
477.908	93.44
478.127	107.44
478.346	103.44
478.564	100.44
478.783	102.44
479.002	99.44
479.22	109.44
479.439	129.44
479.658	137.44
479.876	113.44
480.095	111.44
480.313	123.44
480.532	160.44
480.751	271.44
480.969	838.44
481.188	3627.44
481.406	2249.44
481.624	326.44
481.843	131.44
482.061	105.44
482.28	110.44
482.498	100.44
482.717	103.44
482.935	101.44
483.153	97.44
483.372	103.44
483.59	87.44
483.808	91.44
484.027	100.44
484.245	105.44
484.463	101.44
484.681	106.44
484.9	105.44
485.118	86.44
485.336	94.44
485.554	97.44
485.772	111.44
485.99	115.44
486.209	106.44
486.427	110.44
486.645	109.44
486.863	123.44
487.081	105.44
487.299	107.44
487.517	108.44
487.735	95.44
487.953	104.44
488.171	102.44
488.389	111.44
488.607	117.44
488.825	106.44
489.043	85.44
489.261	92.44
489.479	98.44
489.696	98.44
489.914	94.44
490.132	107.44
490.35	91.44
490.568	76.44
490.786	88.44
491.003	96.44
491.221	97.44
491.439	95.44
491.657	104.44
491.874	96.44
492.092	99.44
492.31	106.44
492.527	109.44
492.745	77.44
492.963	102.44
493.18	100.44
493.398	82.44
493.615	95.44
493.833	90.44
494.05	92.44
494.268	80.44
494.485	95.44
494.703	97.44
494.92	99.44
495.138	85.44
495.355	85.44
495.573	87.44
495.79	84.44
496.008	96.44
496.225	87.44
496.442	89.44
496.66	77.44
496.877	99.44
497.094	81.44
497.312	88.44
497.529	89.44
497.746	93.44
497.963	87.44
498.181	95.44
498.398	101.44
498.615	114.44
498.832	105.44
499.049	88.44
499.267	92.44
499.484	88.44
499.701	88.44
499.918	91.44
500.135	94.44
500.352	95.44
500.569	93.44
500.786	103.44
501.003	87.44
501.22	84.44
501.437	104.44
501.654	100.44
501.871	111.44
502.088	98.44
502.305	103.44
502.522	101.44
502.739	106.44
502.956	87.44
503.172	111.44
503.389	106.44
503.606	106.44
503.823	111.44
504.04	93.44
504.256	90.44
504.473	95.44
504.69	100.44
504.907	98.44
505.123	80.44
505.34	89.44
505.557	89.44
505.773	94.44
505.99	96.44
506.207	90.44
506.423	93.44
506.64	94.44
506.856	95.44
507.073	113.44
507.289	101.44
507.506	106.44
507.722	126.44
507.939	132.44
508.155	96.44
508.372	91.44
508.588	91.44
508.805	90.44
509.021	111.44
509.238	95.44
509.454	91.44
509.67	113.44
509.887	112.44
510.103	137.44
510.319	233.44
510.536	870.44
510.752	3072.44
510.968	893.44
511.184	177.44
511.401	137.44
511.617	129.44
511.833	106.44
512.049	97.44
512.265	109.44
512.481	86.44
512.698	93.44
512.914	102.44
513.13	89.44
