Data from Circ_2023_H10_HRD10591_00033.txt Node
Date: Wed Jan 03 09:50:37 EST 2024
User: Yrep
Spectrometer: HR+D1059
Trigger mode: 1
Integration Time (sec): 1.000000E-1
Scans to average: 1
Electric dark correction enabled: true
Nonlinearity correction enabled: false
Boxcar width: 0
XAxis mode: Wavelengths
Number of Pixels in Spectrum: 2048
>>>>>Begin Spectral Data<<<<<
223.165	-21
223.4	-21
223.635	-21
223.869	-19
224.104	-5
224.338	-9
224.573	-12
224.808	-6
225.042	-10
225.277	1
225.511	-11
225.746	-17
225.98	10
226.215	10
226.449	15
226.683	18
226.918	30
227.152	26
227.387	43
227.621	41
227.856	58
228.09	61
228.324	45
228.559	52
228.793	57
229.027	55
229.262	70
229.496	69
229.73	80
229.964	93
230.199	67
230.433	71
230.667	71
230.901	76
231.136	70
231.37	83
231.604	77
231.838	84
232.072	88
232.306	82
232.541	70
232.775	79
233.009	90
233.243	81
233.477	75
233.711	91
233.945	102
234.179	85
234.413	82
234.647	88
234.881	51
235.115	76
235.349	72
235.583	78
235.817	74
236.051	64
236.285	71
236.519	84
236.753	93
236.987	90
237.221	94
237.455	80
237.689	72
237.922	65
238.156	79
238.39	67
238.624	90
238.858	81
239.091	87
239.325	79
239.559	68
239.793	93
240.027	72
240.26	85
240.494	82
240.728	79
240.961	68
241.195	84
241.429	73
241.662	71
241.896	74
242.13	72
242.363	79
242.597	75
242.83	65
243.064	84
243.298	76
243.531	78
243.765	78
243.998	77
244.232	64
244.465	94
244.699	82
244.932	79
245.166	71
245.399	93
245.633	95
245.866	77
246.099	75
246.333	68
246.566	73
246.8	74
247.033	75
247.266	83
247.5	73
247.733	81
247.966	70
248.2	75
248.433	91
248.666	91
248.899	83
249.133	89
249.366	105
249.599	98
249.832	89
250.066	90
250.299	85
250.532	92
250.765	89
250.998	75
251.231	77
251.465	73
251.698	72
251.931	79
252.164	88
252.397	92
252.63	95
252.863	85
253.096	87
253.329	83
253.562	89
253.795	78
254.028	87
254.261	95
254.494	84
254.727	77
254.96	80
255.193	94
255.426	85
255.659	91
255.892	90
256.124	88
256.357	85
256.59	65
256.823	87
257.056	80
257.289	87
257.521	102
257.754	92
257.987	85
258.22	90
258.452	105
258.685	101
258.918	89
259.151	87
259.383	91
259.616	54
259.849	73
260.081	78
260.314	95
260.547	71
260.779	109
261.012	112
261.244	101
261.477	93
261.71	97
261.942	123
262.175	138
262.407	89
262.64	93
262.872	86
263.105	75
263.337	73
263.57	75
263.802	75
264.035	84
264.267	87
264.499	60
264.732	85
264.964	73
265.197	99
265.429	81
265.661	84
265.894	94
266.126	97
266.358	93
266.591	84
266.823	71
267.055	73
267.287	83
267.52	79
267.752	91
267.984	89
268.216	96
268.448	75
268.681	104
268.913	80
269.145	89
269.377	90
269.609	93
269.841	83
270.073	85
270.306	79
270.538	84
270.77	90
271.002	96
271.234	93
271.466	94
271.698	88
271.93	85
272.162	79
272.394	84
272.626	89
272.858	99
273.09	77
273.322	97
273.553	89
273.785	77
274.017	79
274.249	85
274.481	85
274.713	81
274.945	84
275.176	93
275.408	86
275.64	114
275.872	124
276.104	102
276.335	88
276.567	127
276.799	138
277.031	167
277.262	192
277.494	153
277.726	115
277.957	93
278.189	88
278.421	83
278.652	88
278.884	85
279.115	91
279.347	94
279.579	97
279.81	124
280.042	181
280.273	246
280.505	173
280.736	104
280.968	107
281.199	88
281.431	98
281.662	103
281.894	95
282.125	114
282.356	124
282.588	185
282.819	133
283.051	91
283.282	96
283.513	90
283.745	85
283.976	82
284.207	82
284.439	86
284.67	105
284.901	98
285.132	90
285.364	85
285.595	79
285.826	88
286.057	97
286.288	82
286.52	84
286.751	80
286.982	81
287.213	93
287.444	83
287.675	88
287.906	73
288.138	89
288.369	100
288.6	92
288.831	85
289.062	84
289.293	82
289.524	73
289.755	83
289.986	82
290.217	83
290.448	86
290.679	93
290.91	88
291.141	90
291.371	102
291.602	82
291.833	69
292.064	85
292.295	85
292.526	83
292.757	90
292.987	93
293.218	89
293.449	91
293.68	101
293.91	79
294.141	85
294.372	94
294.603	81
294.833	96
295.064	92
295.295	81
295.525	97
295.756	93
295.987	131
296.217	183
296.448	161
296.679	99
296.909	96
297.14	80
297.37	88
297.601	96
297.831	81
298.062	102
298.292	101
298.523	99
298.753	102
298.984	82
299.214	89
299.445	82
299.675	93
299.905	105
300.136	95
300.366	96
300.597	89
300.827	96
301.057	103
301.288	117
301.518	104
301.748	103
301.979	116
302.209	94
302.439	102
302.669	88
302.9	93
303.13	100
303.36	98
303.59	141
303.82	148
304.051	99
304.281	102
304.511	80
304.741	79
304.971	78
305.201	101
305.431	90
305.661	87
305.891	76
306.121	99
306.352	96
306.582	110
306.812	105
307.042	110
307.272	156
307.502	168
307.731	161
307.961	114
308.191	91
308.421	93
308.651	95
308.881	106
309.111	105
309.341	104
309.571	109
309.8	113
310.03	106
310.26	96
310.49	116
310.72	115
310.949	119
311.179	110
311.409	95
311.639	113
311.868	115
312.098	99
312.328	104
312.557	109
312.787	127
313.017	121
313.246	95
313.476	97
313.706	79
313.935	105
314.165	105
314.394	120
314.624	105
314.853	98
315.083	105
315.312	91
315.542	92
315.771	89
316.001	98
316.23	94
316.46	82
316.689	104
316.919	99
317.148	94
317.377	101
317.607	88
317.836	100
318.065	97
318.295	94
318.524	105
318.753	103
318.983	95
319.212	102
319.441	124
319.67	137
319.9	111
320.129	100
320.358	102
320.587	107
320.816	110
321.046	99
321.275	101
321.504	99
321.733	97
321.962	113
322.191	108
322.42	112
322.649	146
322.878	137
323.108	142
323.337	143
323.566	157
323.795	193
324.024	258
324.253	520
324.482	1141
324.71	2335
324.939	3123
325.168	1117
325.397	316
325.626	172
325.855	136
326.084	145
326.313	159
326.542	184
326.77	282
326.999	597
327.228	1237
327.457	2243
327.686	1840
327.914	600
328.143	483
328.372	637
328.6	371
328.829	198
329.058	188
329.287	197
329.515	178
329.744	230
329.972	447
330.201	910
330.43	1390
330.658	639
330.887	296
331.115	206
331.344	138
331.572	121
331.801	135
332.03	126
332.258	115
332.486	105
332.715	98
332.943	111
333.172	116
333.4	112
333.629	164
333.857	241
334.085	413
334.314	860
334.542	1688
334.771	1636
334.999	429
335.227	162
335.455	127
335.684	108
335.912	113
336.14	116
336.369	107
336.597	121
336.825	101
337.053	100
337.281	99
337.51	94
337.738	104
337.966	96
338.194	106
338.422	115
338.65	98
338.878	104
339.106	107
339.334	97
339.562	93
339.79	99
340.018	95
340.246	98
340.474	111
340.702	101
340.93	95
341.158	95
341.386	92
341.614	112
341.842	96
342.07	99
342.298	106
342.526	105
342.754	83
342.981	94
343.209	76
343.437	100
343.665	93
343.893	89
344.12	86
344.348	104
344.576	85
344.804	81
345.031	95
345.259	110
345.487	103
345.714	100
345.942	98
346.17	105
346.397	79
346.625	103
346.853	110
347.08	83
347.308	87
347.535	112
347.763	111
347.99	105
348.218	119
348.445	127
348.673	112
348.9	96
349.128	93
349.355	87
349.583	93
349.81	97
350.037	95
350.265	93
350.492	101
350.72	97
350.947	109
351.174	114
351.402	134
351.629	105
351.856	114
352.083	118
352.311	121
352.538	140
352.765	131
352.992	129
353.22	123
353.447	103
353.674	108
353.901	89
354.128	95
354.355	93
354.583	104
354.81	93
355.037	84
355.264	88
355.491	92
355.718	89
355.945	88
356.172	95
356.399	101
356.626	104
356.853	99
357.08	98
357.307	97
357.534	105
357.761	86
357.988	106
358.215	103
358.441	88
358.668	88
358.895	102
359.122	98
359.349	83
359.576	107
359.802	118
360.029	141
360.256	145
360.483	114
360.709	94
360.936	105
361.163	100
361.39	98
361.616	113
361.843	93
362.07	93
362.296	111
362.523	113
362.749	109
362.976	104
363.203	77
363.429	91
363.656	89
363.882	103
364.109	98
364.335	89
364.562	91
364.788	100
365.015	97
365.241	123
365.468	115
365.694	107
365.92	103
366.147	100
366.373	102
366.599	95
366.826	81
367.052	94
367.278	96
367.505	103
367.731	105
367.957	116
368.184	92
368.41	95
368.636	120
368.862	137
369.089	129
369.315	106
369.541	96
369.767	86
369.993	103
370.219	101
370.445	96
370.672	91
370.898	95
371.124	87
371.35	77
371.576	96
371.802	98
372.028	80
372.254	90
372.48	90
372.706	78
372.932	85
373.158	77
373.384	94
373.61	104
373.835	86
374.061	85
374.287	95
374.513	93
374.739	78
374.965	93
375.191	94
375.416	91
375.642	93
375.868	91
376.094	90
376.319	104
376.545	92
376.771	82
376.997	95
377.222	101
377.448	86
377.674	96
377.899	104
378.125	82
378.35	93
378.576	84
378.802	87
379.027	95
379.253	94
379.478	84
379.704	74
379.929	92
380.155	98
380.38	96
380.606	99
380.831	103
381.057	101
381.282	93
381.507	95
381.733	102
381.958	87
382.184	103
382.409	106
382.634	118
382.86	103
383.085	87
383.31	87
383.535	93
383.761	81
383.986	93
384.211	99
384.436	89
384.662	97
384.887	82
385.112	97
385.337	90
385.562	97
385.787	90
386.013	97
386.238	125
386.463	104
386.688	104
386.913	101
387.138	88
387.363	91
387.588	97
387.813	96
388.038	92
388.263	86
388.488	85
388.713	93
388.938	94
389.163	101
389.387	106
389.612	95
389.837	86
390.062	84
390.287	93
390.512	90
390.736	93
390.961	92
391.186	89
391.411	81
391.636	113
391.86	79
392.085	76
392.31	86
392.534	90
392.759	89
392.984	93
393.208	96
393.433	79
393.658	65
393.882	80
394.107	85
394.331	86
394.556	74
394.78	85
395.005	95
395.229	89
395.454	80
395.678	105
395.903	105
396.127	74
396.352	89
396.576	105
396.801	95
397.025	86
397.249	91
397.474	103
397.698	88
397.922	96
398.147	89
398.371	81
398.595	93
398.82	90
399.044	78
399.268	78
399.492	87
399.717	91
399.941	98
400.165	105
400.389	82
400.613	87
400.837	82
401.062	93
401.286	76
401.51	111
401.734	97
401.958	111
402.182	150
402.406	218
402.63	148
402.854	100
403.078	89
403.302	109
403.526	94
403.75	85
403.974	89
404.198	87
404.422	95
404.645	104
404.869	113
405.093	115
405.317	126
405.541	154
405.765	121
405.988	149
406.212	237
406.436	337
406.66	207
406.883	124
407.107	106
407.331	110
407.555	132
407.778	114
408.002	108
408.226	96
408.449	105
408.673	74
408.896	102
409.12	93
409.344	93
409.567	71
409.791	95
410.014	104
410.238	97
410.461	98
410.685	109
410.908	96
411.132	103
411.355	104
411.578	98
411.802	93
412.025	90
412.249	101
412.472	128
412.695	146
412.919	106
413.142	93
413.365	90
413.589	83
413.812	88
414.035	102
414.258	99
414.482	85
414.705	84
414.928	82
415.151	96
415.374	90
415.597	79
415.821	91
416.044	111
416.267	107
416.49	92
416.713	89
416.936	90
417.159	95
417.382	91
417.605	107
417.828	108
418.051	91
418.274	79
418.497	87
418.72	80
418.943	95
419.166	86
419.389	106
419.611	81
419.834	86
420.057	81
420.28	104
420.503	95
420.726	78
420.948	98
421.171	98
421.394	117
421.617	90
421.839	88
422.062	86
422.285	100
422.507	103
422.73	114
422.953	109
423.175	99
423.398	105
423.621	98
423.843	96
424.066	93
424.288	93
424.511	98
424.733	117
424.956	133
425.178	100
425.401	95
425.623	117
425.846	93
426.068	113
426.291	99
426.513	94
426.735	83
426.958	103
427.18	135
427.402	181
427.625	264
427.847	251
428.069	216
428.292	135
428.514	99
428.736	77
428.958	71
429.181	89
429.403	85
429.625	90
429.847	95
430.069	117
430.292	94
430.514	90
430.736	69
430.958	86
431.18	92
431.402	96
431.624	92
431.846	90
432.068	90
432.29	97
432.512	103
432.734	79
432.956	90
433.178	105
433.4	107
433.622	91
433.844	96
434.066	93
434.287	93
434.509	88
434.731	81
434.953	100
435.175	102
435.397	95
435.618	110
435.84	125
436.062	141
436.284	143
436.505	112
436.727	106
436.949	82
437.17	105
437.392	87
437.614	92
437.835	122
438.057	163
438.278	134
438.5	127
438.721	145
438.943	105
439.165	100
439.386	89
439.608	90
439.829	118
440.05	162
440.272	190
440.493	117
440.715	85
440.936	87
441.158	96
441.379	97
441.6	104
441.822	109
442.043	105
442.264	138
442.486	118
442.707	119
442.928	127
443.149	169
443.371	166
443.592	149
443.813	134
444.034	139
444.255	97
444.476	92
444.698	97
444.919	102
445.14	123
445.361	144
445.582	159
445.803	198
446.024	178
446.245	168
446.466	134
446.687	98
446.908	100
447.129	85
447.35	73
447.571	98
447.792	100
448.013	128
448.234	131
448.455	117
448.675	136
448.896	148
449.117	124
449.338	134
449.559	160
449.779	171
450	109
450.221	98
450.442	88
450.662	103
450.883	136
451.104	130
451.324	95
451.545	101
451.766	88
451.986	85
452.207	90
452.428	99
452.648	115
452.869	122
453.089	134
453.31	148
453.53	109
453.751	95
453.971	112
454.192	138
454.412	107
454.633	96
454.853	80
455.073	96
455.294	101
455.514	112
455.734	112
455.955	105
456.175	80
456.395	97
456.616	98
456.836	94
457.056	89
457.276	89
457.497	89
457.717	72
457.937	72
458.157	78
458.377	100
458.598	122
458.818	227
459.038	248
459.258	166
459.478	100
459.698	83
459.918	81
460.138	93
460.358	79
460.578	98
460.798	95
461.018	91
461.238	96
461.458	86
461.678	93
461.898	92
462.118	78
462.338	96
462.558	91
462.777	98
462.997	121
463.217	111
463.437	106
463.657	85
463.876	92
464.096	87
464.316	106
464.536	127
464.755	99
464.975	122
465.195	238
465.414	255
465.634	116
465.854	85
466.073	83
466.293	104
466.512	109
466.732	90
466.951	100
467.171	103
467.391	99
467.61	159
467.829	201
468.049	527
468.268	802
468.488	227
468.707	114
468.927	99
469.146	87
469.365	93
469.585	96
469.804	115
470.023	101
470.243	99
470.462	118
470.681	145
470.901	119
471.12	116
471.339	112
471.558	115
471.777	155
471.997	289
472.216	997
472.435	2385
472.654	595
472.873	157
473.092	116
473.311	87
473.53	98
473.749	84
473.968	110
474.187	124
474.406	114
474.625	104
474.844	94
475.063	83
475.282	89
475.501	100
475.72	89
475.939	83
476.158	86
476.377	90
476.596	102
476.814	97
477.033	111
477.252	100
477.471	106
477.69	95
477.908	103
478.127	95
478.346	84
478.564	100
478.783	128
479.002	104
479.22	96
479.439	126
479.658	134
479.876	123
480.095	118
480.313	126
480.532	146
480.751	255
480.969	933
481.188	3936
481.406	2524
481.624	359
481.843	143
482.061	117
482.28	95
482.498	97
482.717	93
482.935	107
483.153	89
483.372	86
483.59	92
483.808	98
484.027	97
484.245	83
484.463	100
484.681	79
484.9	83
485.118	99
485.336	101
485.554	89
485.772	103
485.99	100
486.209	119
486.427	102
486.645	110
486.863	122
487.081	104
487.299	101
487.517	106
487.735	91
487.953	90
488.171	85
488.389	95
488.607	96
488.825	106
489.043	85
489.261	106
489.479	98
489.696	106
489.914	88
490.132	91
490.35	91
490.568	89
490.786	103
491.003	96
491.221	105
491.439	112
491.657	87
491.874	85
492.092	99
492.31	81
492.527	103
492.745	95
492.963	82
493.18	96
493.398	100
493.615	83
493.833	92
494.05	92
494.268	86
494.485	78
494.703	82
494.92	89
495.138	81
495.355	82
495.573	102
495.79	94
496.008	83
496.225	83
496.442	100
496.66	86
496.877	73
497.094	81
497.312	95
497.529	100
497.746	96
497.963	85
498.181	83
498.398	89
498.615	120
498.832	120
499.049	111
499.267	109
499.484	94
499.701	81
499.918	100
500.135	96
500.352	82
500.569	94
500.786	100
501.003	89
501.22	82
501.437	95
501.654	100
501.871	117
502.088	106
502.305	79
502.522	94
502.739	97
502.956	104
503.172	90
503.389	96
503.606	120
503.823	92
504.04	97
504.256	92
504.473	85
504.69	104
504.907	91
505.123	88
505.34	91
505.557	95
505.773	81
505.99	80
506.207	87
506.423	76
506.64	86
506.856	90
507.073	94
507.289	79
507.506	106
507.722	125
507.939	154
508.155	94
508.372	99
508.588	96
508.805	80
509.021	97
509.238	101
509.454	98
509.67	132
509.887	113
510.103	154
510.319	243
510.536	1017
510.752	3597
510.968	1034
511.184	207
511.401	149
511.617	116
511.833	114
512.049	91
512.265	102
512.481	105
512.698	93
512.914	92
513.13	90
513.346	102
513.562	100
513.778	111
513.994	108
514.21	114
514.426	138
514.642	198
514.858	179
515.074	247
515.29	764
515.506	2787
515.721	1032
515.937	220
516.153	135
516.369	136
516.585	110
516.801	104
517.016	106
517.232	101
517.448	89
517.664	93
517.879	94
518.095	104
518.311	126
518.527	122
518.742	98
518.958	107
519.173	108
519.389	86
519.605	110
519.82	109
520.036	125
520.251	148
520.467	144
520.682	128
520.898	116
521.113	135
521.329	179
521.544	308
521.76	951
521.975	4609
522.19	2861
522.406	561
522.621	166
522.836	133
523.052	105
523.267	109
523.482	112
523.698	117
523.913	158
524.128	129
524.343	100
524.559	99
524.774	89
524.989	95
525.204	113
525.419	113
525.634	90
525.849	93
526.064	92
526.28	106
526.495	83
526.71	97
526.925	74
527.14	88
527.355	93
527.57	89
527.785	91
527.999	91
528.214	98
528.429	104
528.644	114
528.859	90
529.074	105
529.289	162
529.503	291
529.718	137
529.933	106
530.148	83
530.363	80
530.577	87
530.792	95
531.007	103
531.221	106
531.436	100
531.651	100
531.865	101
532.08	99
532.295	93
532.509	103
532.724	90
532.938	113
533.153	105
533.367	94
533.582	98
533.796	103
534.011	78
534.225	87
534.44	78
534.654	88
534.868	95
535.083	90
535.297	111
535.511	118
535.726	114
535.94	109
536.154	94
536.369	81
536.583	98
536.797	89
537.011	84
537.225	88
537.44	103
537.654	83
537.868	99
538.082	97
538.296	88
538.51	93
538.724	96
538.938	98
539.153	110
539.367	129
539.581	90
539.795	84
540.009	82
540.222	94
540.436	104
540.65	92
540.864	106
541.078	121
541.292	87
541.506	86
541.72	93
541.934	87
542.147	96
542.361	95
542.575	111
542.789	91
543.002	99
543.216	109
543.43	112
543.644	84
543.857	86
544.071	76
544.285	104
544.498	93
544.712	86
544.925	86
545.139	85
545.352	90
545.566	86
545.779	90
545.993	121
546.206	97
546.42	86
546.633	97
546.847	106
547.06	97
547.274	100
547.487	75
547.7	87
547.914	74
548.127	86
548.34	93
548.554	86
548.767	91
548.98	82
549.193	88
549.407	82
549.62	102
549.833	82
550.046	85
550.259	89
550.473	82
550.686	93
550.899	82
551.112	99
551.325	105
551.538	91
551.751	91
551.964	91
552.177	100
552.39	82
552.603	85
552.816	90
553.029	94
553.242	92
553.455	101
553.667	116
553.88	123
554.093	88
554.306	92
554.519	119
554.732	92
554.944	101
555.157	93
555.37	85
555.583	91
555.795	111
556.008	88
556.221	92
556.433	96
556.646	100
556.859	99
557.071	98
557.284	91
557.496	95
557.709	87
557.921	83
558.134	96
558.346	89
558.559	97
558.771	84
558.984	103
559.196	94
559.409	94
559.621	88
559.833	91
560.046	90
560.258	119
560.47	143
560.683	107
560.895	91
561.107	84
561.32	101
561.532	82
561.744	100
561.956	73
562.168	94
562.381	98
562.593	85
562.805	95
563.017	85
563.229	92
563.441	95
563.653	83
563.865	89
564.077	90
564.289	100
564.501	80
564.713	107
564.925	109
565.137	127
565.349	93
565.561	97
565.773	89
565.985	92
566.197	85
566.408	81
566.62	83
566.832	81
567.044	88
567.255	81
567.467	96
567.679	94
567.891	81
568.102	100
568.314	89
568.526	74
568.737	77
568.949	85
569.161	98
569.372	83
569.584	84
569.795	99
570.007	129
570.218	311
570.43	175
570.641	100
570.853	85
571.064	91
571.276	82
571.487	97
571.698	98
571.91	104
572.121	76
572.333	80
572.544	99
572.755	84
572.966	98
573.178	82
573.389	101
573.6	98
573.811	99
574.023	93
574.234	101
574.445	98
574.656	73
574.867	71
575.078	75
575.289	103
575.501	84
575.712	88
575.923	98
576.134	102
576.345	82
576.556	98
576.767	95
576.978	71
577.188	96
577.399	98
577.61	92
577.821	100
578.032	128
578.243	353
578.454	1139
578.665	290
578.875	112
579.086	98
579.297	95
579.508	79
