Data from Circ_2023_H10_HRD10591_00081.txt Node
Date: Wed Jan 03 09:50:47 EST 2024
User: Yrep
Spectrometer: HR+D1059
Trigger mode: 1
Integration Time (sec): 1.000000E-1
Scans to average: 1
Electric dark correction enabled: true
Nonlinearity correction enabled: false
Boxcar width: 0
XAxis mode: Wavelengths
Number of Pixels in Spectrum: 2048
>>>>>Begin Spectral Data<<<<<
223.165	-24.25
223.4	-24.25
223.635	-24.25
223.869	-18.25
224.104	-25.25
224.338	-27.25
224.573	-26.25
224.808	-3.25
225.042	-14.25
225.277	4.75
225.511	-2.25
225.746	7.75
225.98	0.75
226.215	16.75
226.449	26.75
226.683	24.75
226.918	21.75
227.152	37.75
227.387	37.75
227.621	43.75
227.856	32.75
228.09	48.75
228.324	56.75
228.559	51.75
228.793	49.75
229.027	61.75
229.262	63.75
229.496	75.75
229.73	95.75
229.964	95.75
230.199	72.75
230.433	77.75
230.667	85.75
230.901	76.75
231.136	76.75
231.37	84.75
231.604	60.75
231.838	71.75
232.072	74.75
232.306	71.75
232.541	79.75
232.775	79.75
233.009	78.75
233.243	78.75
233.477	70.75
233.711	82.75
233.945	79.75
234.179	81.75
234.413	76.75
234.647	79.75
234.881	69.75
235.115	81.75
235.349	81.75
235.583	83.75
235.817	83.75
236.051	84.75
236.285	77.75
236.519	89.75
236.753	70.75
236.987	67.75
237.221	92.75
237.455	98.75
237.689	84.75
237.922	75.75
238.156	87.75
238.39	72.75
238.624	83.75
238.858	77.75
239.091	72.75
239.325	71.75
239.559	75.75
239.793	63.75
240.027	77.75
240.26	94.75
240.494	86.75
240.728	79.75
240.961	76.75
241.195	70.75
241.429	71.75
241.662	69.75
241.896	71.75
242.13	64.75
242.363	67.75
242.597	75.75
242.83	68.75
243.064	88.75
243.298	82.75
243.531	56.75
243.765	69.75
243.998	80.75
244.232	81.75
244.465	97.75
244.699	84.75
244.932	72.75
245.166	79.75
245.399	70.75
245.633	77.75
245.866	71.75
246.099	75.75
246.333	86.75
246.566	72.75
246.8	85.75
247.033	81.75
247.266	76.75
247.5	78.75
247.733	81.75
247.966	77.75
248.2	73.75
248.433	84.75
248.666	78.75
248.899	88.75
249.133	83.75
249.366	114.75
249.599	110.75
249.832	77.75
250.066	79.75
250.299	75.75
250.532	89.75
250.765	80.75
250.998	81.75
251.231	71.75
251.465	85.75
251.698	84.75
251.931	88.75
252.164	86.75
252.397	73.75
252.63	73.75
252.863	86.75
253.096	81.75
253.329	80.75
253.562	73.75
253.795	75.75
254.028	84.75
254.261	74.75
254.494	71.75
254.727	94.75
254.96	80.75
255.193	76.75
255.426	69.75
255.659	72.75
255.892	96.75
256.124	110.75
256.357	87.75
256.59	80.75
256.823	83.75
257.056	78.75
257.289	83.75
257.521	89.75
257.754	85.75
257.987	88.75
258.22	98.75
258.452	93.75
258.685	98.75
258.918	99.75
259.151	92.75
259.383	86.75
259.616	100.75
259.849	86.75
260.081	86.75
260.314	74.75
260.547	85.75
260.779	81.75
261.012	107.75
261.244	108.75
261.477	103.75
261.71	103.75
261.942	123.75
262.175	147.75
262.407	96.75
262.64	83.75
262.872	103.75
263.105	94.75
263.337	89.75
263.57	100.75
263.802	80.75
264.035	86.75
264.267	79.75
264.499	84.75
264.732	78.75
264.964	87.75
265.197	72.75
265.429	71.75
265.661	81.75
265.894	85.75
266.126	78.75
266.358	91.75
266.591	69.75
266.823	77.75
267.055	95.75
267.287	72.75
267.52	78.75
267.752	81.75
267.984	67.75
268.216	82.75
268.448	82.75
268.681	72.75
268.913	84.75
269.145	78.75
269.377	73.75
269.609	74.75
269.841	72.75
270.073	94.75
270.306	79.75
270.538	82.75
270.77	85.75
271.002	77.75
271.234	93.75
271.466	91.75
271.698	78.75
271.93	87.75
272.162	75.75
272.394	87.75
272.626	88.75
272.858	85.75
273.09	78.75
273.322	82.75
273.553	78.75
273.785	77.75
274.017	92.75
274.249	84.75
274.481	71.75
274.713	91.75
274.945	108.75
275.176	109.75
275.408	99.75
275.64	113.75
275.872	134.75
276.104	114.75
276.335	115.75
276.567	113.75
276.799	153.75
277.031	188.75
277.262	216.75
277.494	168.75
277.726	107.75
277.957	92.75
278.189	91.75
278.421	101.75
278.652	102.75
278.884	87.75
279.115	89.75
279.347	96.75
279.579	111.75
279.81	142.75
280.042	224.75
280.273	319.75
280.505	210.75
280.736	104.75
280.968	85.75
281.199	74.75
281.431	73.75
281.662	75.75
281.894	90.75
282.125	109.75
282.356	123.75
282.588	170.75
282.819	123.75
283.051	105.75
283.282	86.75
283.513	81.75
283.745	85.75
283.976	100.75
284.207	90.75
284.439	98.75
284.67	97.75
284.901	87.75
285.132	85.75
285.364	96.75
285.595	91.75
285.826	81.75
286.057	78.75
286.288	93.75
286.52	77.75
286.751	64.75
286.982	84.75
287.213	78.75
287.444	96.75
287.675	75.75
287.906	84.75
288.138	82.75
288.369	100.75
288.6	86.75
288.831	78.75
289.062	91.75
289.293	89.75
289.524	99.75
289.755	99.75
289.986	87.75
290.217	75.75
290.448	93.75
290.679	84.75
290.91	82.75
291.141	82.75
291.371	99.75
291.602	77.75
291.833	83.75
292.064	94.75
292.295	78.75
292.526	67.75
292.757	88.75
292.987	67.75
293.218	68.75
293.449	98.75
293.68	73.75
293.91	95.75
294.141	102.75
294.372	74.75
294.603	79.75
294.833	85.75
295.064	104.75
295.295	97.75
295.525	83.75
295.756	103.75
295.987	116.75
296.217	164.75
296.448	140.75
296.679	97.75
296.909	98.75
297.14	89.75
297.37	84.75
297.601	90.75
297.831	87.75
298.062	83.75
298.292	98.75
298.523	92.75
298.753	85.75
298.984	99.75
299.214	93.75
299.445	92.75
299.675	102.75
299.905	94.75
300.136	95.75
300.366	85.75
300.597	94.75
300.827	94.75
301.057	103.75
301.288	113.75
301.518	97.75
301.748	102.75
301.979	107.75
302.209	101.75
302.439	97.75
302.669	103.75
302.9	103.75
303.13	95.75
303.36	131.75
303.59	141.75
303.82	158.75
304.051	110.75
304.281	98.75
304.511	89.75
304.741	99.75
304.971	104.75
305.201	95.75
305.431	98.75
305.661	87.75
305.891	88.75
306.121	94.75
306.352	102.75
306.582	110.75
306.812	110.75
307.042	128.75
307.272	171.75
307.502	203.75
307.731	184.75
307.961	125.75
308.191	99.75
308.421	99.75
308.651	91.75
308.881	90.75
309.111	96.75
309.341	106.75
309.571	93.75
309.8	100.75
310.03	94.75
310.26	96.75
310.49	91.75
310.72	97.75
310.949	116.75
311.179	113.75
311.409	112.75
311.639	101.75
311.868	101.75
312.098	82.75
312.328	91.75
312.557	111.75
312.787	111.75
313.017	126.75
313.246	87.75
313.476	87.75
313.706	108.75
313.935	92.75
314.165	115.75
314.394	108.75
314.624	102.75
314.853	99.75
315.083	104.75
315.312	86.75
315.542	91.75
315.771	89.75
316.001	105.75
316.23	79.75
316.46	81.75
316.689	81.75
316.919	93.75
317.148	88.75
317.377	98.75
317.607	83.75
317.836	102.75
318.065	100.75
318.295	107.75
318.524	90.75
318.753	81.75
318.983	82.75
319.212	104.75
319.441	114.75
319.67	98.75
319.9	97.75
320.129	109.75
320.358	98.75
320.587	95.75
320.816	99.75
321.046	106.75
321.275	104.75
321.504	108.75
321.733	109.75
321.962	85.75
322.191	108.75
322.42	111.75
322.649	131.75
322.878	123.75
323.108	125.75
323.337	136.75
323.566	156.75
323.795	180.75
324.024	253.75
324.253	502.75
324.482	1077.75
324.71	2214.75
324.939	2930.75
325.168	1102.75
325.397	312.75
325.626	166.75
325.855	136.75
326.084	135.75
326.313	156.75
326.542	169.75
326.77	270.75
326.999	587.75
327.228	1198.75
327.457	2150.75
327.686	1782.75
327.914	622.75
328.143	608.75
328.372	826.75
328.6	460.75
328.829	209.75
329.058	204.75
329.287	208.75
329.515	222.75
329.744	298.75
329.972	584.75
330.201	1267.75
330.43	1865.75
330.658	813.75
330.887	319.75
331.115	211.75
331.344	138.75
331.572	136.75
331.801	135.75
332.03	131.75
332.258	101.75
332.486	107.75
332.715	117.75
332.943	118.75
333.172	113.75
333.4	142.75
333.629	190.75
333.857	260.75
334.085	535.75
334.314	1137.75
334.542	2335.75
334.771	2248.75
334.999	579.75
335.227	209.75
335.455	146.75
335.684	109.75
335.912	113.75
336.14	100.75
336.369	115.75
336.597	113.75
336.825	123.75
337.053	103.75
337.281	86.75
337.51	98.75
337.738	100.75
337.966	93.75
338.194	91.75
338.422	100.75
338.65	87.75
338.878	95.75
339.106	104.75
339.334	99.75
339.562	88.75
339.79	91.75
340.018	80.75
340.246	108.75
340.474	90.75
340.702	119.75
340.93	83.75
341.158	94.75
341.386	95.75
341.614	108.75
341.842	97.75
342.07	100.75
342.298	102.75
342.526	107.75
342.754	88.75
342.981	84.75
343.209	91.75
343.437	87.75
343.665	74.75
343.893	92.75
344.12	94.75
344.348	84.75
344.576	95.75
344.804	99.75
345.031	116.75
345.259	89.75
345.487	85.75
345.714	102.75
345.942	102.75
346.17	96.75
346.397	105.75
346.625	98.75
346.853	115.75
347.08	83.75
347.308	95.75
347.535	111.75
347.763	116.75
347.99	102.75
348.218	109.75
348.445	116.75
348.673	103.75
348.9	96.75
349.128	85.75
349.355	88.75
349.583	93.75
349.81	90.75
350.037	100.75
350.265	97.75
350.492	94.75
350.72	94.75
350.947	94.75
351.174	113.75
351.402	125.75
351.629	104.75
351.856	103.75
352.083	123.75
352.311	123.75
352.538	125.75
352.765	107.75
352.992	121.75
353.22	105.75
353.447	100.75
353.674	115.75
353.901	98.75
354.128	99.75
354.355	102.75
354.583	97.75
354.81	96.75
355.037	95.75
355.264	99.75
355.491	91.75
355.718	102.75
355.945	96.75
356.172	112.75
356.399	107.75
356.626	94.75
356.853	91.75
357.08	91.75
357.307	77.75
357.534	93.75
357.761	92.75
357.988	101.75
358.215	89.75
358.441	71.75
358.668	80.75
358.895	94.75
359.122	87.75
359.349	102.75
359.576	103.75
359.802	109.75
360.029	142.75
360.256	133.75
360.483	118.75
360.709	92.75
360.936	94.75
361.163	99.75
361.39	111.75
361.616	97.75
361.843	92.75
362.07	102.75
362.296	115.75
362.523	97.75
362.749	86.75
362.976	81.75
363.203	76.75
363.429	98.75
363.656	99.75
363.882	83.75
364.109	94.75
364.335	87.75
364.562	88.75
364.788	89.75
365.015	88.75
365.241	102.75
365.468	116.75
365.694	114.75
365.92	120.75
366.147	103.75
366.373	91.75
366.599	91.75
366.826	90.75
367.052	86.75
367.278	67.75
367.505	90.75
367.731	109.75
367.957	90.75
368.184	87.75
368.41	107.75
368.636	126.75
368.862	121.75
369.089	113.75
369.315	102.75
369.541	81.75
369.767	98.75
369.993	97.75
370.219	108.75
370.445	93.75
370.672	96.75
370.898	81.75
371.124	87.75
371.35	87.75
371.576	81.75
371.802	96.75
372.028	89.75
372.254	94.75
372.48	88.75
372.706	98.75
372.932	96.75
373.158	85.75
373.384	87.75
373.61	88.75
373.835	98.75
374.061	87.75
374.287	102.75
374.513	91.75
374.739	87.75
374.965	90.75
375.191	90.75
375.416	84.75
375.642	78.75
375.868	84.75
376.094	91.75
376.319	108.75
376.545	92.75
376.771	81.75
376.997	91.75
377.222	94.75
377.448	88.75
377.674	99.75
377.899	80.75
378.125	76.75
378.35	89.75
378.576	86.75
378.802	98.75
379.027	91.75
379.253	91.75
379.478	82.75
379.704	87.75
379.929	92.75
380.155	85.75
380.38	91.75
380.606	91.75
380.831	80.75
381.057	79.75
381.282	93.75
381.507	93.75
381.733	87.75
381.958	101.75
382.184	78.75
382.409	104.75
382.634	99.75
382.86	84.75
383.085	103.75
383.31	104.75
383.535	91.75
383.761	102.75
383.986	82.75
384.211	97.75
384.436	87.75
384.662	86.75
384.887	86.75
385.112	78.75
385.337	99.75
385.562	93.75
385.787	96.75
386.013	102.75
386.238	119.75
386.463	113.75
386.688	96.75
386.913	85.75
387.138	107.75
387.363	88.75
387.588	98.75
387.813	88.75
388.038	92.75
388.263	89.75
388.488	104.75
388.713	101.75
388.938	98.75
389.163	86.75
389.387	99.75
389.612	91.75
389.837	82.75
390.062	84.75
390.287	82.75
390.512	99.75
390.736	84.75
390.961	107.75
391.186	87.75
391.411	80.75
391.636	85.75
391.86	72.75
392.085	83.75
392.31	86.75
392.534	87.75
392.759	90.75
392.984	76.75
393.208	62.75
393.433	69.75
393.658	83.75
393.882	79.75
394.107	90.75
394.331	85.75
394.556	94.75
394.78	101.75
395.005	96.75
395.229	83.75
395.454	81.75
395.678	96.75
395.903	84.75
396.127	95.75
396.352	81.75
396.576	87.75
396.801	74.75
397.025	94.75
397.249	86.75
397.474	84.75
397.698	91.75
397.922	94.75
398.147	78.75
398.371	77.75
398.595	99.75
398.82	92.75
399.044	88.75
399.268	77.75
399.492	82.75
399.717	77.75
399.941	85.75
400.165	96.75
400.389	99.75
400.613	91.75
400.837	79.75
401.062	79.75
401.286	83.75
401.51	82.75
401.734	97.75
401.958	117.75
402.182	139.75
402.406	191.75
402.63	147.75
402.854	111.75
403.078	108.75
403.302	77.75
403.526	101.75
403.75	84.75
403.974	91.75
404.198	102.75
404.422	89.75
404.645	102.75
404.869	105.75
405.093	135.75
405.317	135.75
405.541	157.75
405.765	128.75
405.988	132.75
406.212	216.75
406.436	308.75
406.66	197.75
406.883	114.75
407.107	93.75
407.331	103.75
407.555	128.75
407.778	111.75
408.002	107.75
408.226	101.75
408.449	96.75
408.673	88.75
408.896	88.75
409.12	108.75
409.344	87.75
409.567	94.75
409.791	97.75
410.014	103.75
410.238	93.75
410.461	86.75
410.685	100.75
410.908	104.75
411.132	107.75
411.355	107.75
411.578	98.75
411.802	88.75
412.025	91.75
412.249	100.75
412.472	126.75
412.695	147.75
412.919	118.75
413.142	85.75
413.365	85.75
413.589	94.75
413.812	84.75
414.035	93.75
414.258	102.75
414.482	96.75
414.705	101.75
414.928	94.75
415.151	107.75
415.374	93.75
415.597	96.75
415.821	92.75
416.044	82.75
416.267	88.75
416.49	86.75
416.713	103.75
416.936	92.75
417.159	102.75
417.382	102.75
417.605	115.75
417.828	120.75
418.051	97.75
418.274	93.75
418.497	89.75
418.72	77.75
418.943	103.75
419.166	103.75
419.389	79.75
419.611	91.75
419.834	92.75
420.057	112.75
420.28	107.75
420.503	93.75
420.726	88.75
420.948	90.75
421.171	117.75
421.394	91.75
421.617	91.75
421.839	102.75
422.062	88.75
422.285	75.75
422.507	101.75
422.73	111.75
422.953	91.75
423.175	101.75
423.398	95.75
423.621	98.75
423.843	85.75
424.066	83.75
424.288	83.75
424.511	101.75
424.733	88.75
424.956	126.75
425.178	111.75
425.401	121.75
425.623	120.75
425.846	108.75
426.068	120.75
426.291	124.75
426.513	96.75
426.735	85.75
426.958	101.75
427.18	126.75
427.402	178.75
427.625	276.75
427.847	272.75
428.069	244.75
428.292	127.75
428.514	108.75
428.736	78.75
428.958	92.75
429.181	87.75
429.403	94.75
429.625	96.75
429.847	96.75
430.069	129.75
430.292	99.75
430.514	88.75
430.736	82.75
430.958	86.75
431.18	90.75
431.402	95.75
431.624	81.75
431.846	65.75
432.068	85.75
432.29	80.75
432.512	81.75
432.734	85.75
432.956	102.75
433.178	96.75
433.4	130.75
433.622	97.75
433.844	93.75
434.066	93.75
434.287	94.75
434.509	73.75
434.731	91.75
434.953	86.75
435.175	92.75
435.397	86.75
435.618	107.75
435.84	113.75
436.062	145.75
436.284	133.75
436.505	100.75
436.727	104.75
436.949	95.75
437.17	96.75
437.392	86.75
437.614	96.75
437.835	137.75
438.057	156.75
438.278	148.75
438.5	130.75
438.721	147.75
438.943	120.75
439.165	96.75
439.386	98.75
439.608	100.75
439.829	108.75
440.05	142.75
440.272	193.75
440.493	125.75
440.715	87.75
440.936	83.75
441.158	81.75
441.379	82.75
441.6	93.75
441.822	110.75
442.043	113.75
442.264	135.75
442.486	114.75
442.707	91.75
442.928	125.75
443.149	174.75
443.371	175.75
443.592	133.75
443.813	154.75
444.034	147.75
444.255	83.75
444.476	93.75
444.698	95.75
444.919	95.75
445.14	136.75
445.361	152.75
445.582	157.75
445.803	206.75
446.024	184.75
446.245	178.75
446.466	127.75
446.687	98.75
446.908	83.75
447.129	88.75
447.35	103.75
447.571	100.75
447.792	99.75
448.013	101.75
448.234	114.75
448.455	121.75
448.675	143.75
448.896	164.75
449.117	119.75
449.338	116.75
449.559	151.75
449.779	170.75
450	98.75
450.221	96.75
450.442	96.75
450.662	103.75
450.883	125.75
451.104	138.75
451.324	104.75
451.545	92.75
451.766	95.75
451.986	99.75
452.207	94.75
452.428	101.75
452.648	100.75
452.869	133.75
453.089	131.75
453.31	146.75
453.53	116.75
453.751	108.75
453.971	104.75
454.192	137.75
454.412	96.75
454.633	87.75
454.853	88.75
455.073	84.75
455.294	99.75
455.514	114.75
455.734	107.75
455.955	83.75
456.175	83.75
456.395	92.75
456.616	86.75
456.836	85.75
457.056	91.75
457.276	85.75
457.497	86.75
457.717	96.75
457.937	85.75
458.157	82.75
458.377	96.75
458.598	116.75
458.818	201.75
459.038	226.75
459.258	141.75
459.478	90.75
459.698	96.75
459.918	89.75
460.138	94.75
460.358	82.75
460.578	95.75
460.798	100.75
461.018	94.75
461.238	93.75
461.458	88.75
461.678	95.75
461.898	76.75
462.118	78.75
462.338	87.75
462.558	80.75
462.777	100.75
462.997	103.75
463.217	120.75
463.437	98.75
463.657	89.75
463.876	84.75
464.096	95.75
464.316	112.75
464.536	115.75
464.755	91.75
464.975	130.75
465.195	255.75
465.414	233.75
465.634	111.75
465.854	89.75
466.073	87.75
466.293	90.75
466.512	94.75
466.732	100.75
466.951	108.75
467.171	88.75
467.391	123.75
467.61	153.75
467.829	240.75
468.049	697.75
468.268	1105.75
468.488	288.75
468.707	107.75
468.927	98.75
469.146	85.75
469.365	85.75
469.585	113.75
469.804	112.75
470.023	110.75
470.243	129.75
470.462	121.75
470.681	151.75
470.901	127.75
471.12	97.75
471.339	108.75
471.558	136.75
471.777	171.75
471.997	364.75
472.216	1344.75
472.435	3267.75
472.654	785.75
472.873	180.75
473.092	120.75
473.311	89.75
473.53	104.75
473.749	97.75
473.968	97.75
474.187	135.75
474.406	111.75
474.625	102.75
474.844	93.75
475.063	92.75
475.282	103.75
475.501	106.75
475.72	95.75
475.939	96.75
476.158	85.75
476.377	85.75
476.596	104.75
476.814	85.75
477.033	94.75
477.252	90.75
477.471	95.75
477.69	88.75
477.908	85.75
478.127	97.75
478.346	98.75
478.564	104.75
478.783	120.75
479.002	122.75
479.22	114.75
479.439	136.75
479.658	147.75
479.876	123.75
480.095	121.75
480.313	156.75
480.532	175.75
480.751	321.75
480.969	1211.75
481.188	5342.75
481.406	3337.75
481.624	444.75
481.843	156.75
482.061	118.75
482.28	100.75
482.498	94.75
482.717	91.75
482.935	108.75
483.153	92.75
483.372	93.75
483.59	87.75
483.808	92.75
484.027	92.75
484.245	108.75
484.463	93.75
484.681	104.75
484.9	87.75
485.118	111.75
485.336	81.75
485.554	101.75
485.772	100.75
485.99	102.75
486.209	99.75
486.427	112.75
486.645	127.75
486.863	133.75
487.081	103.75
487.299	108.75
487.517	100.75
487.735	97.75
487.953	90.75
488.171	93.75
488.389	102.75
488.607	117.75
488.825	95.75
489.043	80.75
489.261	91.75
489.479	95.75
489.696	86.75
489.914	94.75
490.132	86.75
490.35	90.75
490.568	77.75
490.786	94.75
491.003	85.75
491.221	107.75
491.439	101.75
491.657	93.75
491.874	84.75
492.092	89.75
492.31	87.75
492.527	108.75
492.745	93.75
492.963	90.75
493.18	92.75
493.398	94.75
493.615	103.75
493.833	98.75
494.05	88.75
494.268	80.75
494.485	94.75
494.703	84.75
494.92	103.75
495.138	100.75
495.355	85.75
495.573	79.75
495.79	88.75
496.008	85.75
496.225	98.75
496.442	80.75
496.66	88.75
496.877	101.75
497.094	86.75
497.312	89.75
497.529	98.75
497.746	79.75
497.963	90.75
498.181	99.75
498.398	107.75
498.615	111.75
498.832	123.75
499.049	87.75
499.267	96.75
499.484	84.75
499.701	93.75
499.918	88.75
500.135	93.75
500.352	94.75
500.569	107.75
500.786	97.75
501.003	96.75
501.22	85.75
501.437	84.75
501.654	91.75
501.871	116.75
502.088	102.75
502.305	85.75
502.522	93.75
502.739	86.75
502.956	86.75
503.172	87.75
503.389	109.75
503.606	121.75
503.823	109.75
504.04	95.75
504.256	93.75
504.473	99.75
504.69	93.75
504.907	91.75
505.123	105.75
505.34	96.75
505.557	83.75
505.773	93.75
505.99	88.75
506.207	87.75
506.423	81.75
506.64	92.75
506.856	103.75
507.073	87.75
507.289	86.75
507.506	81.75
507.722	145.75
507.939	147.75
508.155	99.75
508.372	88.75
508.588	83.75
508.805	102.75
509.021	96.75
509.238	101.75
509.454	101.75
509.67	105.75
509.887	134.75
510.103	149.75
510.319	242.75
510.536	893.75
510.752	3155.75
510.968	865.75
511.184	190.75
511.401	129.75
511.617	107.75
511.833	128.75
512.049	116.75
512.265	105.75
512.481	95.75
512.698	80.75
512.914	92.75
513.13	89.75
