Data from Circ_2023_H10_HRD10591_00038.txt Node
Date: Wed Jan 03 09:50:38 EST 2024
User: Yrep
Spectrometer: HR+D1059
Trigger mode: 1
Integration Time (sec): 1.000000E-1
Scans to average: 1
Electric dark correction enabled: true
Nonlinearity correction enabled: false
Boxcar width: 0
XAxis mode: Wavelengths
Number of Pixels in Spectrum: 2048
>>>>>Begin Spectral Data<<<<<
223.165	-11.44
223.4	-11.44
223.635	-11.44
223.869	-10.44
224.104	-21.44
224.338	-27.44
224.573	-11.44
224.808	-18.44
225.042	-6.44
225.277	-2.44
225.511	1.56
225.746	0.56
225.98	11.56
226.215	8.56
226.449	9.56
226.683	16.56
226.918	25.56
227.152	35.56
227.387	19.56
227.621	29.56
227.856	48.56
228.09	46.56
228.324	52.56
228.559	45.56
228.793	63.56
229.027	64.56
229.262	72.56
229.496	58.56
229.73	97.56
229.964	93.56
230.199	61.56
230.433	66.56
230.667	69.56
230.901	80.56
231.136	79.56
231.37	81.56
231.604	72.56
231.838	84.56
232.072	78.56
232.306	79.56
232.541	78.56
232.775	64.56
233.009	87.56
233.243	72.56
233.477	79.56
233.711	74.56
233.945	85.56
234.179	75.56
234.413	77.56
234.647	80.56
234.881	85.56
235.115	78.56
235.349	70.56
235.583	77.56
235.817	74.56
236.051	80.56
236.285	77.56
236.519	70.56
236.753	78.56
236.987	61.56
237.221	93.56
237.455	86.56
237.689	86.56
237.922	75.56
238.156	78.56
238.39	75.56
238.624	74.56
238.858	71.56
239.091	85.56
239.325	74.56
239.559	80.56
239.793	76.56
240.027	90.56
240.26	85.56
240.494	80.56
240.728	89.56
240.961	74.56
241.195	78.56
241.429	68.56
241.662	65.56
241.896	80.56
242.13	78.56
242.363	92.56
242.597	75.56
242.83	75.56
243.064	71.56
243.298	61.56
243.531	70.56
243.765	82.56
243.998	68.56
244.232	72.56
244.465	80.56
244.699	78.56
244.932	77.56
245.166	74.56
245.399	88.56
245.633	81.56
245.866	90.56
246.099	84.56
246.333	95.56
246.566	72.56
246.8	79.56
247.033	85.56
247.266	76.56
247.5	78.56
247.733	76.56
247.966	78.56
248.2	72.56
248.433	80.56
248.666	80.56
248.899	94.56
249.133	85.56
249.366	95.56
249.599	105.56
249.832	91.56
250.066	86.56
250.299	68.56
250.532	83.56
250.765	86.56
250.998	81.56
251.231	81.56
251.465	78.56
251.698	82.56
251.931	91.56
252.164	85.56
252.397	76.56
252.63	72.56
252.863	66.56
253.096	72.56
253.329	90.56
253.562	84.56
253.795	71.56
254.028	90.56
254.261	80.56
254.494	79.56
254.727	96.56
254.96	87.56
255.193	90.56
255.426	90.56
255.659	94.56
255.892	95.56
256.124	86.56
256.357	76.56
256.59	89.56
256.823	82.56
257.056	92.56
257.289	71.56
257.521	73.56
257.754	85.56
257.987	101.56
258.22	87.56
258.452	81.56
258.685	87.56
258.918	77.56
259.151	82.56
259.383	94.56
259.616	82.56
259.849	68.56
260.081	86.56
260.314	101.56
260.547	87.56
260.779	90.56
261.012	94.56
261.244	103.56
261.477	97.56
261.71	98.56
261.942	131.56
262.175	134.56
262.407	85.56
262.64	86.56
262.872	81.56
263.105	93.56
263.337	92.56
263.57	92.56
263.802	90.56
264.035	81.56
264.267	95.56
264.499	74.56
264.732	67.56
264.964	103.56
265.197	91.56
265.429	92.56
265.661	88.56
265.894	80.56
266.126	77.56
266.358	82.56
266.591	80.56
266.823	79.56
267.055	81.56
267.287	69.56
267.52	84.56
267.752	77.56
267.984	80.56
268.216	86.56
268.448	105.56
268.681	81.56
268.913	76.56
269.145	82.56
269.377	89.56
269.609	85.56
269.841	80.56
270.073	91.56
270.306	70.56
270.538	92.56
270.77	80.56
271.002	77.56
271.234	95.56
271.466	90.56
271.698	98.56
271.93	91.56
272.162	76.56
272.394	81.56
272.626	110.56
272.858	92.56
273.09	85.56
273.322	106.56
273.553	77.56
273.785	79.56
274.017	85.56
274.249	83.56
274.481	91.56
274.713	80.56
274.945	83.56
275.176	93.56
275.408	107.56
275.64	111.56
275.872	113.56
276.104	105.56
276.335	91.56
276.567	105.56
276.799	142.56
277.031	170.56
277.262	176.56
277.494	120.56
277.726	109.56
277.957	103.56
278.189	92.56
278.421	86.56
278.652	99.56
278.884	96.56
279.115	68.56
279.347	89.56
279.579	97.56
279.81	122.56
280.042	167.56
280.273	220.56
280.505	157.56
280.736	105.56
280.968	87.56
281.199	73.56
281.431	95.56
281.662	89.56
281.894	89.56
282.125	108.56
282.356	132.56
282.588	177.56
282.819	126.56
283.051	101.56
283.282	92.56
283.513	65.56
283.745	82.56
283.976	82.56
284.207	85.56
284.439	93.56
284.67	88.56
284.901	78.56
285.132	81.56
285.364	80.56
285.595	89.56
285.826	77.56
286.057	71.56
286.288	97.56
286.52	90.56
286.751	82.56
286.982	90.56
287.213	92.56
287.444	91.56
287.675	80.56
287.906	87.56
288.138	77.56
288.369	95.56
288.6	95.56
288.831	82.56
289.062	88.56
289.293	85.56
289.524	95.56
289.755	90.56
289.986	98.56
290.217	81.56
290.448	86.56
290.679	85.56
290.91	92.56
291.141	76.56
291.371	75.56
291.602	85.56
291.833	98.56
292.064	91.56
292.295	94.56
292.526	93.56
292.757	85.56
292.987	95.56
293.218	86.56
293.449	89.56
293.68	94.56
293.91	98.56
294.141	89.56
294.372	91.56
294.603	94.56
294.833	93.56
295.064	93.56
295.295	78.56
295.525	96.56
295.756	87.56
295.987	112.56
296.217	151.56
296.448	136.56
296.679	98.56
296.909	95.56
297.14	99.56
297.37	78.56
297.601	85.56
297.831	92.56
298.062	64.56
298.292	100.56
298.523	111.56
298.753	80.56
298.984	82.56
299.214	91.56
299.445	94.56
299.675	96.56
299.905	91.56
300.136	95.56
300.366	93.56
300.597	76.56
300.827	97.56
301.057	103.56
301.288	105.56
301.518	105.56
301.748	88.56
301.979	90.56
302.209	116.56
302.439	105.56
302.669	87.56
302.9	110.56
303.13	103.56
303.36	114.56
303.59	124.56
303.82	137.56
304.051	103.56
304.281	77.56
304.511	77.56
304.741	78.56
304.971	83.56
305.201	84.56
305.431	94.56
305.661	107.56
305.891	89.56
306.121	109.56
306.352	111.56
306.582	108.56
306.812	101.56
307.042	110.56
307.272	142.56
307.502	157.56
307.731	157.56
307.961	109.56
308.191	101.56
308.421	91.56
308.651	92.56
308.881	80.56
309.111	103.56
309.341	102.56
309.571	103.56
309.8	94.56
310.03	99.56
310.26	101.56
310.49	104.56
310.72	109.56
310.949	109.56
311.179	112.56
311.409	104.56
311.639	102.56
311.868	100.56
312.098	94.56
312.328	101.56
312.557	112.56
312.787	121.56
313.017	105.56
313.246	87.56
313.476	89.56
313.706	95.56
313.935	95.56
314.165	111.56
314.394	109.56
314.624	101.56
314.853	102.56
315.083	94.56
315.312	93.56
315.542	97.56
315.771	93.56
316.001	87.56
316.23	100.56
316.46	100.56
316.689	100.56
316.919	89.56
317.148	108.56
317.377	88.56
317.607	108.56
317.836	108.56
318.065	91.56
318.295	89.56
318.524	100.56
318.753	96.56
318.983	94.56
319.212	110.56
319.441	108.56
319.67	122.56
319.9	97.56
320.129	94.56
320.358	97.56
320.587	103.56
320.816	99.56
321.046	88.56
321.275	95.56
321.504	89.56
321.733	98.56
321.962	102.56
322.191	105.56
322.42	122.56
322.649	133.56
322.878	124.56
323.108	122.56
323.337	146.56
323.566	153.56
323.795	192.56
324.024	260.56
324.253	504.56
324.482	1113.56
324.71	2278.56
324.939	3026.56
325.168	1101.56
325.397	312.56
325.626	176.56
325.855	145.56
326.084	141.56
326.313	140.56
326.542	180.56
326.77	295.56
326.999	573.56
327.228	1214.56
327.457	2282.56
327.686	1855.56
327.914	577.56
328.143	500.56
328.372	636.56
328.6	352.56
328.829	180.56
329.058	176.56
329.287	183.56
329.515	176.56
329.744	260.56
329.972	451.56
330.201	904.56
330.43	1314.56
330.658	602.56
330.887	272.56
331.115	188.56
331.344	132.56
331.572	129.56
331.801	114.56
332.03	113.56
332.258	103.56
332.486	107.56
332.715	106.56
332.943	114.56
333.172	120.56
333.4	124.56
333.629	158.56
333.857	217.56
334.085	406.56
334.314	857.56
334.542	1637.56
334.771	1532.56
334.999	422.56
335.227	179.56
335.455	126.56
335.684	106.56
335.912	106.56
336.14	127.56
336.369	127.56
336.597	109.56
336.825	110.56
337.053	98.56
337.281	102.56
337.51	96.56
337.738	102.56
337.966	103.56
338.194	110.56
338.422	105.56
338.65	89.56
338.878	102.56
339.106	81.56
339.334	92.56
339.562	90.56
339.79	87.56
340.018	100.56
340.246	79.56
340.474	99.56
340.702	88.56
340.93	99.56
341.158	89.56
341.386	99.56
341.614	106.56
341.842	86.56
342.07	96.56
342.298	114.56
342.526	101.56
342.754	96.56
342.981	88.56
343.209	82.56
343.437	101.56
343.665	92.56
343.893	85.56
344.12	80.56
344.348	89.56
344.576	89.56
344.804	99.56
345.031	114.56
345.259	105.56
345.487	91.56
345.714	85.56
345.942	82.56
346.17	98.56
346.397	99.56
346.625	99.56
346.853	97.56
347.08	98.56
347.308	90.56
347.535	98.56
347.763	116.56
347.99	113.56
348.218	97.56
348.445	111.56
348.673	104.56
348.9	101.56
349.128	95.56
349.355	97.56
349.583	102.56
349.81	107.56
350.037	112.56
350.265	84.56
350.492	89.56
350.72	105.56
350.947	101.56
351.174	122.56
351.402	120.56
351.629	106.56
351.856	106.56
352.083	106.56
352.311	98.56
352.538	103.56
352.765	127.56
352.992	118.56
353.22	114.56
353.447	107.56
353.674	101.56
353.901	103.56
354.128	86.56
354.355	94.56
354.583	101.56
354.81	89.56
355.037	104.56
355.264	89.56
355.491	95.56
355.718	96.56
355.945	93.56
356.172	86.56
356.399	98.56
356.626	91.56
356.853	81.56
357.08	89.56
357.307	89.56
357.534	87.56
357.761	100.56
357.988	78.56
358.215	87.56
358.441	104.56
358.668	92.56
358.895	93.56
359.122	82.56
359.349	86.56
359.576	81.56
359.802	100.56
360.029	138.56
360.256	131.56
360.483	120.56
360.709	95.56
360.936	94.56
361.163	112.56
361.39	108.56
361.616	97.56
361.843	94.56
362.07	100.56
362.296	110.56
362.523	88.56
362.749	105.56
362.976	100.56
363.203	87.56
363.429	88.56
363.656	81.56
363.882	101.56
364.109	93.56
364.335	83.56
364.562	104.56
364.788	97.56
365.015	98.56
365.241	109.56
365.468	114.56
365.694	100.56
365.92	94.56
366.147	94.56
366.373	85.56
366.599	85.56
366.826	104.56
367.052	94.56
367.278	99.56
367.505	111.56
367.731	102.56
367.957	95.56
368.184	93.56
368.41	112.56
368.636	128.56
368.862	138.56
369.089	125.56
369.315	95.56
369.541	96.56
369.767	101.56
369.993	89.56
370.219	91.56
370.445	102.56
370.672	90.56
370.898	84.56
371.124	80.56
371.35	73.56
371.576	78.56
371.802	83.56
372.028	84.56
372.254	75.56
372.48	69.56
372.706	89.56
372.932	90.56
373.158	79.56
373.384	91.56
373.61	94.56
373.835	94.56
374.061	94.56
374.287	88.56
374.513	82.56
374.739	82.56
374.965	94.56
375.191	104.56
375.416	98.56
375.642	87.56
375.868	94.56
376.094	88.56
376.319	88.56
376.545	89.56
376.771	94.56
376.997	96.56
377.222	81.56
377.448	81.56
377.674	77.56
377.899	75.56
378.125	83.56
378.35	80.56
378.576	91.56
378.802	100.56
379.027	93.56
379.253	90.56
379.478	93.56
379.704	93.56
379.929	82.56
380.155	90.56
380.38	86.56
380.606	92.56
380.831	88.56
381.057	88.56
381.282	96.56
381.507	94.56
381.733	99.56
381.958	94.56
382.184	95.56
382.409	82.56
382.634	111.56
382.86	86.56
383.085	97.56
383.31	96.56
383.535	97.56
383.761	108.56
383.986	103.56
384.211	101.56
384.436	97.56
384.662	95.56
384.887	103.56
385.112	110.56
385.337	87.56
385.562	100.56
385.787	95.56
386.013	97.56
386.238	112.56
386.463	92.56
386.688	98.56
386.913	98.56
387.138	101.56
387.363	89.56
387.588	100.56
387.813	82.56
388.038	86.56
388.263	90.56
388.488	103.56
388.713	82.56
388.938	88.56
389.163	86.56
389.387	77.56
389.612	84.56
389.837	87.56
390.062	96.56
390.287	81.56
390.512	99.56
390.736	89.56
390.961	102.56
391.186	106.56
391.411	99.56
391.636	71.56
391.86	97.56
392.085	90.56
392.31	76.56
392.534	102.56
392.759	74.56
392.984	79.56
393.208	96.56
393.433	73.56
393.658	83.56
393.882	88.56
394.107	80.56
394.331	86.56
394.556	83.56
394.78	95.56
395.005	82.56
395.229	71.56
395.454	75.56
395.678	100.56
395.903	90.56
396.127	84.56
396.352	81.56
396.576	94.56
396.801	77.56
397.025	84.56
397.249	94.56
397.474	95.56
397.698	80.56
397.922	86.56
398.147	88.56
398.371	87.56
398.595	86.56
398.82	108.56
399.044	87.56
399.268	86.56
399.492	74.56
399.717	98.56
399.941	96.56
400.165	96.56
400.389	87.56
400.613	77.56
400.837	88.56
401.062	83.56
401.286	77.56
401.51	91.56
401.734	89.56
401.958	108.56
402.182	152.56
402.406	192.56
402.63	135.56
402.854	95.56
403.078	94.56
403.302	95.56
403.526	84.56
403.75	103.56
403.974	72.56
404.198	77.56
404.422	95.56
404.645	76.56
404.869	104.56
405.093	112.56
405.317	152.56
405.541	155.56
405.765	109.56
405.988	128.56
406.212	186.56
406.436	259.56
406.66	180.56
406.883	113.56
407.107	112.56
407.331	114.56
407.555	102.56
407.778	126.56
408.002	81.56
408.226	93.56
408.449	83.56
408.673	96.56
408.896	97.56
409.12	112.56
409.344	104.56
409.567	77.56
409.791	91.56
410.014	94.56
410.238	96.56
410.461	86.56
410.685	96.56
410.908	113.56
411.132	106.56
411.355	96.56
411.578	99.56
411.802	83.56
412.025	97.56
412.249	97.56
412.472	118.56
412.695	136.56
412.919	105.56
413.142	91.56
413.365	101.56
413.589	88.56
413.812	97.56
414.035	100.56
414.258	90.56
414.482	86.56
414.705	97.56
414.928	93.56
415.151	83.56
415.374	83.56
415.597	98.56
415.821	79.56
416.044	86.56
416.267	89.56
416.49	84.56
416.713	81.56
416.936	92.56
417.159	89.56
417.382	94.56
417.605	104.56
417.828	105.56
418.051	88.56
418.274	77.56
418.497	82.56
418.72	87.56
418.943	97.56
419.166	88.56
419.389	81.56
419.611	88.56
419.834	90.56
420.057	96.56
420.28	101.56
420.503	92.56
420.726	92.56
420.948	93.56
421.171	92.56
421.394	101.56
421.617	101.56
421.839	85.56
422.062	89.56
422.285	93.56
422.507	103.56
422.73	108.56
422.953	96.56
423.175	92.56
423.398	101.56
423.621	87.56
423.843	87.56
424.066	83.56
424.288	88.56
424.511	113.56
424.733	104.56
424.956	127.56
425.178	105.56
425.401	112.56
425.623	115.56
425.846	99.56
426.068	99.56
426.291	100.56
426.513	96.56
426.735	103.56
426.958	100.56
427.18	116.56
427.402	168.56
427.625	245.56
427.847	239.56
428.069	237.56
428.292	132.56
428.514	97.56
428.736	81.56
428.958	94.56
429.181	94.56
429.403	81.56
429.625	97.56
429.847	106.56
430.069	111.56
430.292	105.56
430.514	81.56
430.736	81.56
430.958	84.56
431.18	76.56
431.402	85.56
431.624	75.56
431.846	89.56
432.068	89.56
432.29	79.56
432.512	78.56
432.734	92.56
432.956	92.56
433.178	107.56
433.4	91.56
433.622	79.56
433.844	90.56
434.066	87.56
434.287	97.56
434.509	95.56
434.731	82.56
434.953	94.56
435.175	73.56
435.397	80.56
435.618	84.56
435.84	122.56
436.062	152.56
436.284	164.56
436.505	116.56
436.727	108.56
436.949	92.56
437.17	88.56
437.392	69.56
437.614	97.56
437.835	128.56
438.057	158.56
438.278	137.56
438.5	127.56
438.721	146.56
438.943	110.56
439.165	85.56
439.386	103.56
439.608	95.56
439.829	112.56
440.05	157.56
440.272	196.56
440.493	107.56
440.715	91.56
440.936	91.56
441.158	89.56
441.379	89.56
441.6	87.56
441.822	93.56
442.043	127.56
442.264	129.56
442.486	110.56
442.707	96.56
442.928	110.56
443.149	179.56
443.371	161.56
443.592	128.56
443.813	138.56
444.034	128.56
444.255	97.56
444.476	104.56
444.698	99.56
444.919	89.56
445.14	128.56
445.361	144.56
445.582	129.56
445.803	192.56
446.024	190.56
446.245	169.56
446.466	130.56
446.687	102.56
446.908	94.56
447.129	81.56
447.35	89.56
447.571	98.56
447.792	94.56
448.013	107.56
448.234	121.56
448.455	129.56
448.675	129.56
448.896	145.56
449.117	92.56
449.338	113.56
449.559	170.56
449.779	168.56
450	112.56
450.221	101.56
450.442	103.56
450.662	89.56
450.883	116.56
451.104	139.56
451.324	98.56
451.545	86.56
451.766	83.56
451.986	78.56
452.207	87.56
452.428	98.56
452.648	103.56
452.869	116.56
453.089	115.56
453.31	134.56
453.53	103.56
453.751	94.56
453.971	119.56
454.192	112.56
454.412	106.56
454.633	80.56
454.853	70.56
455.073	85.56
455.294	84.56
455.514	108.56
455.734	92.56
455.955	82.56
456.175	86.56
456.395	88.56
456.616	95.56
456.836	79.56
457.056	94.56
457.276	90.56
457.497	80.56
457.717	96.56
457.937	86.56
458.157	79.56
458.377	93.56
458.598	121.56
458.818	178.56
459.038	218.56
459.258	154.56
459.478	106.56
459.698	83.56
459.918	91.56
460.138	74.56
460.358	88.56
460.578	95.56
460.798	88.56
461.018	89.56
461.238	94.56
461.458	76.56
461.678	85.56
461.898	103.56
462.118	94.56
462.338	78.56
462.558	77.56
462.777	80.56
462.997	100.56
463.217	111.56
463.437	78.56
463.657	88.56
463.876	90.56
464.096	95.56
464.316	91.56
464.536	107.56
464.755	98.56
464.975	108.56
465.195	203.56
465.414	220.56
465.634	93.56
465.854	100.56
466.073	88.56
466.293	81.56
466.512	100.56
466.732	84.56
466.951	77.56
467.171	82.56
467.391	104.56
467.61	138.56
467.829	202.56
468.049	481.56
468.268	737.56
468.488	198.56
468.707	111.56
468.927	96.56
469.146	99.56
469.365	94.56
469.585	84.56
469.804	99.56
470.023	118.56
470.243	112.56
470.462	112.56
470.681	130.56
470.901	88.56
471.12	76.56
471.339	102.56
471.558	123.56
471.777	144.56
471.997	264.56
472.216	963.56
472.435	2183.56
472.654	544.56
472.873	155.56
473.092	95.56
473.311	100.56
473.53	108.56
473.749	84.56
473.968	109.56
474.187	142.56
474.406	119.56
474.625	99.56
474.844	88.56
475.063	99.56
475.282	97.56
475.501	84.56
475.72	92.56
475.939	88.56
476.158	103.56
476.377	91.56
476.596	89.56
476.814	101.56
477.033	115.56
477.252	100.56
477.471	89.56
477.69	79.56
477.908	95.56
478.127	116.56
478.346	99.56
478.564	99.56
478.783	105.56
479.002	103.56
479.22	107.56
479.439	114.56
479.658	126.56
479.876	123.56
480.095	107.56
480.313	127.56
480.532	148.56
480.751	272.56
480.969	866.56
481.188	3709.56
481.406	2340.56
481.624	342.56
481.843	132.56
482.061	90.56
482.28	97.56
482.498	93.56
482.717	98.56
482.935	87.56
483.153	89.56
483.372	99.56
483.59	89.56
483.808	82.56
484.027	85.56
484.245	110.56
484.463	93.56
484.681	92.56
484.9	89.56
485.118	82.56
485.336	94.56
485.554	85.56
485.772	98.56
485.99	96.56
486.209	111.56
486.427	117.56
486.645	114.56
486.863	136.56
487.081	110.56
487.299	97.56
487.517	94.56
487.735	88.56
487.953	100.56
488.171	86.56
488.389	98.56
488.607	103.56
488.825	98.56
489.043	88.56
489.261	89.56
489.479	91.56
489.696	95.56
489.914	92.56
490.132	90.56
490.35	88.56
490.568	88.56
490.786	83.56
491.003	108.56
491.221	99.56
491.439	99.56
491.657	87.56
491.874	91.56
492.092	99.56
492.31	95.56
492.527	100.56
492.745	96.56
492.963	86.56
493.18	92.56
493.398	82.56
493.615	104.56
493.833	112.56
494.05	98.56
494.268	96.56
494.485	86.56
494.703	75.56
494.92	83.56
495.138	97.56
495.355	84.56
495.573	89.56
495.79	81.56
496.008	120.56
496.225	97.56
496.442	71.56
496.66	88.56
496.877	102.56
497.094	90.56
497.312	100.56
497.529	71.56
497.746	80.56
497.963	85.56
498.181	107.56
498.398	100.56
498.615	103.56
498.832	114.56
499.049	101.56
499.267	91.56
499.484	87.56
499.701	106.56
499.918	92.56
500.135	86.56
500.352	92.56
500.569	89.56
500.786	100.56
501.003	83.56
501.22	96.56
501.437	94.56
501.654	111.56
501.871	128.56
502.088	110.56
502.305	83.56
502.522	84.56
502.739	80.56
502.956	82.56
503.172	88.56
503.389	100.56
503.606	105.56
503.823	112.56
504.04	90.56
504.256	100.56
504.473	99.56
504.69	88.56
504.907	102.56
505.123	86.56
505.34	90.56
505.557	90.56
505.773	82.56
505.99	85.56
506.207	81.56
506.423	88.56
506.64	95.56
506.856	104.56
507.073	92.56
507.289	87.56
507.506	114.56
507.722	132.56
507.939	124.56
508.155	92.56
508.372	80.56
508.588	80.56
508.805	92.56
509.021	108.56
509.238	97.56
509.454	105.56
509.67	95.56
509.887	111.56
510.103	138.56
510.319	212.56
510.536	868.56
510.752	2961.56
510.968	820.56
511.184	178.56
511.401	117.56
511.617	123.56
511.833	102.56
512.049	96.56
512.265	95.56
512.481	92.56
512.698	89.56
512.914	92.56
513.13	98.56
513.346	105.56
513.562	95.56
