Data from Circ_2023_H10_HRD10591_00015.txt Node
Date: Wed Jan 03 09:50:34 EST 2024
User: Yrep
Spectrometer: HR+D1059
Trigger mode: 1
Integration Time (sec): 1.000000E-1
Scans to average: 1
Electric dark correction enabled: true
Nonlinearity correction enabled: false
Boxcar width: 0
XAxis mode: Wavelengths
Number of Pixels in Spectrum: 2048
>>>>>Begin Spectral Data<<<<<
223.165	-23.38
223.4	-23.38
223.635	-23.38
223.869	-25.38
224.104	-19.38
224.338	-25.38
224.573	-11.38
224.808	-4.38
225.042	-9.38
225.277	3.62
225.511	0.62
225.746	14.62
225.98	6.62
226.215	8.62
226.449	8.62
226.683	8.62
226.918	33.62
227.152	33.62
227.387	42.62
227.621	39.62
227.856	43.62
228.09	37.62
228.324	53.62
228.559	42.62
228.793	60.62
229.027	76.62
229.262	71.62
229.496	81.62
229.73	93.62
229.964	86.62
230.199	69.62
230.433	71.62
230.667	74.62
230.901	91.62
231.136	74.62
231.37	81.62
231.604	90.62
231.838	73.62
232.072	71.62
232.306	81.62
232.541	83.62
232.775	67.62
233.009	87.62
233.243	96.62
233.477	85.62
233.711	70.62
233.945	83.62
234.179	83.62
234.413	82.62
234.647	80.62
234.881	73.62
235.115	85.62
235.349	79.62
235.583	84.62
235.817	83.62
236.051	84.62
236.285	74.62
236.519	64.62
236.753	84.62
236.987	89.62
237.221	89.62
237.455	102.62
237.689	90.62
237.922	84.62
238.156	86.62
238.39	65.62
238.624	68.62
238.858	77.62
239.091	82.62
239.325	71.62
239.559	79.62
239.793	92.62
240.027	74.62
240.26	77.62
240.494	81.62
240.728	74.62
240.961	87.62
241.195	86.62
241.429	82.62
241.662	91.62
241.896	67.62
242.13	74.62
242.363	71.62
242.597	59.62
242.83	77.62
243.064	72.62
243.298	71.62
243.531	83.62
243.765	76.62
243.998	83.62
244.232	82.62
244.465	81.62
244.699	88.62
244.932	66.62
245.166	87.62
245.399	91.62
245.633	86.62
245.866	94.62
246.099	71.62
246.333	81.62
246.566	83.62
246.8	83.62
247.033	76.62
247.266	82.62
247.5	84.62
247.733	89.62
247.966	84.62
248.2	87.62
248.433	77.62
248.666	83.62
248.899	98.62
249.133	105.62
249.366	102.62
249.599	104.62
249.832	93.62
250.066	90.62
250.299	93.62
250.532	85.62
250.765	88.62
250.998	87.62
251.231	81.62
251.465	72.62
251.698	82.62
251.931	80.62
252.164	91.62
252.397	91.62
252.63	83.62
252.863	85.62
253.096	92.62
253.329	88.62
253.562	89.62
253.795	79.62
254.028	90.62
254.261	92.62
254.494	96.62
254.727	73.62
254.96	97.62
255.193	79.62
255.426	88.62
255.659	90.62
255.892	81.62
256.124	95.62
256.357	88.62
256.59	92.62
256.823	83.62
257.056	81.62
257.289	84.62
257.521	83.62
257.754	89.62
257.987	85.62
258.22	92.62
258.452	87.62
258.685	77.62
258.918	70.62
259.151	81.62
259.383	84.62
259.616	89.62
259.849	76.62
260.081	77.62
260.314	83.62
260.547	92.62
260.779	97.62
261.012	87.62
261.244	95.62
261.477	106.62
261.71	99.62
261.942	111.62
262.175	117.62
262.407	87.62
262.64	95.62
262.872	82.62
263.105	74.62
263.337	93.62
263.57	98.62
263.802	84.62
264.035	68.62
264.267	77.62
264.499	75.62
264.732	92.62
264.964	86.62
265.197	82.62
265.429	70.62
265.661	75.62
265.894	81.62
266.126	85.62
266.358	91.62
266.591	82.62
266.823	74.62
267.055	82.62
267.287	84.62
267.52	91.62
267.752	79.62
267.984	95.62
268.216	86.62
268.448	75.62
268.681	88.62
268.913	90.62
269.145	69.62
269.377	79.62
269.609	81.62
269.841	97.62
270.073	99.62
270.306	90.62
270.538	79.62
270.77	92.62
271.002	83.62
271.234	89.62
271.466	83.62
271.698	94.62
271.93	95.62
272.162	96.62
272.394	93.62
272.626	82.62
272.858	83.62
273.09	95.62
273.322	81.62
273.553	93.62
273.785	85.62
274.017	81.62
274.249	88.62
274.481	86.62
274.713	89.62
274.945	88.62
275.176	90.62
275.408	87.62
275.64	99.62
275.872	110.62
276.104	97.62
276.335	96.62
276.567	114.62
276.799	135.62
277.031	140.62
277.262	157.62
277.494	129.62
277.726	90.62
277.957	87.62
278.189	82.62
278.421	86.62
278.652	78.62
278.884	85.62
279.115	95.62
279.347	97.62
279.579	86.62
279.81	117.62
280.042	152.62
280.273	183.62
280.505	138.62
280.736	89.62
280.968	88.62
281.199	92.62
281.431	98.62
281.662	92.62
281.894	76.62
282.125	93.62
282.356	124.62
282.588	151.62
282.819	107.62
283.051	101.62
283.282	71.62
283.513	101.62
283.745	79.62
283.976	84.62
284.207	86.62
284.439	90.62
284.67	81.62
284.901	86.62
285.132	95.62
285.364	100.62
285.595	87.62
285.826	78.62
286.057	77.62
286.288	88.62
286.52	96.62
286.751	74.62
286.982	74.62
287.213	90.62
287.444	96.62
287.675	82.62
287.906	90.62
288.138	76.62
288.369	93.62
288.6	93.62
288.831	70.62
289.062	87.62
289.293	85.62
289.524	90.62
289.755	83.62
289.986	78.62
290.217	86.62
290.448	98.62
290.679	87.62
290.91	99.62
291.141	84.62
291.371	85.62
291.602	99.62
291.833	92.62
292.064	92.62
292.295	95.62
292.526	88.62
292.757	79.62
292.987	96.62
293.218	101.62
293.449	84.62
293.68	82.62
293.91	89.62
294.141	98.62
294.372	94.62
294.603	76.62
294.833	87.62
295.064	88.62
295.295	95.62
295.525	99.62
295.756	96.62
295.987	129.62
296.217	135.62
296.448	139.62
296.679	89.62
296.909	89.62
297.14	86.62
297.37	98.62
297.601	99.62
297.831	87.62
298.062	94.62
298.292	87.62
298.523	80.62
298.753	83.62
298.984	87.62
299.214	93.62
299.445	88.62
299.675	98.62
299.905	106.62
300.136	81.62
300.366	91.62
300.597	97.62
300.827	98.62
301.057	100.62
301.288	97.62
301.518	97.62
301.748	99.62
301.979	93.62
302.209	101.62
302.439	109.62
302.669	96.62
302.9	106.62
303.13	103.62
303.36	103.62
303.59	122.62
303.82	133.62
304.051	103.62
304.281	106.62
304.511	95.62
304.741	96.62
304.971	97.62
305.201	76.62
305.431	98.62
305.661	90.62
305.891	96.62
306.121	99.62
306.352	111.62
306.582	102.62
306.812	100.62
307.042	111.62
307.272	126.62
307.502	143.62
307.731	150.62
307.961	120.62
308.191	86.62
308.421	96.62
308.651	100.62
308.881	128.62
309.111	91.62
309.341	85.62
309.571	96.62
309.8	92.62
310.03	98.62
310.26	111.62
310.49	110.62
310.72	115.62
310.949	105.62
311.179	116.62
311.409	101.62
311.639	95.62
311.868	108.62
312.098	102.62
312.328	95.62
312.557	104.62
312.787	116.62
313.017	115.62
313.246	104.62
313.476	95.62
313.706	92.62
313.935	105.62
314.165	87.62
314.394	119.62
314.624	115.62
314.853	96.62
315.083	88.62
315.312	89.62
315.542	95.62
315.771	89.62
316.001	87.62
316.23	95.62
316.46	95.62
316.689	88.62
316.919	106.62
317.148	100.62
317.377	99.62
317.607	112.62
317.836	95.62
318.065	118.62
318.295	99.62
318.524	104.62
318.753	100.62
318.983	110.62
319.212	96.62
319.441	98.62
319.67	103.62
319.9	103.62
320.129	91.62
320.358	112.62
320.587	107.62
320.816	92.62
321.046	121.62
321.275	104.62
321.504	102.62
321.733	109.62
321.962	103.62
322.191	106.62
322.42	108.62
322.649	116.62
322.878	125.62
323.108	125.62
323.337	126.62
323.566	155.62
323.795	150.62
324.024	239.62
324.253	484.62
324.482	970.62
324.71	1993.62
324.939	2651.62
325.168	967.62
325.397	267.62
325.626	172.62
325.855	151.62
326.084	135.62
326.313	143.62
326.542	173.62
326.77	265.62
326.999	536.62
327.228	1088.62
327.457	1997.62
327.686	1589.62
327.914	500.62
328.143	397.62
328.372	464.62
328.6	291.62
328.829	168.62
329.058	158.62
329.287	154.62
329.515	153.62
329.744	204.62
329.972	346.62
330.201	657.62
330.43	953.62
330.658	472.62
330.887	236.62
331.115	161.62
331.344	124.62
331.572	119.62
331.801	120.62
332.03	106.62
332.258	96.62
332.486	125.62
332.715	116.62
332.943	129.62
333.172	127.62
333.4	137.62
333.629	142.62
333.857	198.62
334.085	300.62
334.314	622.62
334.542	1196.62
334.771	1172.62
334.999	337.62
335.227	180.62
335.455	120.62
335.684	119.62
335.912	116.62
336.14	119.62
336.369	107.62
336.597	106.62
336.825	114.62
337.053	96.62
337.281	97.62
337.51	98.62
337.738	99.62
337.966	95.62
338.194	101.62
338.422	108.62
338.65	90.62
338.878	123.62
339.106	78.62
339.334	99.62
339.562	91.62
339.79	93.62
340.018	94.62
340.246	80.62
340.474	96.62
340.702	94.62
340.93	91.62
341.158	100.62
341.386	97.62
341.614	109.62
341.842	92.62
342.07	96.62
342.298	99.62
342.526	86.62
342.754	99.62
342.981	99.62
343.209	86.62
343.437	92.62
343.665	106.62
343.893	112.62
344.12	89.62
344.348	80.62
344.576	103.62
344.804	95.62
345.031	104.62
345.259	116.62
345.487	81.62
345.714	116.62
345.942	100.62
346.17	85.62
346.397	94.62
346.625	97.62
346.853	91.62
347.08	91.62
347.308	89.62
347.535	99.62
347.763	92.62
347.99	111.62
348.218	106.62
348.445	115.62
348.673	92.62
348.9	94.62
349.128	84.62
349.355	98.62
349.583	90.62
349.81	77.62
350.037	88.62
350.265	97.62
350.492	87.62
350.72	110.62
350.947	92.62
351.174	124.62
351.402	128.62
351.629	96.62
351.856	127.62
352.083	103.62
352.311	114.62
352.538	131.62
352.765	109.62
352.992	118.62
353.22	132.62
353.447	127.62
353.674	101.62
353.901	101.62
354.128	102.62
354.355	88.62
354.583	94.62
354.81	103.62
355.037	106.62
355.264	90.62
355.491	99.62
355.718	96.62
355.945	96.62
356.172	90.62
356.399	87.62
356.626	98.62
356.853	94.62
357.08	89.62
357.307	106.62
357.534	88.62
357.761	85.62
357.988	96.62
358.215	103.62
358.441	105.62
358.668	81.62
358.895	92.62
359.122	93.62
359.349	96.62
359.576	105.62
359.802	106.62
360.029	119.62
360.256	144.62
360.483	94.62
360.709	91.62
360.936	100.62
361.163	102.62
361.39	94.62
361.616	113.62
361.843	114.62
362.07	101.62
362.296	108.62
362.523	106.62
362.749	97.62
362.976	108.62
363.203	97.62
363.429	82.62
363.656	84.62
363.882	91.62
364.109	86.62
364.335	89.62
364.562	84.62
364.788	88.62
365.015	91.62
365.241	132.62
365.468	119.62
365.694	99.62
365.92	96.62
366.147	91.62
366.373	84.62
366.599	84.62
366.826	99.62
367.052	94.62
367.278	84.62
367.505	90.62
367.731	93.62
367.957	98.62
368.184	108.62
368.41	107.62
368.636	107.62
368.862	131.62
369.089	110.62
369.315	111.62
369.541	101.62
369.767	90.62
369.993	96.62
370.219	84.62
370.445	84.62
370.672	99.62
370.898	85.62
371.124	84.62
371.35	84.62
371.576	91.62
371.802	88.62
372.028	85.62
372.254	80.62
372.48	104.62
372.706	89.62
372.932	84.62
373.158	87.62
373.384	98.62
373.61	90.62
373.835	104.62
374.061	73.62
374.287	82.62
374.513	88.62
374.739	85.62
374.965	103.62
375.191	92.62
375.416	90.62
375.642	91.62
375.868	95.62
376.094	77.62
376.319	90.62
376.545	90.62
376.771	91.62
376.997	87.62
377.222	103.62
377.448	83.62
377.674	88.62
377.899	98.62
378.125	102.62
378.35	106.62
378.576	100.62
378.802	95.62
379.027	83.62
379.253	81.62
379.478	90.62
379.704	86.62
379.929	87.62
380.155	105.62
380.38	86.62
380.606	83.62
380.831	104.62
381.057	97.62
381.282	104.62
381.507	94.62
381.733	95.62
381.958	100.62
382.184	96.62
382.409	97.62
382.634	97.62
382.86	106.62
383.085	98.62
383.31	95.62
383.535	99.62
383.761	96.62
383.986	94.62
384.211	99.62
384.436	86.62
384.662	95.62
384.887	108.62
385.112	115.62
385.337	87.62
385.562	95.62
385.787	107.62
386.013	107.62
386.238	111.62
386.463	107.62
386.688	120.62
386.913	101.62
387.138	95.62
387.363	84.62
387.588	93.62
387.813	102.62
388.038	104.62
388.263	104.62
388.488	100.62
388.713	90.62
388.938	110.62
389.163	92.62
389.387	111.62
389.612	98.62
389.837	91.62
390.062	102.62
390.287	98.62
390.512	92.62
390.736	77.62
390.961	84.62
391.186	94.62
391.411	83.62
391.636	103.62
391.86	91.62
392.085	88.62
392.31	83.62
392.534	89.62
392.759	92.62
392.984	86.62
393.208	96.62
393.433	102.62
393.658	91.62
393.882	99.62
394.107	108.62
394.331	95.62
394.556	89.62
394.78	85.62
395.005	88.62
395.229	92.62
395.454	99.62
395.678	100.62
395.903	91.62
396.127	100.62
396.352	80.62
396.576	96.62
396.801	81.62
397.025	94.62
397.249	89.62
397.474	88.62
397.698	96.62
397.922	79.62
398.147	105.62
398.371	95.62
398.595	103.62
398.82	95.62
399.044	92.62
399.268	91.62
399.492	85.62
399.717	87.62
399.941	91.62
400.165	115.62
400.389	98.62
400.613	96.62
400.837	105.62
401.062	90.62
401.286	87.62
401.51	101.62
401.734	99.62
401.958	120.62
402.182	153.62
402.406	183.62
402.63	127.62
402.854	97.62
403.078	104.62
403.302	95.62
403.526	82.62
403.75	91.62
403.974	85.62
404.198	99.62
404.422	79.62
404.645	96.62
404.869	101.62
405.093	109.62
405.317	134.62
405.541	147.62
405.765	117.62
405.988	130.62
406.212	189.62
406.436	279.62
406.66	189.62
406.883	118.62
407.107	98.62
407.331	108.62
407.555	104.62
407.778	106.62
408.002	93.62
408.226	89.62
408.449	99.62
408.673	96.62
408.896	84.62
409.12	112.62
409.344	97.62
409.567	89.62
409.791	99.62
410.014	98.62
410.238	74.62
410.461	84.62
410.685	104.62
410.908	102.62
411.132	105.62
411.355	130.62
411.578	104.62
411.802	99.62
412.025	92.62
412.249	93.62
412.472	115.62
412.695	130.62
412.919	113.62
413.142	92.62
413.365	103.62
413.589	87.62
413.812	95.62
414.035	107.62
414.258	100.62
414.482	95.62
414.705	96.62
414.928	90.62
415.151	98.62
415.374	100.62
415.597	97.62
415.821	93.62
416.044	97.62
416.267	91.62
416.49	74.62
416.713	87.62
416.936	92.62
417.159	98.62
417.382	99.62
417.605	110.62
417.828	111.62
418.051	95.62
418.274	105.62
418.497	98.62
418.72	104.62
418.943	87.62
419.166	102.62
419.389	99.62
419.611	83.62
419.834	77.62
420.057	112.62
420.28	87.62
420.503	83.62
420.726	79.62
420.948	88.62
421.171	105.62
421.394	89.62
421.617	95.62
421.839	99.62
422.062	88.62
422.285	91.62
422.507	102.62
422.73	102.62
422.953	96.62
423.175	91.62
423.398	94.62
423.621	87.62
423.843	84.62
424.066	92.62
424.288	84.62
424.511	93.62
424.733	106.62
424.956	109.62
425.178	114.62
425.401	103.62
425.623	108.62
425.846	102.62
426.068	104.62
426.291	108.62
426.513	104.62
426.735	96.62
426.958	102.62
427.18	112.62
427.402	166.62
427.625	244.62
427.847	205.62
428.069	202.62
428.292	113.62
428.514	96.62
428.736	97.62
428.958	93.62
429.181	101.62
429.403	80.62
429.625	97.62
429.847	92.62
430.069	107.62
430.292	115.62
430.514	99.62
430.736	90.62
430.958	95.62
431.18	91.62
431.402	88.62
431.624	91.62
431.846	89.62
432.068	92.62
432.29	93.62
432.512	99.62
432.734	98.62
432.956	95.62
433.178	116.62
433.4	117.62
433.622	99.62
433.844	108.62
434.066	105.62
434.287	89.62
434.509	103.62
434.731	100.62
434.953	75.62
435.175	85.62
435.397	109.62
435.618	106.62
435.84	112.62
436.062	131.62
436.284	127.62
436.505	106.62
436.727	110.62
436.949	97.62
437.17	92.62
437.392	88.62
437.614	104.62
437.835	118.62
438.057	144.62
438.278	118.62
438.5	118.62
438.721	144.62
438.943	113.62
439.165	84.62
439.386	94.62
439.608	99.62
439.829	121.62
440.05	134.62
440.272	169.62
440.493	119.62
440.715	81.62
440.936	95.62
441.158	86.62
441.379	101.62
441.6	102.62
441.822	112.62
442.043	92.62
442.264	107.62
442.486	108.62
442.707	102.62
442.928	131.62
443.149	156.62
443.371	175.62
443.592	117.62
443.813	132.62
444.034	116.62
444.255	93.62
444.476	94.62
444.698	95.62
444.919	100.62
445.14	121.62
445.361	129.62
445.582	145.62
445.803	165.62
446.024	164.62
446.245	170.62
446.466	147.62
446.687	96.62
446.908	102.62
447.129	100.62
447.35	93.62
447.571	97.62
447.792	104.62
448.013	115.62
448.234	130.62
448.455	106.62
448.675	136.62
448.896	136.62
449.117	125.62
449.338	120.62
449.559	159.62
449.779	154.62
450	89.62
450.221	93.62
450.442	102.62
450.662	111.62
450.883	131.62
451.104	121.62
451.324	125.62
451.545	90.62
451.766	90.62
451.986	80.62
452.207	86.62
452.428	91.62
452.648	103.62
452.869	125.62
453.089	149.62
453.31	142.62
453.53	108.62
453.751	97.62
453.971	103.62
454.192	140.62
454.412	99.62
454.633	94.62
454.853	88.62
455.073	84.62
455.294	95.62
455.514	107.62
455.734	98.62
455.955	96.62
456.175	83.62
456.395	84.62
456.616	83.62
456.836	93.62
457.056	90.62
457.276	92.62
457.497	95.62
457.717	85.62
457.937	97.62
458.157	91.62
458.377	103.62
458.598	139.62
458.818	193.62
459.038	202.62
459.258	131.62
459.478	111.62
459.698	86.62
459.918	96.62
460.138	104.62
460.358	92.62
460.578	99.62
460.798	100.62
461.018	98.62
461.238	101.62
461.458	89.62
461.678	82.62
461.898	104.62
462.118	78.62
462.338	91.62
462.558	94.62
462.777	106.62
462.997	93.62
463.217	111.62
463.437	100.62
463.657	75.62
463.876	80.62
464.096	89.62
464.316	101.62
464.536	108.62
464.755	113.62
464.975	112.62
465.195	228.62
465.414	212.62
465.634	114.62
465.854	98.62
466.073	76.62
466.293	90.62
466.512	90.62
466.732	77.62
466.951	105.62
467.171	93.62
467.391	92.62
467.61	138.62
467.829	191.62
468.049	380.62
468.268	583.62
468.488	164.62
468.707	111.62
468.927	91.62
469.146	87.62
469.365	92.62
469.585	90.62
469.804	104.62
470.023	116.62
470.243	90.62
470.462	115.62
470.681	133.62
470.901	105.62
471.12	97.62
471.339	102.62
471.558	116.62
471.777	125.62
471.997	224.62
472.216	734.62
472.435	1643.62
472.654	464.62
472.873	139.62
473.092	115.62
473.311	97.62
473.53	90.62
473.749	86.62
473.968	101.62
474.187	116.62
474.406	104.62
474.625	87.62
474.844	83.62
475.063	75.62
475.282	96.62
475.501	85.62
475.72	91.62
475.939	107.62
476.158	93.62
476.377	98.62
476.596	84.62
476.814	96.62
477.033	103.62
477.252	104.62
477.471	82.62
477.69	95.62
477.908	96.62
478.127	109.62
478.346	90.62
478.564	89.62
478.783	102.62
479.002	90.62
479.22	112.62
479.439	130.62
479.658	128.62
479.876	113.62
480.095	106.62
480.313	127.62
480.532	134.62
480.751	197.62
480.969	674.62
481.188	2791.62
481.406	1768.62
481.624	283.62
481.843	127.62
482.061	102.62
482.28	89.62
482.498	97.62
482.717	96.62
482.935	92.62
483.153	92.62
483.372	86.62
483.59	87.62
483.808	82.62
484.027	84.62
484.245	95.62
484.463	96.62
484.681	94.62
484.9	84.62
485.118	93.62
485.336	100.62
485.554	96.62
485.772	104.62
485.99	103.62
486.209	103.62
486.427	124.62
486.645	113.62
486.863	143.62
487.081	103.62
487.299	107.62
487.517	100.62
487.735	98.62
487.953	96.62
488.171	91.62
488.389	93.62
488.607	105.62
488.825	107.62
489.043	87.62
489.261	92.62
489.479	85.62
489.696	96.62
489.914	92.62
490.132	87.62
490.35	98.62
490.568	87.62
490.786	92.62
491.003	91.62
491.221	84.62
491.439	114.62
491.657	80.62
491.874	91.62
492.092	97.62
492.31	83.62
492.527	73.62
492.745	99.62
492.963	90.62
493.18	83.62
493.398	94.62
493.615	100.62
493.833	117.62
494.05	105.62
494.268	93.62
494.485	91.62
494.703	97.62
494.92	87.62
495.138	94.62
495.355	98.62
495.573	90.62
495.79	93.62
496.008	85.62
496.225	94.62
496.442	85.62
496.66	96.62
496.877	84.62
497.094	90.62
497.312	89.62
497.529	92.62
497.746	100.62
497.963	103.62
498.181	93.62
498.398	107.62
498.615	122.62
498.832	116.62
499.049	88.62
499.267	89.62
499.484	100.62
499.701	91.62
499.918	82.62
500.135	85.62
500.352	92.62
500.569	88.62
500.786	114.62
501.003	94.62
501.22	104.62
501.437	95.62
501.654	106.62
501.871	114.62
502.088	112.62
502.305	77.62
502.522	85.62
502.739	85.62
502.956	98.62
503.172	93.62
503.389	112.62
503.606	120.62
503.823	99.62
504.04	96.62
504.256	103.62
504.473	100.62
504.69	105.62
504.907	98.62
505.123	95.62
505.34	85.62
505.557	90.62
505.773	88.62
505.99	89.62
506.207	100.62
506.423	77.62
506.64	89.62
506.856	102.62
507.073	96.62
507.289	88.62
507.506	104.62
507.722	138.62
507.939	126.62
508.155	108.62
508.372	89.62
508.588	90.62
508.805	106.62
509.021	97.62
509.238	101.62
509.454	111.62
509.67	127.62
509.887	112.62
510.103	156.62
510.319	241.62
510.536	882.62
510.752	3019.62
510.968	882.62
511.184	187.62
511.401	133.62
511.617	101.62
511.833	110.62
512.049	97.62
512.265	87.62
512.481	94.62
512.698	95.62
512.914	97.62
513.13	85.62
