Data from Circ_2023_H10_HRD10591_00077.txt Node
Date: Wed Jan 03 09:50:46 EST 2024
User: Yrep
Spectrometer: HR+D1059
Trigger mode: 1
Integration Time (sec): 1.000000E-1
Scans to average: 1
Electric dark correction enabled: true
Nonlinearity correction enabled: false
Boxcar width: 0
XAxis mode: Wavelengths
Number of Pixels in Spectrum: 2048
>>>>>Begin Spectral Data<<<<<
223.165	-9
223.4	-9
223.635	-9
223.869	-27
224.104	-7
224.338	-12
224.573	-14
224.808	-20
225.042	-12
225.277	-8
225.511	-8
225.746	2
225.98	17
226.215	3
226.449	13
226.683	24
226.918	22
227.152	36
227.387	36
227.621	59
227.856	39
228.09	38
228.324	66
228.559	63
228.793	60
229.027	65
229.262	82
229.496	86
229.73	108
229.964	93
230.199	72
230.433	76
230.667	73
230.901	90
231.136	72
231.37	86
231.604	76
231.838	85
232.072	83
232.306	92
232.541	84
232.775	84
233.009	78
233.243	92
233.477	74
233.711	92
233.945	77
234.179	91
234.413	84
234.647	88
234.881	79
235.115	83
235.349	80
235.583	80
235.817	81
236.051	80
236.285	97
236.519	76
236.753	89
236.987	78
237.221	97
237.455	108
237.689	90
237.922	85
238.156	76
238.39	77
238.624	85
238.858	81
239.091	82
239.325	65
239.559	89
239.793	91
240.027	90
240.26	95
240.494	88
240.728	78
240.961	86
241.195	89
241.429	78
241.662	74
241.896	84
242.13	72
242.363	72
242.597	87
242.83	90
243.064	84
243.298	90
243.531	75
243.765	81
243.998	86
244.232	92
244.465	98
244.699	90
244.932	78
245.166	85
245.399	80
245.633	75
245.866	84
246.099	69
246.333	80
246.566	73
246.8	93
247.033	91
247.266	80
247.5	92
247.733	90
247.966	79
248.2	88
248.433	84
248.666	73
248.899	89
249.133	109
249.366	114
249.599	112
249.832	107
250.066	95
250.299	93
250.532	91
250.765	83
250.998	90
251.231	78
251.465	84
251.698	79
251.931	106
252.164	85
252.397	89
252.63	86
252.863	82
253.096	82
253.329	94
253.562	82
253.795	80
254.028	93
254.261	89
254.494	83
254.727	95
254.96	75
255.193	90
255.426	86
255.659	95
255.892	118
256.124	116
256.357	97
256.59	95
256.823	99
257.056	97
257.289	92
257.521	95
257.754	96
257.987	92
258.22	103
258.452	105
258.685	107
258.918	92
259.151	91
259.383	81
259.616	97
259.849	88
260.081	83
260.314	101
260.547	91
260.779	108
261.012	127
261.244	125
261.477	102
261.71	119
261.942	145
262.175	168
262.407	117
262.64	89
262.872	96
263.105	89
263.337	91
263.57	99
263.802	80
264.035	80
264.267	90
264.499	83
264.732	89
264.964	93
265.197	92
265.429	84
265.661	92
265.894	80
266.126	87
266.358	91
266.591	88
266.823	83
267.055	91
267.287	86
267.52	99
267.752	96
267.984	95
268.216	88
268.448	95
268.681	95
268.913	93
269.145	88
269.377	106
269.609	98
269.841	97
270.073	96
270.306	99
270.538	95
270.77	85
271.002	89
271.234	85
271.466	106
271.698	99
271.93	85
272.162	88
272.394	100
272.626	108
272.858	89
273.09	98
273.322	76
273.553	89
273.785	86
274.017	102
274.249	90
274.481	85
274.713	90
274.945	95
275.176	98
275.408	107
275.64	137
275.872	159
276.104	123
276.335	118
276.567	123
276.799	176
277.031	237
277.262	264
277.494	199
277.726	129
277.957	106
278.189	106
278.421	106
278.652	113
278.884	93
279.115	105
279.347	113
279.579	123
279.81	160
280.042	275
280.273	387
280.505	233
280.736	131
280.968	110
281.199	106
281.431	84
281.662	87
281.894	91
282.125	100
282.356	155
282.588	198
282.819	153
283.051	100
283.282	76
283.513	97
283.745	87
283.976	80
284.207	95
284.439	96
284.67	85
284.901	85
285.132	72
285.364	100
285.595	84
285.826	97
286.057	97
286.288	79
286.52	92
286.751	94
286.982	99
287.213	106
287.444	92
287.675	95
287.906	78
288.138	104
288.369	102
288.6	93
288.831	82
289.062	113
289.293	117
289.524	95
289.755	86
289.986	93
290.217	76
290.448	101
290.679	92
290.91	91
291.141	94
291.371	106
291.602	88
291.833	95
292.064	97
292.295	100
292.526	98
292.757	87
292.987	97
293.218	83
293.449	90
293.68	84
293.91	89
294.141	88
294.372	105
294.603	95
294.833	91
295.064	91
295.295	98
295.525	81
295.756	118
295.987	139
296.217	187
296.448	163
296.679	124
296.909	102
297.14	89
297.37	79
297.601	100
297.831	98
298.062	103
298.292	107
298.523	104
298.753	106
298.984	95
299.214	95
299.445	89
299.675	115
299.905	111
300.136	89
300.366	100
300.597	118
300.827	96
301.057	118
301.288	126
301.518	119
301.748	89
301.979	133
302.209	109
302.439	100
302.669	92
302.9	108
303.13	106
303.36	112
303.59	147
303.82	188
304.051	112
304.281	90
304.511	93
304.741	88
304.971	86
305.201	102
305.431	87
305.661	85
305.891	77
306.121	103
306.352	125
306.582	135
306.812	141
307.042	139
307.272	206
307.502	218
307.731	195
307.961	149
308.191	105
308.421	92
308.651	87
308.881	95
309.111	105
309.341	104
309.571	116
309.8	111
310.03	120
310.26	112
310.49	91
310.72	100
310.949	140
311.179	127
311.409	121
311.639	129
311.868	107
312.098	104
312.328	117
312.557	124
312.787	130
313.017	129
313.246	124
313.476	110
313.706	99
313.935	95
314.165	123
314.394	137
314.624	119
314.853	107
315.083	117
315.312	108
315.542	104
315.771	83
316.001	99
316.23	92
316.46	103
316.689	105
316.919	98
317.148	116
317.377	106
317.607	112
317.836	112
318.065	99
318.295	105
318.524	97
318.753	99
318.983	100
319.212	118
319.441	138
319.67	139
319.9	98
320.129	100
320.358	97
320.587	108
320.816	115
321.046	114
321.275	106
321.504	115
321.733	109
321.962	96
322.191	127
322.42	139
322.649	132
322.878	140
323.108	145
323.337	172
323.566	175
323.795	228
324.024	298
324.253	583
324.482	1256
324.71	2591
324.939	3489
325.168	1255
325.397	337
325.626	216
325.855	178
326.084	163
326.313	165
326.542	189
326.77	313
326.999	639
327.228	1326
327.457	2461
327.686	2005
327.914	739
328.143	779
328.372	1035
328.6	555
328.829	256
329.058	246
329.287	248
329.515	252
329.744	378
329.972	725
330.201	1576
330.43	2393
330.658	1034
330.887	393
331.115	235
331.344	154
331.572	149
331.801	145
332.03	131
332.258	131
332.486	131
332.715	131
332.943	128
333.172	157
333.4	143
333.629	186
333.857	314
334.085	635
334.314	1400
334.542	2870
334.771	2713
334.999	653
335.227	243
335.455	154
335.684	132
335.912	117
336.14	122
336.369	124
336.597	135
336.825	113
337.053	102
337.281	109
337.51	101
337.738	100
337.966	119
338.194	131
338.422	127
338.65	109
338.878	107
339.106	106
339.334	105
339.562	99
339.79	88
340.018	106
340.246	112
340.474	106
340.702	115
340.93	111
341.158	114
341.386	111
341.614	104
341.842	111
342.07	99
342.298	98
342.526	94
342.754	93
342.981	93
343.209	86
343.437	116
343.665	95
343.893	104
344.12	94
344.348	86
344.576	104
344.804	96
345.031	97
345.259	117
345.487	101
345.714	111
345.942	90
346.17	96
346.397	108
346.625	101
346.853	106
347.08	101
347.308	102
347.535	108
347.763	127
347.99	113
348.218	112
348.445	133
348.673	129
348.9	102
349.128	113
349.355	105
349.583	95
349.81	109
350.037	115
350.265	103
350.492	98
350.72	98
350.947	111
351.174	126
351.402	133
351.629	123
351.856	114
352.083	116
352.311	127
352.538	131
352.765	127
352.992	124
353.22	136
353.447	125
353.674	118
353.901	104
354.128	104
354.355	98
354.583	101
354.81	110
355.037	94
355.264	102
355.491	80
355.718	89
355.945	87
356.172	90
356.399	104
356.626	107
356.853	89
357.08	98
357.307	90
357.534	99
357.761	99
357.988	86
358.215	87
358.441	104
358.668	111
358.895	93
359.122	97
359.349	119
359.576	112
359.802	119
360.029	173
360.256	169
360.483	126
360.709	108
360.936	105
361.163	120
361.39	88
361.616	100
361.843	117
362.07	113
362.296	102
362.523	111
362.749	104
362.976	94
363.203	93
363.429	94
363.656	101
363.882	85
364.109	91
364.335	101
364.562	100
364.788	101
365.015	111
365.241	118
365.468	115
365.694	138
365.92	120
366.147	99
366.373	105
366.599	93
366.826	105
367.052	113
367.278	107
367.505	89
367.731	117
367.957	102
368.184	112
368.41	105
368.636	143
368.862	148
369.089	134
369.315	109
369.541	114
369.767	94
369.993	105
370.219	103
370.445	106
370.672	88
370.898	88
371.124	80
371.35	83
371.576	95
371.802	91
372.028	90
372.254	83
372.48	92
372.706	85
372.932	93
373.158	77
373.384	100
373.61	96
373.835	94
374.061	98
374.287	100
374.513	97
374.739	86
374.965	93
375.191	86
375.416	85
375.642	104
375.868	94
376.094	88
376.319	101
376.545	99
376.771	84
376.997	86
377.222	99
377.448	98
377.674	99
377.899	99
378.125	95
378.35	87
378.576	107
378.802	96
379.027	82
379.253	80
379.478	97
379.704	97
379.929	101
380.155	92
380.38	94
380.606	117
380.831	97
381.057	109
381.282	105
381.507	97
381.733	98
381.958	102
382.184	92
382.409	96
382.634	80
382.86	112
383.085	105
383.31	101
383.535	101
383.761	92
383.986	96
384.211	98
384.436	84
384.662	103
384.887	90
385.112	101
385.337	97
385.562	103
385.787	106
386.013	116
386.238	131
386.463	94
386.688	96
386.913	109
387.138	104
387.363	88
387.588	100
387.813	105
388.038	97
388.263	102
388.488	100
388.713	95
388.938	95
389.163	96
389.387	94
389.612	97
389.837	98
390.062	94
390.287	101
390.512	85
390.736	100
390.961	102
391.186	89
391.411	106
391.636	91
391.86	102
392.085	92
392.31	87
392.534	89
392.759	95
392.984	98
393.208	94
393.433	95
393.658	89
393.882	98
394.107	81
394.331	88
394.556	74
394.78	105
395.005	84
395.229	90
395.454	82
395.678	82
395.903	102
396.127	87
396.352	68
396.576	83
396.801	85
397.025	80
397.249	96
397.474	82
397.698	94
397.922	98
398.147	92
398.371	91
398.595	92
398.82	87
399.044	84
399.268	95
399.492	92
399.717	92
399.941	101
400.165	112
400.389	118
400.613	104
400.837	99
401.062	93
401.286	91
401.51	102
401.734	97
401.958	141
402.182	164
402.406	226
402.63	173
402.854	107
403.078	81
403.302	93
403.526	81
403.75	107
403.974	97
404.198	89
404.422	104
404.645	96
404.869	122
405.093	130
405.317	164
405.541	175
405.765	129
405.988	146
406.212	236
406.436	383
406.66	263
406.883	146
407.107	131
407.331	130
407.555	124
407.778	113
408.002	92
408.226	117
408.449	109
408.673	105
408.896	95
409.12	104
409.344	94
409.567	95
409.791	92
410.014	96
410.238	90
410.461	93
410.685	100
410.908	105
411.132	100
411.355	99
411.578	102
411.802	88
412.025	95
412.249	115
412.472	137
412.695	162
412.919	140
413.142	101
413.365	89
413.589	86
413.812	79
414.035	91
414.258	89
414.482	86
414.705	97
414.928	92
415.151	99
415.374	107
415.597	81
415.821	96
416.044	108
416.267	91
416.49	88
416.713	99
416.936	95
417.159	99
417.382	110
417.605	123
417.828	127
418.051	112
418.274	97
418.497	88
418.72	98
418.943	80
419.166	100
419.389	102
419.611	90
419.834	111
420.057	106
420.28	100
420.503	105
420.726	91
420.948	97
421.171	115
421.394	97
421.617	88
421.839	97
422.062	93
422.285	95
422.507	112
422.73	125
422.953	96
423.175	93
423.398	91
423.621	102
423.843	98
424.066	101
424.288	92
424.511	99
424.733	108
424.956	131
425.178	130
425.401	124
425.623	130
425.846	91
426.068	102
426.291	112
426.513	90
426.735	106
426.958	111
427.18	149
427.402	209
427.625	319
427.847	309
428.069	275
428.292	150
428.514	108
428.736	103
428.958	115
429.181	80
429.403	99
429.625	113
429.847	107
430.069	123
430.292	107
430.514	86
430.736	95
430.958	98
431.18	90
431.402	88
431.624	103
431.846	91
432.068	92
432.29	99
432.512	88
432.734	83
432.956	93
433.178	112
433.4	107
433.622	97
433.844	108
434.066	97
434.287	95
434.509	88
434.731	94
434.953	92
435.175	101
435.397	104
435.618	103
435.84	122
436.062	156
436.284	148
436.505	110
436.727	122
436.949	111
437.17	104
437.392	94
437.614	100
437.835	146
438.057	175
438.278	164
438.5	151
438.721	168
438.943	119
439.165	103
439.386	95
439.608	101
439.829	126
440.05	175
440.272	220
440.493	129
440.715	99
440.936	102
441.158	106
441.379	91
441.6	96
441.822	96
442.043	99
442.264	128
442.486	137
442.707	108
442.928	145
443.149	200
443.371	199
443.592	144
443.813	168
444.034	155
444.255	106
444.476	95
444.698	88
444.919	100
445.14	152
445.361	140
445.582	165
445.803	216
446.024	207
446.245	200
446.466	149
446.687	113
446.908	105
447.129	106
447.35	97
447.571	103
447.792	98
448.013	128
448.234	139
448.455	115
448.675	135
448.896	159
449.117	120
449.338	124
449.559	168
449.779	170
450	111
450.221	93
450.442	104
450.662	107
450.883	139
451.104	155
451.324	109
451.545	106
451.766	96
451.986	82
452.207	103
452.428	96
452.648	113
452.869	152
453.089	141
453.31	160
453.53	112
453.751	114
453.971	130
454.192	160
454.412	116
454.633	93
454.853	100
455.073	74
455.294	94
455.514	119
455.734	112
455.955	93
456.175	100
456.395	92
456.616	89
456.836	101
457.056	71
457.276	86
457.497	74
457.717	92
457.937	105
458.157	119
458.377	103
458.598	154
458.818	259
459.038	299
459.258	187
459.478	126
459.698	87
459.918	85
460.138	83
460.358	88
460.578	95
460.798	102
461.018	98
461.238	77
461.458	93
461.678	97
461.898	106
462.118	107
462.338	95
462.558	95
462.777	98
462.997	107
463.217	112
463.437	108
463.657	93
463.876	95
464.096	98
464.316	101
464.536	96
464.755	100
464.975	154
465.195	285
465.414	306
465.634	116
465.854	85
466.073	97
466.293	94
466.512	96
466.732	96
466.951	108
467.171	100
467.391	120
467.61	199
467.829	291
468.049	851
468.268	1366
468.488	316
468.707	117
468.927	96
469.146	102
469.365	88
469.585	98
469.804	117
470.023	127
470.243	124
470.462	142
470.681	164
470.901	116
471.12	113
471.339	113
471.558	144
471.777	191
471.997	428
472.216	1666
472.435	4049
472.654	927
472.873	216
473.092	127
473.311	113
473.53	98
473.749	108
473.968	102
474.187	151
474.406	128
474.625	104
474.844	88
475.063	102
475.282	90
475.501	111
475.72	101
475.939	87
476.158	93
476.377	111
476.596	107
476.814	117
477.033	124
477.252	119
477.471	89
477.69	106
477.908	120
478.127	100
478.346	95
478.564	111
478.783	140
479.002	115
479.22	121
479.439	124
479.658	159
479.876	146
480.095	140
480.313	167
480.532	211
480.751	393
480.969	1487
481.188	6422
481.406	4011
481.624	538
481.843	179
482.061	131
482.28	100
482.498	107
482.717	104
482.935	106
483.153	105
483.372	97
483.59	100
483.808	81
484.027	85
484.245	120
484.463	95
484.681	99
484.9	103
485.118	98
485.336	114
485.554	117
485.772	105
485.99	107
486.209	107
486.427	110
486.645	129
486.863	140
487.081	123
487.299	103
487.517	111
487.735	93
487.953	93
488.171	106
488.389	114
488.607	121
488.825	95
489.043	87
489.261	98
489.479	99
489.696	81
489.914	82
490.132	87
490.35	101
490.568	98
490.786	91
491.003	87
491.221	113
491.439	118
491.657	101
491.874	111
492.092	98
492.31	96
492.527	119
492.745	119
492.963	103
493.18	103
493.398	113
493.615	102
493.833	96
494.05	97
494.268	104
494.485	103
494.703	95
494.92	95
495.138	98
495.355	104
495.573	100
495.79	92
496.008	94
496.225	95
496.442	82
496.66	107
496.877	104
497.094	90
497.312	104
497.529	100
497.746	106
497.963	100
498.181	98
498.398	109
498.615	127
498.832	114
499.049	103
499.267	84
499.484	93
499.701	102
499.918	101
500.135	106
500.352	99
500.569	113
500.786	117
501.003	96
501.22	97
501.437	104
501.654	93
501.871	150
502.088	109
502.305	93
502.522	94
502.739	89
502.956	93
503.172	107
503.389	141
503.606	149
503.823	128
504.04	102
504.256	91
504.473	97
504.69	90
504.907	117
505.123	102
505.34	101
505.557	94
505.773	101
505.99	89
506.207	110
506.423	96
506.64	99
506.856	105
507.073	99
507.289	106
507.506	103
507.722	148
507.939	158
508.155	114
508.372	107
508.588	89
508.805	106
509.021	88
509.238	92
509.454	110
509.67	113
509.887	149
510.103	159
510.319	286
510.536	1030
510.752	3892
510.968	1071
511.184	215
511.401	149
511.617	116
511.833	117
512.049	112
512.265	111
512.481	104
512.698	97
512.914	98
513.13	111
513.346	92
513.562	97
513.778	113
513.994	137
514.21	132
514.426	169
514.642	212
514.858	191
515.074	277
515.29	885
515.506	3330
515.721	1177
515.937	259
516.153	157
516.369	117
516.585	122
516.801	133
517.016	106
517.232	99
517.448	106
517.664	112
517.879	115
518.095	84
518.311	126
518.527	127
518.742	96
518.958	109
519.173	105
519.389	106
519.605	112
519.82	111
520.036	141
520.251	176
520.467	139
520.682	146
520.898	143
521.113	164
521.329	225
521.544	376
521.76	1164
521.975	5426
522.19	3412
522.406	664
522.621	210
522.836	136
523.052	122
523.267	111
523.482	99
523.698	125
523.913	162
524.128	128
524.343	110
524.559	99
524.774	107
524.989	100
525.204	134
525.419	145
525.634	95
525.849	93
526.064	104
526.28	111
526.495	100
526.71	108
526.925	91
527.14	96
527.355	74
527.57	82
527.785	89
527.999	96
528.214	104
528.429	109
528.644	103
528.859	100
529.074	131
529.289	181
529.503	347
529.718	145
529.933	109
530.148	104
530.363	79
530.577	93
530.792	87
531.007	92
531.221	85
531.436	91
531.651	95
531.865	102
532.08	89
532.295	106
532.509	98
532.724	102
532.938	91
533.153	83
533.367	82
533.582	98
533.796	100
534.011	97
534.225	89
534.44	93
534.654	104
534.868	102
535.083	99
535.297	112
535.511	115
535.726	145
535.94	114
536.154	105
536.369	105
536.583	90
536.797	81
537.011	90
537.225	89
537.44	95
537.654	93
537.868	85
538.082	100
538.296	81
538.51	84
538.724	82
538.938	96
539.153	115
539.367	131
539.581	114
539.795	96
540.009	85
540.222	92
540.436	112
540.65	92
540.864	124
541.078	115
541.292	95
541.506	98
541.72	103
541.934	95
542.147	93
542.361	99
542.575	97
542.789	115
543.002	92
543.216	107
543.43	113
543.644	108
543.857	94
544.071	100
544.285	108
544.498	108
544.712	84
544.925	86
545.139	79
545.352	85
545.566	66
545.779	92
545.993	81
546.206	99
546.42	91
546.633	91
546.847	108
547.06	96
547.274	86
547.487	101
547.7	99
547.914	92
548.127	80
548.34	101
548.554	98
548.767	91
548.98	98
549.193	92
549.407	94
549.62	107
549.833	90
550.046	99
550.259	85
550.473	89
550.686	99
550.899	98
551.112	88
551.325	98
551.538	105
551.751	101
551.964	97
552.177	99
552.39	94
552.603	91
552.816	109
553.029	91
553.242	94
553.455	89
553.667	118
553.88	131
554.093	118
554.306	140
554.519	154
554.732	112
554.944	101
555.157	90
555.37	99
555.583	97
555.795	113
556.008	84
556.221	101
556.433	97
556.646	97
556.859	90
557.071	96
557.284	99
557.496	93
557.709	89
557.921	103
558.134	92
558.346	104
558.559	79
558.771	97
558.984	89
559.196	77
559.409	88
559.621	99
559.833	100
560.046	110
560.258	131
560.47	165
560.683	134
560.895	119
561.107	105
561.32	93
561.532	95
561.744	70
561.956	106
562.168	98
562.381	92
562.593	89
562.805	100
563.017	83
563.229	97
563.441	93
563.653	112
563.865	96
564.077	88
564.289	82
564.501	112
564.713	88
564.925	103
565.137	130
565.349	103
565.561	99
565.773	73
565.985	81
566.197	89
566.408	82
566.62	89
566.832	89
567.044	89
567.255	93
567.467	83
567.679	96
567.891	93
568.102	98
568.314	84
568.526	84
568.737	93
568.949	79
569.161	99
569.372	92
569.584	106
569.795	109
570.007	123
570.218	346
570.43	183
570.641	98
570.853	91
571.064	89
571.276	82
571.487	89
571.698	92
571.91	91
572.121	98
572.333	99
572.544	89
572.755	99
572.966	90
573.178	87
573.389	102
573.6	111
573.811	106
574.023	100
574.234	92
574.445	98
574.656	112
574.867	81
575.078	89
575.289	90
575.501	95
575.712	82
575.923	88
576.134	85
