Data from Circ_2023_H10_HRD10591_00094.txt Node
Date: Wed Jan 03 09:50:49 EST 2024
User: Yrep
Spectrometer: HR+D1059
Trigger mode: 1
Integration Time (sec): 1.000000E-1
Scans to average: 1
Electric dark correction enabled: true
Nonlinearity correction enabled: false
Boxcar width: 0
XAxis mode: Wavelengths
Number of Pixels in Spectrum: 2048
>>>>>Begin Spectral Data<<<<<
223.165	-21.06
223.4	-21.06
223.635	-21.06
223.869	-20.06
224.104	-24.06
224.338	-10.06
224.573	-7.06
224.808	-13.06
225.042	-2.06
225.277	1.94
225.511	-3.06
225.746	-11.06
225.98	6.94
226.215	14.94
226.449	12.94
226.683	18.94
226.918	16.94
227.152	38.94
227.387	28.94
227.621	26.94
227.856	44.94
228.09	44.94
228.324	44.94
228.559	44.94
228.793	56.94
229.027	57.94
229.262	68.94
229.496	84.94
229.73	84.94
229.964	99.94
230.199	76.94
230.433	67.94
230.667	68.94
230.901	65.94
231.136	64.94
231.37	77.94
231.604	84.94
231.838	74.94
232.072	60.94
232.306	79.94
232.541	67.94
232.775	68.94
233.009	82.94
233.243	77.94
233.477	75.94
233.711	84.94
233.945	67.94
234.179	78.94
234.413	68.94
234.647	90.94
234.881	86.94
235.115	78.94
235.349	70.94
235.583	68.94
235.817	69.94
236.051	74.94
236.285	61.94
236.519	67.94
236.753	90.94
236.987	78.94
237.221	97.94
237.455	94.94
237.689	90.94
237.922	72.94
238.156	83.94
238.39	71.94
238.624	69.94
238.858	68.94
239.091	78.94
239.325	70.94
239.559	86.94
239.793	81.94
240.027	77.94
240.26	74.94
240.494	77.94
240.728	71.94
240.961	80.94
241.195	81.94
241.429	80.94
241.662	94.94
241.896	68.94
242.13	72.94
242.363	77.94
242.597	62.94
242.83	71.94
243.064	79.94
243.298	82.94
243.531	69.94
243.765	72.94
243.998	81.94
244.232	68.94
244.465	73.94
244.699	82.94
244.932	67.94
245.166	72.94
245.399	76.94
245.633	70.94
245.866	84.94
246.099	70.94
246.333	63.94
246.566	72.94
246.8	80.94
247.033	83.94
247.266	91.94
247.5	87.94
247.733	76.94
247.966	74.94
248.2	74.94
248.433	81.94
248.666	83.94
248.899	74.94
249.133	77.94
249.366	99.94
249.599	114.94
249.832	87.94
250.066	80.94
250.299	99.94
250.532	95.94
250.765	81.94
250.998	99.94
251.231	96.94
251.465	93.94
251.698	93.94
251.931	88.94
252.164	78.94
252.397	79.94
252.63	83.94
252.863	80.94
253.096	82.94
253.329	83.94
253.562	69.94
253.795	70.94
254.028	78.94
254.261	78.94
254.494	90.94
254.727	82.94
254.96	78.94
255.193	81.94
255.426	88.94
255.659	86.94
255.892	108.94
256.124	117.94
256.357	78.94
256.59	75.94
256.823	82.94
257.056	84.94
257.289	101.94
257.521	97.94
257.754	92.94
257.987	94.94
258.22	97.94
258.452	110.94
258.685	91.94
258.918	82.94
259.151	89.94
259.383	66.94
259.616	94.94
259.849	85.94
260.081	101.94
260.314	74.94
260.547	79.94
260.779	98.94
261.012	134.94
261.244	123.94
261.477	99.94
261.71	100.94
261.942	143.94
262.175	135.94
262.407	95.94
262.64	78.94
262.872	85.94
263.105	69.94
263.337	91.94
263.57	74.94
263.802	85.94
264.035	82.94
264.267	80.94
264.499	73.94
264.732	93.94
264.964	90.94
265.197	91.94
265.429	75.94
265.661	70.94
265.894	88.94
266.126	86.94
266.358	87.94
266.591	84.94
266.823	94.94
267.055	89.94
267.287	89.94
267.52	87.94
267.752	69.94
267.984	81.94
268.216	78.94
268.448	79.94
268.681	95.94
268.913	97.94
269.145	71.94
269.377	83.94
269.609	90.94
269.841	82.94
270.073	80.94
270.306	84.94
270.538	78.94
270.77	82.94
271.002	86.94
271.234	85.94
271.466	100.94
271.698	91.94
271.93	77.94
272.162	93.94
272.394	84.94
272.626	77.94
272.858	84.94
273.09	85.94
273.322	85.94
273.553	82.94
273.785	100.94
274.017	86.94
274.249	71.94
274.481	83.94
274.713	95.94
274.945	92.94
275.176	89.94
275.408	104.94
275.64	118.94
275.872	148.94
276.104	115.94
276.335	104.94
276.567	129.94
276.799	176.94
277.031	201.94
277.262	272.94
277.494	195.94
277.726	115.94
277.957	86.94
278.189	89.94
278.421	95.94
278.652	84.94
278.884	82.94
279.115	94.94
279.347	93.94
279.579	106.94
279.81	172.94
280.042	275.94
280.273	401.94
280.505	259.94
280.736	134.94
280.968	106.94
281.199	91.94
281.431	93.94
281.662	93.94
281.894	82.94
282.125	86.94
282.356	140.94
282.588	176.94
282.819	123.94
283.051	99.94
283.282	102.94
283.513	98.94
283.745	78.94
283.976	74.94
284.207	73.94
284.439	88.94
284.67	87.94
284.901	74.94
285.132	84.94
285.364	92.94
285.595	80.94
285.826	90.94
286.057	92.94
286.288	95.94
286.52	81.94
286.751	85.94
286.982	85.94
287.213	79.94
287.444	71.94
287.675	71.94
287.906	83.94
288.138	79.94
288.369	97.94
288.6	96.94
288.831	90.94
289.062	99.94
289.293	79.94
289.524	76.94
289.755	83.94
289.986	84.94
290.217	91.94
290.448	86.94
290.679	95.94
290.91	83.94
291.141	83.94
291.371	90.94
291.602	84.94
291.833	78.94
292.064	73.94
292.295	81.94
292.526	84.94
292.757	92.94
292.987	86.94
293.218	93.94
293.449	77.94
293.68	78.94
293.91	70.94
294.141	80.94
294.372	86.94
294.603	78.94
294.833	83.94
295.064	80.94
295.295	90.94
295.525	96.94
295.756	99.94
295.987	134.94
296.217	151.94
296.448	149.94
296.679	99.94
296.909	92.94
297.14	86.94
297.37	76.94
297.601	81.94
297.831	82.94
298.062	94.94
298.292	101.94
298.523	89.94
298.753	87.94
298.984	90.94
299.214	90.94
299.445	91.94
299.675	92.94
299.905	90.94
300.136	85.94
300.366	81.94
300.597	93.94
300.827	92.94
301.057	106.94
301.288	107.94
301.518	94.94
301.748	106.94
301.979	119.94
302.209	96.94
302.439	100.94
302.669	103.94
302.9	86.94
303.13	94.94
303.36	111.94
303.59	156.94
303.82	157.94
304.051	111.94
304.281	93.94
304.511	85.94
304.741	101.94
304.971	82.94
305.201	105.94
305.431	95.94
305.661	95.94
305.891	104.94
306.121	92.94
306.352	102.94
306.582	120.94
306.812	107.94
307.042	147.94
307.272	194.94
307.502	213.94
307.731	191.94
307.961	144.94
308.191	98.94
308.421	104.94
308.651	101.94
308.881	109.94
309.111	97.94
309.341	77.94
309.571	116.94
309.8	106.94
310.03	109.94
310.26	109.94
310.49	102.94
310.72	94.94
310.949	142.94
311.179	118.94
311.409	93.94
311.639	105.94
311.868	104.94
312.098	106.94
312.328	95.94
312.557	120.94
312.787	101.94
313.017	108.94
313.246	95.94
313.476	69.94
313.706	85.94
313.935	98.94
314.165	82.94
314.394	130.94
314.624	100.94
314.853	93.94
315.083	107.94
315.312	94.94
315.542	92.94
315.771	71.94
316.001	86.94
316.23	98.94
316.46	85.94
316.689	105.94
316.919	90.94
317.148	95.94
317.377	106.94
317.607	87.94
317.836	77.94
318.065	81.94
318.295	91.94
318.524	99.94
318.753	104.94
318.983	89.94
319.212	95.94
319.441	109.94
319.67	102.94
319.9	106.94
320.129	104.94
320.358	87.94
320.587	96.94
320.816	100.94
321.046	120.94
321.275	98.94
321.504	91.94
321.733	105.94
321.962	106.94
322.191	108.94
322.42	110.94
322.649	140.94
322.878	124.94
323.108	136.94
323.337	147.94
323.566	160.94
323.795	187.94
324.024	258.94
324.253	538.94
324.482	1161.94
324.71	2363.94
324.939	3125.94
325.168	1117.94
325.397	317.94
325.626	183.94
325.855	149.94
326.084	134.94
326.313	141.94
326.542	184.94
326.77	293.94
326.999	605.94
327.228	1246.94
327.457	2283.94
327.686	1879.94
327.914	706.94
328.143	767.94
328.372	995.94
328.6	548.94
328.829	224.94
329.058	226.94
329.287	229.94
329.515	215.94
329.744	355.94
329.972	766.94
330.201	1610.94
330.43	2420.94
330.658	1028.94
330.887	377.94
331.115	232.94
331.344	141.94
331.572	138.94
331.801	156.94
332.03	135.94
332.258	124.94
332.486	136.94
332.715	118.94
332.943	123.94
333.172	134.94
333.4	151.94
333.629	214.94
333.857	303.94
334.085	700.94
334.314	1523.94
334.542	3039.94
334.771	2820.94
334.999	686.94
335.227	236.94
335.455	157.94
335.684	131.94
335.912	129.94
336.14	94.94
336.369	113.94
336.597	110.94
336.825	110.94
337.053	97.94
337.281	98.94
337.51	94.94
337.738	102.94
337.966	115.94
338.194	125.94
338.422	108.94
338.65	91.94
338.878	92.94
339.106	90.94
339.334	105.94
339.562	89.94
339.79	99.94
340.018	85.94
340.246	86.94
340.474	97.94
340.702	97.94
340.93	97.94
341.158	104.94
341.386	96.94
341.614	107.94
341.842	84.94
342.07	94.94
342.298	111.94
342.526	88.94
342.754	86.94
342.981	91.94
343.209	80.94
343.437	98.94
343.665	90.94
343.893	94.94
344.12	79.94
344.348	89.94
344.576	90.94
344.804	99.94
345.031	110.94
345.259	118.94
345.487	94.94
345.714	112.94
345.942	80.94
346.17	97.94
346.397	91.94
346.625	106.94
346.853	86.94
347.08	87.94
347.308	103.94
347.535	105.94
347.763	120.94
347.99	98.94
348.218	118.94
348.445	107.94
348.673	99.94
348.9	106.94
349.128	99.94
349.355	92.94
349.583	104.94
349.81	92.94
350.037	97.94
350.265	101.94
350.492	102.94
350.72	95.94
350.947	99.94
351.174	103.94
351.402	121.94
351.629	114.94
351.856	111.94
352.083	111.94
352.311	132.94
352.538	118.94
352.765	120.94
352.992	106.94
353.22	120.94
353.447	107.94
353.674	107.94
353.901	91.94
354.128	88.94
354.355	93.94
354.583	103.94
354.81	89.94
355.037	100.94
355.264	91.94
355.491	91.94
355.718	91.94
355.945	85.94
356.172	95.94
356.399	103.94
356.626	88.94
356.853	93.94
357.08	102.94
357.307	100.94
357.534	86.94
357.761	93.94
357.988	81.94
358.215	98.94
358.441	87.94
358.668	81.94
358.895	82.94
359.122	95.94
359.349	81.94
359.576	101.94
359.802	110.94
360.029	154.94
360.256	142.94
360.483	115.94
360.709	82.94
360.936	100.94
361.163	105.94
361.39	100.94
361.616	102.94
361.843	100.94
362.07	96.94
362.296	103.94
362.523	101.94
362.749	98.94
362.976	97.94
363.203	101.94
363.429	96.94
363.656	99.94
363.882	95.94
364.109	89.94
364.335	86.94
364.562	80.94
364.788	96.94
365.015	107.94
365.241	108.94
365.468	118.94
365.694	121.94
365.92	103.94
366.147	99.94
366.373	97.94
366.599	98.94
366.826	87.94
367.052	73.94
367.278	108.94
367.505	79.94
367.731	102.94
367.957	98.94
368.184	79.94
368.41	103.94
368.636	146.94
368.862	145.94
369.089	106.94
369.315	107.94
369.541	94.94
369.767	100.94
369.993	91.94
370.219	93.94
370.445	87.94
370.672	97.94
370.898	92.94
371.124	82.94
371.35	98.94
371.576	88.94
371.802	70.94
372.028	78.94
372.254	98.94
372.48	97.94
372.706	79.94
372.932	77.94
373.158	78.94
373.384	82.94
373.61	97.94
373.835	88.94
374.061	83.94
374.287	84.94
374.513	96.94
374.739	95.94
374.965	78.94
375.191	93.94
375.416	75.94
375.642	90.94
375.868	89.94
376.094	71.94
376.319	88.94
376.545	83.94
376.771	87.94
376.997	94.94
377.222	101.94
377.448	95.94
377.674	88.94
377.899	83.94
378.125	80.94
378.35	79.94
378.576	93.94
378.802	100.94
379.027	98.94
379.253	73.94
379.478	87.94
379.704	89.94
379.929	82.94
380.155	90.94
380.38	113.94
380.606	102.94
380.831	96.94
381.057	101.94
381.282	71.94
381.507	91.94
381.733	97.94
381.958	83.94
382.184	92.94
382.409	104.94
382.634	99.94
382.86	100.94
383.085	93.94
383.31	95.94
383.535	83.94
383.761	93.94
383.986	88.94
384.211	101.94
384.436	100.94
384.662	86.94
384.887	99.94
385.112	110.94
385.337	98.94
385.562	89.94
385.787	81.94
386.013	106.94
386.238	114.94
386.463	102.94
386.688	108.94
386.913	96.94
387.138	102.94
387.363	101.94
387.588	83.94
387.813	97.94
388.038	94.94
388.263	114.94
388.488	118.94
388.713	84.94
388.938	105.94
389.163	92.94
389.387	94.94
389.612	114.94
389.837	87.94
390.062	99.94
390.287	108.94
390.512	95.94
390.736	93.94
390.961	94.94
391.186	93.94
391.411	93.94
391.636	66.94
391.86	77.94
392.085	83.94
392.31	72.94
392.534	97.94
392.759	76.94
392.984	97.94
393.208	101.94
393.433	90.94
393.658	86.94
393.882	92.94
394.107	82.94
394.331	82.94
394.556	93.94
394.78	92.94
395.005	79.94
395.229	84.94
395.454	85.94
395.678	75.94
395.903	111.94
396.127	91.94
396.352	103.94
396.576	80.94
396.801	89.94
397.025	81.94
397.249	90.94
397.474	76.94
397.698	79.94
397.922	87.94
398.147	78.94
398.371	80.94
398.595	95.94
398.82	76.94
399.044	86.94
399.268	93.94
399.492	91.94
399.717	82.94
399.941	99.94
400.165	86.94
400.389	102.94
400.613	79.94
400.837	79.94
401.062	100.94
401.286	99.94
401.51	94.94
401.734	93.94
401.958	117.94
402.182	134.94
402.406	199.94
402.63	146.94
402.854	93.94
403.078	90.94
403.302	79.94
403.526	95.94
403.75	91.94
403.974	92.94
404.198	96.94
404.422	96.94
404.645	91.94
404.869	112.94
405.093	148.94
405.317	165.94
405.541	179.94
405.765	131.94
405.988	147.94
406.212	220.94
406.436	311.94
406.66	206.94
406.883	116.94
407.107	112.94
407.331	109.94
407.555	105.94
407.778	117.94
408.002	107.94
408.226	80.94
408.449	82.94
408.673	94.94
408.896	107.94
409.12	120.94
409.344	102.94
409.567	95.94
409.791	85.94
410.014	88.94
410.238	85.94
410.461	90.94
410.685	102.94
410.908	102.94
411.132	95.94
411.355	105.94
411.578	88.94
411.802	99.94
412.025	99.94
412.249	112.94
412.472	134.94
412.695	167.94
412.919	135.94
413.142	109.94
413.365	108.94
413.589	93.94
413.812	76.94
414.035	91.94
414.258	81.94
414.482	100.94
414.705	88.94
414.928	86.94
415.151	76.94
415.374	96.94
415.597	89.94
415.821	96.94
416.044	90.94
416.267	97.94
416.49	86.94
416.713	98.94
416.936	81.94
417.159	100.94
417.382	104.94
417.605	106.94
417.828	126.94
418.051	101.94
418.274	101.94
418.497	101.94
418.72	84.94
418.943	81.94
419.166	81.94
419.389	84.94
419.611	87.94
419.834	96.94
420.057	104.94
420.28	112.94
420.503	91.94
420.726	102.94
420.948	100.94
421.171	124.94
421.394	110.94
421.617	87.94
421.839	92.94
422.062	92.94
422.285	83.94
422.507	106.94
422.73	130.94
422.953	110.94
423.175	90.94
423.398	86.94
423.621	86.94
423.843	77.94
424.066	89.94
424.288	77.94
424.511	99.94
424.733	104.94
424.956	141.94
425.178	113.94
425.401	127.94
425.623	110.94
425.846	99.94
426.068	113.94
426.291	103.94
426.513	93.94
426.735	96.94
426.958	102.94
427.18	135.94
427.402	204.94
427.625	310.94
427.847	303.94
428.069	267.94
428.292	154.94
428.514	109.94
428.736	90.94
428.958	96.94
429.181	73.94
429.403	78.94
429.625	78.94
429.847	95.94
430.069	123.94
430.292	101.94
430.514	81.94
430.736	84.94
430.958	78.94
431.18	72.94
431.402	80.94
431.624	91.94
431.846	74.94
432.068	87.94
432.29	90.94
432.512	80.94
432.734	88.94
432.956	96.94
433.178	108.94
433.4	99.94
433.622	111.94
433.844	92.94
434.066	88.94
434.287	94.94
434.509	85.94
434.731	99.94
434.953	84.94
435.175	92.94
435.397	79.94
435.618	94.94
435.84	118.94
436.062	166.94
436.284	151.94
436.505	105.94
436.727	102.94
436.949	92.94
437.17	93.94
437.392	84.94
437.614	109.94
437.835	136.94
438.057	160.94
438.278	153.94
438.5	139.94
438.721	160.94
438.943	133.94
439.165	88.94
439.386	93.94
439.608	103.94
439.829	125.94
440.05	172.94
440.272	197.94
440.493	111.94
440.715	93.94
440.936	85.94
441.158	85.94
441.379	95.94
441.6	107.94
441.822	119.94
442.043	105.94
442.264	126.94
442.486	135.94
442.707	114.94
442.928	135.94
443.149	152.94
443.371	185.94
443.592	150.94
443.813	135.94
444.034	123.94
444.255	93.94
444.476	84.94
444.698	86.94
444.919	77.94
445.14	135.94
445.361	147.94
445.582	151.94
445.803	213.94
446.024	207.94
446.245	198.94
446.466	153.94
446.687	99.94
446.908	87.94
447.129	87.94
447.35	97.94
447.571	105.94
447.792	91.94
448.013	100.94
448.234	136.94
448.455	121.94
448.675	148.94
448.896	156.94
449.117	121.94
449.338	126.94
449.559	177.94
449.779	181.94
450	101.94
450.221	91.94
450.442	76.94
450.662	103.94
450.883	122.94
451.104	145.94
451.324	93.94
451.545	88.94
451.766	90.94
451.986	87.94
452.207	95.94
452.428	102.94
452.648	119.94
452.869	147.94
453.089	159.94
453.31	144.94
453.53	95.94
453.751	96.94
453.971	132.94
454.192	134.94
454.412	106.94
454.633	91.94
454.853	92.94
455.073	92.94
455.294	102.94
455.514	119.94
455.734	106.94
455.955	88.94
456.175	88.94
456.395	88.94
456.616	87.94
456.836	80.94
457.056	93.94
457.276	83.94
457.497	92.94
457.717	87.94
457.937	96.94
458.157	81.94
458.377	92.94
458.598	133.94
458.818	221.94
459.038	234.94
459.258	159.94
459.478	93.94
459.698	79.94
459.918	82.94
460.138	106.94
460.358	91.94
460.578	108.94
460.798	91.94
461.018	101.94
461.238	83.94
461.458	93.94
461.678	93.94
461.898	87.94
462.118	92.94
462.338	91.94
462.558	101.94
462.777	79.94
462.997	115.94
463.217	122.94
463.437	99.94
463.657	87.94
463.876	87.94
464.096	85.94
464.316	119.94
464.536	95.94
464.755	99.94
464.975	134.94
465.195	245.94
465.414	244.94
465.634	111.94
465.854	77.94
466.073	96.94
466.293	102.94
466.512	71.94
466.732	79.94
466.951	96.94
467.171	102.94
467.391	118.94
467.61	171.94
467.829	277.94
468.049	867.94
468.268	1414.94
468.488	310.94
468.707	125.94
468.927	107.94
469.146	92.94
469.365	95.94
469.585	95.94
469.804	112.94
470.023	102.94
470.243	115.94
470.462	111.94
470.681	157.94
470.901	110.94
471.12	112.94
471.339	119.94
471.558	130.94
471.777	203.94
471.997	402.94
472.216	1737.94
472.435	4201.94
472.654	959.94
472.873	222.94
473.092	122.94
473.311	108.94
473.53	96.94
473.749	98.94
473.968	107.94
474.187	136.94
474.406	109.94
474.625	92.94
474.844	102.94
475.063	90.94
475.282	100.94
475.501	78.94
475.72	111.94
475.939	85.94
476.158	87.94
476.377	103.94
476.596	96.94
476.814	96.94
477.033	100.94
477.252	82.94
477.471	93.94
477.69	91.94
477.908	96.94
478.127	108.94
478.346	93.94
478.564	100.94
478.783	126.94
479.002	118.94
479.22	117.94
479.439	140.94
479.658	140.94
479.876	136.94
480.095	126.94
480.313	158.94
480.532	206.94
480.751	384.94
480.969	1588.94
481.188	6805.94
481.406	4170.94
481.624	558.94
481.843	154.94
482.061	122.94
482.28	120.94
482.498	102.94
482.717	110.94
482.935	106.94
483.153	87.94
483.372	90.94
483.59	90.94
483.808	98.94
484.027	92.94
484.245	99.94
484.463	100.94
484.681	96.94
484.9	84.94
485.118	103.94
485.336	107.94
485.554	101.94
485.772	93.94
485.99	109.94
486.209	104.94
486.427	112.94
486.645	127.94
486.863	140.94
487.081	112.94
487.299	116.94
487.517	83.94
487.735	93.94
487.953	97.94
488.171	124.94
488.389	109.94
488.607	102.94
488.825	98.94
489.043	84.94
489.261	98.94
489.479	91.94
489.696	88.94
489.914	100.94
490.132	101.94
490.35	79.94
490.568	82.94
490.786	95.94
491.003	78.94
491.221	101.94
491.439	103.94
491.657	106.94
491.874	88.94
492.092	97.94
492.31	119.94
492.527	125.94
492.745	94.94
492.963	79.94
493.18	87.94
493.398	91.94
493.615	94.94
493.833	100.94
494.05	102.94
494.268	96.94
494.485	102.94
494.703	83.94
494.92	85.94
495.138	96.94
495.355	98.94
495.573	79.94
495.79	99.94
496.008	85.94
496.225	95.94
496.442	97.94
496.66	89.94
496.877	70.94
497.094	91.94
497.312	88.94
497.529	92.94
497.746	75.94
497.963	86.94
498.181	81.94
498.398	100.94
498.615	124.94
498.832	101.94
499.049	90.94
499.267	99.94
499.484	99.94
499.701	95.94
499.918	86.94
500.135	92.94
500.352	103.94
500.569	107.94
500.786	103.94
501.003	95.94
501.22	98.94
501.437	91.94
501.654	93.94
501.871	126.94
502.088	92.94
502.305	92.94
502.522	81.94
502.739	94.94
502.956	95.94
503.172	102.94
503.389	105.94
503.606	124.94
503.823	108.94
504.04	93.94
504.256	99.94
504.473	96.94
504.69	96.94
504.907	96.94
505.123	88.94
505.34	85.94
505.557	79.94
505.773	86.94
505.99	84.94
506.207	88.94
506.423	80.94
506.64	88.94
506.856	104.94
507.073	93.94
507.289	106.94
507.506	100.94
507.722	140.94
507.939	138.94
508.155	93.94
508.372	85.94
508.588	96.94
508.805	91.94
509.021	92.94
509.238	106.94
509.454	117.94
509.67	119.94
509.887	123.94
510.103	136.94
510.319	247.94
510.536	966.94
510.752	3286.94
510.968	932.94
511.184	188.94
511.401	122.94
511.617	112.94
511.833	140.94
512.049	108.94
512.265	84.94
512.481	82.94
512.698	101.94
