Data from Circ_2023_H10_HRD10591_00055.txt Node
Date: Wed Jan 03 09:50:42 EST 2024
User: Yrep
Spectrometer: HR+D1059
Trigger mode: 1
Integration Time (sec): 1.000000E-1
Scans to average: 1
Electric dark correction enabled: true
Nonlinearity correction enabled: false
Boxcar width: 0
XAxis mode: Wavelengths
Number of Pixels in Spectrum: 2048
>>>>>Begin Spectral Data<<<<<
223.165	-21
223.4	-21
223.635	-21
223.869	-10
224.104	-30
224.338	-20
224.573	-14
224.808	-2
225.042	-17
225.277	-5
225.511	-2
225.746	8
225.98	18
226.215	5
226.449	13
226.683	17
226.918	36
227.152	24
227.387	49
227.621	24
227.856	39
228.09	58
228.324	50
228.559	66
228.793	67
229.027	68
229.262	80
229.496	84
229.73	109
229.964	101
230.199	74
230.433	78
230.667	90
230.901	86
231.136	86
231.37	85
231.604	93
231.838	88
232.072	89
232.306	85
232.541	73
232.775	84
233.009	96
233.243	90
233.477	96
233.711	88
233.945	75
234.179	97
234.413	95
234.647	86
234.881	90
235.115	88
235.349	98
235.583	84
235.817	73
236.051	88
236.285	83
236.519	88
236.753	91
236.987	85
237.221	98
237.455	99
237.689	92
237.922	81
238.156	65
238.39	83
238.624	72
238.858	85
239.091	74
239.325	86
239.559	85
239.793	80
240.027	91
240.26	78
240.494	78
240.728	83
240.961	74
241.195	89
241.429	93
241.662	71
241.896	79
242.13	75
242.363	83
242.597	75
242.83	81
243.064	85
243.298	86
243.531	94
243.765	90
243.998	82
244.232	89
244.465	83
244.699	90
244.932	85
245.166	87
245.399	81
245.633	90
245.866	86
246.099	92
246.333	88
246.566	90
246.8	95
247.033	84
247.266	82
247.5	84
247.733	88
247.966	91
248.2	91
248.433	91
248.666	88
248.899	87
249.133	101
249.366	127
249.599	129
249.832	81
250.066	83
250.299	93
250.532	91
250.765	78
250.998	83
251.231	79
251.465	92
251.698	95
251.931	84
252.164	96
252.397	95
252.63	77
252.863	109
253.096	83
253.329	93
253.562	97
253.795	79
254.028	77
254.261	99
254.494	95
254.727	84
254.96	91
255.193	82
255.426	98
255.659	99
255.892	103
256.124	115
256.357	91
256.59	94
256.823	92
257.056	98
257.289	112
257.521	107
257.754	87
257.987	96
258.22	90
258.452	112
258.685	103
258.918	89
259.151	99
259.383	87
259.616	86
259.849	99
260.081	81
260.314	88
260.547	97
260.779	116
261.012	131
261.244	133
261.477	114
261.71	117
261.942	153
262.175	141
262.407	104
262.64	98
262.872	83
263.105	94
263.337	97
263.57	94
263.802	92
264.035	83
264.267	104
264.499	82
264.732	87
264.964	94
265.197	103
265.429	97
265.661	83
265.894	88
266.126	106
266.358	83
266.591	101
266.823	87
267.055	82
267.287	96
267.52	86
267.752	93
267.984	94
268.216	84
268.448	94
268.681	88
268.913	101
269.145	96
269.377	93
269.609	82
269.841	99
270.073	90
270.306	75
270.538	86
270.77	80
271.002	89
271.234	95
271.466	112
271.698	114
271.93	99
272.162	96
272.394	103
272.626	101
272.858	85
273.09	95
273.322	91
273.553	99
273.785	106
274.017	99
274.249	100
274.481	79
274.713	82
274.945	93
275.176	106
275.408	128
275.64	126
275.872	165
276.104	125
276.335	114
276.567	136
276.799	175
277.031	230
277.262	254
277.494	184
277.726	114
277.957	108
278.189	110
278.421	109
278.652	104
278.884	116
279.115	98
279.347	98
279.579	107
279.81	146
280.042	245
280.273	356
280.505	226
280.736	121
280.968	122
281.199	109
281.431	87
281.662	91
281.894	87
282.125	114
282.356	162
282.588	203
282.819	164
283.051	95
283.282	94
283.513	101
283.745	89
283.976	91
284.207	95
284.439	89
284.67	97
284.901	82
285.132	98
285.364	91
285.595	93
285.826	92
286.057	95
286.288	94
286.52	99
286.751	93
286.982	96
287.213	91
287.444	93
287.675	92
287.906	92
288.138	90
288.369	113
288.6	110
288.831	89
289.062	89
289.293	105
289.524	99
289.755	77
289.986	83
290.217	91
290.448	85
290.679	104
290.91	100
291.141	88
291.371	95
291.602	105
291.833	95
292.064	96
292.295	84
292.526	88
292.757	97
292.987	86
293.218	103
293.449	92
293.68	100
293.91	88
294.141	97
294.372	95
294.603	105
294.833	90
295.064	92
295.295	108
295.525	114
295.756	119
295.987	139
296.217	180
296.448	164
296.679	114
296.909	96
297.14	103
297.37	99
297.601	107
297.831	112
298.062	96
298.292	108
298.523	89
298.753	93
298.984	83
299.214	92
299.445	94
299.675	93
299.905	91
300.136	95
300.366	86
300.597	98
300.827	92
301.057	120
301.288	122
301.518	113
301.748	108
301.979	114
302.209	128
302.439	101
302.669	98
302.9	98
303.13	103
303.36	136
303.59	143
303.82	165
304.051	112
304.281	119
304.511	98
304.741	105
304.971	105
305.201	92
305.431	93
305.661	96
305.891	103
306.121	97
306.352	135
306.582	128
306.812	114
307.042	140
307.272	206
307.502	204
307.731	196
307.961	154
308.191	96
308.421	101
308.651	88
308.881	89
309.111	102
309.341	113
309.571	106
309.8	114
310.03	121
310.26	121
310.49	109
310.72	121
310.949	142
311.179	135
311.409	93
311.639	110
311.868	125
312.098	103
312.328	97
312.557	126
312.787	133
313.017	133
313.246	106
313.476	95
313.706	100
313.935	122
314.165	127
314.394	134
314.624	134
314.853	137
315.083	113
315.312	91
315.542	95
315.771	104
316.001	93
316.23	104
316.46	97
316.689	94
316.919	106
317.148	125
317.377	129
317.607	112
317.836	118
318.065	87
318.295	89
318.524	91
318.753	103
318.983	115
319.212	118
319.441	140
319.67	122
319.9	107
320.129	115
320.358	109
320.587	98
320.816	104
321.046	134
321.275	117
321.504	94
321.733	112
321.962	116
322.191	142
322.42	126
322.649	130
322.878	144
323.108	134
323.337	170
323.566	189
323.795	204
324.024	296
324.253	551
324.482	1207
324.71	2478
324.939	3263
325.168	1206
325.397	352
325.626	199
325.855	176
326.084	162
326.313	167
326.542	190
326.77	332
326.999	603
327.228	1273
327.457	2296
327.686	1855
327.914	704
328.143	718
328.372	915
328.6	490
328.829	244
329.058	217
329.287	258
329.515	202
329.744	330
329.972	641
330.201	1376
330.43	2026
330.658	905
330.887	360
331.115	239
331.344	142
331.572	148
331.801	157
332.03	155
332.258	133
332.486	137
332.715	115
332.943	137
333.172	141
333.4	140
333.629	210
333.857	275
334.085	600
334.314	1245
334.542	2467
334.771	2339
334.999	595
335.227	210
335.455	136
335.684	139
335.912	124
336.14	130
336.369	123
336.597	130
336.825	120
337.053	104
337.281	107
337.51	122
337.738	113
337.966	110
338.194	127
338.422	112
338.65	94
338.878	101
339.106	102
339.334	98
339.562	102
339.79	103
340.018	93
340.246	108
340.474	128
340.702	92
340.93	103
341.158	100
341.386	112
341.614	125
341.842	118
342.07	106
342.298	98
342.526	102
342.754	92
342.981	82
343.209	91
343.437	106
343.665	94
343.893	94
344.12	90
344.348	101
344.576	97
344.804	109
345.031	120
345.259	118
345.487	125
345.714	110
345.942	103
346.17	84
346.397	98
346.625	104
346.853	116
347.08	87
347.308	99
347.535	122
347.763	128
347.99	132
348.218	126
348.445	130
348.673	136
348.9	112
349.128	104
349.355	90
349.583	89
349.81	105
350.037	96
350.265	92
350.492	102
350.72	105
350.947	114
351.174	132
351.402	135
351.629	124
351.856	123
352.083	117
352.311	119
352.538	134
352.765	117
352.992	128
353.22	141
353.447	132
353.674	118
353.901	98
354.128	96
354.355	105
354.583	109
354.81	105
355.037	101
355.264	101
355.491	90
355.718	99
355.945	96
356.172	89
356.399	95
356.626	94
356.853	90
357.08	88
357.307	104
357.534	97
357.761	88
357.988	105
358.215	96
358.441	104
358.668	79
358.895	93
359.122	95
359.349	93
359.576	117
359.802	129
360.029	164
360.256	167
360.483	122
360.709	91
360.936	112
361.163	100
361.39	116
361.616	120
361.843	98
362.07	115
362.296	120
362.523	98
362.749	107
362.976	95
363.203	102
363.429	98
363.656	97
363.882	101
364.109	101
364.335	104
364.562	99
364.788	113
365.015	101
365.241	112
365.468	128
365.694	128
365.92	107
366.147	108
366.373	87
366.599	101
366.826	100
367.052	100
367.278	99
367.505	101
367.731	100
367.957	96
368.184	93
368.41	126
368.636	139
368.862	147
369.089	131
369.315	123
369.541	103
369.767	88
369.993	112
370.219	106
370.445	98
370.672	108
370.898	99
371.124	91
371.35	94
371.576	99
371.802	86
372.028	87
372.254	91
372.48	100
372.706	81
372.932	94
373.158	101
373.384	105
373.61	102
373.835	107
374.061	92
374.287	113
374.513	85
374.739	99
374.965	90
375.191	82
375.416	84
375.642	83
375.868	98
376.094	104
376.319	94
376.545	83
376.771	98
376.997	90
377.222	97
377.448	96
377.674	103
377.899	84
378.125	96
378.35	98
378.576	99
378.802	86
379.027	101
379.253	86
379.478	93
379.704	99
379.929	93
380.155	97
380.38	93
380.606	105
380.831	112
381.057	95
381.282	85
381.507	96
381.733	90
381.958	114
382.184	101
382.409	102
382.634	106
382.86	103
383.085	109
383.31	103
383.535	90
383.761	102
383.986	101
384.211	100
384.436	88
384.662	94
384.887	104
385.112	99
385.337	96
385.562	103
385.787	120
386.013	122
386.238	126
386.463	114
386.688	117
386.913	93
387.138	99
387.363	91
387.588	105
387.813	95
388.038	114
388.263	94
388.488	114
388.713	96
388.938	102
389.163	91
389.387	115
389.612	107
389.837	104
390.062	96
390.287	99
390.512	107
390.736	86
390.961	76
391.186	98
391.411	91
391.636	106
391.86	88
392.085	100
392.31	99
392.534	102
392.759	92
392.984	97
393.208	90
393.433	98
393.658	92
393.882	87
394.107	99
394.331	77
394.556	82
394.78	88
395.005	81
395.229	82
395.454	101
395.678	108
395.903	105
396.127	103
396.352	97
396.576	89
396.801	92
397.025	82
397.249	92
397.474	89
397.698	87
397.922	94
398.147	92
398.371	78
398.595	97
398.82	91
399.044	92
399.268	97
399.492	105
399.717	103
399.941	102
400.165	99
400.389	103
400.613	97
400.837	96
401.062	98
401.286	93
401.51	111
401.734	95
401.958	103
402.182	172
402.406	242
402.63	169
402.854	119
403.078	92
403.302	102
403.526	85
403.75	90
403.974	80
404.198	96
404.422	101
404.645	114
404.869	102
405.093	128
405.317	160
405.541	146
405.765	138
405.988	141
406.212	257
406.436	372
406.66	256
406.883	141
407.107	101
407.331	128
407.555	118
407.778	129
408.002	101
408.226	99
408.449	103
408.673	97
408.896	107
409.12	109
409.344	95
409.567	102
409.791	94
410.014	91
410.238	95
410.461	94
410.685	92
410.908	101
411.132	101
411.355	105
411.578	109
411.802	94
412.025	105
412.249	109
412.472	133
412.695	164
412.919	130
413.142	111
413.365	108
413.589	76
413.812	83
414.035	105
414.258	99
414.482	106
414.705	91
414.928	90
415.151	99
415.374	92
415.597	99
415.821	90
416.044	89
416.267	91
416.49	87
416.713	97
416.936	108
417.159	102
417.382	106
417.605	121
417.828	118
418.051	108
418.274	99
418.497	96
418.72	88
418.943	100
419.166	89
419.389	87
419.611	86
419.834	100
420.057	104
420.28	100
420.503	104
420.726	94
420.948	99
421.171	121
421.394	94
421.617	112
421.839	97
422.062	86
422.285	94
422.507	117
422.73	119
422.953	106
423.175	95
423.398	97
423.621	99
423.843	79
424.066	103
424.288	97
424.511	107
424.733	109
424.956	146
425.178	126
425.401	120
425.623	113
425.846	109
426.068	112
426.291	109
426.513	110
426.735	104
426.958	99
427.18	145
427.402	185
427.625	306
427.847	281
428.069	260
428.292	140
428.514	105
428.736	106
428.958	90
429.181	91
429.403	95
429.625	92
429.847	122
430.069	125
430.292	106
430.514	98
430.736	93
430.958	100
431.18	89
431.402	97
431.624	87
431.846	96
432.068	92
432.29	88
432.512	90
432.734	100
432.956	101
433.178	97
433.4	98
433.622	90
433.844	103
434.066	102
434.287	99
434.509	105
434.731	116
434.953	107
435.175	78
435.397	100
435.618	88
435.84	126
436.062	140
436.284	145
436.505	97
436.727	104
436.949	104
437.17	101
437.392	116
437.614	106
437.835	137
438.057	179
438.278	152
438.5	133
438.721	169
438.943	132
439.165	103
439.386	106
439.608	103
439.829	106
440.05	163
440.272	214
440.493	107
440.715	87
440.936	84
441.158	86
441.379	99
441.6	108
441.822	114
442.043	108
442.264	134
442.486	130
442.707	123
442.928	156
443.149	201
443.371	192
443.592	149
443.813	161
444.034	139
444.255	108
444.476	75
444.698	95
444.919	86
445.14	160
445.361	138
445.582	163
445.803	207
446.024	209
446.245	202
446.466	124
446.687	107
446.908	92
447.129	112
447.35	100
447.571	93
447.792	104
448.013	117
448.234	134
448.455	124
448.675	138
448.896	162
449.117	123
449.338	115
449.559	147
449.779	187
450	103
450.221	112
450.442	105
450.662	117
450.883	153
451.104	164
451.324	124
451.545	107
451.766	109
451.986	94
452.207	107
452.428	110
452.648	117
452.869	134
453.089	149
453.31	174
453.53	132
453.751	112
453.971	126
454.192	152
454.412	132
454.633	91
454.853	103
455.073	97
455.294	105
455.514	122
455.734	116
455.955	97
456.175	103
456.395	90
456.616	89
456.836	101
457.056	84
457.276	97
457.497	97
457.717	100
457.937	89
458.157	102
458.377	114
458.598	152
458.818	224
459.038	278
459.258	186
459.478	100
459.698	105
459.918	101
460.138	86
460.358	83
460.578	103
460.798	93
461.018	91
461.238	92
461.458	92
461.678	110
461.898	119
462.118	93
462.338	97
462.558	108
462.777	96
462.997	103
463.217	113
463.437	108
463.657	99
463.876	101
464.096	109
464.316	116
464.536	130
464.755	106
464.975	148
465.195	284
465.414	314
465.634	124
465.854	98
466.073	107
466.293	95
466.512	98
466.732	92
466.951	108
467.171	110
467.391	141
467.61	187
467.829	267
468.049	749
468.268	1211
468.488	278
468.707	121
468.927	94
469.146	85
469.365	92
469.585	113
469.804	107
470.023	127
470.243	122
470.462	145
470.681	158
470.901	128
471.12	114
471.339	117
471.558	142
471.777	200
471.997	395
472.216	1481
472.435	3451
472.654	832
472.873	193
473.092	106
473.311	96
473.53	89
473.749	122
473.968	128
474.187	126
474.406	149
474.625	100
474.844	89
475.063	85
475.282	96
475.501	93
475.72	96
475.939	72
476.158	92
476.377	92
476.596	102
476.814	117
477.033	116
477.252	110
477.471	107
477.69	103
477.908	94
478.127	118
478.346	93
478.564	106
478.783	132
479.002	108
479.22	115
479.439	142
479.658	162
479.876	137
480.095	131
480.313	165
480.532	200
480.751	369
480.969	1304
481.188	5727
481.406	3548
481.624	478
481.843	157
482.061	128
482.28	100
482.498	104
482.717	101
482.935	108
483.153	104
483.372	101
483.59	108
483.808	94
484.027	93
484.245	105
484.463	99
484.681	105
484.9	101
485.118	85
485.336	98
485.554	104
485.772	113
485.99	98
486.209	133
486.427	123
486.645	135
486.863	152
487.081	118
487.299	113
487.517	103
487.735	100
487.953	105
488.171	103
488.389	112
488.607	122
488.825	113
489.043	95
489.261	85
489.479	112
489.696	101
489.914	96
490.132	89
490.35	101
490.568	93
490.786	87
491.003	87
491.221	100
491.439	120
491.657	102
491.874	95
492.092	101
492.31	101
492.527	123
492.745	103
492.963	99
493.18	101
493.398	100
493.615	105
493.833	102
494.05	93
494.268	107
494.485	99
494.703	105
494.92	85
495.138	89
495.355	100
495.573	84
495.79	97
496.008	107
496.225	107
496.442	105
496.66	100
496.877	108
497.094	92
497.312	99
497.529	87
497.746	95
497.963	107
498.181	94
498.398	108
498.615	125
498.832	124
499.049	101
499.267	111
499.484	98
499.701	99
499.918	91
500.135	92
500.352	78
500.569	96
500.786	101
501.003	103
501.22	90
501.437	101
501.654	105
501.871	146
502.088	114
502.305	108
502.522	102
502.739	93
502.956	105
503.172	116
503.389	112
503.606	151
503.823	116
504.04	97
504.256	96
504.473	103
504.69	100
504.907	102
505.123	99
505.34	109
505.557	93
505.773	106
505.99	104
506.207	102
506.423	108
506.64	99
506.856	106
507.073	94
507.289	96
507.506	125
507.722	146
507.939	164
508.155	116
508.372	103
508.588	105
508.805	109
509.021	108
509.238	130
509.454	107
509.67	131
509.887	131
510.103	172
510.319	300
510.536	1153
510.752	4157
510.968	1146
511.184	226
511.401	148
511.617	112
511.833	130
512.049	113
512.265	98
512.481	98
512.698	106
512.914	120
513.13	105
513.346	102
513.562	107
513.778	109
513.994	105
514.21	137
514.426	188
514.642	214
514.858	197
515.074	268
515.29	930
515.506	3480
515.721	1270
515.937	276
516.153	155
516.369	144
516.585	120
516.801	129
517.016	114
517.232	107
517.448	107
517.664	116
517.879	109
518.095	113
518.311	122
518.527	116
518.742	107
518.958	109
519.173	107
519.389	124
519.605	112
519.82	123
520.036	110
520.251	176
520.467	166
520.682	122
520.898	136
521.113	165
521.329	218
521.544	376
521.76	1230
521.975	5717
522.19	3548
522.406	673
522.621	192
522.836	140
523.052	117
523.267	100
523.482	119
523.698	119
523.913	169
524.128	137
524.343	96
524.559	99
524.774	104
524.989	101
525.204	126
525.419	116
525.634	107
525.849	107
526.064	76
526.28	92
526.495	105
526.71	101
526.925	103
527.14	99
527.355	100
527.57	100
527.785	87
527.999	96
528.214	112
528.429	103
528.644	102
528.859	109
529.074	108
529.289	184
529.503	353
529.718	159
529.933	106
530.148	101
530.363	105
530.577	103
530.792	95
531.007	107
531.221	116
531.436	101
531.651	99
531.865	99
532.08	96
532.295	98
532.509	102
532.724	109
532.938	100
533.153	105
533.367	97
533.582	103
533.796	93
534.011	97
534.225	99
534.44	100
534.654	101
534.868	110
535.083	95
535.297	105
535.511	115
535.726	141
535.94	105
536.154	110
536.369	92
536.583	117
536.797	109
537.011	86
537.225	102
537.44	98
537.654	90
537.868	89
538.082	94
538.296	101
538.51	87
538.724	105
538.938	106
539.153	93
539.367	138
539.581	100
539.795	96
540.009	93
540.222	97
540.436	111
540.65	97
540.864	99
541.078	109
541.292	109
541.506	93
541.72	97
541.934	100
542.147	85
542.361	92
542.575	100
542.789	96
543.002	97
543.216	111
543.43	108
543.644	101
543.857	98
544.071	116
544.285	84
544.498	98
544.712	105
544.925	92
545.139	100
545.352	96
545.566	97
545.779	92
545.993	100
546.206	94
546.42	97
546.633	106
546.847	96
547.06	94
547.274	87
547.487	82
547.7	103
547.914	109
548.127	105
548.34	85
548.554	91
548.767	93
548.98	84
549.193	96
549.407	94
549.62	85
549.833	102
550.046	92
550.259	104
550.473	97
550.686	103
550.899	90
551.112	100
551.325	92
551.538	112
551.751	99
551.964	103
552.177	96
552.39	101
552.603	105
552.816	86
553.029	100
553.242	97
553.455	113
553.667	124
553.88	135
554.093	106
554.306	123
554.519	126
554.732	102
554.944	100
555.157	99
555.37	89
555.583	89
555.795	113
556.008	112
556.221	91
556.433	100
556.646	104
556.859	103
557.071	97
557.284	96
557.496	96
557.709	92
557.921	83
558.134	86
558.346	98
558.559	91
558.771	97
558.984	93
559.196	119
559.409	108
559.621	105
559.833	110
560.046	108
560.258	118
560.47	164
560.683	120
560.895	89
561.107	102
561.32	92
561.532	113
561.744	103
561.956	105
562.168	106
562.381	97
562.593	87
562.805	90
563.017	106
563.229	94
563.441	100
563.653	96
563.865	90
564.077	92
564.289	97
564.501	100
564.713	101
564.925	112
565.137	125
565.349	98
565.561	94
565.773	82
565.985	87
566.197	94
566.408	89
566.62	82
566.832	100
567.044	90
567.255	94
567.467	106
567.679	98
567.891	97
568.102	97
568.314	90
568.526	100
568.737	91
568.949	92
569.161	89
569.372	101
569.584	95
569.795	102
570.007	142
570.218	364
570.43	174
570.641	93
570.853	86
571.064	89
571.276	98
571.487	99
571.698	92
571.91	89
572.121	86
572.333	102
572.544	93
572.755	91
572.966	92
573.178	86
573.389	85
573.6	96
573.811	100
574.023	96
574.234	112
574.445	85
574.656	91
574.867	77
575.078	89
