Data from Circ_2023_H10_HRD10591_00031.txt Node
Date: Wed Jan 03 09:50:37 EST 2024
User: Yrep
Spectrometer: HR+D1059
Trigger mode: 1
Integration Time (sec): 1.000000E-1
Scans to average: 1
Electric dark correction enabled: true
Nonlinearity correction enabled: false
Boxcar width: 0
XAxis mode: Wavelengths
Number of Pixels in Spectrum: 2048
>>>>>Begin Spectral Data<<<<<
223.165	-18.31
223.4	-18.31
223.635	-18.31
223.869	-8.31
224.104	-7.31
224.338	-14.31
224.573	-27.31
224.808	-8.31
225.042	-8.31
225.277	-4.31
225.511	8.69
225.746	-0.31
225.98	-6.31
226.215	15.69
226.449	17.69
226.683	16.69
226.918	11.69
227.152	32.69
227.387	39.69
227.621	39.69
227.856	35.69
228.09	52.69
228.324	65.69
228.559	43.69
228.793	34.69
229.027	46.69
229.262	71.69
229.496	95.69
229.73	102.69
229.964	88.69
230.199	62.69
230.433	87.69
230.667	75.69
230.901	77.69
231.136	65.69
231.37	71.69
231.604	76.69
231.838	79.69
232.072	60.69
232.306	78.69
232.541	83.69
232.775	77.69
233.009	88.69
233.243	73.69
233.477	92.69
233.711	85.69
233.945	83.69
234.179	91.69
234.413	74.69
234.647	79.69
234.881	74.69
235.115	68.69
235.349	77.69
235.583	78.69
235.817	84.69
236.051	70.69
236.285	66.69
236.519	76.69
236.753	79.69
236.987	86.69
237.221	103.69
237.455	102.69
237.689	65.69
237.922	91.69
238.156	84.69
238.39	79.69
238.624	66.69
238.858	68.69
239.091	71.69
239.325	70.69
239.559	76.69
239.793	84.69
240.027	84.69
240.26	88.69
240.494	71.69
240.728	72.69
240.961	71.69
241.195	81.69
241.429	79.69
241.662	71.69
241.896	86.69
242.13	71.69
242.363	65.69
242.597	67.69
242.83	76.69
243.064	83.69
243.298	85.69
243.531	74.69
243.765	88.69
243.998	87.69
244.232	91.69
244.465	83.69
244.699	87.69
244.932	70.69
245.166	77.69
245.399	75.69
245.633	78.69
245.866	86.69
246.099	72.69
246.333	69.69
246.566	76.69
246.8	78.69
247.033	75.69
247.266	77.69
247.5	88.69
247.733	86.69
247.966	67.69
248.2	80.69
248.433	79.69
248.666	71.69
248.899	73.69
249.133	93.69
249.366	109.69
249.599	102.69
249.832	85.69
250.066	97.69
250.299	81.69
250.532	86.69
250.765	93.69
250.998	88.69
251.231	82.69
251.465	70.69
251.698	78.69
251.931	81.69
252.164	70.69
252.397	68.69
252.63	77.69
252.863	84.69
253.096	83.69
253.329	74.69
253.562	72.69
253.795	80.69
254.028	84.69
254.261	76.69
254.494	83.69
254.727	72.69
254.96	80.69
255.193	79.69
255.426	77.69
255.659	86.69
255.892	104.69
256.124	95.69
256.357	93.69
256.59	88.69
256.823	91.69
257.056	73.69
257.289	100.69
257.521	85.69
257.754	85.69
257.987	84.69
258.22	76.69
258.452	109.69
258.685	109.69
258.918	81.69
259.151	79.69
259.383	81.69
259.616	96.69
259.849	85.69
260.081	76.69
260.314	82.69
260.547	90.69
260.779	96.69
261.012	106.69
261.244	120.69
261.477	113.69
261.71	112.69
261.942	125.69
262.175	144.69
262.407	104.69
262.64	79.69
262.872	85.69
263.105	101.69
263.337	87.69
263.57	84.69
263.802	82.69
264.035	88.69
264.267	84.69
264.499	92.69
264.732	82.69
264.964	85.69
265.197	94.69
265.429	84.69
265.661	72.69
265.894	67.69
266.126	64.69
266.358	92.69
266.591	91.69
266.823	86.69
267.055	90.69
267.287	79.69
267.52	92.69
267.752	79.69
267.984	86.69
268.216	75.69
268.448	81.69
268.681	79.69
268.913	99.69
269.145	100.69
269.377	96.69
269.609	98.69
269.841	75.69
270.073	87.69
270.306	87.69
270.538	82.69
270.77	92.69
271.002	89.69
271.234	83.69
271.466	81.69
271.698	78.69
271.93	63.69
272.162	88.69
272.394	88.69
272.626	85.69
272.858	72.69
273.09	79.69
273.322	83.69
273.553	72.69
273.785	80.69
274.017	83.69
274.249	93.69
274.481	91.69
274.713	85.69
274.945	89.69
275.176	84.69
275.408	99.69
275.64	122.69
275.872	133.69
276.104	121.69
276.335	91.69
276.567	109.69
276.799	140.69
277.031	179.69
277.262	198.69
277.494	150.69
277.726	109.69
277.957	90.69
278.189	96.69
278.421	91.69
278.652	87.69
278.884	100.69
279.115	95.69
279.347	108.69
279.579	98.69
279.81	142.69
280.042	192.69
280.273	290.69
280.505	195.69
280.736	115.69
280.968	102.69
281.199	81.69
281.431	87.69
281.662	93.69
281.894	88.69
282.125	97.69
282.356	127.69
282.588	177.69
282.819	142.69
283.051	80.69
283.282	85.69
283.513	94.69
283.745	110.69
283.976	81.69
284.207	86.69
284.439	84.69
284.67	91.69
284.901	84.69
285.132	96.69
285.364	81.69
285.595	83.69
285.826	81.69
286.057	81.69
286.288	85.69
286.52	86.69
286.751	69.69
286.982	93.69
287.213	85.69
287.444	91.69
287.675	95.69
287.906	79.69
288.138	74.69
288.369	77.69
288.6	83.69
288.831	99.69
289.062	85.69
289.293	78.69
289.524	73.69
289.755	99.69
289.986	88.69
290.217	87.69
290.448	84.69
290.679	92.69
290.91	89.69
291.141	84.69
291.371	92.69
291.602	72.69
291.833	75.69
292.064	85.69
292.295	78.69
292.526	99.69
292.757	107.69
292.987	88.69
293.218	88.69
293.449	87.69
293.68	83.69
293.91	84.69
294.141	105.69
294.372	86.69
294.603	87.69
294.833	85.69
295.064	86.69
295.295	104.69
295.525	88.69
295.756	102.69
295.987	126.69
296.217	153.69
296.448	132.69
296.679	96.69
296.909	96.69
297.14	93.69
297.37	80.69
297.601	102.69
297.831	107.69
298.062	97.69
298.292	86.69
298.523	98.69
298.753	95.69
298.984	79.69
299.214	81.69
299.445	95.69
299.675	107.69
299.905	98.69
300.136	93.69
300.366	79.69
300.597	93.69
300.827	84.69
301.057	103.69
301.288	102.69
301.518	108.69
301.748	77.69
301.979	108.69
302.209	91.69
302.439	84.69
302.669	83.69
302.9	91.69
303.13	88.69
303.36	101.69
303.59	136.69
303.82	148.69
304.051	107.69
304.281	78.69
304.511	82.69
304.741	88.69
304.971	83.69
305.201	88.69
305.431	96.69
305.661	89.69
305.891	96.69
306.121	98.69
306.352	113.69
306.582	121.69
306.812	109.69
307.042	131.69
307.272	171.69
307.502	175.69
307.731	172.69
307.961	129.69
308.191	86.69
308.421	83.69
308.651	91.69
308.881	95.69
309.111	89.69
309.341	96.69
309.571	112.69
309.8	96.69
310.03	96.69
310.26	97.69
310.49	94.69
310.72	108.69
310.949	113.69
311.179	116.69
311.409	87.69
311.639	100.69
311.868	106.69
312.098	97.69
312.328	85.69
312.557	116.69
312.787	122.69
313.017	114.69
313.246	103.69
313.476	95.69
313.706	97.69
313.935	100.69
314.165	112.69
314.394	112.69
314.624	94.69
314.853	102.69
315.083	103.69
315.312	102.69
315.542	91.69
315.771	92.69
316.001	84.69
316.23	97.69
316.46	86.69
316.689	84.69
316.919	96.69
317.148	111.69
317.377	108.69
317.607	95.69
317.836	95.69
318.065	98.69
318.295	90.69
318.524	88.69
318.753	93.69
318.983	97.69
319.212	117.69
319.441	106.69
319.67	124.69
319.9	103.69
320.129	92.69
320.358	85.69
320.587	103.69
320.816	104.69
321.046	110.69
321.275	112.69
321.504	92.69
321.733	76.69
321.962	86.69
322.191	97.69
322.42	112.69
322.649	127.69
322.878	130.69
323.108	122.69
323.337	132.69
323.566	151.69
323.795	175.69
324.024	257.69
324.253	512.69
324.482	1100.69
324.71	2259.69
324.939	3077.69
325.168	1106.69
325.397	311.69
325.626	181.69
325.855	141.69
326.084	142.69
326.313	147.69
326.542	182.69
326.77	295.69
326.999	596.69
327.228	1205.69
327.457	2241.69
327.686	1835.69
327.914	611.69
328.143	612.69
328.372	753.69
328.6	430.69
328.829	205.69
329.058	186.69
329.287	225.69
329.515	198.69
329.744	263.69
329.972	521.69
330.201	1094.69
330.43	1630.69
330.658	760.69
330.887	303.69
331.115	210.69
331.344	136.69
331.572	119.69
331.801	135.69
332.03	136.69
332.258	117.69
332.486	108.69
332.715	112.69
332.943	114.69
333.172	121.69
333.4	137.69
333.629	184.69
333.857	251.69
334.085	476.69
334.314	1013.69
334.542	1983.69
334.771	1983.69
334.999	514.69
335.227	187.69
335.455	139.69
335.684	127.69
335.912	108.69
336.14	126.69
336.369	102.69
336.597	127.69
336.825	116.69
337.053	91.69
337.281	87.69
337.51	83.69
337.738	86.69
337.966	96.69
338.194	111.69
338.422	102.69
338.65	97.69
338.878	96.69
339.106	90.69
339.334	95.69
339.562	89.69
339.79	100.69
340.018	91.69
340.246	97.69
340.474	91.69
340.702	95.69
340.93	103.69
341.158	91.69
341.386	102.69
341.614	99.69
341.842	98.69
342.07	108.69
342.298	100.69
342.526	85.69
342.754	88.69
342.981	92.69
343.209	80.69
343.437	103.69
343.665	91.69
343.893	88.69
344.12	102.69
344.348	86.69
344.576	93.69
344.804	88.69
345.031	88.69
345.259	100.69
345.487	94.69
345.714	88.69
345.942	99.69
346.17	93.69
346.397	92.69
346.625	88.69
346.853	88.69
347.08	91.69
347.308	89.69
347.535	91.69
347.763	128.69
347.99	107.69
348.218	120.69
348.445	111.69
348.673	120.69
348.9	93.69
349.128	85.69
349.355	87.69
349.583	89.69
349.81	103.69
350.037	94.69
350.265	90.69
350.492	100.69
350.72	110.69
350.947	102.69
351.174	125.69
351.402	130.69
351.629	99.69
351.856	120.69
352.083	109.69
352.311	116.69
352.538	128.69
352.765	110.69
352.992	127.69
353.22	120.69
353.447	107.69
353.674	104.69
353.901	99.69
354.128	100.69
354.355	93.69
354.583	109.69
354.81	97.69
355.037	81.69
355.264	97.69
355.491	80.69
355.718	84.69
355.945	92.69
356.172	91.69
356.399	71.69
356.626	103.69
356.853	77.69
357.08	94.69
357.307	92.69
357.534	99.69
357.761	101.69
357.988	102.69
358.215	87.69
358.441	77.69
358.668	108.69
358.895	85.69
359.122	101.69
359.349	99.69
359.576	91.69
359.802	108.69
360.029	150.69
360.256	147.69
360.483	124.69
360.709	107.69
360.936	94.69
361.163	94.69
361.39	124.69
361.616	109.69
361.843	112.69
362.07	108.69
362.296	113.69
362.523	111.69
362.749	107.69
362.976	93.69
363.203	98.69
363.429	91.69
363.656	105.69
363.882	108.69
364.109	97.69
364.335	75.69
364.562	95.69
364.788	102.69
365.015	80.69
365.241	104.69
365.468	118.69
365.694	112.69
365.92	96.69
366.147	99.69
366.373	97.69
366.599	95.69
366.826	97.69
367.052	100.69
367.278	87.69
367.505	93.69
367.731	91.69
367.957	87.69
368.184	98.69
368.41	114.69
368.636	124.69
368.862	129.69
369.089	122.69
369.315	96.69
369.541	91.69
369.767	93.69
369.993	100.69
370.219	90.69
370.445	84.69
370.672	92.69
370.898	83.69
371.124	87.69
371.35	87.69
371.576	82.69
371.802	86.69
372.028	90.69
372.254	73.69
372.48	88.69
372.706	87.69
372.932	81.69
373.158	95.69
373.384	93.69
373.61	97.69
373.835	95.69
374.061	88.69
374.287	90.69
374.513	100.69
374.739	88.69
374.965	74.69
375.191	82.69
375.416	107.69
375.642	98.69
375.868	92.69
376.094	91.69
376.319	80.69
376.545	108.69
376.771	103.69
376.997	105.69
377.222	107.69
377.448	92.69
377.674	85.69
377.899	96.69
378.125	100.69
378.35	83.69
378.576	92.69
378.802	89.69
379.027	94.69
379.253	81.69
379.478	95.69
379.704	89.69
379.929	81.69
380.155	98.69
380.38	93.69
380.606	106.69
380.831	97.69
381.057	93.69
381.282	97.69
381.507	87.69
381.733	93.69
381.958	88.69
382.184	102.69
382.409	109.69
382.634	107.69
382.86	99.69
383.085	93.69
383.31	90.69
383.535	98.69
383.761	86.69
383.986	97.69
384.211	96.69
384.436	97.69
384.662	99.69
384.887	88.69
385.112	96.69
385.337	104.69
385.562	101.69
385.787	104.69
386.013	112.69
386.238	114.69
386.463	95.69
386.688	94.69
386.913	98.69
387.138	109.69
387.363	97.69
387.588	95.69
387.813	96.69
388.038	92.69
388.263	95.69
388.488	99.69
388.713	95.69
388.938	87.69
389.163	101.69
389.387	85.69
389.612	88.69
389.837	99.69
390.062	84.69
390.287	94.69
390.512	92.69
390.736	94.69
390.961	68.69
391.186	92.69
391.411	97.69
391.636	81.69
391.86	80.69
392.085	72.69
392.31	80.69
392.534	70.69
392.759	94.69
392.984	86.69
393.208	73.69
393.433	80.69
393.658	88.69
393.882	83.69
394.107	97.69
394.331	91.69
394.556	84.69
394.78	93.69
395.005	89.69
395.229	88.69
395.454	83.69
395.678	92.69
395.903	89.69
396.127	93.69
396.352	94.69
396.576	93.69
396.801	95.69
397.025	88.69
397.249	86.69
397.474	84.69
397.698	85.69
397.922	97.69
398.147	100.69
398.371	87.69
398.595	83.69
398.82	78.69
399.044	85.69
399.268	84.69
399.492	77.69
399.717	79.69
399.941	85.69
400.165	99.69
400.389	95.69
400.613	98.69
400.837	79.69
401.062	91.69
401.286	89.69
401.51	84.69
401.734	92.69
401.958	119.69
402.182	147.69
402.406	210.69
402.63	157.69
402.854	99.69
403.078	90.69
403.302	92.69
403.526	73.69
403.75	88.69
403.974	96.69
404.198	64.69
404.422	86.69
404.645	96.69
404.869	107.69
405.093	131.69
405.317	160.69
405.541	147.69
405.765	118.69
405.988	150.69
406.212	231.69
406.436	329.69
406.66	217.69
406.883	128.69
407.107	101.69
407.331	97.69
407.555	115.69
407.778	126.69
408.002	84.69
408.226	87.69
408.449	83.69
408.673	83.69
408.896	96.69
409.12	98.69
409.344	95.69
409.567	87.69
409.791	93.69
410.014	81.69
410.238	98.69
410.461	87.69
410.685	88.69
410.908	88.69
411.132	110.69
411.355	122.69
411.578	88.69
411.802	89.69
412.025	93.69
412.249	90.69
412.472	130.69
412.695	151.69
412.919	117.69
413.142	107.69
413.365	88.69
413.589	83.69
413.812	91.69
414.035	98.69
414.258	92.69
414.482	85.69
414.705	90.69
414.928	88.69
415.151	96.69
415.374	92.69
415.597	89.69
415.821	73.69
416.044	84.69
416.267	83.69
416.49	96.69
416.713	81.69
416.936	95.69
417.159	92.69
417.382	108.69
417.605	108.69
417.828	108.69
418.051	92.69
418.274	98.69
418.497	103.69
418.72	88.69
418.943	89.69
419.166	90.69
419.389	84.69
419.611	98.69
419.834	91.69
420.057	81.69
420.28	86.69
420.503	96.69
420.726	94.69
420.948	88.69
421.171	103.69
421.394	90.69
421.617	79.69
421.839	83.69
422.062	91.69
422.285	87.69
422.507	101.69
422.73	127.69
422.953	97.69
423.175	91.69
423.398	83.69
423.621	96.69
423.843	82.69
424.066	101.69
424.288	95.69
424.511	98.69
424.733	113.69
424.956	131.69
425.178	112.69
425.401	128.69
425.623	116.69
425.846	100.69
426.068	103.69
426.291	93.69
426.513	109.69
426.735	83.69
426.958	101.69
427.18	128.69
427.402	193.69
427.625	284.69
427.847	263.69
428.069	262.69
428.292	132.69
428.514	110.69
428.736	87.69
428.958	91.69
429.181	78.69
429.403	88.69
429.625	95.69
429.847	117.69
430.069	115.69
430.292	120.69
430.514	98.69
430.736	75.69
430.958	94.69
431.18	79.69
431.402	75.69
431.624	78.69
431.846	79.69
432.068	86.69
432.29	84.69
432.512	70.69
432.734	77.69
432.956	92.69
433.178	105.69
433.4	99.69
433.622	84.69
433.844	96.69
434.066	97.69
434.287	89.69
434.509	103.69
434.731	88.69
434.953	100.69
435.175	79.69
435.397	102.69
435.618	98.69
435.84	107.69
436.062	141.69
436.284	149.69
436.505	119.69
436.727	115.69
436.949	93.69
437.17	76.69
437.392	103.69
437.614	104.69
437.835	141.69
438.057	164.69
438.278	138.69
438.5	122.69
438.721	155.69
438.943	110.69
439.165	83.69
439.386	96.69
439.608	108.69
439.829	114.69
440.05	166.69
440.272	199.69
440.493	118.69
440.715	90.69
440.936	86.69
441.158	86.69
441.379	84.69
441.6	97.69
441.822	105.69
442.043	128.69
442.264	126.69
442.486	121.69
442.707	115.69
442.928	118.69
443.149	183.69
443.371	187.69
443.592	144.69
443.813	134.69
444.034	140.69
444.255	96.69
444.476	80.69
444.698	84.69
444.919	80.69
445.14	135.69
445.361	134.69
445.582	131.69
445.803	211.69
446.024	198.69
446.245	187.69
446.466	127.69
446.687	81.69
446.908	84.69
447.129	94.69
447.35	81.69
447.571	85.69
447.792	88.69
448.013	100.69
448.234	123.69
448.455	119.69
448.675	118.69
448.896	148.69
449.117	111.69
449.338	112.69
449.559	156.69
449.779	177.69
450	97.69
450.221	102.69
450.442	95.69
450.662	103.69
450.883	128.69
451.104	136.69
451.324	103.69
451.545	73.69
451.766	86.69
451.986	86.69
452.207	88.69
452.428	111.69
452.648	104.69
452.869	145.69
453.089	143.69
453.31	134.69
453.53	109.69
453.751	112.69
453.971	129.69
454.192	140.69
454.412	102.69
454.633	94.69
454.853	78.69
455.073	87.69
455.294	97.69
455.514	113.69
455.734	107.69
455.955	71.69
456.175	79.69
456.395	73.69
456.616	87.69
456.836	87.69
457.056	91.69
457.276	90.69
457.497	91.69
457.717	84.69
457.937	82.69
458.157	91.69
458.377	96.69
458.598	125.69
458.818	225.69
459.038	261.69
459.258	150.69
459.478	96.69
459.698	82.69
459.918	96.69
460.138	82.69
460.358	78.69
460.578	88.69
460.798	85.69
461.018	83.69
461.238	89.69
461.458	93.69
461.678	71.69
461.898	89.69
462.118	83.69
462.338	101.69
462.558	88.69
462.777	92.69
462.997	89.69
463.217	111.69
463.437	107.69
463.657	101.69
463.876	90.69
464.096	87.69
464.316	100.69
464.536	115.69
464.755	101.69
464.975	139.69
465.195	240.69
465.414	263.69
465.634	119.69
465.854	86.69
466.073	92.69
466.293	96.69
466.512	89.69
466.732	92.69
466.951	87.69
467.171	99.69
467.391	116.69
467.61	143.69
467.829	235.69
468.049	580.69
468.268	955.69
468.488	241.69
468.707	108.69
468.927	95.69
469.146	79.69
469.365	95.69
469.585	87.69
469.804	112.69
470.023	120.69
470.243	110.69
470.462	114.69
470.681	150.69
470.901	119.69
471.12	81.69
471.339	111.69
471.558	114.69
471.777	156.69
471.997	302.69
472.216	1151.69
472.435	2743.69
472.654	688.69
472.873	183.69
473.092	102.69
473.311	93.69
473.53	103.69
473.749	107.69
473.968	127.69
474.187	119.69
474.406	120.69
474.625	87.69
474.844	88.69
475.063	93.69
475.282	83.69
475.501	87.69
475.72	70.69
475.939	88.69
476.158	97.69
476.377	93.69
476.596	96.69
476.814	95.69
477.033	99.69
477.252	100.69
477.471	80.69
477.69	92.69
477.908	89.69
478.127	89.69
478.346	109.69
478.564	95.69
478.783	111.69
479.002	104.69
479.22	114.69
479.439	139.69
479.658	132.69
479.876	134.69
480.095	114.69
480.313	136.69
480.532	175.69
480.751	285.69
480.969	1041.69
481.188	4573.69
481.406	2897.69
481.624	399.69
481.843	157.69
482.061	110.69
482.28	100.69
482.498	97.69
482.717	87.69
482.935	96.69
483.153	76.69
483.372	92.69
483.59	86.69
483.808	96.69
484.027	84.69
484.245	95.69
484.463	86.69
484.681	87.69
484.9	107.69
485.118	95.69
485.336	91.69
485.554	99.69
485.772	93.69
485.99	116.69
486.209	115.69
486.427	126.69
486.645	141.69
486.863	124.69
487.081	114.69
487.299	115.69
487.517	103.69
487.735	87.69
487.953	105.69
488.171	86.69
488.389	93.69
488.607	116.69
488.825	102.69
489.043	96.69
489.261	100.69
489.479	79.69
489.696	84.69
489.914	104.69
490.132	87.69
490.35	97.69
490.568	81.69
490.786	86.69
491.003	89.69
491.221	77.69
491.439	99.69
491.657	93.69
491.874	84.69
492.092	99.69
492.31	104.69
492.527	101.69
492.745	92.69
492.963	96.69
493.18	94.69
493.398	77.69
493.615	91.69
493.833	98.69
494.05	100.69
494.268	99.69
494.485	93.69
494.703	86.69
494.92	100.69
495.138	85.69
495.355	76.69
495.573	85.69
495.79	101.69
496.008	100.69
496.225	95.69
496.442	95.69
496.66	84.69
496.877	89.69
497.094	105.69
497.312	91.69
497.529	92.69
497.746	88.69
497.963	88.69
498.181	95.69
498.398	97.69
498.615	136.69
498.832	126.69
499.049	101.69
499.267	91.69
499.484	93.69
499.701	111.69
499.918	93.69
500.135	80.69
500.352	88.69
500.569	85.69
500.786	107.69
501.003	100.69
501.22	87.69
501.437	89.69
501.654	109.69
501.871	118.69
502.088	116.69
502.305	93.69
502.522	87.69
502.739	90.69
502.956	81.69
503.172	96.69
503.389	102.69
503.606	123.69
503.823	101.69
504.04	88.69
504.256	98.69
504.473	95.69
504.69	84.69
504.907	79.69
505.123	83.69
505.34	94.69
505.557	82.69
505.773	101.69
505.99	84.69
506.207	83.69
506.423	80.69
506.64	79.69
506.856	85.69
507.073	97.69
507.289	89.69
507.506	99.69
507.722	141.69
507.939	137.69
508.155	111.69
508.372	107.69
508.588	102.69
508.805	112.69
509.021	100.69
509.238	100.69
509.454	94.69
509.67	113.69
509.887	114.69
510.103	128.69
510.319	261.69
510.536	980.69
510.752	3393.69
510.968	981.69
511.184	211.69
511.401	121.69
511.617	121.69
511.833	105.69
512.049	100.69
512.265	85.69
512.481	95.69
512.698	87.69
512.914	81.69
513.13	102.69
