Data from Circ_2023_H10_HRD10591_00022.txt Node
Date: Wed Jan 03 09:50:35 EST 2024
User: Yrep
Spectrometer: HR+D1059
Trigger mode: 1
Integration Time (sec): 1.000000E-1
Scans to average: 1
Electric dark correction enabled: true
Nonlinearity correction enabled: false
Boxcar width: 0
XAxis mode: Wavelengths
Number of Pixels in Spectrum: 2048
>>>>>Begin Spectral Data<<<<<
223.165	-20.69
223.4	-20.69
223.635	-20.69
223.869	-20.69
224.104	-14.69
224.338	-28.69
224.573	-5.69
224.808	-13.69
225.042	-10.69
225.277	-9.69
225.511	-2.69
225.746	12.31
225.98	16.31
226.215	-7.69
226.449	12.31
226.683	20.31
226.918	25.31
227.152	48.31
227.387	30.31
227.621	25.31
227.856	40.31
228.09	43.31
228.324	33.31
228.559	64.31
228.793	58.31
229.027	65.31
229.262	71.31
229.496	78.31
229.73	91.31
229.964	85.31
230.199	80.31
230.433	80.31
230.667	86.31
230.901	79.31
231.136	76.31
231.37	81.31
231.604	70.31
231.838	85.31
232.072	63.31
232.306	66.31
232.541	84.31
232.775	73.31
233.009	76.31
233.243	72.31
233.477	88.31
233.711	78.31
233.945	72.31
234.179	76.31
234.413	80.31
234.647	83.31
234.881	80.31
235.115	78.31
235.349	84.31
235.583	78.31
235.817	81.31
236.051	64.31
236.285	81.31
236.519	87.31
236.753	75.31
236.987	79.31
237.221	77.31
237.455	72.31
237.689	81.31
237.922	60.31
238.156	76.31
238.39	59.31
238.624	78.31
238.858	64.31
239.091	73.31
239.325	83.31
239.559	66.31
239.793	83.31
240.027	75.31
240.26	81.31
240.494	71.31
240.728	74.31
240.961	78.31
241.195	76.31
241.429	61.31
241.662	83.31
241.896	69.31
242.13	67.31
242.363	84.31
242.597	74.31
242.83	62.31
243.064	75.31
243.298	80.31
243.531	79.31
243.765	81.31
243.998	79.31
244.232	77.31
244.465	91.31
244.699	83.31
244.932	86.31
245.166	78.31
245.399	84.31
245.633	87.31
245.866	72.31
246.099	96.31
246.333	78.31
246.566	80.31
246.8	79.31
247.033	83.31
247.266	63.31
247.5	71.31
247.733	75.31
247.966	81.31
248.2	80.31
248.433	85.31
248.666	76.31
248.899	81.31
249.133	90.31
249.366	104.31
249.599	108.31
249.832	73.31
250.066	90.31
250.299	79.31
250.532	76.31
250.765	85.31
250.998	85.31
251.231	79.31
251.465	85.31
251.698	88.31
251.931	82.31
252.164	73.31
252.397	70.31
252.63	79.31
252.863	77.31
253.096	90.31
253.329	78.31
253.562	86.31
253.795	75.31
254.028	84.31
254.261	67.31
254.494	75.31
254.727	71.31
254.96	81.31
255.193	69.31
255.426	87.31
255.659	83.31
255.892	76.31
256.124	86.31
256.357	78.31
256.59	87.31
256.823	83.31
257.056	82.31
257.289	80.31
257.521	76.31
257.754	81.31
257.987	86.31
258.22	92.31
258.452	106.31
258.685	103.31
258.918	90.31
259.151	74.31
259.383	84.31
259.616	87.31
259.849	79.31
260.081	72.31
260.314	88.31
260.547	87.31
260.779	92.31
261.012	109.31
261.244	113.31
261.477	92.31
261.71	108.31
261.942	117.31
262.175	139.31
262.407	94.31
262.64	74.31
262.872	79.31
263.105	101.31
263.337	95.31
263.57	88.31
263.802	86.31
264.035	76.31
264.267	88.31
264.499	85.31
264.732	83.31
264.964	78.31
265.197	79.31
265.429	81.31
265.661	77.31
265.894	67.31
266.126	85.31
266.358	79.31
266.591	72.31
266.823	76.31
267.055	77.31
267.287	79.31
267.52	82.31
267.752	86.31
267.984	92.31
268.216	91.31
268.448	66.31
268.681	76.31
268.913	88.31
269.145	90.31
269.377	86.31
269.609	87.31
269.841	69.31
270.073	77.31
270.306	82.31
270.538	75.31
270.77	65.31
271.002	81.31
271.234	110.31
271.466	72.31
271.698	70.31
271.93	79.31
272.162	75.31
272.394	79.31
272.626	75.31
272.858	82.31
273.09	87.31
273.322	86.31
273.553	83.31
273.785	75.31
274.017	85.31
274.249	79.31
274.481	81.31
274.713	85.31
274.945	83.31
275.176	89.31
275.408	93.31
275.64	100.31
275.872	109.31
276.104	110.31
276.335	98.31
276.567	108.31
276.799	130.31
277.031	155.31
277.262	152.31
277.494	131.31
277.726	81.31
277.957	98.31
278.189	88.31
278.421	96.31
278.652	89.31
278.884	95.31
279.115	87.31
279.347	76.31
279.579	91.31
279.81	116.31
280.042	153.31
280.273	215.31
280.505	161.31
280.736	87.31
280.968	83.31
281.199	100.31
281.431	87.31
281.662	84.31
281.894	95.31
282.125	97.31
282.356	119.31
282.588	158.31
282.819	124.31
283.051	98.31
283.282	79.31
283.513	87.31
283.745	88.31
283.976	82.31
284.207	86.31
284.439	84.31
284.67	82.31
284.901	90.31
285.132	87.31
285.364	92.31
285.595	79.31
285.826	78.31
286.057	74.31
286.288	96.31
286.52	85.31
286.751	75.31
286.982	75.31
287.213	71.31
287.444	90.31
287.675	79.31
287.906	92.31
288.138	82.31
288.369	88.31
288.6	74.31
288.831	74.31
289.062	90.31
289.293	84.31
289.524	80.31
289.755	74.31
289.986	88.31
290.217	86.31
290.448	86.31
290.679	94.31
290.91	96.31
291.141	95.31
291.371	94.31
291.602	71.31
291.833	97.31
292.064	71.31
292.295	95.31
292.526	85.31
292.757	85.31
292.987	82.31
293.218	91.31
293.449	85.31
293.68	86.31
293.91	84.31
294.141	86.31
294.372	91.31
294.603	89.31
294.833	90.31
295.064	82.31
295.295	93.31
295.525	90.31
295.756	103.31
295.987	119.31
296.217	149.31
296.448	142.31
296.679	93.31
296.909	103.31
297.14	85.31
297.37	99.31
297.601	83.31
297.831	96.31
298.062	88.31
298.292	97.31
298.523	85.31
298.753	101.31
298.984	79.31
299.214	94.31
299.445	86.31
299.675	86.31
299.905	88.31
300.136	94.31
300.366	86.31
300.597	101.31
300.827	86.31
301.057	98.31
301.288	111.31
301.518	80.31
301.748	100.31
301.979	100.31
302.209	94.31
302.439	84.31
302.669	101.31
302.9	87.31
303.13	86.31
303.36	94.31
303.59	108.31
303.82	125.31
304.051	112.31
304.281	86.31
304.511	95.31
304.741	97.31
304.971	95.31
305.201	91.31
305.431	93.31
305.661	65.31
305.891	89.31
306.121	110.31
306.352	103.31
306.582	113.31
306.812	94.31
307.042	113.31
307.272	142.31
307.502	160.31
307.731	138.31
307.961	120.31
308.191	97.31
308.421	95.31
308.651	90.31
308.881	96.31
309.111	87.31
309.341	87.31
309.571	91.31
309.8	86.31
310.03	96.31
310.26	98.31
310.49	97.31
310.72	111.31
310.949	113.31
311.179	106.31
311.409	90.31
311.639	81.31
311.868	78.31
312.098	90.31
312.328	95.31
312.557	104.31
312.787	115.31
313.017	124.31
313.246	92.31
313.476	84.31
313.706	94.31
313.935	86.31
314.165	102.31
314.394	112.31
314.624	99.31
314.853	95.31
315.083	87.31
315.312	94.31
315.542	82.31
315.771	96.31
316.001	87.31
316.23	89.31
316.46	99.31
316.689	88.31
316.919	90.31
317.148	100.31
317.377	92.31
317.607	91.31
317.836	93.31
318.065	92.31
318.295	93.31
318.524	94.31
318.753	105.31
318.983	87.31
319.212	103.31
319.441	118.31
319.67	122.31
319.9	97.31
320.129	98.31
320.358	99.31
320.587	99.31
320.816	101.31
321.046	89.31
321.275	102.31
321.504	96.31
321.733	96.31
321.962	107.31
322.191	106.31
322.42	108.31
322.649	103.31
322.878	106.31
323.108	126.31
323.337	140.31
323.566	148.31
323.795	184.31
324.024	230.31
324.253	499.31
324.482	1072.31
324.71	2187.31
324.939	2936.31
325.168	1084.31
325.397	280.31
325.626	170.31
325.855	151.31
326.084	135.31
326.313	137.31
326.542	175.31
326.77	272.31
326.999	572.31
327.228	1157.31
327.457	2186.31
327.686	1812.31
327.914	564.31
328.143	450.31
328.372	551.31
328.6	325.31
328.829	175.31
329.058	182.31
329.287	189.31
329.515	167.31
329.744	234.31
329.972	400.31
330.201	797.31
330.43	1210.31
330.658	561.31
330.887	253.31
331.115	160.31
331.344	118.31
331.572	118.31
331.801	131.31
332.03	128.31
332.258	92.31
332.486	103.31
332.715	121.31
332.943	120.31
333.172	109.31
333.4	126.31
333.629	161.31
333.857	211.31
334.085	367.31
334.314	743.31
334.542	1464.31
334.771	1428.31
334.999	386.31
335.227	156.31
335.455	113.31
335.684	104.31
335.912	105.31
336.14	100.31
336.369	114.31
336.597	111.31
336.825	91.31
337.053	114.31
337.281	88.31
337.51	95.31
337.738	90.31
337.966	99.31
338.194	109.31
338.422	95.31
338.65	80.31
338.878	95.31
339.106	90.31
339.334	91.31
339.562	97.31
339.79	93.31
340.018	83.31
340.246	108.31
340.474	93.31
340.702	108.31
340.93	81.31
341.158	79.31
341.386	92.31
341.614	99.31
341.842	89.31
342.07	93.31
342.298	96.31
342.526	89.31
342.754	95.31
342.981	91.31
343.209	83.31
343.437	87.31
343.665	79.31
343.893	101.31
344.12	96.31
344.348	79.31
344.576	85.31
344.804	80.31
345.031	111.31
345.259	113.31
345.487	96.31
345.714	87.31
345.942	97.31
346.17	88.31
346.397	98.31
346.625	82.31
346.853	99.31
347.08	95.31
347.308	99.31
347.535	96.31
347.763	98.31
347.99	99.31
348.218	94.31
348.445	93.31
348.673	111.31
348.9	102.31
349.128	102.31
349.355	100.31
349.583	87.31
349.81	100.31
350.037	99.31
350.265	95.31
350.492	89.31
350.72	78.31
350.947	107.31
351.174	120.31
351.402	123.31
351.629	107.31
351.856	111.31
352.083	100.31
352.311	107.31
352.538	117.31
352.765	109.31
352.992	128.31
353.22	103.31
353.447	107.31
353.674	91.31
353.901	90.31
354.128	103.31
354.355	92.31
354.583	83.31
354.81	83.31
355.037	84.31
355.264	102.31
355.491	91.31
355.718	91.31
355.945	78.31
356.172	92.31
356.399	86.31
356.626	99.31
356.853	86.31
357.08	91.31
357.307	90.31
357.534	91.31
357.761	85.31
357.988	94.31
358.215	83.31
358.441	99.31
358.668	86.31
358.895	87.31
359.122	91.31
359.349	98.31
359.576	88.31
359.802	122.31
360.029	122.31
360.256	122.31
360.483	110.31
360.709	75.31
360.936	90.31
361.163	88.31
361.39	117.31
361.616	103.31
361.843	90.31
362.07	94.31
362.296	94.31
362.523	95.31
362.749	87.31
362.976	85.31
363.203	100.31
363.429	84.31
363.656	80.31
363.882	86.31
364.109	90.31
364.335	87.31
364.562	100.31
364.788	83.31
365.015	83.31
365.241	99.31
365.468	115.31
365.694	126.31
365.92	101.31
366.147	86.31
366.373	100.31
366.599	101.31
366.826	96.31
367.052	87.31
367.278	100.31
367.505	92.31
367.731	89.31
367.957	102.31
368.184	88.31
368.41	99.31
368.636	116.31
368.862	128.31
369.089	106.31
369.315	95.31
369.541	116.31
369.767	90.31
369.993	88.31
370.219	95.31
370.445	100.31
370.672	101.31
370.898	95.31
371.124	90.31
371.35	76.31
371.576	83.31
371.802	75.31
372.028	76.31
372.254	83.31
372.48	80.31
372.706	79.31
372.932	78.31
373.158	77.31
373.384	64.31
373.61	70.31
373.835	86.31
374.061	86.31
374.287	95.31
374.513	91.31
374.739	101.31
374.965	79.31
375.191	69.31
375.416	88.31
375.642	96.31
375.868	91.31
376.094	89.31
376.319	90.31
376.545	86.31
376.771	94.31
376.997	85.31
377.222	78.31
377.448	83.31
377.674	82.31
377.899	74.31
378.125	80.31
378.35	86.31
378.576	85.31
378.802	81.31
379.027	94.31
379.253	99.31
379.478	104.31
379.704	96.31
379.929	98.31
380.155	88.31
380.38	95.31
380.606	101.31
380.831	96.31
381.057	99.31
381.282	91.31
381.507	85.31
381.733	94.31
381.958	89.31
382.184	105.31
382.409	90.31
382.634	107.31
382.86	85.31
383.085	86.31
383.31	85.31
383.535	100.31
383.761	98.31
383.986	83.31
384.211	81.31
384.436	102.31
384.662	106.31
384.887	83.31
385.112	86.31
385.337	91.31
385.562	80.31
385.787	105.31
386.013	114.31
386.238	114.31
386.463	99.31
386.688	107.31
386.913	95.31
387.138	81.31
387.363	90.31
387.588	95.31
387.813	92.31
388.038	100.31
388.263	110.31
388.488	98.31
388.713	97.31
388.938	88.31
389.163	98.31
389.387	87.31
389.612	88.31
389.837	96.31
390.062	85.31
390.287	103.31
390.512	83.31
390.736	75.31
390.961	80.31
391.186	97.31
391.411	93.31
391.636	87.31
391.86	81.31
392.085	82.31
392.31	68.31
392.534	80.31
392.759	102.31
392.984	83.31
393.208	78.31
393.433	84.31
393.658	83.31
393.882	82.31
394.107	96.31
394.331	92.31
394.556	86.31
394.78	88.31
395.005	77.31
395.229	86.31
395.454	87.31
395.678	97.31
395.903	96.31
396.127	88.31
396.352	91.31
396.576	89.31
396.801	68.31
397.025	88.31
397.249	89.31
397.474	84.31
397.698	96.31
397.922	74.31
398.147	103.31
398.371	73.31
398.595	83.31
398.82	80.31
399.044	91.31
399.268	84.31
399.492	90.31
399.717	85.31
399.941	93.31
400.165	91.31
400.389	103.31
400.613	90.31
400.837	87.31
401.062	83.31
401.286	89.31
401.51	100.31
401.734	108.31
401.958	106.31
402.182	142.31
402.406	180.31
402.63	137.31
402.854	101.31
403.078	75.31
403.302	83.31
403.526	90.31
403.75	96.31
403.974	87.31
404.198	86.31
404.422	91.31
404.645	101.31
404.869	80.31
405.093	100.31
405.317	135.31
405.541	122.31
405.765	105.31
405.988	131.31
406.212	194.31
406.436	296.31
406.66	192.31
406.883	130.31
407.107	103.31
407.331	97.31
407.555	106.31
407.778	122.31
408.002	82.31
408.226	87.31
408.449	82.31
408.673	88.31
408.896	99.31
409.12	93.31
409.344	91.31
409.567	87.31
409.791	86.31
410.014	112.31
410.238	94.31
410.461	93.31
410.685	82.31
410.908	106.31
411.132	110.31
411.355	101.31
411.578	92.31
411.802	83.31
412.025	79.31
412.249	89.31
412.472	105.31
412.695	144.31
412.919	109.31
413.142	95.31
413.365	103.31
413.589	91.31
413.812	89.31
414.035	86.31
414.258	89.31
414.482	91.31
414.705	88.31
414.928	74.31
415.151	90.31
415.374	93.31
415.597	82.31
415.821	86.31
416.044	86.31
416.267	84.31
416.49	90.31
416.713	79.31
416.936	75.31
417.159	94.31
417.382	87.31
417.605	88.31
417.828	95.31
418.051	95.31
418.274	89.31
418.497	86.31
418.72	77.31
418.943	88.31
419.166	80.31
419.389	95.31
419.611	70.31
419.834	91.31
420.057	92.31
420.28	86.31
420.503	94.31
420.726	83.31
420.948	87.31
421.171	103.31
421.394	105.31
421.617	75.31
421.839	84.31
422.062	86.31
422.285	87.31
422.507	92.31
422.73	104.31
422.953	101.31
423.175	94.31
423.398	80.31
423.621	83.31
423.843	80.31
424.066	91.31
424.288	90.31
424.511	105.31
424.733	92.31
424.956	127.31
425.178	106.31
425.401	102.31
425.623	99.31
425.846	87.31
426.068	109.31
426.291	111.31
426.513	99.31
426.735	102.31
426.958	94.31
427.18	100.31
427.402	171.31
427.625	247.31
427.847	239.31
428.069	236.31
428.292	131.31
428.514	95.31
428.736	86.31
428.958	94.31
429.181	87.31
429.403	98.31
429.625	82.31
429.847	106.31
430.069	111.31
430.292	96.31
430.514	79.31
430.736	81.31
430.958	93.31
431.18	82.31
431.402	76.31
431.624	82.31
431.846	77.31
432.068	82.31
432.29	92.31
432.512	97.31
432.734	85.31
432.956	99.31
433.178	91.31
433.4	95.31
433.622	94.31
433.844	87.31
434.066	100.31
434.287	99.31
434.509	95.31
434.731	97.31
434.953	99.31
435.175	87.31
435.397	90.31
435.618	110.31
435.84	123.31
436.062	130.31
436.284	128.31
436.505	110.31
436.727	98.31
436.949	78.31
437.17	92.31
437.392	111.31
437.614	87.31
437.835	134.31
438.057	142.31
438.278	122.31
438.5	125.31
438.721	148.31
438.943	119.31
439.165	91.31
439.386	88.31
439.608	91.31
439.829	110.31
440.05	150.31
440.272	174.31
440.493	119.31
440.715	95.31
440.936	97.31
441.158	86.31
441.379	90.31
441.6	98.31
441.822	107.31
442.043	111.31
442.264	118.31
442.486	118.31
442.707	111.31
442.928	124.31
443.149	161.31
443.371	146.31
443.592	132.31
443.813	138.31
444.034	115.31
444.255	98.31
444.476	82.31
444.698	98.31
444.919	93.31
445.14	151.31
445.361	134.31
445.582	147.31
445.803	174.31
446.024	181.31
446.245	150.31
446.466	116.31
446.687	72.31
446.908	101.31
447.129	86.31
447.35	100.31
447.571	100.31
447.792	107.31
448.013	108.31
448.234	112.31
448.455	108.31
448.675	136.31
448.896	139.31
449.117	111.31
449.338	124.31
449.559	152.31
449.779	154.31
450	111.31
450.221	81.31
450.442	89.31
450.662	106.31
450.883	127.31
451.104	126.31
451.324	100.31
451.545	82.31
451.766	88.31
451.986	86.31
452.207	79.31
452.428	90.31
452.648	106.31
452.869	118.31
453.089	136.31
453.31	136.31
453.53	98.31
453.751	92.31
453.971	123.31
454.192	135.31
454.412	115.31
454.633	96.31
454.853	98.31
455.073	91.31
455.294	97.31
455.514	106.31
455.734	97.31
455.955	86.31
456.175	91.31
456.395	93.31
456.616	96.31
456.836	84.31
457.056	91.31
457.276	85.31
457.497	82.31
457.717	83.31
457.937	94.31
458.157	83.31
458.377	91.31
458.598	118.31
458.818	211.31
459.038	210.31
459.258	152.31
459.478	108.31
459.698	86.31
459.918	89.31
460.138	90.31
460.358	98.31
460.578	88.31
460.798	90.31
461.018	110.31
461.238	95.31
461.458	83.31
461.678	82.31
461.898	91.31
462.118	90.31
462.338	83.31
462.558	74.31
462.777	89.31
462.997	80.31
463.217	89.31
463.437	85.31
463.657	99.31
463.876	89.31
464.096	97.31
464.316	87.31
464.536	91.31
464.755	99.31
464.975	127.31
465.195	208.31
465.414	225.31
465.634	96.31
465.854	99.31
466.073	102.31
466.293	108.31
466.512	89.31
466.732	90.31
466.951	79.31
467.171	106.31
467.391	126.31
467.61	131.31
467.829	189.31
468.049	456.31
468.268	706.31
468.488	205.31
468.707	98.31
468.927	100.31
469.146	87.31
469.365	81.31
469.585	96.31
469.804	116.31
470.023	107.31
470.243	90.31
470.462	112.31
470.681	116.31
470.901	98.31
471.12	79.31
471.339	110.31
471.558	109.31
471.777	139.31
471.997	268.31
472.216	828.31
472.435	2047.31
472.654	506.31
472.873	146.31
473.092	104.31
473.311	103.31
473.53	98.31
473.749	92.31
473.968	108.31
474.187	122.31
474.406	106.31
474.625	84.31
474.844	81.31
475.063	94.31
475.282	91.31
475.501	88.31
475.72	93.31
475.939	98.31
476.158	102.31
476.377	99.31
476.596	88.31
476.814	104.31
477.033	113.31
477.252	92.31
477.471	97.31
477.69	101.31
477.908	86.31
478.127	91.31
478.346	104.31
478.564	85.31
478.783	97.31
479.002	90.31
479.22	110.31
479.439	115.31
479.658	113.31
479.876	126.31
480.095	109.31
480.313	126.31
480.532	162.31
480.751	242.31
480.969	806.31
481.188	3464.31
481.406	2155.31
481.624	325.31
481.843	127.31
482.061	90.31
482.28	102.31
482.498	94.31
482.717	87.31
482.935	95.31
483.153	81.31
483.372	89.31
483.59	85.31
483.808	85.31
484.027	95.31
484.245	85.31
484.463	102.31
484.681	97.31
484.9	88.31
485.118	107.31
485.336	94.31
485.554	78.31
485.772	91.31
485.99	102.31
486.209	87.31
486.427	98.31
486.645	117.31
486.863	122.31
487.081	113.31
487.299	83.31
487.517	93.31
487.735	105.31
487.953	98.31
488.171	82.31
488.389	80.31
488.607	106.31
488.825	103.31
489.043	86.31
489.261	86.31
489.479	91.31
489.696	82.31
489.914	95.31
490.132	77.31
490.35	99.31
490.568	85.31
490.786	83.31
491.003	86.31
491.221	98.31
491.439	99.31
491.657	97.31
491.874	98.31
492.092	97.31
492.31	96.31
492.527	96.31
492.745	99.31
492.963	87.31
493.18	86.31
493.398	90.31
493.615	97.31
493.833	107.31
494.05	94.31
494.268	75.31
494.485	83.31
494.703	83.31
494.92	90.31
495.138	96.31
495.355	94.31
495.573	101.31
495.79	98.31
496.008	97.31
496.225	75.31
496.442	85.31
496.66	102.31
496.877	92.31
497.094	101.31
497.312	96.31
497.529	79.31
497.746	89.31
497.963	93.31
498.181	88.31
498.398	80.31
498.615	108.31
498.832	108.31
499.049	85.31
499.267	88.31
499.484	87.31
499.701	101.31
499.918	117.31
500.135	88.31
500.352	85.31
500.569	96.31
500.786	100.31
501.003	88.31
501.22	87.31
501.437	92.31
501.654	102.31
501.871	114.31
502.088	84.31
502.305	81.31
502.522	106.31
502.739	86.31
502.956	91.31
503.172	74.31
503.389	108.31
503.606	128.31
503.823	100.31
504.04	91.31
504.256	103.31
504.473	101.31
504.69	93.31
504.907	85.31
505.123	99.31
505.34	93.31
505.557	97.31
505.773	100.31
505.99	93.31
506.207	94.31
506.423	91.31
506.64	88.31
506.856	91.31
507.073	86.31
507.289	85.31
507.506	106.31
507.722	128.31
507.939	138.31
508.155	106.31
508.372	106.31
508.588	83.31
508.805	97.31
509.021	102.31
509.238	106.31
509.454	103.31
509.67	92.31
509.887	94.31
510.103	125.31
510.319	259.31
510.536	964.31
510.752	3166.31
510.968	894.31
511.184	182.31
511.401	133.31
511.617	97.31
511.833	114.31
512.049	99.31
512.265	74.31
512.481	93.31
512.698	85.31
512.914	88.31
513.13	99.31
513.346	102.31
513.562	81.31
513.778	100.31
513.994	100.31
514.21	128.31
