Data from Circ_2023_H10_HRD10591_00067.txt Node
Date: Wed Jan 03 09:50:44 EST 2024
User: Yrep
Spectrometer: HR+D1059
Trigger mode: 1
Integration Time (sec): 1.000000E-1
Scans to average: 1
Electric dark correction enabled: true
Nonlinearity correction enabled: false
Boxcar width: 0
XAxis mode: Wavelengths
Number of Pixels in Spectrum: 2048
>>>>>Begin Spectral Data<<<<<
223.165	-18.5
223.4	-18.5
223.635	-18.5
223.869	-17.5
224.104	-24.5
224.338	-16.5
224.573	-6.5
224.808	-3.5
225.042	-8.5
225.277	-3.5
225.511	-0.5
225.746	0.5
225.98	7.5
226.215	10.5
226.449	7.5
226.683	18.5
226.918	25.5
227.152	29.5
227.387	47.5
227.621	42.5
227.856	47.5
228.09	41.5
228.324	37.5
228.559	48.5
228.793	60.5
229.027	70.5
229.262	73.5
229.496	81.5
229.73	102.5
229.964	93.5
230.199	74.5
230.433	89.5
230.667	73.5
230.901	69.5
231.136	71.5
231.37	82.5
231.604	69.5
231.838	93.5
232.072	90.5
232.306	66.5
232.541	82.5
232.775	80.5
233.009	85.5
233.243	94.5
233.477	87.5
233.711	87.5
233.945	74.5
234.179	85.5
234.413	78.5
234.647	76.5
234.881	78.5
235.115	72.5
235.349	80.5
235.583	85.5
235.817	70.5
236.051	72.5
236.285	77.5
236.519	81.5
236.753	82.5
236.987	91.5
237.221	102.5
237.455	86.5
237.689	82.5
237.922	73.5
238.156	83.5
238.39	71.5
238.624	67.5
238.858	65.5
239.091	72.5
239.325	66.5
239.559	89.5
239.793	82.5
240.027	79.5
240.26	72.5
240.494	86.5
240.728	63.5
240.961	70.5
241.195	71.5
241.429	84.5
241.662	76.5
241.896	77.5
242.13	81.5
242.363	65.5
242.597	74.5
242.83	80.5
243.064	68.5
243.298	69.5
243.531	89.5
243.765	86.5
243.998	75.5
244.232	68.5
244.465	85.5
244.699	85.5
244.932	90.5
245.166	87.5
245.399	79.5
245.633	78.5
245.866	74.5
246.099	76.5
246.333	82.5
246.566	81.5
246.8	72.5
247.033	88.5
247.266	78.5
247.5	72.5
247.733	72.5
247.966	85.5
248.2	74.5
248.433	65.5
248.666	92.5
248.899	97.5
249.133	84.5
249.366	103.5
249.599	110.5
249.832	94.5
250.066	93.5
250.299	84.5
250.532	85.5
250.765	77.5
250.998	73.5
251.231	75.5
251.465	93.5
251.698	83.5
251.931	82.5
252.164	78.5
252.397	64.5
252.63	76.5
252.863	67.5
253.096	85.5
253.329	80.5
253.562	85.5
253.795	74.5
254.028	71.5
254.261	92.5
254.494	87.5
254.727	89.5
254.96	69.5
255.193	84.5
255.426	85.5
255.659	89.5
255.892	95.5
256.124	100.5
256.357	88.5
256.59	91.5
256.823	85.5
257.056	91.5
257.289	76.5
257.521	89.5
257.754	88.5
257.987	89.5
258.22	109.5
258.452	97.5
258.685	92.5
258.918	86.5
259.151	85.5
259.383	87.5
259.616	68.5
259.849	94.5
260.081	91.5
260.314	84.5
260.547	101.5
260.779	108.5
261.012	116.5
261.244	115.5
261.477	99.5
261.71	94.5
261.942	133.5
262.175	142.5
262.407	105.5
262.64	89.5
262.872	83.5
263.105	87.5
263.337	87.5
263.57	84.5
263.802	77.5
264.035	83.5
264.267	82.5
264.499	82.5
264.732	87.5
264.964	89.5
265.197	72.5
265.429	84.5
265.661	86.5
265.894	84.5
266.126	89.5
266.358	92.5
266.591	76.5
266.823	90.5
267.055	81.5
267.287	93.5
267.52	86.5
267.752	84.5
267.984	85.5
268.216	87.5
268.448	88.5
268.681	96.5
268.913	87.5
269.145	91.5
269.377	94.5
269.609	98.5
269.841	89.5
270.073	78.5
270.306	97.5
270.538	95.5
270.77	93.5
271.002	89.5
271.234	90.5
271.466	106.5
271.698	92.5
271.93	84.5
272.162	97.5
272.394	96.5
272.626	83.5
272.858	76.5
273.09	90.5
273.322	90.5
273.553	82.5
273.785	80.5
274.017	90.5
274.249	74.5
274.481	69.5
274.713	95.5
274.945	98.5
275.176	85.5
275.408	93.5
275.64	133.5
275.872	132.5
276.104	118.5
276.335	98.5
276.567	125.5
276.799	149.5
277.031	182.5
277.262	228.5
277.494	160.5
277.726	109.5
277.957	112.5
278.189	95.5
278.421	104.5
278.652	88.5
278.884	82.5
279.115	80.5
279.347	95.5
279.579	90.5
279.81	160.5
280.042	223.5
280.273	325.5
280.505	216.5
280.736	108.5
280.968	113.5
281.199	93.5
281.431	97.5
281.662	84.5
281.894	92.5
282.125	125.5
282.356	138.5
282.588	156.5
282.819	135.5
283.051	97.5
283.282	84.5
283.513	87.5
283.745	89.5
283.976	101.5
284.207	84.5
284.439	81.5
284.67	94.5
284.901	95.5
285.132	95.5
285.364	84.5
285.595	85.5
285.826	88.5
286.057	86.5
286.288	90.5
286.52	92.5
286.751	67.5
286.982	74.5
287.213	87.5
287.444	94.5
287.675	93.5
287.906	102.5
288.138	114.5
288.369	82.5
288.6	89.5
288.831	79.5
289.062	85.5
289.293	94.5
289.524	88.5
289.755	82.5
289.986	93.5
290.217	87.5
290.448	98.5
290.679	87.5
290.91	100.5
291.141	81.5
291.371	86.5
291.602	85.5
291.833	83.5
292.064	91.5
292.295	96.5
292.526	90.5
292.757	86.5
292.987	104.5
293.218	99.5
293.449	88.5
293.68	66.5
293.91	60.5
294.141	94.5
294.372	91.5
294.603	90.5
294.833	100.5
295.064	95.5
295.295	83.5
295.525	98.5
295.756	107.5
295.987	134.5
296.217	168.5
296.448	138.5
296.679	100.5
296.909	80.5
297.14	96.5
297.37	94.5
297.601	83.5
297.831	88.5
298.062	85.5
298.292	100.5
298.523	90.5
298.753	85.5
298.984	88.5
299.214	106.5
299.445	93.5
299.675	94.5
299.905	94.5
300.136	87.5
300.366	92.5
300.597	86.5
300.827	98.5
301.057	86.5
301.288	92.5
301.518	99.5
301.748	94.5
301.979	121.5
302.209	116.5
302.439	86.5
302.669	101.5
302.9	96.5
303.13	96.5
303.36	116.5
303.59	137.5
303.82	145.5
304.051	113.5
304.281	101.5
304.511	96.5
304.741	83.5
304.971	91.5
305.201	86.5
305.431	93.5
305.661	80.5
305.891	96.5
306.121	116.5
306.352	120.5
306.582	116.5
306.812	115.5
307.042	122.5
307.272	180.5
307.502	184.5
307.731	181.5
307.961	138.5
308.191	102.5
308.421	96.5
308.651	92.5
308.881	95.5
309.111	84.5
309.341	97.5
309.571	87.5
309.8	96.5
310.03	110.5
310.26	106.5
310.49	108.5
310.72	113.5
310.949	113.5
311.179	104.5
311.409	105.5
311.639	96.5
311.868	97.5
312.098	102.5
312.328	106.5
312.557	111.5
312.787	124.5
313.017	100.5
313.246	94.5
313.476	99.5
313.706	101.5
313.935	102.5
314.165	108.5
314.394	100.5
314.624	106.5
314.853	117.5
315.083	94.5
315.312	96.5
315.542	102.5
315.771	89.5
316.001	87.5
316.23	92.5
316.46	89.5
316.689	88.5
316.919	106.5
317.148	106.5
317.377	105.5
317.607	111.5
317.836	95.5
318.065	86.5
318.295	100.5
318.524	86.5
318.753	104.5
318.983	101.5
319.212	102.5
319.441	103.5
319.67	117.5
319.9	101.5
320.129	96.5
320.358	86.5
320.587	113.5
320.816	104.5
321.046	108.5
321.275	111.5
321.504	115.5
321.733	95.5
321.962	108.5
322.191	91.5
322.42	112.5
322.649	122.5
322.878	124.5
323.108	136.5
323.337	135.5
323.566	164.5
323.795	180.5
324.024	252.5
324.253	520.5
324.482	1084.5
324.71	2218.5
324.939	2900.5
325.168	1095.5
325.397	308.5
325.626	176.5
325.855	153.5
326.084	146.5
326.313	152.5
326.542	202.5
326.77	290.5
326.999	561.5
327.228	1118.5
327.457	2173.5
327.686	1767.5
327.914	597.5
328.143	596.5
328.372	788.5
328.6	439.5
328.829	213.5
329.058	210.5
329.287	202.5
329.515	210.5
329.744	285.5
329.972	574.5
330.201	1184.5
330.43	1790.5
330.658	788.5
330.887	300.5
331.115	190.5
331.344	146.5
331.572	131.5
331.801	146.5
332.03	126.5
332.258	127.5
332.486	117.5
332.715	113.5
332.943	122.5
333.172	140.5
333.4	133.5
333.629	176.5
333.857	258.5
334.085	512.5
334.314	1081.5
334.542	2172.5
334.771	2068.5
334.999	526.5
335.227	220.5
335.455	146.5
335.684	138.5
335.912	116.5
336.14	111.5
336.369	116.5
336.597	120.5
336.825	117.5
337.053	94.5
337.281	95.5
337.51	93.5
337.738	94.5
337.966	100.5
338.194	110.5
338.422	114.5
338.65	88.5
338.878	101.5
339.106	112.5
339.334	83.5
339.562	92.5
339.79	97.5
340.018	109.5
340.246	99.5
340.474	98.5
340.702	97.5
340.93	89.5
341.158	86.5
341.386	96.5
341.614	108.5
341.842	114.5
342.07	106.5
342.298	110.5
342.526	92.5
342.754	80.5
342.981	91.5
343.209	103.5
343.437	96.5
343.665	96.5
343.893	98.5
344.12	102.5
344.348	83.5
344.576	101.5
344.804	95.5
345.031	105.5
345.259	120.5
345.487	103.5
345.714	105.5
345.942	92.5
346.17	103.5
346.397	102.5
346.625	94.5
346.853	110.5
347.08	104.5
347.308	93.5
347.535	112.5
347.763	96.5
347.99	97.5
348.218	111.5
348.445	118.5
348.673	114.5
348.9	90.5
349.128	110.5
349.355	99.5
349.583	97.5
349.81	97.5
350.037	109.5
350.265	90.5
350.492	94.5
350.72	97.5
350.947	101.5
351.174	132.5
351.402	118.5
351.629	117.5
351.856	108.5
352.083	118.5
352.311	126.5
352.538	116.5
352.765	111.5
352.992	121.5
353.22	94.5
353.447	105.5
353.674	101.5
353.901	111.5
354.128	91.5
354.355	103.5
354.583	105.5
354.81	109.5
355.037	110.5
355.264	92.5
355.491	94.5
355.718	96.5
355.945	84.5
356.172	94.5
356.399	86.5
356.626	80.5
356.853	89.5
357.08	91.5
357.307	109.5
357.534	97.5
357.761	92.5
357.988	90.5
358.215	86.5
358.441	94.5
358.668	89.5
358.895	103.5
359.122	93.5
359.349	105.5
359.576	101.5
359.802	110.5
360.029	148.5
360.256	114.5
360.483	125.5
360.709	94.5
360.936	121.5
361.163	110.5
361.39	102.5
361.616	98.5
361.843	97.5
362.07	103.5
362.296	94.5
362.523	92.5
362.749	108.5
362.976	94.5
363.203	115.5
363.429	95.5
363.656	76.5
363.882	108.5
364.109	104.5
364.335	87.5
364.562	99.5
364.788	103.5
365.015	113.5
365.241	112.5
365.468	127.5
365.694	116.5
365.92	101.5
366.147	89.5
366.373	103.5
366.599	88.5
366.826	90.5
367.052	90.5
367.278	98.5
367.505	91.5
367.731	105.5
367.957	91.5
368.184	109.5
368.41	110.5
368.636	126.5
368.862	133.5
369.089	126.5
369.315	105.5
369.541	100.5
369.767	97.5
369.993	80.5
370.219	93.5
370.445	83.5
370.672	98.5
370.898	81.5
371.124	87.5
371.35	98.5
371.576	94.5
371.802	93.5
372.028	86.5
372.254	88.5
372.48	80.5
372.706	83.5
372.932	70.5
373.158	80.5
373.384	95.5
373.61	92.5
373.835	93.5
374.061	75.5
374.287	92.5
374.513	84.5
374.739	87.5
374.965	79.5
375.191	92.5
375.416	84.5
375.642	97.5
375.868	100.5
376.094	91.5
376.319	84.5
376.545	92.5
376.771	90.5
376.997	87.5
377.222	96.5
377.448	94.5
377.674	89.5
377.899	97.5
378.125	80.5
378.35	93.5
378.576	78.5
378.802	74.5
379.027	95.5
379.253	91.5
379.478	88.5
379.704	81.5
379.929	89.5
380.155	86.5
380.38	84.5
380.606	98.5
380.831	101.5
381.057	84.5
381.282	93.5
381.507	99.5
381.733	89.5
381.958	92.5
382.184	101.5
382.409	95.5
382.634	98.5
382.86	99.5
383.085	101.5
383.31	86.5
383.535	97.5
383.761	87.5
383.986	105.5
384.211	97.5
384.436	102.5
384.662	104.5
384.887	95.5
385.112	91.5
385.337	85.5
385.562	101.5
385.787	98.5
386.013	109.5
386.238	124.5
386.463	106.5
386.688	104.5
386.913	90.5
387.138	100.5
387.363	87.5
387.588	86.5
387.813	85.5
388.038	95.5
388.263	109.5
388.488	88.5
388.713	101.5
388.938	95.5
389.163	88.5
389.387	85.5
389.612	91.5
389.837	83.5
390.062	85.5
390.287	85.5
390.512	96.5
390.736	76.5
390.961	82.5
391.186	94.5
391.411	102.5
391.636	105.5
391.86	87.5
392.085	73.5
392.31	89.5
392.534	96.5
392.759	85.5
392.984	75.5
393.208	82.5
393.433	81.5
393.658	80.5
393.882	87.5
394.107	85.5
394.331	82.5
394.556	82.5
394.78	93.5
395.005	71.5
395.229	83.5
395.454	67.5
395.678	89.5
395.903	95.5
396.127	91.5
396.352	85.5
396.576	78.5
396.801	87.5
397.025	80.5
397.249	89.5
397.474	87.5
397.698	99.5
397.922	96.5
398.147	91.5
398.371	91.5
398.595	98.5
398.82	94.5
399.044	83.5
399.268	73.5
399.492	87.5
399.717	89.5
399.941	95.5
400.165	86.5
400.389	71.5
400.613	94.5
400.837	82.5
401.062	84.5
401.286	97.5
401.51	79.5
401.734	97.5
401.958	124.5
402.182	138.5
402.406	190.5
402.63	153.5
402.854	107.5
403.078	91.5
403.302	102.5
403.526	99.5
403.75	91.5
403.974	101.5
404.198	92.5
404.422	94.5
404.645	101.5
404.869	102.5
405.093	115.5
405.317	151.5
405.541	161.5
405.765	127.5
405.988	140.5
406.212	225.5
406.436	308.5
406.66	192.5
406.883	136.5
407.107	111.5
407.331	92.5
407.555	112.5
407.778	111.5
408.002	97.5
408.226	86.5
408.449	86.5
408.673	103.5
408.896	93.5
409.12	114.5
409.344	84.5
409.567	87.5
409.791	94.5
410.014	87.5
410.238	94.5
410.461	96.5
410.685	80.5
410.908	103.5
411.132	101.5
411.355	121.5
411.578	104.5
411.802	89.5
412.025	98.5
412.249	102.5
412.472	137.5
412.695	137.5
412.919	114.5
413.142	102.5
413.365	93.5
413.589	94.5
413.812	90.5
414.035	101.5
414.258	101.5
414.482	101.5
414.705	95.5
414.928	86.5
415.151	98.5
415.374	96.5
415.597	85.5
415.821	102.5
416.044	88.5
416.267	102.5
416.49	87.5
416.713	81.5
416.936	89.5
417.159	99.5
417.382	102.5
417.605	94.5
417.828	104.5
418.051	93.5
418.274	78.5
418.497	83.5
418.72	99.5
418.943	93.5
419.166	85.5
419.389	93.5
419.611	93.5
419.834	82.5
420.057	85.5
420.28	112.5
420.503	98.5
420.726	101.5
420.948	108.5
421.171	102.5
421.394	111.5
421.617	85.5
421.839	82.5
422.062	88.5
422.285	95.5
422.507	104.5
422.73	120.5
422.953	100.5
423.175	95.5
423.398	81.5
423.621	100.5
423.843	84.5
424.066	78.5
424.288	79.5
424.511	85.5
424.733	112.5
424.956	132.5
425.178	116.5
425.401	115.5
425.623	108.5
425.846	107.5
426.068	87.5
426.291	104.5
426.513	88.5
426.735	95.5
426.958	102.5
427.18	135.5
427.402	191.5
427.625	260.5
427.847	248.5
428.069	246.5
428.292	128.5
428.514	108.5
428.736	97.5
428.958	89.5
429.181	85.5
429.403	76.5
429.625	102.5
429.847	94.5
430.069	115.5
430.292	105.5
430.514	95.5
430.736	92.5
430.958	107.5
431.18	63.5
431.402	86.5
431.624	79.5
431.846	80.5
432.068	72.5
432.29	76.5
432.512	94.5
432.734	90.5
432.956	85.5
433.178	104.5
433.4	102.5
433.622	82.5
433.844	96.5
434.066	85.5
434.287	90.5
434.509	93.5
434.731	80.5
434.953	87.5
435.175	87.5
435.397	93.5
435.618	101.5
435.84	124.5
436.062	156.5
436.284	126.5
436.505	105.5
436.727	92.5
436.949	103.5
437.17	103.5
437.392	90.5
437.614	92.5
437.835	134.5
438.057	160.5
438.278	132.5
438.5	130.5
438.721	137.5
438.943	116.5
439.165	92.5
439.386	89.5
439.608	94.5
439.829	123.5
440.05	164.5
440.272	183.5
440.493	105.5
440.715	85.5
440.936	83.5
441.158	84.5
441.379	100.5
441.6	101.5
441.822	112.5
442.043	102.5
442.264	134.5
442.486	120.5
442.707	99.5
442.928	135.5
443.149	180.5
443.371	181.5
443.592	128.5
443.813	137.5
444.034	135.5
444.255	107.5
444.476	79.5
444.698	80.5
444.919	97.5
445.14	138.5
445.361	146.5
445.582	145.5
445.803	209.5
446.024	179.5
446.245	174.5
446.466	135.5
446.687	92.5
446.908	83.5
447.129	89.5
447.35	95.5
447.571	89.5
447.792	102.5
448.013	105.5
448.234	121.5
448.455	114.5
448.675	148.5
448.896	159.5
449.117	113.5
449.338	112.5
449.559	162.5
449.779	158.5
450	96.5
450.221	92.5
450.442	104.5
450.662	110.5
450.883	135.5
451.104	130.5
451.324	125.5
451.545	88.5
451.766	74.5
451.986	87.5
452.207	92.5
452.428	89.5
452.648	114.5
452.869	125.5
453.089	139.5
453.31	154.5
453.53	109.5
453.751	89.5
453.971	112.5
454.192	151.5
454.412	108.5
454.633	84.5
454.853	80.5
455.073	92.5
455.294	90.5
455.514	124.5
455.734	92.5
455.955	86.5
456.175	95.5
456.395	95.5
456.616	88.5
456.836	80.5
457.056	93.5
457.276	92.5
457.497	84.5
457.717	82.5
457.937	86.5
458.157	79.5
458.377	108.5
458.598	142.5
458.818	217.5
459.038	230.5
459.258	146.5
459.478	95.5
459.698	101.5
459.918	88.5
460.138	99.5
460.358	84.5
460.578	88.5
460.798	88.5
461.018	97.5
461.238	88.5
461.458	76.5
461.678	98.5
461.898	100.5
462.118	90.5
462.338	87.5
462.558	70.5
462.777	95.5
462.997	101.5
463.217	115.5
463.437	105.5
463.657	83.5
463.876	94.5
464.096	76.5
464.316	103.5
464.536	94.5
464.755	81.5
464.975	114.5
465.195	231.5
465.414	236.5
465.634	99.5
465.854	91.5
466.073	95.5
466.293	90.5
466.512	97.5
466.732	87.5
466.951	94.5
467.171	109.5
467.391	111.5
467.61	153.5
467.829	227.5
468.049	664.5
468.268	1060.5
468.488	276.5
468.707	127.5
468.927	97.5
469.146	93.5
469.365	94.5
469.585	96.5
469.804	112.5
470.023	113.5
470.243	121.5
470.462	110.5
470.681	159.5
470.901	93.5
471.12	104.5
471.339	103.5
471.558	126.5
471.777	166.5
471.997	345.5
472.216	1311.5
472.435	3098.5
472.654	748.5
472.873	191.5
473.092	125.5
473.311	101.5
473.53	87.5
473.749	102.5
473.968	110.5
474.187	142.5
474.406	120.5
474.625	90.5
474.844	106.5
475.063	99.5
475.282	91.5
475.501	90.5
475.72	99.5
475.939	94.5
476.158	95.5
476.377	103.5
476.596	101.5
476.814	97.5
477.033	104.5
477.252	96.5
477.471	96.5
477.69	90.5
477.908	88.5
478.127	100.5
478.346	92.5
478.564	96.5
478.783	121.5
479.002	117.5
479.22	115.5
479.439	139.5
479.658	132.5
479.876	124.5
480.095	129.5
480.313	139.5
480.532	169.5
480.751	317.5
480.969	1154.5
481.188	5022.5
481.406	3093.5
481.624	440.5
481.843	140.5
482.061	126.5
482.28	102.5
482.498	98.5
482.717	112.5
482.935	91.5
483.153	98.5
483.372	88.5
483.59	107.5
483.808	85.5
484.027	91.5
484.245	97.5
484.463	98.5
484.681	97.5
484.9	101.5
485.118	103.5
485.336	103.5
485.554	96.5
485.772	99.5
485.99	116.5
486.209	96.5
486.427	105.5
486.645	112.5
486.863	129.5
487.081	114.5
487.299	94.5
487.517	88.5
487.735	82.5
487.953	96.5
488.171	96.5
488.389	119.5
488.607	104.5
488.825	88.5
489.043	81.5
489.261	86.5
489.479	79.5
489.696	100.5
489.914	95.5
490.132	89.5
490.35	95.5
490.568	93.5
490.786	90.5
491.003	84.5
491.221	86.5
491.439	93.5
491.657	99.5
491.874	84.5
492.092	95.5
492.31	109.5
492.527	109.5
492.745	92.5
492.963	101.5
493.18	86.5
493.398	87.5
493.615	87.5
493.833	90.5
494.05	105.5
494.268	108.5
494.485	102.5
494.703	91.5
494.92	88.5
495.138	88.5
495.355	97.5
495.573	102.5
495.79	98.5
496.008	95.5
496.225	97.5
496.442	95.5
496.66	94.5
496.877	93.5
497.094	103.5
497.312	85.5
497.529	94.5
497.746	90.5
497.963	92.5
498.181	102.5
498.398	98.5
498.615	115.5
498.832	98.5
499.049	94.5
499.267	110.5
499.484	82.5
499.701	86.5
499.918	88.5
500.135	108.5
500.352	98.5
500.569	108.5
500.786	115.5
501.003	85.5
501.22	104.5
501.437	84.5
501.654	96.5
501.871	124.5
502.088	92.5
502.305	87.5
502.522	96.5
502.739	100.5
502.956	80.5
503.172	97.5
503.389	109.5
503.606	122.5
503.823	108.5
504.04	94.5
504.256	91.5
504.473	94.5
504.69	93.5
504.907	104.5
505.123	94.5
505.34	88.5
505.557	83.5
505.773	91.5
505.99	92.5
506.207	87.5
506.423	89.5
506.64	85.5
506.856	88.5
507.073	89.5
507.289	89.5
507.506	98.5
507.722	136.5
507.939	124.5
508.155	114.5
508.372	97.5
508.588	98.5
508.805	92.5
509.021	93.5
509.238	102.5
509.454	101.5
509.67	87.5
509.887	108.5
510.103	135.5
510.319	241.5
510.536	927.5
510.752	3193.5
510.968	921.5
511.184	214.5
511.401	142.5
511.617	101.5
511.833	119.5
512.049	92.5
512.265	81.5
512.481	90.5
512.698	99.5
512.914	89.5
513.13	86.5
513.346	77.5
513.562	101.5
513.778	93.5
513.994	105.5
514.21	112.5
514.426	143.5
514.642	178.5
514.858	164.5
515.074	223.5
515.29	702.5
515.506	2534.5
515.721	956.5
515.937	217.5
516.153	139.5
516.369	121.5
516.585	115.5
516.801	95.5
517.016	104.5
517.232	99.5
517.448	102.5
517.664	105.5
517.879	92.5
518.095	101.5
518.311	120.5
518.527	114.5
518.742	103.5
518.958	105.5
519.173	102.5
519.389	94.5
519.605	111.5
519.82	96.5
520.036	121.5
520.251	148.5
520.467	129.5
520.682	120.5
520.898	136.5
521.113	147.5
521.329	190.5
521.544	300.5
521.76	881.5
521.975	4193.5
522.19	2614.5
522.406	526.5
522.621	182.5
522.836	103.5
523.052	104.5
523.267	98.5
523.482	87.5
523.698	98.5
523.913	141.5
524.128	114.5
524.343	104.5
524.559	91.5
524.774	95.5
524.989	101.5
525.204	121.5
525.419	112.5
525.634	106.5
525.849	88.5
526.064	96.5
526.28	104.5
526.495	88.5
526.71	93.5
526.925	90.5
527.14	95.5
527.355	95.5
527.57	103.5
527.785	97.5
527.999	97.5
528.214	85.5
528.429	79.5
528.644	101.5
528.859	111.5
529.074	90.5
529.289	159.5
529.503	292.5
529.718	126.5
529.933	111.5
530.148	100.5
530.363	90.5
530.577	92.5
530.792	97.5
531.007	85.5
531.221	92.5
531.436	82.5
531.651	96.5
