Data from Circ_2023_H10_HRD10591_00014.txt Node
Date: Wed Jan 03 09:50:33 EST 2024
User: Yrep
Spectrometer: HR+D1059
Trigger mode: 1
Integration Time (sec): 1.000000E-1
Scans to average: 1
Electric dark correction enabled: true
Nonlinearity correction enabled: false
Boxcar width: 0
XAxis mode: Wavelengths
Number of Pixels in Spectrum: 2048
>>>>>Begin Spectral Data<<<<<
223.165	-15.75
223.4	-15.75
223.635	-15.75
223.869	-24.75
224.104	-24.75
224.338	-11.75
224.573	-9.75
224.808	-13.75
225.042	-6.75
225.277	-7.75
225.511	-10.75
225.746	7.25
225.98	20.25
226.215	11.25
226.449	31.25
226.683	15.25
226.918	20.25
227.152	20.25
227.387	45.25
227.621	38.25
227.856	32.25
228.09	47.25
228.324	63.25
228.559	64.25
228.793	67.25
229.027	47.25
229.262	81.25
229.496	79.25
229.73	99.25
229.964	100.25
230.199	91.25
230.433	67.25
230.667	81.25
230.901	90.25
231.136	84.25
231.37	93.25
231.604	86.25
231.838	93.25
232.072	78.25
232.306	82.25
232.541	69.25
232.775	73.25
233.009	80.25
233.243	89.25
233.477	81.25
233.711	78.25
233.945	82.25
234.179	66.25
234.413	78.25
234.647	74.25
234.881	81.25
235.115	68.25
235.349	75.25
235.583	88.25
235.817	83.25
236.051	75.25
236.285	83.25
236.519	76.25
236.753	79.25
236.987	87.25
237.221	99.25
237.455	91.25
237.689	89.25
237.922	73.25
238.156	79.25
238.39	73.25
238.624	85.25
238.858	76.25
239.091	81.25
239.325	81.25
239.559	77.25
239.793	69.25
240.027	68.25
240.26	75.25
240.494	80.25
240.728	89.25
240.961	86.25
241.195	90.25
241.429	77.25
241.662	63.25
241.896	86.25
242.13	91.25
242.363	88.25
242.597	83.25
242.83	89.25
243.064	85.25
243.298	88.25
243.531	74.25
243.765	82.25
243.998	73.25
244.232	78.25
244.465	82.25
244.699	87.25
244.932	79.25
245.166	74.25
245.399	78.25
245.633	90.25
245.866	96.25
246.099	90.25
246.333	75.25
246.566	78.25
246.8	86.25
247.033	66.25
247.266	83.25
247.5	72.25
247.733	75.25
247.966	84.25
248.2	74.25
248.433	80.25
248.666	74.25
248.899	76.25
249.133	87.25
249.366	104.25
249.599	106.25
249.832	90.25
250.066	77.25
250.299	89.25
250.532	86.25
250.765	76.25
250.998	95.25
251.231	80.25
251.465	85.25
251.698	87.25
251.931	89.25
252.164	81.25
252.397	80.25
252.63	76.25
252.863	85.25
253.096	88.25
253.329	84.25
253.562	81.25
253.795	86.25
254.028	82.25
254.261	88.25
254.494	83.25
254.727	96.25
254.96	89.25
255.193	75.25
255.426	88.25
255.659	84.25
255.892	95.25
256.124	113.25
256.357	89.25
256.59	84.25
256.823	80.25
257.056	98.25
257.289	94.25
257.521	83.25
257.754	88.25
257.987	87.25
258.22	91.25
258.452	93.25
258.685	90.25
258.918	88.25
259.151	74.25
259.383	88.25
259.616	93.25
259.849	82.25
260.081	86.25
260.314	68.25
260.547	84.25
260.779	96.25
261.012	103.25
261.244	97.25
261.477	93.25
261.71	86.25
261.942	130.25
262.175	135.25
262.407	87.25
262.64	84.25
262.872	81.25
263.105	95.25
263.337	88.25
263.57	87.25
263.802	86.25
264.035	81.25
264.267	83.25
264.499	81.25
264.732	87.25
264.964	94.25
265.197	84.25
265.429	90.25
265.661	81.25
265.894	82.25
266.126	83.25
266.358	79.25
266.591	82.25
266.823	78.25
267.055	90.25
267.287	92.25
267.52	101.25
267.752	85.25
267.984	88.25
268.216	78.25
268.448	92.25
268.681	87.25
268.913	87.25
269.145	89.25
269.377	88.25
269.609	85.25
269.841	95.25
270.073	75.25
270.306	75.25
270.538	85.25
270.77	64.25
271.002	92.25
271.234	89.25
271.466	80.25
271.698	89.25
271.93	88.25
272.162	94.25
272.394	96.25
272.626	93.25
272.858	98.25
273.09	94.25
273.322	83.25
273.553	78.25
273.785	78.25
274.017	96.25
274.249	96.25
274.481	92.25
274.713	101.25
274.945	91.25
275.176	89.25
275.408	100.25
275.64	109.25
275.872	86.25
276.104	99.25
276.335	110.25
276.567	104.25
276.799	145.25
277.031	158.25
277.262	188.25
277.494	148.25
277.726	98.25
277.957	95.25
278.189	74.25
278.421	82.25
278.652	78.25
278.884	88.25
279.115	95.25
279.347	85.25
279.579	95.25
279.81	135.25
280.042	162.25
280.273	219.25
280.505	166.25
280.736	117.25
280.968	93.25
281.199	102.25
281.431	101.25
281.662	95.25
281.894	100.25
282.125	112.25
282.356	137.25
282.588	173.25
282.819	141.25
283.051	82.25
283.282	98.25
283.513	100.25
283.745	89.25
283.976	93.25
284.207	91.25
284.439	90.25
284.67	90.25
284.901	75.25
285.132	80.25
285.364	87.25
285.595	92.25
285.826	88.25
286.057	100.25
286.288	95.25
286.52	78.25
286.751	105.25
286.982	93.25
287.213	78.25
287.444	100.25
287.675	97.25
287.906	87.25
288.138	89.25
288.369	102.25
288.6	84.25
288.831	83.25
289.062	90.25
289.293	94.25
289.524	91.25
289.755	94.25
289.986	87.25
290.217	72.25
290.448	86.25
290.679	87.25
290.91	85.25
291.141	95.25
291.371	88.25
291.602	83.25
291.833	86.25
292.064	89.25
292.295	89.25
292.526	101.25
292.757	94.25
292.987	104.25
293.218	96.25
293.449	96.25
293.68	79.25
293.91	97.25
294.141	110.25
294.372	97.25
294.603	94.25
294.833	95.25
295.064	90.25
295.295	91.25
295.525	97.25
295.756	91.25
295.987	131.25
296.217	163.25
296.448	153.25
296.679	115.25
296.909	99.25
297.14	93.25
297.37	95.25
297.601	98.25
297.831	87.25
298.062	90.25
298.292	94.25
298.523	82.25
298.753	84.25
298.984	89.25
299.214	86.25
299.445	85.25
299.675	99.25
299.905	97.25
300.136	100.25
300.366	108.25
300.597	86.25
300.827	93.25
301.057	101.25
301.288	127.25
301.518	110.25
301.748	96.25
301.979	106.25
302.209	119.25
302.439	93.25
302.669	81.25
302.9	87.25
303.13	110.25
303.36	114.25
303.59	139.25
303.82	156.25
304.051	119.25
304.281	90.25
304.511	93.25
304.741	86.25
304.971	95.25
305.201	97.25
305.431	99.25
305.661	87.25
305.891	96.25
306.121	105.25
306.352	104.25
306.582	121.25
306.812	110.25
307.042	106.25
307.272	141.25
307.502	155.25
307.731	145.25
307.961	117.25
308.191	100.25
308.421	104.25
308.651	89.25
308.881	97.25
309.111	100.25
309.341	96.25
309.571	102.25
309.8	106.25
310.03	106.25
310.26	104.25
310.49	102.25
310.72	106.25
310.949	119.25
311.179	109.25
311.409	81.25
311.639	105.25
311.868	98.25
312.098	106.25
312.328	97.25
312.557	120.25
312.787	138.25
313.017	95.25
313.246	98.25
313.476	101.25
313.706	104.25
313.935	97.25
314.165	110.25
314.394	109.25
314.624	119.25
314.853	99.25
315.083	107.25
315.312	88.25
315.542	92.25
315.771	85.25
316.001	101.25
316.23	91.25
316.46	97.25
316.689	89.25
316.919	91.25
317.148	89.25
317.377	103.25
317.607	97.25
317.836	100.25
318.065	96.25
318.295	90.25
318.524	104.25
318.753	92.25
318.983	97.25
319.212	111.25
319.441	111.25
319.67	127.25
319.9	98.25
320.129	100.25
320.358	101.25
320.587	100.25
320.816	86.25
321.046	104.25
321.275	102.25
321.504	111.25
321.733	114.25
321.962	106.25
322.191	102.25
322.42	120.25
322.649	138.25
322.878	146.25
323.108	138.25
323.337	140.25
323.566	151.25
323.795	183.25
324.024	256.25
324.253	542.25
324.482	1149.25
324.71	2408.25
324.939	3176.25
325.168	1175.25
325.397	322.25
325.626	180.25
325.855	159.25
326.084	138.25
326.313	174.25
326.542	192.25
326.77	306.25
326.999	600.25
327.228	1259.25
327.457	2367.25
327.686	1924.25
327.914	581.25
328.143	469.25
328.372	590.25
328.6	358.25
328.829	169.25
329.058	175.25
329.287	200.25
329.515	185.25
329.744	226.25
329.972	402.25
330.201	814.25
330.43	1201.25
330.658	563.25
330.887	267.25
331.115	196.25
331.344	121.25
331.572	118.25
331.801	123.25
332.03	127.25
332.258	128.25
332.486	101.25
332.715	127.25
332.943	134.25
333.172	116.25
333.4	132.25
333.629	162.25
333.857	237.25
334.085	386.25
334.314	769.25
334.542	1481.25
334.771	1463.25
334.999	402.25
335.227	170.25
335.455	128.25
335.684	123.25
335.912	98.25
336.14	107.25
336.369	106.25
336.597	131.25
336.825	111.25
337.053	94.25
337.281	93.25
337.51	94.25
337.738	100.25
337.966	101.25
338.194	110.25
338.422	96.25
338.65	98.25
338.878	95.25
339.106	97.25
339.334	90.25
339.562	90.25
339.79	85.25
340.018	104.25
340.246	112.25
340.474	112.25
340.702	106.25
340.93	82.25
341.158	92.25
341.386	104.25
341.614	110.25
341.842	110.25
342.07	104.25
342.298	103.25
342.526	87.25
342.754	91.25
342.981	92.25
343.209	97.25
343.437	102.25
343.665	97.25
343.893	98.25
344.12	94.25
344.348	109.25
344.576	85.25
344.804	92.25
345.031	125.25
345.259	101.25
345.487	101.25
345.714	109.25
345.942	105.25
346.17	93.25
346.397	98.25
346.625	80.25
346.853	98.25
347.08	102.25
347.308	107.25
347.535	116.25
347.763	123.25
347.99	117.25
348.218	111.25
348.445	133.25
348.673	105.25
348.9	104.25
349.128	108.25
349.355	76.25
349.583	91.25
349.81	88.25
350.037	95.25
350.265	98.25
350.492	102.25
350.72	99.25
350.947	101.25
351.174	118.25
351.402	128.25
351.629	110.25
351.856	105.25
352.083	112.25
352.311	104.25
352.538	111.25
352.765	114.25
352.992	124.25
353.22	113.25
353.447	115.25
353.674	116.25
353.901	98.25
354.128	94.25
354.355	99.25
354.583	82.25
354.81	101.25
355.037	105.25
355.264	84.25
355.491	88.25
355.718	92.25
355.945	75.25
356.172	91.25
356.399	89.25
356.626	94.25
356.853	98.25
357.08	87.25
357.307	97.25
357.534	100.25
357.761	80.25
357.988	81.25
358.215	91.25
358.441	102.25
358.668	86.25
358.895	91.25
359.122	104.25
359.349	83.25
359.576	105.25
359.802	125.25
360.029	151.25
360.256	140.25
360.483	112.25
360.709	80.25
360.936	107.25
361.163	100.25
361.39	99.25
361.616	97.25
361.843	109.25
362.07	94.25
362.296	94.25
362.523	98.25
362.749	93.25
362.976	88.25
363.203	95.25
363.429	96.25
363.656	98.25
363.882	89.25
364.109	98.25
364.335	104.25
364.562	82.25
364.788	84.25
365.015	107.25
365.241	120.25
365.468	113.25
365.694	110.25
365.92	101.25
366.147	111.25
366.373	93.25
366.599	75.25
366.826	94.25
367.052	94.25
367.278	94.25
367.505	90.25
367.731	86.25
367.957	97.25
368.184	99.25
368.41	106.25
368.636	109.25
368.862	131.25
369.089	110.25
369.315	96.25
369.541	92.25
369.767	93.25
369.993	96.25
370.219	86.25
370.445	93.25
370.672	93.25
370.898	89.25
371.124	93.25
371.35	89.25
371.576	99.25
371.802	80.25
372.028	99.25
372.254	100.25
372.48	93.25
372.706	75.25
372.932	97.25
373.158	93.25
373.384	87.25
373.61	86.25
373.835	83.25
374.061	98.25
374.287	86.25
374.513	91.25
374.739	86.25
374.965	100.25
375.191	86.25
375.416	92.25
375.642	88.25
375.868	96.25
376.094	91.25
376.319	97.25
376.545	93.25
376.771	98.25
376.997	74.25
377.222	88.25
377.448	98.25
377.674	98.25
377.899	101.25
378.125	97.25
378.35	90.25
378.576	96.25
378.802	88.25
379.027	89.25
379.253	93.25
379.478	90.25
379.704	80.25
379.929	87.25
380.155	78.25
380.38	109.25
380.606	87.25
380.831	94.25
381.057	98.25
381.282	96.25
381.507	92.25
381.733	93.25
381.958	92.25
382.184	106.25
382.409	96.25
382.634	104.25
382.86	97.25
383.085	96.25
383.31	99.25
383.535	94.25
383.761	96.25
383.986	101.25
384.211	86.25
384.436	97.25
384.662	86.25
384.887	103.25
385.112	106.25
385.337	100.25
385.562	86.25
385.787	109.25
386.013	109.25
386.238	129.25
386.463	97.25
386.688	99.25
386.913	93.25
387.138	85.25
387.363	93.25
387.588	104.25
387.813	85.25
388.038	120.25
388.263	102.25
388.488	109.25
388.713	91.25
388.938	95.25
389.163	84.25
389.387	100.25
389.612	95.25
389.837	108.25
390.062	98.25
390.287	90.25
390.512	84.25
390.736	94.25
390.961	97.25
391.186	85.25
391.411	106.25
391.636	98.25
391.86	90.25
392.085	84.25
392.31	86.25
392.534	86.25
392.759	83.25
392.984	92.25
393.208	98.25
393.433	100.25
393.658	78.25
393.882	79.25
394.107	77.25
394.331	91.25
394.556	89.25
394.78	100.25
395.005	90.25
395.229	71.25
395.454	82.25
395.678	95.25
395.903	91.25
396.127	94.25
396.352	90.25
396.576	90.25
396.801	74.25
397.025	82.25
397.249	83.25
397.474	94.25
397.698	87.25
397.922	85.25
398.147	76.25
398.371	95.25
398.595	97.25
398.82	93.25
399.044	83.25
399.268	99.25
399.492	90.25
399.717	85.25
399.941	81.25
400.165	103.25
400.389	89.25
400.613	89.25
400.837	87.25
401.062	108.25
401.286	89.25
401.51	110.25
401.734	110.25
401.958	109.25
402.182	151.25
402.406	207.25
402.63	159.25
402.854	117.25
403.078	94.25
403.302	96.25
403.526	97.25
403.75	88.25
403.974	83.25
404.198	93.25
404.422	81.25
404.645	83.25
404.869	106.25
405.093	118.25
405.317	139.25
405.541	150.25
405.765	129.25
405.988	131.25
406.212	232.25
406.436	318.25
406.66	216.25
406.883	135.25
407.107	104.25
407.331	96.25
407.555	125.25
407.778	99.25
408.002	92.25
408.226	102.25
408.449	91.25
408.673	116.25
408.896	102.25
409.12	116.25
409.344	102.25
409.567	100.25
409.791	96.25
410.014	79.25
410.238	104.25
410.461	103.25
410.685	87.25
410.908	112.25
411.132	109.25
411.355	106.25
411.578	106.25
411.802	84.25
412.025	85.25
412.249	92.25
412.472	114.25
412.695	143.25
412.919	105.25
413.142	92.25
413.365	79.25
413.589	86.25
413.812	93.25
414.035	90.25
414.258	93.25
414.482	95.25
414.705	89.25
414.928	96.25
415.151	106.25
415.374	101.25
415.597	98.25
415.821	81.25
416.044	89.25
416.267	80.25
416.49	86.25
416.713	93.25
416.936	79.25
417.159	86.25
417.382	99.25
417.605	105.25
417.828	125.25
418.051	90.25
418.274	93.25
418.497	89.25
418.72	87.25
418.943	91.25
419.166	88.25
419.389	91.25
419.611	83.25
419.834	101.25
420.057	90.25
420.28	93.25
420.503	96.25
420.726	98.25
420.948	90.25
421.171	103.25
421.394	114.25
421.617	84.25
421.839	89.25
422.062	102.25
422.285	89.25
422.507	119.25
422.73	108.25
422.953	109.25
423.175	90.25
423.398	95.25
423.621	79.25
423.843	81.25
424.066	79.25
424.288	80.25
424.511	93.25
424.733	115.25
424.956	121.25
425.178	104.25
425.401	110.25
425.623	113.25
425.846	105.25
426.068	93.25
426.291	79.25
426.513	102.25
426.735	97.25
426.958	104.25
427.18	114.25
427.402	185.25
427.625	269.25
427.847	244.25
428.069	235.25
428.292	118.25
428.514	89.25
428.736	95.25
428.958	75.25
429.181	77.25
429.403	89.25
429.625	81.25
429.847	97.25
430.069	117.25
430.292	98.25
430.514	100.25
430.736	85.25
430.958	93.25
431.18	88.25
431.402	99.25
431.624	81.25
431.846	89.25
432.068	88.25
432.29	91.25
432.512	83.25
432.734	91.25
432.956	93.25
433.178	97.25
433.4	95.25
433.622	106.25
433.844	87.25
434.066	96.25
434.287	101.25
434.509	82.25
434.731	81.25
434.953	81.25
435.175	90.25
435.397	94.25
435.618	106.25
435.84	112.25
436.062	150.25
436.284	132.25
436.505	117.25
436.727	111.25
436.949	102.25
437.17	86.25
437.392	86.25
437.614	95.25
437.835	125.25
438.057	147.25
438.278	125.25
438.5	115.25
438.721	137.25
438.943	127.25
439.165	80.25
439.386	87.25
439.608	101.25
439.829	121.25
440.05	157.25
440.272	204.25
440.493	106.25
440.715	83.25
440.936	90.25
441.158	92.25
441.379	99.25
441.6	109.25
441.822	107.25
442.043	122.25
442.264	138.25
442.486	128.25
442.707	93.25
442.928	125.25
443.149	171.25
443.371	166.25
443.592	138.25
443.813	135.25
444.034	131.25
444.255	103.25
444.476	79.25
444.698	95.25
444.919	88.25
445.14	127.25
445.361	154.25
445.582	146.25
445.803	207.25
446.024	181.25
446.245	173.25
446.466	137.25
446.687	101.25
446.908	85.25
447.129	87.25
447.35	105.25
447.571	87.25
447.792	102.25
448.013	121.25
448.234	125.25
448.455	112.25
448.675	129.25
448.896	147.25
449.117	122.25
449.338	122.25
449.559	135.25
449.779	165.25
450	101.25
450.221	109.25
450.442	95.25
450.662	96.25
450.883	136.25
451.104	136.25
451.324	102.25
451.545	96.25
451.766	90.25
451.986	106.25
452.207	90.25
452.428	91.25
452.648	116.25
452.869	136.25
453.089	143.25
453.31	155.25
453.53	112.25
453.751	110.25
453.971	125.25
454.192	146.25
454.412	97.25
454.633	79.25
454.853	107.25
455.073	99.25
455.294	97.25
455.514	124.25
455.734	112.25
455.955	102.25
456.175	81.25
456.395	88.25
456.616	94.25
456.836	88.25
457.056	84.25
457.276	90.25
457.497	95.25
457.717	90.25
457.937	86.25
458.157	100.25
458.377	105.25
458.598	136.25
458.818	209.25
459.038	234.25
459.258	157.25
459.478	95.25
459.698	93.25
459.918	92.25
460.138	84.25
460.358	93.25
460.578	85.25
460.798	88.25
461.018	91.25
461.238	87.25
461.458	79.25
461.678	84.25
461.898	81.25
462.118	97.25
462.338	89.25
462.558	87.25
462.777	85.25
462.997	82.25
463.217	96.25
463.437	97.25
463.657	98.25
463.876	93.25
464.096	94.25
464.316	103.25
464.536	99.25
464.755	106.25
464.975	125.25
465.195	231.25
465.414	227.25
465.634	127.25
465.854	95.25
466.073	99.25
466.293	84.25
466.512	97.25
466.732	82.25
466.951	106.25
467.171	101.25
467.391	111.25
467.61	125.25
467.829	180.25
468.049	443.25
468.268	675.25
468.488	195.25
468.707	117.25
468.927	80.25
469.146	99.25
469.365	86.25
469.585	84.25
469.804	105.25
470.023	100.25
470.243	100.25
470.462	122.25
470.681	149.25
470.901	113.25
471.12	89.25
471.339	114.25
471.558	88.25
471.777	142.25
471.997	232.25
472.216	850.25
472.435	1967.25
472.654	529.25
472.873	154.25
473.092	102.25
473.311	98.25
473.53	79.25
473.749	100.25
473.968	105.25
474.187	131.25
474.406	100.25
474.625	90.25
474.844	90.25
475.063	92.25
475.282	101.25
475.501	84.25
475.72	83.25
475.939	84.25
476.158	96.25
476.377	104.25
476.596	94.25
476.814	96.25
477.033	100.25
477.252	95.25
477.471	97.25
477.69	90.25
477.908	111.25
478.127	100.25
478.346	86.25
478.564	89.25
478.783	103.25
479.002	110.25
479.22	94.25
479.439	123.25
479.658	136.25
479.876	129.25
480.095	125.25
480.313	132.25
480.532	152.25
480.751	235.25
480.969	782.25
481.188	3311.25
481.406	2162.25
481.624	318.25
481.843	129.25
482.061	100.25
482.28	106.25
482.498	100.25
482.717	108.25
482.935	97.25
483.153	75.25
483.372	96.25
483.59	97.25
483.808	92.25
484.027	86.25
484.245	99.25
484.463	105.25
484.681	87.25
484.9	86.25
485.118	91.25
485.336	72.25
485.554	89.25
485.772	105.25
485.99	96.25
486.209	95.25
486.427	116.25
486.645	114.25
486.863	146.25
487.081	107.25
487.299	94.25
487.517	81.25
487.735	85.25
487.953	101.25
488.171	106.25
488.389	102.25
488.607	112.25
488.825	101.25
489.043	87.25
489.261	86.25
489.479	97.25
489.696	89.25
489.914	87.25
490.132	103.25
490.35	91.25
490.568	99.25
490.786	88.25
491.003	87.25
491.221	94.25
491.439	95.25
491.657	96.25
491.874	115.25
492.092	94.25
492.31	93.25
492.527	92.25
492.745	101.25
492.963	90.25
493.18	90.25
493.398	90.25
493.615	100.25
493.833	102.25
494.05	97.25
494.268	96.25
494.485	85.25
494.703	96.25
494.92	93.25
495.138	113.25
495.355	98.25
495.573	86.25
495.79	79.25
496.008	108.25
496.225	91.25
496.442	90.25
496.66	97.25
496.877	86.25
497.094	108.25
497.312	98.25
497.529	93.25
497.746	94.25
497.963	96.25
498.181	118.25
498.398	101.25
498.615	115.25
498.832	116.25
499.049	89.25
499.267	103.25
499.484	94.25
499.701	105.25
499.918	109.25
500.135	89.25
500.352	78.25
500.569	93.25
500.786	95.25
501.003	83.25
501.22	87.25
501.437	88.25
501.654	103.25
501.871	122.25
502.088	103.25
502.305	98.25
502.522	97.25
502.739	96.25
502.956	86.25
503.172	94.25
503.389	113.25
503.606	133.25
503.823	109.25
504.04	98.25
504.256	111.25
504.473	96.25
504.69	96.25
504.907	102.25
505.123	90.25
505.34	94.25
505.557	95.25
505.773	104.25
505.99	98.25
506.207	111.25
506.423	80.25
506.64	102.25
506.856	94.25
507.073	92.25
507.289	95.25
507.506	110.25
507.722	136.25
507.939	145.25
508.155	94.25
508.372	91.25
508.588	96.25
508.805	103.25
509.021	111.25
509.238	109.25
509.454	114.25
509.67	107.25
509.887	131.25
510.103	155.25
510.319	234.25
510.536	973.25
510.752	3384.25
510.968	946.25
511.184	187.25
511.401	131.25
511.617	112.25
511.833	106.25
512.049	100.25
512.265	103.25
512.481	100.25
512.698	121.25
