Data from Circ_2023_H10_HRD10591_00020.txt Node
Date: Wed Jan 03 09:50:35 EST 2024
User: Yrep
Spectrometer: HR+D1059
Trigger mode: 1
Integration Time (sec): 1.000000E-1
Scans to average: 1
Electric dark correction enabled: true
Nonlinearity correction enabled: false
Boxcar width: 0
XAxis mode: Wavelengths
Number of Pixels in Spectrum: 2048
>>>>>Begin Spectral Data<<<<<
223.165	-9.12
223.4	-9.12
223.635	-9.12
223.869	-21.12
224.104	-9.12
224.338	-11.12
224.573	-15.12
224.808	-11.12
225.042	-4.12
225.277	-8.12
225.511	-0.12
225.746	0.88
225.98	-2.12
226.215	14.88
226.449	27.88
226.683	6.88
226.918	12.88
227.152	27.88
227.387	26.88
227.621	43.88
227.856	41.88
228.09	51.88
228.324	51.88
228.559	50.88
228.793	61.88
229.027	64.88
229.262	80.88
229.496	68.88
229.73	93.88
229.964	91.88
230.199	75.88
230.433	72.88
230.667	82.88
230.901	74.88
231.136	69.88
231.37	73.88
231.604	83.88
231.838	78.88
232.072	79.88
232.306	83.88
232.541	86.88
232.775	85.88
233.009	67.88
233.243	81.88
233.477	76.88
233.711	80.88
233.945	90.88
234.179	80.88
234.413	84.88
234.647	86.88
234.881	68.88
235.115	80.88
235.349	86.88
235.583	80.88
235.817	87.88
236.051	84.88
236.285	76.88
236.519	82.88
236.753	82.88
236.987	84.88
237.221	95.88
237.455	97.88
237.689	76.88
237.922	69.88
238.156	92.88
238.39	80.88
238.624	83.88
238.858	84.88
239.091	77.88
239.325	80.88
239.559	79.88
239.793	88.88
240.027	90.88
240.26	80.88
240.494	68.88
240.728	65.88
240.961	75.88
241.195	73.88
241.429	79.88
241.662	75.88
241.896	75.88
242.13	87.88
242.363	87.88
242.597	94.88
242.83	74.88
243.064	80.88
243.298	76.88
243.531	87.88
243.765	77.88
243.998	79.88
244.232	82.88
244.465	85.88
244.699	72.88
244.932	80.88
245.166	70.88
245.399	79.88
245.633	75.88
245.866	75.88
246.099	80.88
246.333	84.88
246.566	83.88
246.8	82.88
247.033	69.88
247.266	65.88
247.5	75.88
247.733	89.88
247.966	75.88
248.2	83.88
248.433	73.88
248.666	87.88
248.899	84.88
249.133	88.88
249.366	88.88
249.599	90.88
249.832	87.88
250.066	85.88
250.299	81.88
250.532	91.88
250.765	71.88
250.998	78.88
251.231	86.88
251.465	82.88
251.698	79.88
251.931	89.88
252.164	81.88
252.397	84.88
252.63	81.88
252.863	83.88
253.096	69.88
253.329	79.88
253.562	95.88
253.795	76.88
254.028	85.88
254.261	89.88
254.494	90.88
254.727	95.88
254.96	89.88
255.193	77.88
255.426	90.88
255.659	71.88
255.892	87.88
256.124	86.88
256.357	86.88
256.59	69.88
256.823	78.88
257.056	76.88
257.289	86.88
257.521	91.88
257.754	89.88
257.987	90.88
258.22	89.88
258.452	103.88
258.685	91.88
258.918	91.88
259.151	87.88
259.383	97.88
259.616	88.88
259.849	96.88
260.081	78.88
260.314	73.88
260.547	95.88
260.779	89.88
261.012	98.88
261.244	91.88
261.477	97.88
261.71	110.88
261.942	134.88
262.175	146.88
262.407	94.88
262.64	84.88
262.872	91.88
263.105	83.88
263.337	86.88
263.57	83.88
263.802	86.88
264.035	71.88
264.267	86.88
264.499	93.88
264.732	89.88
264.964	85.88
265.197	80.88
265.429	84.88
265.661	83.88
265.894	82.88
266.126	76.88
266.358	85.88
266.591	72.88
266.823	94.88
267.055	90.88
267.287	87.88
267.52	82.88
267.752	94.88
267.984	76.88
268.216	90.88
268.448	79.88
268.681	77.88
268.913	84.88
269.145	80.88
269.377	94.88
269.609	80.88
269.841	102.88
270.073	92.88
270.306	94.88
270.538	81.88
270.77	82.88
271.002	90.88
271.234	93.88
271.466	85.88
271.698	84.88
271.93	92.88
272.162	91.88
272.394	96.88
272.626	76.88
272.858	81.88
273.09	85.88
273.322	84.88
273.553	87.88
273.785	89.88
274.017	82.88
274.249	94.88
274.481	88.88
274.713	102.88
274.945	88.88
275.176	92.88
275.408	92.88
275.64	110.88
275.872	122.88
276.104	97.88
276.335	106.88
276.567	115.88
276.799	155.88
277.031	137.88
277.262	170.88
277.494	139.88
277.726	107.88
277.957	73.88
278.189	79.88
278.421	88.88
278.652	92.88
278.884	84.88
279.115	95.88
279.347	105.88
279.579	104.88
279.81	130.88
280.042	179.88
280.273	229.88
280.505	176.88
280.736	100.88
280.968	90.88
281.199	100.88
281.431	88.88
281.662	112.88
281.894	86.88
282.125	123.88
282.356	139.88
282.588	163.88
282.819	145.88
283.051	98.88
283.282	84.88
283.513	96.88
283.745	98.88
283.976	89.88
284.207	94.88
284.439	89.88
284.67	76.88
284.901	80.88
285.132	80.88
285.364	91.88
285.595	82.88
285.826	83.88
286.057	88.88
286.288	94.88
286.52	77.88
286.751	93.88
286.982	81.88
287.213	82.88
287.444	82.88
287.675	80.88
287.906	77.88
288.138	95.88
288.369	88.88
288.6	90.88
288.831	97.88
289.062	101.88
289.293	88.88
289.524	89.88
289.755	82.88
289.986	66.88
290.217	72.88
290.448	85.88
290.679	92.88
290.91	78.88
291.141	89.88
291.371	95.88
291.602	97.88
291.833	94.88
292.064	95.88
292.295	88.88
292.526	99.88
292.757	85.88
292.987	88.88
293.218	80.88
293.449	97.88
293.68	98.88
293.91	82.88
294.141	83.88
294.372	89.88
294.603	90.88
294.833	94.88
295.064	90.88
295.295	87.88
295.525	96.88
295.756	99.88
295.987	134.88
296.217	158.88
296.448	137.88
296.679	94.88
296.909	98.88
297.14	97.88
297.37	104.88
297.601	115.88
297.831	89.88
298.062	87.88
298.292	99.88
298.523	88.88
298.753	100.88
298.984	99.88
299.214	97.88
299.445	87.88
299.675	90.88
299.905	120.88
300.136	86.88
300.366	102.88
300.597	87.88
300.827	82.88
301.057	102.88
301.288	113.88
301.518	106.88
301.748	87.88
301.979	104.88
302.209	97.88
302.439	88.88
302.669	95.88
302.9	98.88
303.13	98.88
303.36	112.88
303.59	134.88
303.82	136.88
304.051	99.88
304.281	91.88
304.511	88.88
304.741	91.88
304.971	99.88
305.201	87.88
305.431	100.88
305.661	86.88
305.891	90.88
306.121	103.88
306.352	119.88
306.582	119.88
306.812	129.88
307.042	121.88
307.272	139.88
307.502	171.88
307.731	137.88
307.961	112.88
308.191	107.88
308.421	96.88
308.651	96.88
308.881	79.88
309.111	84.88
309.341	93.88
309.571	110.88
309.8	111.88
310.03	103.88
310.26	124.88
310.49	126.88
310.72	103.88
310.949	103.88
311.179	108.88
311.409	110.88
311.639	104.88
311.868	113.88
312.098	92.88
312.328	94.88
312.557	106.88
312.787	117.88
313.017	126.88
313.246	112.88
313.476	86.88
313.706	94.88
313.935	113.88
314.165	104.88
314.394	121.88
314.624	103.88
314.853	114.88
315.083	100.88
315.312	101.88
315.542	100.88
315.771	102.88
316.001	94.88
316.23	100.88
316.46	98.88
316.689	100.88
316.919	104.88
317.148	96.88
317.377	94.88
317.607	95.88
317.836	89.88
318.065	100.88
318.295	98.88
318.524	94.88
318.753	89.88
318.983	102.88
319.212	110.88
319.441	114.88
319.67	118.88
319.9	90.88
320.129	91.88
320.358	90.88
320.587	107.88
320.816	99.88
321.046	108.88
321.275	97.88
321.504	101.88
321.733	97.88
321.962	109.88
322.191	118.88
322.42	120.88
322.649	120.88
322.878	131.88
323.108	125.88
323.337	143.88
323.566	155.88
323.795	181.88
324.024	251.88
324.253	504.88
324.482	1084.88
324.71	2223.88
324.939	2951.88
325.168	1085.88
325.397	319.88
325.626	171.88
325.855	149.88
326.084	134.88
326.313	149.88
326.542	190.88
326.77	278.88
326.999	565.88
327.228	1183.88
327.457	2134.88
327.686	1736.88
327.914	575.88
328.143	487.88
328.372	614.88
328.6	363.88
328.829	192.88
329.058	184.88
329.287	210.88
329.515	184.88
329.744	248.88
329.972	416.88
330.201	889.88
330.43	1310.88
330.658	614.88
330.887	296.88
331.115	193.88
331.344	122.88
331.572	126.88
331.801	132.88
332.03	106.88
332.258	122.88
332.486	112.88
332.715	112.88
332.943	125.88
333.172	119.88
333.4	130.88
333.629	156.88
333.857	224.88
334.085	396.88
334.314	846.88
334.542	1621.88
334.771	1610.88
334.999	415.88
335.227	185.88
335.455	126.88
335.684	126.88
335.912	119.88
336.14	105.88
336.369	113.88
336.597	101.88
336.825	103.88
337.053	100.88
337.281	112.88
337.51	101.88
337.738	110.88
337.966	97.88
338.194	124.88
338.422	118.88
338.65	100.88
338.878	119.88
339.106	102.88
339.334	97.88
339.562	103.88
339.79	88.88
340.018	89.88
340.246	113.88
340.474	104.88
340.702	107.88
340.93	104.88
341.158	107.88
341.386	91.88
341.614	98.88
341.842	114.88
342.07	115.88
342.298	110.88
342.526	96.88
342.754	97.88
342.981	94.88
343.209	90.88
343.437	91.88
343.665	105.88
343.893	90.88
344.12	88.88
344.348	98.88
344.576	86.88
344.804	86.88
345.031	111.88
345.259	112.88
345.487	111.88
345.714	104.88
345.942	103.88
346.17	98.88
346.397	88.88
346.625	85.88
346.853	94.88
347.08	98.88
347.308	91.88
347.535	93.88
347.763	112.88
347.99	118.88
348.218	119.88
348.445	117.88
348.673	110.88
348.9	107.88
349.128	119.88
349.355	104.88
349.583	103.88
349.81	103.88
350.037	119.88
350.265	99.88
350.492	91.88
350.72	87.88
350.947	105.88
351.174	116.88
351.402	134.88
351.629	113.88
351.856	110.88
352.083	116.88
352.311	116.88
352.538	126.88
352.765	116.88
352.992	122.88
353.22	124.88
353.447	103.88
353.674	100.88
353.901	91.88
354.128	97.88
354.355	97.88
354.583	100.88
354.81	91.88
355.037	94.88
355.264	93.88
355.491	80.88
355.718	86.88
355.945	83.88
356.172	94.88
356.399	94.88
356.626	94.88
356.853	91.88
357.08	83.88
357.307	110.88
357.534	101.88
357.761	91.88
357.988	92.88
358.215	105.88
358.441	98.88
358.668	88.88
358.895	82.88
359.122	95.88
359.349	99.88
359.576	97.88
359.802	111.88
360.029	131.88
360.256	149.88
360.483	127.88
360.709	107.88
360.936	91.88
361.163	113.88
361.39	98.88
361.616	107.88
361.843	103.88
362.07	101.88
362.296	110.88
362.523	97.88
362.749	106.88
362.976	96.88
363.203	86.88
363.429	102.88
363.656	95.88
363.882	80.88
364.109	100.88
364.335	95.88
364.562	83.88
364.788	93.88
365.015	111.88
365.241	102.88
365.468	128.88
365.694	134.88
365.92	129.88
366.147	106.88
366.373	92.88
366.599	104.88
366.826	94.88
367.052	80.88
367.278	97.88
367.505	104.88
367.731	99.88
367.957	94.88
368.184	106.88
368.41	98.88
368.636	123.88
368.862	138.88
369.089	118.88
369.315	114.88
369.541	99.88
369.767	112.88
369.993	102.88
370.219	89.88
370.445	95.88
370.672	82.88
370.898	82.88
371.124	87.88
371.35	70.88
371.576	99.88
371.802	82.88
372.028	86.88
372.254	88.88
372.48	83.88
372.706	74.88
372.932	89.88
373.158	85.88
373.384	105.88
373.61	110.88
373.835	92.88
374.061	89.88
374.287	104.88
374.513	105.88
374.739	93.88
374.965	85.88
375.191	83.88
375.416	95.88
375.642	97.88
375.868	84.88
376.094	87.88
376.319	95.88
376.545	98.88
376.771	85.88
376.997	91.88
377.222	97.88
377.448	94.88
377.674	85.88
377.899	94.88
378.125	91.88
378.35	90.88
378.576	83.88
378.802	85.88
379.027	88.88
379.253	97.88
379.478	83.88
379.704	88.88
379.929	100.88
380.155	91.88
380.38	95.88
380.606	99.88
380.831	89.88
381.057	95.88
381.282	70.88
381.507	87.88
381.733	106.88
381.958	86.88
382.184	110.88
382.409	104.88
382.634	105.88
382.86	99.88
383.085	90.88
383.31	94.88
383.535	103.88
383.761	100.88
383.986	95.88
384.211	83.88
384.436	80.88
384.662	95.88
384.887	112.88
385.112	100.88
385.337	93.88
385.562	82.88
385.787	107.88
386.013	117.88
386.238	132.88
386.463	104.88
386.688	114.88
386.913	98.88
387.138	96.88
387.363	99.88
387.588	115.88
387.813	91.88
388.038	104.88
388.263	106.88
388.488	100.88
388.713	89.88
388.938	99.88
389.163	110.88
389.387	99.88
389.612	95.88
389.837	105.88
390.062	96.88
390.287	84.88
390.512	90.88
390.736	79.88
390.961	90.88
391.186	102.88
391.411	96.88
391.636	99.88
391.86	90.88
392.085	97.88
392.31	91.88
392.534	91.88
392.759	82.88
392.984	101.88
393.208	85.88
393.433	93.88
393.658	95.88
393.882	73.88
394.107	87.88
394.331	86.88
394.556	79.88
394.78	90.88
395.005	90.88
395.229	89.88
395.454	82.88
395.678	113.88
395.903	103.88
396.127	103.88
396.352	86.88
396.576	99.88
396.801	86.88
397.025	97.88
397.249	88.88
397.474	89.88
397.698	75.88
397.922	97.88
398.147	86.88
398.371	96.88
398.595	91.88
398.82	97.88
399.044	85.88
399.268	87.88
399.492	102.88
399.717	94.88
399.941	91.88
400.165	116.88
400.389	96.88
400.613	86.88
400.837	89.88
401.062	97.88
401.286	105.88
401.51	91.88
401.734	98.88
401.958	107.88
402.182	150.88
402.406	194.88
402.63	144.88
402.854	106.88
403.078	86.88
403.302	93.88
403.526	96.88
403.75	87.88
403.974	83.88
404.198	103.88
404.422	78.88
404.645	91.88
404.869	103.88
405.093	117.88
405.317	153.88
405.541	140.88
405.765	130.88
405.988	139.88
406.212	208.88
406.436	323.88
406.66	197.88
406.883	132.88
407.107	117.88
407.331	122.88
407.555	116.88
407.778	104.88
408.002	97.88
408.226	108.88
408.449	87.88
408.673	85.88
408.896	102.88
409.12	104.88
409.344	87.88
409.567	86.88
409.791	89.88
410.014	99.88
410.238	91.88
410.461	84.88
410.685	103.88
410.908	90.88
411.132	95.88
411.355	110.88
411.578	99.88
411.802	94.88
412.025	106.88
412.249	97.88
412.472	122.88
412.695	137.88
412.919	114.88
413.142	96.88
413.365	94.88
413.589	88.88
413.812	103.88
414.035	99.88
414.258	99.88
414.482	108.88
414.705	106.88
414.928	87.88
415.151	91.88
415.374	89.88
415.597	93.88
415.821	83.88
416.044	91.88
416.267	88.88
416.49	89.88
416.713	93.88
416.936	94.88
417.159	112.88
417.382	95.88
417.605	106.88
417.828	120.88
418.051	96.88
418.274	83.88
418.497	81.88
418.72	79.88
418.943	94.88
419.166	95.88
419.389	88.88
419.611	108.88
419.834	95.88
420.057	87.88
420.28	100.88
420.503	88.88
420.726	109.88
420.948	102.88
421.171	108.88
421.394	113.88
421.617	102.88
421.839	103.88
422.062	94.88
422.285	98.88
422.507	117.88
422.73	110.88
422.953	88.88
423.175	110.88
423.398	99.88
423.621	80.88
423.843	87.88
424.066	104.88
424.288	105.88
424.511	92.88
424.733	122.88
424.956	118.88
425.178	122.88
425.401	121.88
425.623	130.88
425.846	100.88
426.068	87.88
426.291	91.88
426.513	74.88
426.735	96.88
426.958	118.88
427.18	131.88
427.402	193.88
427.625	269.88
427.847	257.88
428.069	228.88
428.292	114.88
428.514	99.88
428.736	102.88
428.958	104.88
429.181	92.88
429.403	96.88
429.625	99.88
429.847	103.88
430.069	124.88
430.292	95.88
430.514	94.88
430.736	88.88
430.958	81.88
431.18	94.88
431.402	90.88
431.624	83.88
431.846	90.88
432.068	94.88
432.29	94.88
432.512	96.88
432.734	91.88
432.956	102.88
433.178	100.88
433.4	95.88
433.622	95.88
433.844	87.88
434.066	94.88
434.287	86.88
434.509	102.88
434.731	97.88
434.953	91.88
435.175	96.88
435.397	94.88
435.618	97.88
435.84	114.88
436.062	154.88
436.284	138.88
436.505	104.88
436.727	119.88
436.949	96.88
437.17	105.88
437.392	97.88
437.614	103.88
437.835	127.88
438.057	140.88
438.278	144.88
438.5	118.88
438.721	144.88
438.943	104.88
439.165	87.88
439.386	91.88
439.608	95.88
439.829	120.88
440.05	146.88
440.272	197.88
440.493	122.88
440.715	100.88
440.936	97.88
441.158	100.88
441.379	106.88
441.6	105.88
441.822	116.88
442.043	102.88
442.264	120.88
442.486	123.88
442.707	106.88
442.928	128.88
443.149	166.88
443.371	182.88
443.592	140.88
443.813	135.88
444.034	142.88
444.255	111.88
444.476	100.88
444.698	96.88
444.919	92.88
445.14	151.88
445.361	150.88
445.582	156.88
445.803	188.88
446.024	208.88
446.245	191.88
446.466	134.88
446.687	99.88
446.908	99.88
447.129	83.88
447.35	104.88
447.571	102.88
447.792	108.88
448.013	105.88
448.234	133.88
448.455	131.88
448.675	128.88
448.896	151.88
449.117	115.88
449.338	118.88
449.559	161.88
449.779	172.88
450	91.88
450.221	96.88
450.442	94.88
450.662	93.88
450.883	127.88
451.104	136.88
451.324	126.88
451.545	108.88
451.766	92.88
451.986	87.88
452.207	90.88
452.428	105.88
452.648	118.88
452.869	134.88
453.089	118.88
453.31	144.88
453.53	97.88
453.751	103.88
453.971	131.88
454.192	126.88
454.412	90.88
454.633	89.88
454.853	90.88
455.073	82.88
455.294	99.88
455.514	115.88
455.734	96.88
455.955	87.88
456.175	87.88
456.395	89.88
456.616	101.88
456.836	88.88
457.056	94.88
457.276	92.88
457.497	82.88
457.717	97.88
457.937	87.88
458.157	103.88
458.377	94.88
458.598	128.88
458.818	216.88
459.038	234.88
459.258	153.88
459.478	100.88
459.698	94.88
459.918	88.88
460.138	90.88
460.358	77.88
460.578	90.88
460.798	95.88
461.018	98.88
461.238	90.88
461.458	86.88
461.678	85.88
461.898	89.88
462.118	87.88
462.338	97.88
462.558	104.88
462.777	94.88
462.997	105.88
463.217	105.88
463.437	104.88
463.657	94.88
463.876	89.88
464.096	97.88
464.316	96.88
464.536	113.88
464.755	106.88
464.975	146.88
465.195	252.88
465.414	235.88
465.634	112.88
465.854	97.88
466.073	99.88
466.293	97.88
466.512	83.88
466.732	87.88
466.951	107.88
467.171	108.88
467.391	111.88
467.61	138.88
467.829	188.88
468.049	481.88
468.268	768.88
468.488	218.88
468.707	118.88
468.927	99.88
469.146	98.88
469.365	84.88
469.585	98.88
469.804	118.88
470.023	117.88
470.243	104.88
470.462	126.88
470.681	137.88
470.901	101.88
471.12	92.88
471.339	98.88
471.558	110.88
471.777	148.88
471.997	266.88
472.216	976.88
472.435	2280.88
472.654	566.88
472.873	158.88
473.092	98.88
473.311	91.88
473.53	96.88
473.749	103.88
473.968	118.88
474.187	126.88
474.406	121.88
474.625	88.88
474.844	94.88
475.063	95.88
475.282	95.88
475.501	89.88
475.72	88.88
475.939	104.88
476.158	99.88
476.377	90.88
476.596	103.88
476.814	90.88
477.033	109.88
477.252	94.88
477.471	84.88
477.69	92.88
477.908	94.88
478.127	85.88
478.346	87.88
478.564	110.88
478.783	101.88
479.002	110.88
479.22	128.88
479.439	130.88
479.658	120.88
479.876	125.88
480.095	135.88
480.313	146.88
480.532	156.88
480.751	268.88
480.969	877.88
481.188	3778.88
481.406	2332.88
481.624	357.88
481.843	146.88
482.061	108.88
482.28	90.88
482.498	100.88
482.717	90.88
482.935	103.88
483.153	98.88
483.372	98.88
483.59	90.88
483.808	91.88
484.027	100.88
484.245	101.88
484.463	111.88
484.681	104.88
484.9	88.88
485.118	94.88
485.336	102.88
485.554	102.88
485.772	107.88
485.99	120.88
486.209	98.88
486.427	101.88
486.645	105.88
486.863	133.88
487.081	110.88
487.299	96.88
487.517	97.88
487.735	89.88
487.953	111.88
488.171	108.88
488.389	113.88
488.607	103.88
488.825	91.88
489.043	84.88
489.261	89.88
489.479	84.88
489.696	94.88
489.914	86.88
490.132	83.88
490.35	84.88
490.568	105.88
490.786	90.88
491.003	88.88
491.221	100.88
491.439	87.88
491.657	85.88
491.874	104.88
492.092	84.88
492.31	88.88
492.527	99.88
492.745	93.88
492.963	85.88
493.18	101.88
493.398	105.88
493.615	102.88
493.833	98.88
494.05	105.88
494.268	95.88
494.485	98.88
494.703	81.88
494.92	89.88
495.138	92.88
495.355	82.88
495.573	93.88
495.79	90.88
496.008	88.88
496.225	86.88
496.442	104.88
496.66	99.88
496.877	90.88
497.094	72.88
497.312	93.88
497.529	86.88
497.746	75.88
497.963	91.88
498.181	93.88
498.398	105.88
498.615	127.88
498.832	123.88
499.049	94.88
499.267	91.88
499.484	99.88
499.701	83.88
499.918	104.88
500.135	82.88
500.352	83.88
500.569	97.88
500.786	88.88
501.003	95.88
501.22	97.88
501.437	91.88
501.654	107.88
501.871	128.88
502.088	97.88
502.305	92.88
502.522	89.88
502.739	101.88
502.956	108.88
503.172	96.88
503.389	87.88
503.606	123.88
503.823	90.88
504.04	103.88
504.256	108.88
504.473	96.88
504.69	102.88
504.907	91.88
505.123	93.88
505.34	96.88
505.557	101.88
505.773	96.88
505.99	100.88
506.207	87.88
506.423	79.88
506.64	88.88
506.856	109.88
507.073	102.88
507.289	100.88
507.506	86.88
507.722	111.88
507.939	142.88
508.155	97.88
508.372	87.88
508.588	88.88
508.805	92.88
509.021	83.88
509.238	110.88
509.454	103.88
509.67	124.88
509.887	128.88
510.103	162.88
510.319	239.88
510.536	950.88
510.752	3368.88
510.968	956.88
511.184	208.88
511.401	136.88
511.617	122.88
511.833	119.88
512.049	93.88
512.265	95.88
512.481	102.88
