Data from Circ_2023_H10_HRD10591_00088.txt Node
Date: Wed Jan 03 09:50:48 EST 2024
User: Yrep
Spectrometer: HR+D1059
Trigger mode: 1
Integration Time (sec): 1.000000E-1
Scans to average: 1
Electric dark correction enabled: true
Nonlinearity correction enabled: false
Boxcar width: 0
XAxis mode: Wavelengths
Number of Pixels in Spectrum: 2048
>>>>>Begin Spectral Data<<<<<
223.165	-4.44
223.4	-4.44
223.635	-4.44
223.869	-18.44
224.104	-11.44
224.338	-17.44
224.573	-30.44
224.808	-7.44
225.042	-10.44
225.277	-8.44
225.511	-4.44
225.746	-2.44
225.98	17.56
226.215	12.56
226.449	30.56
226.683	15.56
226.918	13.56
227.152	25.56
227.387	34.56
227.621	48.56
227.856	38.56
228.09	41.56
228.324	58.56
228.559	51.56
228.793	58.56
229.027	61.56
229.262	70.56
229.496	77.56
229.73	85.56
229.964	82.56
230.199	78.56
230.433	91.56
230.667	93.56
230.901	81.56
231.136	73.56
231.37	87.56
231.604	73.56
231.838	89.56
232.072	87.56
232.306	78.56
232.541	78.56
232.775	80.56
233.009	98.56
233.243	81.56
233.477	86.56
233.711	81.56
233.945	89.56
234.179	87.56
234.413	82.56
234.647	74.56
234.881	93.56
235.115	85.56
235.349	70.56
235.583	85.56
235.817	83.56
236.051	91.56
236.285	68.56
236.519	85.56
236.753	85.56
236.987	88.56
237.221	99.56
237.455	104.56
237.689	80.56
237.922	82.56
238.156	72.56
238.39	73.56
238.624	80.56
238.858	71.56
239.091	82.56
239.325	71.56
239.559	102.56
239.793	87.56
240.027	70.56
240.26	84.56
240.494	78.56
240.728	86.56
240.961	72.56
241.195	87.56
241.429	74.56
241.662	70.56
241.896	66.56
242.13	71.56
242.363	78.56
242.597	77.56
242.83	70.56
243.064	79.56
243.298	91.56
243.531	71.56
243.765	55.56
243.998	89.56
244.232	94.56
244.465	88.56
244.699	78.56
244.932	83.56
245.166	87.56
245.399	75.56
245.633	92.56
245.866	90.56
246.099	80.56
246.333	69.56
246.566	84.56
246.8	85.56
247.033	78.56
247.266	86.56
247.5	82.56
247.733	83.56
247.966	95.56
248.2	80.56
248.433	83.56
248.666	73.56
248.899	87.56
249.133	93.56
249.366	99.56
249.599	112.56
249.832	105.56
250.066	84.56
250.299	82.56
250.532	94.56
250.765	97.56
250.998	102.56
251.231	86.56
251.465	85.56
251.698	79.56
251.931	91.56
252.164	95.56
252.397	79.56
252.63	81.56
252.863	81.56
253.096	73.56
253.329	72.56
253.562	67.56
253.795	85.56
254.028	82.56
254.261	82.56
254.494	86.56
254.727	76.56
254.96	80.56
255.193	82.56
255.426	91.56
255.659	104.56
255.892	103.56
256.124	112.56
256.357	98.56
256.59	91.56
256.823	78.56
257.056	97.56
257.289	86.56
257.521	98.56
257.754	71.56
257.987	77.56
258.22	100.56
258.452	95.56
258.685	102.56
258.918	90.56
259.151	90.56
259.383	84.56
259.616	87.56
259.849	91.56
260.081	80.56
260.314	85.56
260.547	99.56
260.779	103.56
261.012	114.56
261.244	133.56
261.477	125.56
261.71	114.56
261.942	133.56
262.175	139.56
262.407	111.56
262.64	87.56
262.872	95.56
263.105	92.56
263.337	81.56
263.57	79.56
263.802	97.56
264.035	87.56
264.267	88.56
264.499	87.56
264.732	74.56
264.964	96.56
265.197	79.56
265.429	78.56
265.661	77.56
265.894	89.56
266.126	87.56
266.358	91.56
266.591	73.56
266.823	92.56
267.055	85.56
267.287	85.56
267.52	91.56
267.752	94.56
267.984	87.56
268.216	88.56
268.448	86.56
268.681	81.56
268.913	82.56
269.145	88.56
269.377	89.56
269.609	81.56
269.841	80.56
270.073	82.56
270.306	80.56
270.538	82.56
270.77	90.56
271.002	80.56
271.234	94.56
271.466	113.56
271.698	87.56
271.93	84.56
272.162	98.56
272.394	97.56
272.626	84.56
272.858	102.56
273.09	90.56
273.322	69.56
273.553	76.56
273.785	80.56
274.017	81.56
274.249	78.56
274.481	86.56
274.713	90.56
274.945	107.56
275.176	88.56
275.408	112.56
275.64	125.56
275.872	140.56
276.104	114.56
276.335	115.56
276.567	120.56
276.799	163.56
277.031	197.56
277.262	261.56
277.494	177.56
277.726	112.56
277.957	88.56
278.189	96.56
278.421	102.56
278.652	108.56
278.884	101.56
279.115	104.56
279.347	104.56
279.579	104.56
279.81	158.56
280.042	247.56
280.273	344.56
280.505	240.56
280.736	127.56
280.968	86.56
281.199	97.56
281.431	90.56
281.662	95.56
281.894	98.56
282.125	102.56
282.356	141.56
282.588	187.56
282.819	133.56
283.051	96.56
283.282	93.56
283.513	98.56
283.745	88.56
283.976	95.56
284.207	88.56
284.439	110.56
284.67	101.56
284.901	89.56
285.132	101.56
285.364	94.56
285.595	94.56
285.826	94.56
286.057	104.56
286.288	85.56
286.52	81.56
286.751	96.56
286.982	103.56
287.213	85.56
287.444	99.56
287.675	99.56
287.906	106.56
288.138	95.56
288.369	91.56
288.6	97.56
288.831	79.56
289.062	89.56
289.293	100.56
289.524	96.56
289.755	88.56
289.986	83.56
290.217	86.56
290.448	78.56
290.679	93.56
290.91	96.56
291.141	100.56
291.371	91.56
291.602	90.56
291.833	85.56
292.064	86.56
292.295	88.56
292.526	99.56
292.757	82.56
292.987	89.56
293.218	78.56
293.449	85.56
293.68	86.56
293.91	88.56
294.141	91.56
294.372	100.56
294.603	103.56
294.833	94.56
295.064	88.56
295.295	91.56
295.525	94.56
295.756	110.56
295.987	126.56
296.217	163.56
296.448	134.56
296.679	98.56
296.909	97.56
297.14	88.56
297.37	87.56
297.601	83.56
297.831	92.56
298.062	88.56
298.292	103.56
298.523	97.56
298.753	89.56
298.984	103.56
299.214	77.56
299.445	79.56
299.675	109.56
299.905	105.56
300.136	89.56
300.366	107.56
300.597	94.56
300.827	96.56
301.057	97.56
301.288	101.56
301.518	95.56
301.748	118.56
301.979	113.56
302.209	111.56
302.439	99.56
302.669	83.56
302.9	97.56
303.13	102.56
303.36	121.56
303.59	145.56
303.82	170.56
304.051	117.56
304.281	96.56
304.511	110.56
304.741	93.56
304.971	84.56
305.201	88.56
305.431	89.56
305.661	86.56
305.891	91.56
306.121	97.56
306.352	105.56
306.582	120.56
306.812	128.56
307.042	145.56
307.272	185.56
307.502	223.56
307.731	186.56
307.961	140.56
308.191	123.56
308.421	110.56
308.651	95.56
308.881	101.56
309.111	102.56
309.341	111.56
309.571	101.56
309.8	102.56
310.03	111.56
310.26	111.56
310.49	103.56
310.72	129.56
310.949	142.56
311.179	124.56
311.409	94.56
311.639	101.56
311.868	100.56
312.098	93.56
312.328	112.56
312.557	126.56
312.787	121.56
313.017	115.56
313.246	99.56
313.476	90.56
313.706	95.56
313.935	85.56
314.165	125.56
314.394	106.56
314.624	103.56
314.853	100.56
315.083	85.56
315.312	89.56
315.542	93.56
315.771	92.56
316.001	103.56
316.23	95.56
316.46	87.56
316.689	96.56
316.919	109.56
317.148	96.56
317.377	89.56
317.607	107.56
317.836	94.56
318.065	100.56
318.295	95.56
318.524	96.56
318.753	102.56
318.983	97.56
319.212	101.56
319.441	116.56
319.67	121.56
319.9	89.56
320.129	105.56
320.358	115.56
320.587	93.56
320.816	107.56
321.046	120.56
321.275	113.56
321.504	100.56
321.733	94.56
321.962	98.56
322.191	105.56
322.42	126.56
322.649	129.56
322.878	135.56
323.108	145.56
323.337	159.56
323.566	168.56
323.795	193.56
324.024	281.56
324.253	559.56
324.482	1164.56
324.71	2367.56
324.939	3110.56
325.168	1125.56
325.397	324.56
325.626	196.56
325.855	156.56
326.084	159.56
326.313	161.56
326.542	188.56
326.77	316.56
326.999	598.56
327.228	1245.56
327.457	2287.56
327.686	1863.56
327.914	693.56
328.143	732.56
328.372	930.56
328.6	501.56
328.829	218.56
329.058	209.56
329.287	232.56
329.515	230.56
329.744	352.56
329.972	733.56
330.201	1527.56
330.43	2241.56
330.658	937.56
330.887	369.56
331.115	232.56
331.344	138.56
331.572	129.56
331.801	126.56
332.03	150.56
332.258	129.56
332.486	100.56
332.715	125.56
332.943	129.56
333.172	140.56
333.4	155.56
333.629	193.56
333.857	296.56
334.085	639.56
334.314	1433.56
334.542	2897.56
334.771	2610.56
334.999	624.56
335.227	220.56
335.455	156.56
335.684	132.56
335.912	118.56
336.14	129.56
336.369	129.56
336.597	124.56
336.825	107.56
337.053	101.56
337.281	102.56
337.51	105.56
337.738	104.56
337.966	103.56
338.194	107.56
338.422	101.56
338.65	112.56
338.878	97.56
339.106	86.56
339.334	115.56
339.562	108.56
339.79	105.56
340.018	92.56
340.246	89.56
340.474	98.56
340.702	92.56
340.93	103.56
341.158	104.56
341.386	115.56
341.614	105.56
341.842	114.56
342.07	96.56
342.298	86.56
342.526	88.56
342.754	103.56
342.981	100.56
343.209	109.56
343.437	110.56
343.665	92.56
343.893	86.56
344.12	101.56
344.348	92.56
344.576	78.56
344.804	98.56
345.031	110.56
345.259	114.56
345.487	110.56
345.714	94.56
345.942	90.56
346.17	88.56
346.397	103.56
346.625	92.56
346.853	87.56
347.08	93.56
347.308	105.56
347.535	103.56
347.763	121.56
347.99	119.56
348.218	113.56
348.445	129.56
348.673	118.56
348.9	106.56
349.128	85.56
349.355	100.56
349.583	107.56
349.81	101.56
350.037	104.56
350.265	87.56
350.492	96.56
350.72	94.56
350.947	113.56
351.174	130.56
351.402	126.56
351.629	114.56
351.856	121.56
352.083	109.56
352.311	121.56
352.538	117.56
352.765	129.56
352.992	131.56
353.22	119.56
353.447	117.56
353.674	116.56
353.901	99.56
354.128	101.56
354.355	108.56
354.583	95.56
354.81	98.56
355.037	98.56
355.264	103.56
355.491	88.56
355.718	93.56
355.945	90.56
356.172	100.56
356.399	102.56
356.626	93.56
356.853	90.56
357.08	93.56
357.307	103.56
357.534	95.56
357.761	89.56
357.988	113.56
358.215	96.56
358.441	97.56
358.668	85.56
358.895	92.56
359.122	92.56
359.349	100.56
359.576	100.56
359.802	122.56
360.029	136.56
360.256	159.56
360.483	120.56
360.709	101.56
360.936	97.56
361.163	98.56
361.39	93.56
361.616	111.56
361.843	102.56
362.07	105.56
362.296	117.56
362.523	110.56
362.749	115.56
362.976	89.56
363.203	91.56
363.429	97.56
363.656	100.56
363.882	86.56
364.109	95.56
364.335	97.56
364.562	96.56
364.788	88.56
365.015	113.56
365.241	112.56
365.468	116.56
365.694	121.56
365.92	98.56
366.147	100.56
366.373	89.56
366.599	88.56
366.826	95.56
367.052	94.56
367.278	96.56
367.505	97.56
367.731	103.56
367.957	103.56
368.184	101.56
368.41	97.56
368.636	131.56
368.862	136.56
369.089	125.56
369.315	98.56
369.541	96.56
369.767	101.56
369.993	99.56
370.219	101.56
370.445	89.56
370.672	101.56
370.898	95.56
371.124	82.56
371.35	85.56
371.576	96.56
371.802	88.56
372.028	78.56
372.254	81.56
372.48	85.56
372.706	88.56
372.932	86.56
373.158	96.56
373.384	86.56
373.61	93.56
373.835	84.56
374.061	88.56
374.287	98.56
374.513	93.56
374.739	85.56
374.965	91.56
375.191	78.56
375.416	94.56
375.642	81.56
375.868	78.56
376.094	101.56
376.319	89.56
376.545	89.56
376.771	87.56
376.997	90.56
377.222	87.56
377.448	87.56
377.674	93.56
377.899	90.56
378.125	105.56
378.35	94.56
378.576	91.56
378.802	101.56
379.027	101.56
379.253	99.56
379.478	77.56
379.704	83.56
379.929	102.56
380.155	98.56
380.38	86.56
380.606	90.56
380.831	87.56
381.057	81.56
381.282	91.56
381.507	85.56
381.733	84.56
381.958	96.56
382.184	104.56
382.409	90.56
382.634	97.56
382.86	107.56
383.085	85.56
383.31	90.56
383.535	91.56
383.761	101.56
383.986	99.56
384.211	92.56
384.436	104.56
384.662	104.56
384.887	99.56
385.112	93.56
385.337	98.56
385.562	98.56
385.787	82.56
386.013	91.56
386.238	107.56
386.463	106.56
386.688	112.56
386.913	94.56
387.138	84.56
387.363	92.56
387.588	85.56
387.813	87.56
388.038	90.56
388.263	103.56
388.488	101.56
388.713	90.56
388.938	97.56
389.163	97.56
389.387	85.56
389.612	95.56
389.837	107.56
390.062	99.56
390.287	101.56
390.512	101.56
390.736	82.56
390.961	77.56
391.186	80.56
391.411	83.56
391.636	85.56
391.86	85.56
392.085	90.56
392.31	94.56
392.534	90.56
392.759	90.56
392.984	106.56
393.208	90.56
393.433	88.56
393.658	109.56
393.882	61.56
394.107	87.56
394.331	93.56
394.556	97.56
394.78	93.56
395.005	93.56
395.229	98.56
395.454	91.56
395.678	86.56
395.903	87.56
396.127	92.56
396.352	85.56
396.576	82.56
396.801	88.56
397.025	90.56
397.249	90.56
397.474	98.56
397.698	87.56
397.922	80.56
398.147	96.56
398.371	80.56
398.595	98.56
398.82	84.56
399.044	78.56
399.268	89.56
399.492	86.56
399.717	94.56
399.941	98.56
400.165	102.56
400.389	96.56
400.613	96.56
400.837	101.56
401.062	103.56
401.286	80.56
401.51	102.56
401.734	94.56
401.958	121.56
402.182	152.56
402.406	200.56
402.63	159.56
402.854	104.56
403.078	90.56
403.302	89.56
403.526	89.56
403.75	91.56
403.974	93.56
404.198	98.56
404.422	101.56
404.645	98.56
404.869	113.56
405.093	137.56
405.317	174.56
405.541	167.56
405.765	123.56
405.988	141.56
406.212	208.56
406.436	307.56
406.66	195.56
406.883	120.56
407.107	114.56
407.331	108.56
407.555	127.56
407.778	112.56
408.002	95.56
408.226	92.56
408.449	100.56
408.673	96.56
408.896	100.56
409.12	115.56
409.344	90.56
409.567	90.56
409.791	102.56
410.014	88.56
410.238	89.56
410.461	87.56
410.685	109.56
410.908	103.56
411.132	104.56
411.355	119.56
411.578	87.56
411.802	87.56
412.025	102.56
412.249	115.56
412.472	129.56
412.695	165.56
412.919	129.56
413.142	118.56
413.365	106.56
413.589	85.56
413.812	85.56
414.035	80.56
414.258	88.56
414.482	103.56
414.705	95.56
414.928	106.56
415.151	102.56
415.374	96.56
415.597	83.56
415.821	77.56
416.044	88.56
416.267	106.56
416.49	90.56
416.713	95.56
416.936	94.56
417.159	92.56
417.382	79.56
417.605	114.56
417.828	137.56
418.051	115.56
418.274	93.56
418.497	90.56
418.72	81.56
418.943	98.56
419.166	91.56
419.389	89.56
419.611	82.56
419.834	105.56
420.057	93.56
420.28	116.56
420.503	96.56
420.726	106.56
420.948	94.56
421.171	111.56
421.394	111.56
421.617	93.56
421.839	87.56
422.062	92.56
422.285	88.56
422.507	100.56
422.73	104.56
422.953	97.56
423.175	94.56
423.398	87.56
423.621	88.56
423.843	94.56
424.066	77.56
424.288	90.56
424.511	102.56
424.733	115.56
424.956	139.56
425.178	126.56
425.401	126.56
425.623	120.56
425.846	85.56
426.068	108.56
426.291	97.56
426.513	93.56
426.735	94.56
426.958	93.56
427.18	131.56
427.402	214.56
427.625	294.56
427.847	305.56
428.069	271.56
428.292	159.56
428.514	107.56
428.736	85.56
428.958	101.56
429.181	82.56
429.403	86.56
429.625	94.56
429.847	83.56
430.069	135.56
430.292	102.56
430.514	86.56
430.736	94.56
430.958	95.56
431.18	96.56
431.402	99.56
431.624	87.56
431.846	88.56
432.068	78.56
432.29	98.56
432.512	89.56
432.734	96.56
432.956	101.56
433.178	115.56
433.4	111.56
433.622	97.56
433.844	110.56
434.066	104.56
434.287	86.56
434.509	88.56
434.731	97.56
434.953	95.56
435.175	88.56
435.397	91.56
435.618	93.56
435.84	116.56
436.062	147.56
436.284	148.56
436.505	123.56
436.727	110.56
436.949	94.56
437.17	103.56
437.392	88.56
437.614	105.56
437.835	134.56
438.057	156.56
438.278	149.56
438.5	123.56
438.721	144.56
438.943	125.56
439.165	99.56
439.386	100.56
439.608	98.56
439.829	130.56
440.05	168.56
440.272	214.56
440.493	123.56
440.715	94.56
440.936	88.56
441.158	86.56
441.379	94.56
441.6	109.56
441.822	101.56
442.043	133.56
442.264	132.56
442.486	127.56
442.707	109.56
442.928	128.56
443.149	187.56
443.371	174.56
443.592	147.56
443.813	138.56
444.034	137.56
444.255	95.56
444.476	111.56
444.698	91.56
444.919	96.56
445.14	129.56
445.361	138.56
445.582	160.56
445.803	217.56
446.024	196.56
446.245	202.56
446.466	132.56
446.687	102.56
446.908	82.56
447.129	90.56
447.35	83.56
447.571	109.56
447.792	102.56
448.013	112.56
448.234	129.56
448.455	111.56
448.675	144.56
448.896	149.56
449.117	121.56
449.338	124.56
449.559	166.56
449.779	178.56
450	93.56
450.221	65.56
450.442	97.56
450.662	111.56
450.883	138.56
451.104	141.56
451.324	111.56
451.545	89.56
451.766	101.56
451.986	96.56
452.207	91.56
452.428	102.56
452.648	98.56
452.869	141.56
453.089	133.56
453.31	137.56
453.53	113.56
453.751	74.56
453.971	126.56
454.192	153.56
454.412	105.56
454.633	87.56
454.853	98.56
455.073	81.56
455.294	90.56
455.514	125.56
455.734	89.56
455.955	91.56
456.175	99.56
456.395	87.56
456.616	94.56
456.836	88.56
457.056	89.56
457.276	85.56
457.497	84.56
457.717	89.56
457.937	96.56
458.157	100.56
458.377	113.56
458.598	141.56
458.818	221.56
459.038	243.56
459.258	150.56
459.478	101.56
459.698	99.56
459.918	90.56
460.138	89.56
460.358	103.56
460.578	111.56
460.798	96.56
461.018	106.56
461.238	91.56
461.458	91.56
461.678	107.56
461.898	72.56
462.118	78.56
462.338	87.56
462.558	88.56
462.777	94.56
462.997	110.56
463.217	111.56
463.437	112.56
463.657	89.56
463.876	93.56
464.096	95.56
464.316	104.56
464.536	109.56
464.755	109.56
464.975	147.56
465.195	245.56
465.414	265.56
465.634	115.56
465.854	95.56
466.073	96.56
466.293	96.56
466.512	88.56
466.732	91.56
466.951	101.56
467.171	102.56
467.391	129.56
467.61	187.56
467.829	273.56
468.049	796.56
468.268	1213.56
468.488	301.56
468.707	116.56
468.927	104.56
469.146	84.56
469.365	102.56
469.585	100.56
469.804	109.56
470.023	122.56
470.243	109.56
470.462	122.56
470.681	140.56
470.901	113.56
471.12	114.56
471.339	103.56
471.558	133.56
471.777	190.56
471.997	390.56
472.216	1599.56
472.435	3768.56
472.654	862.56
472.873	205.56
473.092	121.56
473.311	110.56
473.53	105.56
473.749	93.56
473.968	117.56
474.187	146.56
474.406	125.56
474.625	95.56
474.844	79.56
475.063	85.56
475.282	88.56
475.501	81.56
475.72	93.56
475.939	99.56
476.158	90.56
476.377	96.56
476.596	96.56
476.814	101.56
477.033	87.56
477.252	83.56
477.471	86.56
477.69	90.56
477.908	98.56
478.127	101.56
478.346	101.56
478.564	117.56
478.783	123.56
479.002	134.56
479.22	115.56
479.439	134.56
479.658	156.56
479.876	143.56
480.095	131.56
480.313	162.56
480.532	202.56
480.751	363.56
480.969	1473.56
481.188	6330.56
481.406	3805.56
481.624	504.56
481.843	189.56
482.061	123.56
482.28	106.56
482.498	91.56
482.717	99.56
482.935	87.56
483.153	108.56
483.372	82.56
483.59	86.56
483.808	95.56
484.027	99.56
484.245	92.56
484.463	95.56
484.681	88.56
484.9	93.56
485.118	101.56
485.336	110.56
485.554	104.56
485.772	109.56
485.99	114.56
486.209	103.56
486.427	107.56
486.645	124.56
486.863	133.56
487.081	125.56
487.299	109.56
487.517	89.56
487.735	80.56
487.953	106.56
488.171	101.56
488.389	87.56
488.607	99.56
488.825	84.56
489.043	95.56
489.261	72.56
489.479	94.56
489.696	98.56
489.914	89.56
490.132	89.56
490.35	101.56
490.568	101.56
490.786	95.56
491.003	91.56
491.221	99.56
491.439	115.56
491.657	100.56
491.874	110.56
492.092	107.56
492.31	95.56
492.527	119.56
492.745	119.56
492.963	105.56
493.18	94.56
493.398	92.56
493.615	94.56
493.833	98.56
494.05	84.56
494.268	89.56
494.485	96.56
494.703	83.56
494.92	86.56
495.138	89.56
495.355	81.56
495.573	89.56
495.79	83.56
496.008	82.56
496.225	94.56
496.442	97.56
496.66	96.56
496.877	99.56
497.094	87.56
497.312	83.56
497.529	93.56
497.746	92.56
497.963	102.56
498.181	94.56
498.398	106.56
498.615	129.56
498.832	115.56
499.049	99.56
499.267	117.56
499.484	96.56
499.701	93.56
499.918	87.56
500.135	95.56
500.352	105.56
500.569	110.56
500.786	131.56
501.003	103.56
501.22	97.56
501.437	96.56
501.654	110.56
501.871	132.56
502.088	102.56
502.305	81.56
502.522	94.56
502.739	98.56
502.956	85.56
503.172	95.56
503.389	119.56
503.606	121.56
503.823	105.56
504.04	92.56
504.256	85.56
504.473	88.56
504.69	91.56
504.907	104.56
505.123	98.56
505.34	86.56
505.557	89.56
505.773	80.56
505.99	100.56
506.207	103.56
506.423	95.56
506.64	97.56
506.856	86.56
507.073	100.56
507.289	104.56
507.506	100.56
507.722	146.56
507.939	152.56
508.155	98.56
508.372	104.56
508.588	115.56
508.805	109.56
509.021	112.56
509.238	94.56
509.454	93.56
509.67	101.56
509.887	120.56
510.103	151.56
510.319	256.56
510.536	956.56
510.752	3192.56
510.968	925.56
511.184	187.56
511.401	133.56
511.617	122.56
511.833	120.56
