Data from Circ_2023_H10_HRD10591_00075.txt Node
Date: Wed Jan 03 09:50:46 EST 2024
User: Yrep
Spectrometer: HR+D1059
Trigger mode: 1
Integration Time (sec): 1.000000E-1
Scans to average: 1
Electric dark correction enabled: true
Nonlinearity correction enabled: false
Boxcar width: 0
XAxis mode: Wavelengths
Number of Pixels in Spectrum: 2048
>>>>>Begin Spectral Data<<<<<
223.165	-20.25
223.4	-20.25
223.635	-20.25
223.869	-9.25
224.104	-22.25
224.338	-9.25
224.573	-9.25
224.808	-10.25
225.042	3.75
225.277	6.75
225.511	-7.25
225.746	-1.25
225.98	10.75
226.215	13.75
226.449	8.75
226.683	12.75
226.918	6.75
227.152	25.75
227.387	33.75
227.621	38.75
227.856	46.75
228.09	37.75
228.324	43.75
228.559	64.75
228.793	62.75
229.027	62.75
229.262	66.75
229.496	73.75
229.73	101.75
229.964	91.75
230.199	76.75
230.433	72.75
230.667	85.75
230.901	93.75
231.136	83.75
231.37	70.75
231.604	70.75
231.838	73.75
232.072	74.75
232.306	83.75
232.541	79.75
232.775	76.75
233.009	83.75
233.243	84.75
233.477	90.75
233.711	86.75
233.945	80.75
234.179	80.75
234.413	81.75
234.647	87.75
234.881	72.75
235.115	91.75
235.349	70.75
235.583	67.75
235.817	81.75
236.051	81.75
236.285	76.75
236.519	86.75
236.753	76.75
236.987	85.75
237.221	97.75
237.455	122.75
237.689	74.75
237.922	82.75
238.156	89.75
238.39	79.75
238.624	77.75
238.858	87.75
239.091	82.75
239.325	89.75
239.559	87.75
239.793	78.75
240.027	73.75
240.26	77.75
240.494	92.75
240.728	82.75
240.961	70.75
241.195	74.75
241.429	75.75
241.662	84.75
241.896	91.75
242.13	73.75
242.363	92.75
242.597	73.75
242.83	71.75
243.064	76.75
243.298	70.75
243.531	97.75
243.765	86.75
243.998	79.75
244.232	77.75
244.465	92.75
244.699	82.75
244.932	82.75
245.166	73.75
245.399	79.75
245.633	72.75
245.866	78.75
246.099	74.75
246.333	87.75
246.566	80.75
246.8	91.75
247.033	84.75
247.266	80.75
247.5	76.75
247.733	102.75
247.966	78.75
248.2	76.75
248.433	79.75
248.666	64.75
248.899	75.75
249.133	91.75
249.366	118.75
249.599	129.75
249.832	103.75
250.066	89.75
250.299	99.75
250.532	103.75
250.765	95.75
250.998	89.75
251.231	75.75
251.465	73.75
251.698	83.75
251.931	89.75
252.164	89.75
252.397	79.75
252.63	67.75
252.863	72.75
253.096	78.75
253.329	83.75
253.562	74.75
253.795	86.75
254.028	85.75
254.261	84.75
254.494	83.75
254.727	88.75
254.96	87.75
255.193	81.75
255.426	90.75
255.659	91.75
255.892	127.75
256.124	109.75
256.357	92.75
256.59	85.75
256.823	92.75
257.056	98.75
257.289	92.75
257.521	89.75
257.754	86.75
257.987	85.75
258.22	111.75
258.452	113.75
258.685	93.75
258.918	83.75
259.151	95.75
259.383	76.75
259.616	84.75
259.849	97.75
260.081	89.75
260.314	89.75
260.547	109.75
260.779	85.75
261.012	114.75
261.244	133.75
261.477	105.75
261.71	107.75
261.942	141.75
262.175	153.75
262.407	104.75
262.64	90.75
262.872	93.75
263.105	73.75
263.337	89.75
263.57	88.75
263.802	81.75
264.035	70.75
264.267	85.75
264.499	82.75
264.732	89.75
264.964	98.75
265.197	83.75
265.429	81.75
265.661	87.75
265.894	74.75
266.126	97.75
266.358	100.75
266.591	85.75
266.823	94.75
267.055	82.75
267.287	78.75
267.52	88.75
267.752	101.75
267.984	89.75
268.216	84.75
268.448	98.75
268.681	93.75
268.913	96.75
269.145	85.75
269.377	79.75
269.609	94.75
269.841	86.75
270.073	81.75
270.306	89.75
270.538	76.75
270.77	91.75
271.002	78.75
271.234	93.75
271.466	103.75
271.698	79.75
271.93	79.75
272.162	102.75
272.394	95.75
272.626	99.75
272.858	97.75
273.09	77.75
273.322	80.75
273.553	84.75
273.785	96.75
274.017	87.75
274.249	82.75
274.481	75.75
274.713	100.75
274.945	85.75
275.176	91.75
275.408	107.75
275.64	119.75
275.872	128.75
276.104	129.75
276.335	117.75
276.567	133.75
276.799	166.75
277.031	193.75
277.262	244.75
277.494	188.75
277.726	113.75
277.957	89.75
278.189	104.75
278.421	89.75
278.652	86.75
278.884	91.75
279.115	87.75
279.347	102.75
279.579	118.75
279.81	143.75
280.042	255.75
280.273	331.75
280.505	236.75
280.736	110.75
280.968	106.75
281.199	83.75
281.431	89.75
281.662	98.75
281.894	102.75
282.125	112.75
282.356	140.75
282.588	172.75
282.819	142.75
283.051	100.75
283.282	85.75
283.513	90.75
283.745	98.75
283.976	98.75
284.207	92.75
284.439	90.75
284.67	90.75
284.901	92.75
285.132	94.75
285.364	89.75
285.595	92.75
285.826	83.75
286.057	88.75
286.288	83.75
286.52	90.75
286.751	82.75
286.982	100.75
287.213	79.75
287.444	83.75
287.675	88.75
287.906	90.75
288.138	98.75
288.369	108.75
288.6	93.75
288.831	83.75
289.062	93.75
289.293	97.75
289.524	86.75
289.755	92.75
289.986	94.75
290.217	83.75
290.448	90.75
290.679	104.75
290.91	86.75
291.141	87.75
291.371	89.75
291.602	85.75
291.833	95.75
292.064	99.75
292.295	85.75
292.526	92.75
292.757	95.75
292.987	85.75
293.218	88.75
293.449	93.75
293.68	94.75
293.91	91.75
294.141	90.75
294.372	98.75
294.603	89.75
294.833	87.75
295.064	95.75
295.295	106.75
295.525	96.75
295.756	108.75
295.987	133.75
296.217	177.75
296.448	147.75
296.679	93.75
296.909	104.75
297.14	92.75
297.37	98.75
297.601	90.75
297.831	86.75
298.062	98.75
298.292	95.75
298.523	94.75
298.753	90.75
298.984	91.75
299.214	100.75
299.445	95.75
299.675	91.75
299.905	96.75
300.136	99.75
300.366	90.75
300.597	97.75
300.827	102.75
301.057	114.75
301.288	128.75
301.518	99.75
301.748	97.75
301.979	122.75
302.209	107.75
302.439	95.75
302.669	91.75
302.9	96.75
303.13	81.75
303.36	110.75
303.59	145.75
303.82	178.75
304.051	112.75
304.281	111.75
304.511	92.75
304.741	100.75
304.971	94.75
305.201	110.75
305.431	89.75
305.661	100.75
305.891	81.75
306.121	93.75
306.352	122.75
306.582	129.75
306.812	118.75
307.042	147.75
307.272	193.75
307.502	207.75
307.731	190.75
307.961	136.75
308.191	114.75
308.421	95.75
308.651	93.75
308.881	91.75
309.111	103.75
309.341	104.75
309.571	95.75
309.8	122.75
310.03	120.75
310.26	119.75
310.49	120.75
310.72	107.75
310.949	138.75
311.179	130.75
311.409	100.75
311.639	103.75
311.868	104.75
312.098	101.75
312.328	95.75
312.557	139.75
312.787	153.75
313.017	126.75
313.246	104.75
313.476	111.75
313.706	110.75
313.935	109.75
314.165	112.75
314.394	112.75
314.624	118.75
314.853	111.75
315.083	105.75
315.312	94.75
315.542	112.75
315.771	95.75
316.001	96.75
316.23	102.75
316.46	92.75
316.689	91.75
316.919	105.75
317.148	102.75
317.377	100.75
317.607	119.75
317.836	106.75
318.065	100.75
318.295	88.75
318.524	86.75
318.753	89.75
318.983	102.75
319.212	106.75
319.441	132.75
319.67	138.75
319.9	113.75
320.129	97.75
320.358	102.75
320.587	113.75
320.816	116.75
321.046	127.75
321.275	111.75
321.504	105.75
321.733	104.75
321.962	108.75
322.191	112.75
322.42	111.75
322.649	129.75
322.878	127.75
323.108	155.75
323.337	150.75
323.566	175.75
323.795	209.75
324.024	288.75
324.253	576.75
324.482	1339.75
324.71	2714.75
324.939	3667.75
325.168	1312.75
325.397	337.75
325.626	190.75
325.855	166.75
326.084	144.75
326.313	166.75
326.542	203.75
326.77	327.75
326.999	706.75
327.228	1436.75
327.457	2603.75
327.686	2144.75
327.914	715.75
328.143	711.75
328.372	911.75
328.6	513.75
328.829	236.75
329.058	209.75
329.287	233.75
329.515	238.75
329.744	328.75
329.972	671.75
330.201	1399.75
330.43	2090.75
330.658	888.75
330.887	377.75
331.115	218.75
331.344	145.75
331.572	140.75
331.801	144.75
332.03	152.75
332.258	131.75
332.486	131.75
332.715	134.75
332.943	139.75
333.172	152.75
333.4	161.75
333.629	192.75
333.857	290.75
334.085	603.75
334.314	1304.75
334.542	2614.75
334.771	2519.75
334.999	619.75
335.227	231.75
335.455	136.75
335.684	133.75
335.912	116.75
336.14	110.75
336.369	117.75
336.597	119.75
336.825	111.75
337.053	106.75
337.281	116.75
337.51	100.75
337.738	104.75
337.966	94.75
338.194	104.75
338.422	116.75
338.65	105.75
338.878	104.75
339.106	110.75
339.334	103.75
339.562	100.75
339.79	98.75
340.018	102.75
340.246	106.75
340.474	119.75
340.702	102.75
340.93	97.75
341.158	97.75
341.386	103.75
341.614	116.75
341.842	111.75
342.07	97.75
342.298	98.75
342.526	100.75
342.754	94.75
342.981	99.75
343.209	108.75
343.437	99.75
343.665	110.75
343.893	95.75
344.12	99.75
344.348	91.75
344.576	94.75
344.804	91.75
345.031	120.75
345.259	110.75
345.487	97.75
345.714	104.75
345.942	93.75
346.17	79.75
346.397	95.75
346.625	104.75
346.853	91.75
347.08	112.75
347.308	109.75
347.535	105.75
347.763	118.75
347.99	97.75
348.218	104.75
348.445	121.75
348.673	111.75
348.9	105.75
349.128	102.75
349.355	102.75
349.583	87.75
349.81	101.75
350.037	106.75
350.265	91.75
350.492	96.75
350.72	104.75
350.947	129.75
351.174	119.75
351.402	138.75
351.629	115.75
351.856	122.75
352.083	124.75
352.311	116.75
352.538	125.75
352.765	128.75
352.992	139.75
353.22	138.75
353.447	123.75
353.674	113.75
353.901	94.75
354.128	85.75
354.355	101.75
354.583	107.75
354.81	106.75
355.037	95.75
355.264	107.75
355.491	86.75
355.718	94.75
355.945	88.75
356.172	109.75
356.399	96.75
356.626	93.75
356.853	105.75
357.08	92.75
357.307	100.75
357.534	95.75
357.761	95.75
357.988	95.75
358.215	88.75
358.441	91.75
358.668	99.75
358.895	91.75
359.122	86.75
359.349	79.75
359.576	113.75
359.802	121.75
360.029	143.75
360.256	154.75
360.483	134.75
360.709	95.75
360.936	107.75
361.163	105.75
361.39	83.75
361.616	110.75
361.843	105.75
362.07	106.75
362.296	103.75
362.523	98.75
362.749	113.75
362.976	88.75
363.203	113.75
363.429	102.75
363.656	94.75
363.882	79.75
364.109	103.75
364.335	98.75
364.562	106.75
364.788	91.75
365.015	103.75
365.241	114.75
365.468	136.75
365.694	121.75
365.92	114.75
366.147	103.75
366.373	105.75
366.599	95.75
366.826	81.75
367.052	93.75
367.278	99.75
367.505	87.75
367.731	97.75
367.957	106.75
368.184	118.75
368.41	112.75
368.636	116.75
368.862	119.75
369.089	143.75
369.315	103.75
369.541	87.75
369.767	98.75
369.993	93.75
370.219	112.75
370.445	84.75
370.672	81.75
370.898	97.75
371.124	80.75
371.35	98.75
371.576	86.75
371.802	96.75
372.028	94.75
372.254	96.75
372.48	98.75
372.706	97.75
372.932	98.75
373.158	85.75
373.384	79.75
373.61	95.75
373.835	96.75
374.061	72.75
374.287	99.75
374.513	91.75
374.739	98.75
374.965	84.75
375.191	88.75
375.416	96.75
375.642	99.75
375.868	91.75
376.094	87.75
376.319	108.75
376.545	95.75
376.771	82.75
376.997	96.75
377.222	86.75
377.448	92.75
377.674	96.75
377.899	89.75
378.125	90.75
378.35	88.75
378.576	83.75
378.802	91.75
379.027	89.75
379.253	85.75
379.478	86.75
379.704	98.75
379.929	98.75
380.155	93.75
380.38	96.75
380.606	97.75
380.831	93.75
381.057	106.75
381.282	97.75
381.507	79.75
381.733	83.75
381.958	96.75
382.184	104.75
382.409	89.75
382.634	106.75
382.86	110.75
383.085	102.75
383.31	108.75
383.535	89.75
383.761	109.75
383.986	100.75
384.211	96.75
384.436	87.75
384.662	100.75
384.887	95.75
385.112	101.75
385.337	108.75
385.562	105.75
385.787	99.75
386.013	103.75
386.238	122.75
386.463	100.75
386.688	115.75
386.913	93.75
387.138	112.75
387.363	126.75
387.588	103.75
387.813	86.75
388.038	92.75
388.263	111.75
388.488	113.75
388.713	106.75
388.938	114.75
389.163	103.75
389.387	112.75
389.612	100.75
389.837	99.75
390.062	93.75
390.287	84.75
390.512	88.75
390.736	92.75
390.961	98.75
391.186	100.75
391.411	112.75
391.636	98.75
391.86	88.75
392.085	88.75
392.31	108.75
392.534	101.75
392.759	99.75
392.984	93.75
393.208	103.75
393.433	96.75
393.658	86.75
393.882	87.75
394.107	90.75
394.331	96.75
394.556	79.75
394.78	74.75
395.005	91.75
395.229	95.75
395.454	90.75
395.678	86.75
395.903	92.75
396.127	85.75
396.352	82.75
396.576	93.75
396.801	75.75
397.025	99.75
397.249	100.75
397.474	95.75
397.698	98.75
397.922	88.75
398.147	87.75
398.371	92.75
398.595	94.75
398.82	91.75
399.044	101.75
399.268	76.75
399.492	80.75
399.717	84.75
399.941	97.75
400.165	105.75
400.389	79.75
400.613	93.75
400.837	103.75
401.062	100.75
401.286	93.75
401.51	115.75
401.734	109.75
401.958	112.75
402.182	167.75
402.406	211.75
402.63	163.75
402.854	114.75
403.078	87.75
403.302	92.75
403.526	83.75
403.75	84.75
403.974	95.75
404.198	74.75
404.422	88.75
404.645	111.75
404.869	111.75
405.093	156.75
405.317	192.75
405.541	164.75
405.765	144.75
405.988	153.75
406.212	224.75
406.436	318.75
406.66	223.75
406.883	141.75
407.107	119.75
407.331	126.75
407.555	122.75
407.778	126.75
408.002	98.75
408.226	102.75
408.449	90.75
408.673	89.75
408.896	103.75
409.12	103.75
409.344	86.75
409.567	89.75
409.791	97.75
410.014	106.75
410.238	84.75
410.461	98.75
410.685	92.75
410.908	107.75
411.132	108.75
411.355	102.75
411.578	123.75
411.802	86.75
412.025	101.75
412.249	112.75
412.472	147.75
412.695	173.75
412.919	116.75
413.142	114.75
413.365	92.75
413.589	78.75
413.812	91.75
414.035	95.75
414.258	96.75
414.482	110.75
414.705	86.75
414.928	92.75
415.151	91.75
415.374	105.75
415.597	97.75
415.821	86.75
416.044	93.75
416.267	98.75
416.49	84.75
416.713	79.75
416.936	86.75
417.159	111.75
417.382	103.75
417.605	118.75
417.828	143.75
418.051	122.75
418.274	105.75
418.497	95.75
418.72	78.75
418.943	97.75
419.166	77.75
419.389	86.75
419.611	101.75
419.834	103.75
420.057	106.75
420.28	110.75
420.503	104.75
420.726	99.75
420.948	95.75
421.171	110.75
421.394	107.75
421.617	105.75
421.839	110.75
422.062	101.75
422.285	96.75
422.507	113.75
422.73	126.75
422.953	88.75
423.175	98.75
423.398	81.75
423.621	99.75
423.843	94.75
424.066	92.75
424.288	96.75
424.511	97.75
424.733	120.75
424.956	134.75
425.178	121.75
425.401	124.75
425.623	130.75
425.846	97.75
426.068	110.75
426.291	102.75
426.513	94.75
426.735	85.75
426.958	96.75
427.18	143.75
427.402	210.75
427.625	302.75
427.847	307.75
428.069	297.75
428.292	164.75
428.514	119.75
428.736	94.75
428.958	102.75
429.181	91.75
429.403	93.75
429.625	114.75
429.847	112.75
430.069	113.75
430.292	98.75
430.514	79.75
430.736	81.75
430.958	96.75
431.18	89.75
431.402	88.75
431.624	96.75
431.846	93.75
432.068	90.75
432.29	87.75
432.512	80.75
432.734	99.75
432.956	104.75
433.178	99.75
433.4	121.75
433.622	86.75
433.844	105.75
434.066	93.75
434.287	89.75
434.509	93.75
434.731	89.75
434.953	101.75
435.175	91.75
435.397	105.75
435.618	94.75
435.84	107.75
436.062	153.75
436.284	155.75
436.505	128.75
436.727	121.75
436.949	117.75
437.17	102.75
437.392	99.75
437.614	113.75
437.835	148.75
438.057	166.75
438.278	157.75
438.5	134.75
438.721	168.75
438.943	124.75
439.165	102.75
439.386	87.75
439.608	98.75
439.829	136.75
440.05	180.75
440.272	236.75
440.493	124.75
440.715	95.75
440.936	93.75
441.158	101.75
441.379	86.75
441.6	102.75
441.822	111.75
442.043	97.75
442.264	126.75
442.486	122.75
442.707	104.75
442.928	134.75
443.149	200.75
443.371	177.75
443.592	144.75
443.813	146.75
444.034	145.75
444.255	94.75
444.476	111.75
444.698	110.75
444.919	100.75
445.14	139.75
445.361	145.75
445.582	159.75
445.803	223.75
446.024	216.75
446.245	212.75
446.466	143.75
446.687	107.75
446.908	105.75
447.129	97.75
447.35	103.75
447.571	104.75
447.792	99.75
448.013	114.75
448.234	117.75
448.455	134.75
448.675	157.75
448.896	179.75
449.117	112.75
449.338	131.75
449.559	179.75
449.779	192.75
450	102.75
450.221	91.75
450.442	94.75
450.662	108.75
450.883	144.75
451.104	154.75
451.324	120.75
451.545	93.75
451.766	80.75
451.986	84.75
452.207	96.75
452.428	102.75
452.648	116.75
452.869	132.75
453.089	160.75
453.31	150.75
453.53	101.75
453.751	105.75
453.971	121.75
454.192	160.75
454.412	107.75
454.633	102.75
454.853	92.75
455.073	102.75
455.294	100.75
455.514	132.75
455.734	104.75
455.955	94.75
456.175	88.75
456.395	89.75
456.616	88.75
456.836	86.75
457.056	101.75
457.276	87.75
457.497	80.75
457.717	108.75
457.937	87.75
458.157	91.75
458.377	99.75
458.598	153.75
458.818	244.75
459.038	272.75
459.258	174.75
459.478	108.75
459.698	101.75
459.918	96.75
460.138	80.75
460.358	92.75
460.578	88.75
460.798	119.75
461.018	112.75
461.238	104.75
461.458	96.75
461.678	91.75
461.898	83.75
462.118	91.75
462.338	87.75
462.558	73.75
462.777	96.75
462.997	94.75
463.217	119.75
463.437	110.75
463.657	103.75
463.876	85.75
464.096	91.75
464.316	96.75
464.536	103.75
464.755	119.75
464.975	145.75
465.195	270.75
465.414	287.75
465.634	108.75
465.854	91.75
466.073	81.75
466.293	102.75
466.512	103.75
466.732	91.75
466.951	89.75
467.171	105.75
467.391	127.75
467.61	162.75
467.829	252.75
468.049	762.75
468.268	1168.75
468.488	288.75
468.707	113.75
468.927	99.75
469.146	92.75
469.365	91.75
469.585	95.75
469.804	106.75
470.023	122.75
470.243	103.75
470.462	120.75
470.681	149.75
470.901	115.75
471.12	104.75
471.339	126.75
471.558	131.75
471.777	186.75
471.997	386.75
472.216	1472.75
472.435	3519.75
472.654	823.75
472.873	197.75
473.092	134.75
473.311	109.75
473.53	114.75
473.749	103.75
473.968	125.75
474.187	147.75
474.406	114.75
474.625	96.75
474.844	96.75
475.063	82.75
475.282	96.75
475.501	95.75
475.72	114.75
475.939	89.75
476.158	98.75
476.377	97.75
476.596	91.75
476.814	100.75
477.033	122.75
477.252	101.75
477.471	100.75
477.69	102.75
477.908	94.75
478.127	88.75
478.346	105.75
478.564	101.75
478.783	111.75
479.002	122.75
479.22	130.75
479.439	137.75
479.658	149.75
479.876	142.75
480.095	136.75
480.313	178.75
480.532	205.75
480.751	357.75
480.969	1347.75
481.188	5867.75
481.406	3591.75
481.624	499.75
481.843	170.75
482.061	129.75
482.28	118.75
482.498	88.75
482.717	117.75
482.935	92.75
483.153	94.75
483.372	94.75
483.59	98.75
483.808	97.75
484.027	106.75
484.245	92.75
484.463	106.75
484.681	123.75
484.9	88.75
485.118	90.75
485.336	107.75
485.554	111.75
485.772	110.75
485.99	105.75
486.209	119.75
486.427	115.75
486.645	146.75
486.863	140.75
487.081	110.75
487.299	125.75
487.517	99.75
487.735	107.75
487.953	99.75
488.171	102.75
488.389	111.75
488.607	104.75
488.825	97.75
489.043	111.75
489.261	97.75
489.479	95.75
489.696	80.75
489.914	103.75
490.132	92.75
490.35	87.75
490.568	99.75
490.786	99.75
491.003	93.75
491.221	99.75
491.439	112.75
491.657	98.75
491.874	92.75
492.092	90.75
492.31	105.75
492.527	117.75
492.745	116.75
492.963	91.75
493.18	102.75
493.398	99.75
493.615	103.75
493.833	99.75
494.05	95.75
494.268	96.75
494.485	92.75
494.703	94.75
494.92	97.75
495.138	90.75
495.355	100.75
495.573	85.75
495.79	92.75
496.008	98.75
496.225	89.75
496.442	89.75
496.66	96.75
496.877	98.75
497.094	99.75
497.312	106.75
497.529	107.75
497.746	99.75
497.963	99.75
498.181	110.75
498.398	109.75
498.615	122.75
498.832	128.75
499.049	94.75
499.267	99.75
499.484	92.75
499.701	92.75
499.918	90.75
500.135	90.75
500.352	96.75
500.569	83.75
500.786	101.75
501.003	96.75
501.22	112.75
501.437	106.75
501.654	99.75
501.871	136.75
502.088	108.75
502.305	95.75
502.522	84.75
502.739	105.75
502.956	99.75
503.172	96.75
503.389	106.75
503.606	131.75
503.823	111.75
504.04	92.75
504.256	97.75
504.473	94.75
504.69	91.75
504.907	102.75
505.123	82.75
505.34	87.75
505.557	90.75
505.773	101.75
505.99	90.75
506.207	105.75
506.423	83.75
506.64	93.75
506.856	94.75
507.073	103.75
507.289	100.75
507.506	119.75
507.722	144.75
507.939	165.75
508.155	105.75
508.372	103.75
508.588	110.75
508.805	95.75
509.021	106.75
509.238	97.75
509.454	100.75
509.67	111.75
509.887	123.75
510.103	148.75
510.319	255.75
510.536	1028.75
510.752	3580.75
510.968	994.75
511.184	208.75
