Data from Circ_2023_H10_HRD10591_00078.txt Node
Date: Wed Jan 03 09:50:46 EST 2024
User: Yrep
Spectrometer: HR+D1059
Trigger mode: 1
Integration Time (sec): 1.000000E-1
Scans to average: 1
Electric dark correction enabled: true
Nonlinearity correction enabled: false
Boxcar width: 0
XAxis mode: Wavelengths
Number of Pixels in Spectrum: 2048
>>>>>Begin Spectral Data<<<<<
223.165	-13.62
223.4	-13.62
223.635	-13.62
223.869	-8.62
224.104	-16.62
224.338	-24.62
224.573	-11.62
224.808	-7.62
225.042	-19.62
225.277	-14.62
225.511	-3.62
225.746	2.38
225.98	2.38
226.215	9.38
226.449	13.38
226.683	26.38
226.918	30.38
227.152	36.38
227.387	35.38
227.621	32.38
227.856	46.38
228.09	44.38
228.324	43.38
228.559	61.38
228.793	68.38
229.027	52.38
229.262	64.38
229.496	88.38
229.73	94.38
229.964	81.38
230.199	81.38
230.433	73.38
230.667	71.38
230.901	75.38
231.136	72.38
231.37	89.38
231.604	74.38
231.838	81.38
232.072	84.38
232.306	84.38
232.541	86.38
232.775	77.38
233.009	91.38
233.243	77.38
233.477	72.38
233.711	88.38
233.945	79.38
234.179	88.38
234.413	81.38
234.647	72.38
234.881	79.38
235.115	76.38
235.349	74.38
235.583	75.38
235.817	73.38
236.051	83.38
236.285	83.38
236.519	83.38
236.753	86.38
236.987	85.38
237.221	89.38
237.455	78.38
237.689	71.38
237.922	57.38
238.156	66.38
238.39	76.38
238.624	83.38
238.858	80.38
239.091	78.38
239.325	83.38
239.559	74.38
239.793	70.38
240.027	95.38
240.26	82.38
240.494	86.38
240.728	78.38
240.961	81.38
241.195	74.38
241.429	66.38
241.662	68.38
241.896	73.38
242.13	75.38
242.363	83.38
242.597	72.38
242.83	84.38
243.064	86.38
243.298	54.38
243.531	83.38
243.765	83.38
243.998	71.38
244.232	79.38
244.465	95.38
244.699	71.38
244.932	82.38
245.166	76.38
245.399	72.38
245.633	89.38
245.866	84.38
246.099	78.38
246.333	80.38
246.566	79.38
246.8	76.38
247.033	74.38
247.266	73.38
247.5	62.38
247.733	79.38
247.966	84.38
248.2	81.38
248.433	84.38
248.666	71.38
248.899	78.38
249.133	83.38
249.366	96.38
249.599	106.38
249.832	81.38
250.066	78.38
250.299	87.38
250.532	89.38
250.765	97.38
250.998	94.38
251.231	89.38
251.465	73.38
251.698	80.38
251.931	81.38
252.164	84.38
252.397	73.38
252.63	80.38
252.863	82.38
253.096	88.38
253.329	80.38
253.562	80.38
253.795	80.38
254.028	83.38
254.261	81.38
254.494	79.38
254.727	93.38
254.96	104.38
255.193	78.38
255.426	71.38
255.659	85.38
255.892	97.38
256.124	104.38
256.357	86.38
256.59	94.38
256.823	86.38
257.056	95.38
257.289	99.38
257.521	98.38
257.754	83.38
257.987	76.38
258.22	109.38
258.452	107.38
258.685	78.38
258.918	85.38
259.151	93.38
259.383	86.38
259.616	73.38
259.849	79.38
260.081	85.38
260.314	93.38
260.547	80.38
260.779	92.38
261.012	97.38
261.244	112.38
261.477	109.38
261.71	118.38
261.942	123.38
262.175	136.38
262.407	104.38
262.64	79.38
262.872	80.38
263.105	78.38
263.337	68.38
263.57	83.38
263.802	75.38
264.035	76.38
264.267	72.38
264.499	84.38
264.732	71.38
264.964	88.38
265.197	84.38
265.429	89.38
265.661	84.38
265.894	87.38
266.126	86.38
266.358	78.38
266.591	81.38
266.823	86.38
267.055	77.38
267.287	100.38
267.52	98.38
267.752	82.38
267.984	94.38
268.216	81.38
268.448	91.38
268.681	91.38
268.913	92.38
269.145	93.38
269.377	81.38
269.609	89.38
269.841	75.38
270.073	80.38
270.306	78.38
270.538	86.38
270.77	93.38
271.002	84.38
271.234	96.38
271.466	85.38
271.698	88.38
271.93	81.38
272.162	83.38
272.394	89.38
272.626	101.38
272.858	72.38
273.09	81.38
273.322	75.38
273.553	79.38
273.785	78.38
274.017	85.38
274.249	80.38
274.481	73.38
274.713	71.38
274.945	104.38
275.176	83.38
275.408	104.38
275.64	110.38
275.872	111.38
276.104	115.38
276.335	92.38
276.567	111.38
276.799	151.38
277.031	179.38
277.262	198.38
277.494	156.38
277.726	92.38
277.957	102.38
278.189	83.38
278.421	90.38
278.652	94.38
278.884	83.38
279.115	94.38
279.347	87.38
279.579	98.38
279.81	145.38
280.042	203.38
280.273	272.38
280.505	191.38
280.736	107.38
280.968	88.38
281.199	88.38
281.431	94.38
281.662	91.38
281.894	90.38
282.125	108.38
282.356	137.38
282.588	170.38
282.819	145.38
283.051	95.38
283.282	95.38
283.513	96.38
283.745	102.38
283.976	88.38
284.207	87.38
284.439	86.38
284.67	95.38
284.901	83.38
285.132	88.38
285.364	91.38
285.595	75.38
285.826	88.38
286.057	95.38
286.288	89.38
286.52	89.38
286.751	87.38
286.982	91.38
287.213	81.38
287.444	89.38
287.675	85.38
287.906	100.38
288.138	86.38
288.369	97.38
288.6	89.38
288.831	86.38
289.062	87.38
289.293	83.38
289.524	89.38
289.755	88.38
289.986	94.38
290.217	87.38
290.448	88.38
290.679	87.38
290.91	93.38
291.141	86.38
291.371	91.38
291.602	83.38
291.833	93.38
292.064	101.38
292.295	103.38
292.526	99.38
292.757	87.38
292.987	108.38
293.218	84.38
293.449	85.38
293.68	86.38
293.91	95.38
294.141	96.38
294.372	97.38
294.603	80.38
294.833	99.38
295.064	89.38
295.295	83.38
295.525	81.38
295.756	87.38
295.987	120.38
296.217	144.38
296.448	117.38
296.679	109.38
296.909	85.38
297.14	89.38
297.37	83.38
297.601	95.38
297.831	99.38
298.062	88.38
298.292	89.38
298.523	83.38
298.753	85.38
298.984	66.38
299.214	80.38
299.445	81.38
299.675	94.38
299.905	96.38
300.136	90.38
300.366	86.38
300.597	88.38
300.827	82.38
301.057	108.38
301.288	115.38
301.518	95.38
301.748	70.38
301.979	102.38
302.209	100.38
302.439	91.38
302.669	94.38
302.9	89.38
303.13	99.38
303.36	96.38
303.59	134.38
303.82	145.38
304.051	103.38
304.281	81.38
304.511	77.38
304.741	102.38
304.971	88.38
305.201	104.38
305.431	94.38
305.661	94.38
305.891	87.38
306.121	110.38
306.352	96.38
306.582	116.38
306.812	98.38
307.042	132.38
307.272	171.38
307.502	181.38
307.731	193.38
307.961	126.38
308.191	103.38
308.421	96.38
308.651	100.38
308.881	91.38
309.111	102.38
309.341	96.38
309.571	99.38
309.8	105.38
310.03	97.38
310.26	96.38
310.49	100.38
310.72	88.38
310.949	113.38
311.179	116.38
311.409	100.38
311.639	101.38
311.868	109.38
312.098	96.38
312.328	94.38
312.557	99.38
312.787	117.38
313.017	108.38
313.246	104.38
313.476	111.38
313.706	81.38
313.935	82.38
314.165	112.38
314.394	108.38
314.624	94.38
314.853	84.38
315.083	100.38
315.312	106.38
315.542	86.38
315.771	89.38
316.001	90.38
316.23	91.38
316.46	99.38
316.689	84.38
316.919	107.38
317.148	94.38
317.377	96.38
317.607	92.38
317.836	103.38
318.065	83.38
318.295	92.38
318.524	86.38
318.753	94.38
318.983	94.38
319.212	96.38
319.441	104.38
319.67	108.38
319.9	96.38
320.129	101.38
320.358	117.38
320.587	96.38
320.816	102.38
321.046	89.38
321.275	109.38
321.504	104.38
321.733	95.38
321.962	116.38
322.191	115.38
322.42	100.38
322.649	119.38
322.878	118.38
323.108	111.38
323.337	139.38
323.566	153.38
323.795	156.38
324.024	229.38
324.253	456.38
324.482	943.38
324.71	1957.38
324.939	2550.38
325.168	942.38
325.397	288.38
325.626	164.38
325.855	143.38
326.084	149.38
326.313	151.38
326.542	167.38
326.77	259.38
326.999	519.38
327.228	1032.38
327.457	1914.38
327.686	1536.38
327.914	551.38
328.143	558.38
328.372	738.38
328.6	421.38
328.829	191.38
329.058	176.38
329.287	204.38
329.515	188.38
329.744	286.38
329.972	547.38
330.201	1139.38
330.43	1664.38
330.658	723.38
330.887	295.38
331.115	204.38
331.344	131.38
331.572	134.38
331.801	138.38
332.03	121.38
332.258	115.38
332.486	117.38
332.715	105.38
332.943	107.38
333.172	107.38
333.4	136.38
333.629	160.38
333.857	243.38
334.085	457.38
334.314	1015.38
334.542	1989.38
334.771	1920.38
334.999	468.38
335.227	183.38
335.455	132.38
335.684	113.38
335.912	104.38
336.14	112.38
336.369	103.38
336.597	127.38
336.825	112.38
337.053	97.38
337.281	96.38
337.51	89.38
337.738	87.38
337.966	90.38
338.194	111.38
338.422	111.38
338.65	93.38
338.878	90.38
339.106	92.38
339.334	93.38
339.562	93.38
339.79	88.38
340.018	88.38
340.246	107.38
340.474	104.38
340.702	81.38
340.93	84.38
341.158	92.38
341.386	103.38
341.614	104.38
341.842	103.38
342.07	87.38
342.298	98.38
342.526	89.38
342.754	92.38
342.981	82.38
343.209	92.38
343.437	104.38
343.665	93.38
343.893	97.38
344.12	107.38
344.348	81.38
344.576	91.38
344.804	102.38
345.031	123.38
345.259	97.38
345.487	84.38
345.714	96.38
345.942	105.38
346.17	88.38
346.397	93.38
346.625	88.38
346.853	86.38
347.08	97.38
347.308	101.38
347.535	99.38
347.763	100.38
347.99	117.38
348.218	100.38
348.445	115.38
348.673	93.38
348.9	91.38
349.128	98.38
349.355	120.38
349.583	99.38
349.81	101.38
350.037	92.38
350.265	102.38
350.492	87.38
350.72	102.38
350.947	122.38
351.174	125.38
351.402	101.38
351.629	93.38
351.856	115.38
352.083	114.38
352.311	108.38
352.538	114.38
352.765	103.38
352.992	125.38
353.22	120.38
353.447	111.38
353.674	107.38
353.901	83.38
354.128	86.38
354.355	94.38
354.583	109.38
354.81	109.38
355.037	95.38
355.264	94.38
355.491	93.38
355.718	92.38
355.945	84.38
356.172	94.38
356.399	87.38
356.626	96.38
356.853	89.38
357.08	85.38
357.307	95.38
357.534	94.38
357.761	83.38
357.988	86.38
358.215	91.38
358.441	95.38
358.668	91.38
358.895	97.38
359.122	95.38
359.349	69.38
359.576	91.38
359.802	111.38
360.029	112.38
360.256	120.38
360.483	121.38
360.709	88.38
360.936	96.38
361.163	100.38
361.39	109.38
361.616	87.38
361.843	106.38
362.07	102.38
362.296	98.38
362.523	90.38
362.749	102.38
362.976	96.38
363.203	81.38
363.429	78.38
363.656	81.38
363.882	92.38
364.109	99.38
364.335	97.38
364.562	102.38
364.788	95.38
365.015	95.38
365.241	115.38
365.468	115.38
365.694	110.38
365.92	109.38
366.147	93.38
366.373	88.38
366.599	75.38
366.826	82.38
367.052	90.38
367.278	81.38
367.505	81.38
367.731	89.38
367.957	98.38
368.184	86.38
368.41	95.38
368.636	122.38
368.862	124.38
369.089	121.38
369.315	102.38
369.541	106.38
369.767	82.38
369.993	77.38
370.219	88.38
370.445	85.38
370.672	95.38
370.898	79.38
371.124	87.38
371.35	69.38
371.576	87.38
371.802	91.38
372.028	83.38
372.254	76.38
372.48	94.38
372.706	89.38
372.932	92.38
373.158	81.38
373.384	93.38
373.61	81.38
373.835	89.38
374.061	76.38
374.287	100.38
374.513	94.38
374.739	86.38
374.965	75.38
375.191	89.38
375.416	76.38
375.642	100.38
375.868	89.38
376.094	101.38
376.319	73.38
376.545	90.38
376.771	83.38
376.997	84.38
377.222	100.38
377.448	100.38
377.674	102.38
377.899	90.38
378.125	97.38
378.35	99.38
378.576	86.38
378.802	87.38
379.027	88.38
379.253	91.38
379.478	93.38
379.704	88.38
379.929	88.38
380.155	89.38
380.38	93.38
380.606	84.38
380.831	84.38
381.057	79.38
381.282	101.38
381.507	92.38
381.733	77.38
381.958	94.38
382.184	87.38
382.409	97.38
382.634	94.38
382.86	79.38
383.085	97.38
383.31	90.38
383.535	96.38
383.761	94.38
383.986	93.38
384.211	101.38
384.436	86.38
384.662	79.38
384.887	96.38
385.112	83.38
385.337	93.38
385.562	93.38
385.787	93.38
386.013	107.38
386.238	120.38
386.463	94.38
386.688	107.38
386.913	110.38
387.138	86.38
387.363	101.38
387.588	85.38
387.813	100.38
388.038	113.38
388.263	104.38
388.488	100.38
388.713	79.38
388.938	95.38
389.163	100.38
389.387	101.38
389.612	94.38
389.837	92.38
390.062	82.38
390.287	78.38
390.512	90.38
390.736	85.38
390.961	91.38
391.186	86.38
391.411	92.38
391.636	83.38
391.86	92.38
392.085	89.38
392.31	84.38
392.534	86.38
392.759	80.38
392.984	76.38
393.208	87.38
393.433	91.38
393.658	87.38
393.882	89.38
394.107	78.38
394.331	82.38
394.556	83.38
394.78	84.38
395.005	94.38
395.229	88.38
395.454	95.38
395.678	67.38
395.903	82.38
396.127	75.38
396.352	79.38
396.576	81.38
396.801	86.38
397.025	87.38
397.249	81.38
397.474	86.38
397.698	88.38
397.922	81.38
398.147	94.38
398.371	95.38
398.595	77.38
398.82	102.38
399.044	84.38
399.268	94.38
399.492	87.38
399.717	101.38
399.941	91.38
400.165	99.38
400.389	102.38
400.613	94.38
400.837	83.38
401.062	104.38
401.286	80.38
401.51	91.38
401.734	85.38
401.958	110.38
402.182	134.38
402.406	187.38
402.63	130.38
402.854	102.38
403.078	83.38
403.302	91.38
403.526	89.38
403.75	85.38
403.974	83.38
404.198	88.38
404.422	91.38
404.645	103.38
404.869	98.38
405.093	120.38
405.317	150.38
405.541	139.38
405.765	129.38
405.988	130.38
406.212	195.38
406.436	292.38
406.66	184.38
406.883	111.38
407.107	111.38
407.331	104.38
407.555	109.38
407.778	117.38
408.002	107.38
408.226	88.38
408.449	86.38
408.673	88.38
408.896	108.38
409.12	119.38
409.344	81.38
409.567	96.38
409.791	91.38
410.014	92.38
410.238	93.38
410.461	90.38
410.685	93.38
410.908	87.38
411.132	105.38
411.355	112.38
411.578	110.38
411.802	93.38
412.025	95.38
412.249	100.38
412.472	125.38
412.695	153.38
412.919	111.38
413.142	103.38
413.365	89.38
413.589	86.38
413.812	100.38
414.035	99.38
414.258	109.38
414.482	72.38
414.705	86.38
414.928	100.38
415.151	100.38
415.374	75.38
415.597	88.38
415.821	93.38
416.044	102.38
416.267	109.38
416.49	77.38
416.713	84.38
416.936	104.38
417.159	94.38
417.382	113.38
417.605	101.38
417.828	112.38
418.051	104.38
418.274	99.38
418.497	95.38
418.72	89.38
418.943	89.38
419.166	77.38
419.389	98.38
419.611	99.38
419.834	96.38
420.057	102.38
420.28	109.38
420.503	94.38
420.726	100.38
420.948	103.38
421.171	101.38
421.394	92.38
421.617	97.38
421.839	88.38
422.062	102.38
422.285	84.38
422.507	112.38
422.73	109.38
422.953	94.38
423.175	83.38
423.398	75.38
423.621	100.38
423.843	100.38
424.066	94.38
424.288	81.38
424.511	78.38
424.733	103.38
424.956	117.38
425.178	119.38
425.401	105.38
425.623	115.38
425.846	104.38
426.068	99.38
426.291	98.38
426.513	86.38
426.735	91.38
426.958	102.38
427.18	122.38
427.402	155.38
427.625	249.38
427.847	226.38
428.069	228.38
428.292	117.38
428.514	103.38
428.736	91.38
428.958	95.38
429.181	80.38
429.403	97.38
429.625	91.38
429.847	95.38
430.069	117.38
430.292	104.38
430.514	80.38
430.736	80.38
430.958	90.38
431.18	85.38
431.402	96.38
431.624	89.38
431.846	82.38
432.068	85.38
432.29	99.38
432.512	92.38
432.734	84.38
432.956	84.38
433.178	109.38
433.4	104.38
433.622	98.38
433.844	90.38
434.066	91.38
434.287	87.38
434.509	88.38
434.731	83.38
434.953	79.38
435.175	84.38
435.397	90.38
435.618	102.38
435.84	127.38
436.062	135.38
436.284	129.38
436.505	96.38
436.727	93.38
436.949	80.38
437.17	94.38
437.392	100.38
437.614	99.38
437.835	127.38
438.057	151.38
438.278	123.38
438.5	121.38
438.721	150.38
438.943	114.38
439.165	83.38
439.386	74.38
439.608	87.38
439.829	109.38
440.05	151.38
440.272	183.38
440.493	108.38
440.715	95.38
440.936	95.38
441.158	100.38
441.379	95.38
441.6	97.38
441.822	102.38
442.043	112.38
442.264	121.38
442.486	109.38
442.707	103.38
442.928	124.38
443.149	169.38
443.371	157.38
443.592	131.38
443.813	118.38
444.034	127.38
444.255	91.38
444.476	96.38
444.698	77.38
444.919	99.38
445.14	142.38
445.361	133.38
445.582	132.38
445.803	162.38
446.024	181.38
446.245	169.38
446.466	143.38
446.687	101.38
446.908	96.38
447.129	98.38
447.35	85.38
447.571	87.38
447.792	88.38
448.013	107.38
448.234	97.38
448.455	121.38
448.675	139.38
448.896	152.38
449.117	103.38
449.338	111.38
449.559	151.38
449.779	155.38
450	96.38
450.221	73.38
450.442	83.38
450.662	99.38
450.883	119.38
451.104	108.38
451.324	101.38
451.545	95.38
451.766	90.38
451.986	86.38
452.207	94.38
452.428	102.38
452.648	101.38
452.869	111.38
453.089	132.38
453.31	140.38
453.53	108.38
453.751	83.38
453.971	111.38
454.192	127.38
454.412	100.38
454.633	91.38
454.853	101.38
455.073	92.38
455.294	91.38
455.514	113.38
455.734	109.38
455.955	78.38
456.175	89.38
456.395	105.38
456.616	95.38
456.836	84.38
457.056	72.38
457.276	89.38
457.497	75.38
457.717	103.38
457.937	93.38
458.157	77.38
458.377	107.38
458.598	126.38
458.818	188.38
459.038	207.38
459.258	151.38
459.478	88.38
459.698	77.38
459.918	83.38
460.138	89.38
460.358	86.38
460.578	103.38
460.798	99.38
461.018	99.38
461.238	79.38
461.458	91.38
461.678	87.38
461.898	87.38
462.118	98.38
462.338	98.38
462.558	90.38
462.777	98.38
462.997	99.38
463.217	103.38
463.437	97.38
463.657	88.38
463.876	100.38
464.096	87.38
464.316	85.38
464.536	89.38
464.755	101.38
464.975	123.38
465.195	211.38
465.414	209.38
465.634	93.38
465.854	85.38
466.073	93.38
466.293	88.38
466.512	95.38
466.732	96.38
466.951	87.38
467.171	119.38
467.391	110.38
467.61	133.38
467.829	226.38
468.049	630.38
468.268	970.38
468.488	254.38
468.707	118.38
468.927	94.38
469.146	87.38
469.365	91.38
469.585	90.38
469.804	104.38
470.023	116.38
470.243	113.38
470.462	121.38
470.681	121.38
470.901	95.38
471.12	109.38
471.339	113.38
471.558	130.38
471.777	159.38
471.997	320.38
472.216	1217.38
472.435	2956.38
472.654	689.38
472.873	190.38
473.092	122.38
473.311	97.38
473.53	107.38
473.749	102.38
473.968	113.38
474.187	126.38
474.406	116.38
474.625	88.38
474.844	91.38
475.063	82.38
475.282	88.38
475.501	86.38
475.72	88.38
475.939	99.38
476.158	73.38
476.377	69.38
476.596	100.38
476.814	125.38
477.033	104.38
477.252	97.38
477.471	90.38
477.69	103.38
477.908	87.38
478.127	108.38
478.346	103.38
478.564	105.38
478.783	105.38
479.002	106.38
479.22	102.38
479.439	109.38
479.658	137.38
479.876	112.38
480.095	129.38
480.313	131.38
480.532	173.38
480.751	292.38
480.969	1061.38
481.188	4761.38
481.406	2954.38
481.624	414.38
481.843	145.38
482.061	103.38
482.28	116.38
482.498	107.38
482.717	102.38
482.935	86.38
483.153	74.38
483.372	94.38
483.59	76.38
483.808	87.38
484.027	86.38
484.245	96.38
484.463	97.38
484.681	97.38
484.9	93.38
485.118	76.38
485.336	96.38
485.554	109.38
485.772	118.38
485.99	112.38
486.209	115.38
486.427	135.38
486.645	125.38
486.863	123.38
487.081	103.38
487.299	96.38
487.517	73.38
487.735	100.38
487.953	92.38
488.171	95.38
488.389	97.38
488.607	102.38
488.825	86.38
489.043	87.38
489.261	87.38
489.479	84.38
489.696	87.38
489.914	86.38
490.132	90.38
490.35	85.38
490.568	81.38
490.786	91.38
491.003	108.38
491.221	118.38
491.439	98.38
491.657	103.38
491.874	100.38
492.092	103.38
492.31	91.38
492.527	104.38
492.745	98.38
492.963	88.38
493.18	94.38
493.398	96.38
493.615	103.38
493.833	93.38
494.05	109.38
494.268	90.38
494.485	93.38
494.703	109.38
494.92	101.38
495.138	91.38
495.355	89.38
495.573	82.38
495.79	90.38
496.008	84.38
496.225	84.38
496.442	102.38
496.66	99.38
496.877	80.38
497.094	87.38
497.312	92.38
497.529	94.38
497.746	90.38
497.963	83.38
498.181	101.38
498.398	102.38
498.615	118.38
498.832	101.38
499.049	100.38
499.267	97.38
499.484	85.38
499.701	99.38
499.918	94.38
500.135	88.38
500.352	96.38
500.569	87.38
500.786	93.38
501.003	106.38
501.22	87.38
501.437	78.38
501.654	92.38
501.871	117.38
502.088	83.38
502.305	107.38
502.522	72.38
502.739	109.38
502.956	108.38
503.172	100.38
503.389	106.38
503.606	121.38
503.823	100.38
504.04	84.38
504.256	97.38
504.473	93.38
504.69	75.38
504.907	100.38
505.123	90.38
505.34	84.38
505.557	89.38
505.773	92.38
505.99	93.38
506.207	95.38
506.423	89.38
506.64	95.38
506.856	107.38
507.073	95.38
507.289	90.38
507.506	100.38
507.722	113.38
507.939	118.38
508.155	102.38
508.372	83.38
508.588	84.38
508.805	87.38
509.021	103.38
509.238	103.38
509.454	104.38
509.67	102.38
509.887	115.38
510.103	129.38
510.319	240.38
510.536	877.38
510.752	2957.38
510.968	831.38
511.184	194.38
511.401	145.38
511.617	88.38
511.833	100.38
512.049	103.38
512.265	102.38
512.481	86.38
512.698	74.38
512.914	96.38
513.13	96.38
