Data from Circ_2023_H10_HRD10591_00013.txt Node
Date: Wed Jan 03 09:50:33 EST 2024
User: Yrep
Spectrometer: HR+D1059
Trigger mode: 1
Integration Time (sec): 1.000000E-1
Scans to average: 1
Electric dark correction enabled: true
Nonlinearity correction enabled: false
Boxcar width: 0
XAxis mode: Wavelengths
Number of Pixels in Spectrum: 2048
>>>>>Begin Spectral Data<<<<<
223.165	-21
223.4	-21
223.635	-21
223.869	-18
224.104	-15
224.338	-9
224.573	-11
224.808	-24
225.042	-8
225.277	10
225.511	6
225.746	-4
225.98	15
226.215	0
226.449	21
226.683	8
226.918	25
227.152	25
227.387	50
227.621	36
227.856	45
228.09	37
228.324	71
228.559	51
228.793	55
229.027	70
229.262	75
229.496	65
229.73	105
229.964	85
230.199	73
230.433	86
230.667	86
230.901	78
231.136	85
231.37	73
231.604	81
231.838	81
232.072	88
232.306	75
232.541	82
232.775	90
233.009	83
233.243	94
233.477	88
233.711	69
233.945	81
234.179	81
234.413	75
234.647	76
234.881	74
235.115	85
235.349	91
235.583	75
235.817	88
236.051	83
236.285	78
236.519	78
236.753	59
236.987	86
237.221	91
237.455	96
237.689	80
237.922	84
238.156	74
238.39	81
238.624	71
238.858	70
239.091	73
239.325	83
239.559	86
239.793	78
240.027	67
240.26	74
240.494	87
240.728	76
240.961	85
241.195	90
241.429	79
241.662	76
241.896	80
242.13	73
242.363	62
242.597	87
242.83	83
243.064	73
243.298	86
243.531	75
243.765	88
243.998	90
244.232	82
244.465	86
244.699	82
244.932	74
245.166	69
245.399	85
245.633	66
245.866	96
246.099	74
246.333	82
246.566	66
246.8	73
247.033	77
247.266	61
247.5	78
247.733	69
247.966	74
248.2	85
248.433	82
248.666	80
248.899	87
249.133	106
249.366	118
249.599	93
249.832	79
250.066	79
250.299	94
250.532	86
250.765	70
250.998	86
251.231	91
251.465	86
251.698	80
251.931	89
252.164	90
252.397	83
252.63	77
252.863	79
253.096	65
253.329	83
253.562	80
253.795	71
254.028	78
254.261	78
254.494	80
254.727	78
254.96	85
255.193	72
255.426	83
255.659	97
255.892	92
256.124	95
256.357	91
256.59	75
256.823	82
257.056	79
257.289	89
257.521	95
257.754	79
257.987	82
258.22	72
258.452	80
258.685	95
258.918	84
259.151	86
259.383	76
259.616	82
259.849	81
260.081	83
260.314	81
260.547	91
260.779	83
261.012	103
261.244	97
261.477	107
261.71	111
261.942	136
262.175	131
262.407	100
262.64	89
262.872	88
263.105	81
263.337	74
263.57	99
263.802	75
264.035	82
264.267	77
264.499	75
264.732	70
264.964	98
265.197	80
265.429	75
265.661	80
265.894	79
266.126	91
266.358	84
266.591	87
266.823	83
267.055	80
267.287	94
267.52	79
267.752	94
267.984	86
268.216	75
268.448	82
268.681	68
268.913	75
269.145	94
269.377	96
269.609	76
269.841	82
270.073	81
270.306	81
270.538	96
270.77	85
271.002	86
271.234	95
271.466	93
271.698	98
271.93	90
272.162	104
272.394	88
272.626	83
272.858	89
273.09	85
273.322	66
273.553	93
273.785	93
274.017	86
274.249	94
274.481	89
274.713	89
274.945	80
275.176	87
275.408	88
275.64	100
275.872	125
276.104	96
276.335	100
276.567	123
276.799	137
277.031	156
277.262	167
277.494	132
277.726	98
277.957	97
278.189	84
278.421	68
278.652	78
278.884	92
279.115	99
279.347	103
279.579	101
279.81	117
280.042	169
280.273	224
280.505	164
280.736	101
280.968	88
281.199	76
281.431	95
281.662	98
281.894	112
282.125	94
282.356	129
282.588	165
282.819	125
283.051	102
283.282	76
283.513	94
283.745	95
283.976	84
284.207	96
284.439	97
284.67	77
284.901	90
285.132	85
285.364	87
285.595	96
285.826	89
286.057	86
286.288	88
286.52	94
286.751	89
286.982	105
287.213	94
287.444	94
287.675	73
287.906	90
288.138	79
288.369	98
288.6	94
288.831	86
289.062	78
289.293	86
289.524	79
289.755	74
289.986	92
290.217	97
290.448	98
290.679	98
290.91	84
291.141	70
291.371	94
291.602	88
291.833	72
292.064	90
292.295	103
292.526	97
292.757	93
292.987	90
293.218	92
293.449	79
293.68	94
293.91	56
294.141	97
294.372	92
294.603	88
294.833	83
295.064	75
295.295	79
295.525	82
295.756	109
295.987	114
296.217	157
296.448	156
296.679	99
296.909	108
297.14	87
297.37	90
297.601	109
297.831	80
298.062	98
298.292	98
298.523	89
298.753	90
298.984	96
299.214	101
299.445	104
299.675	88
299.905	83
300.136	87
300.366	86
300.597	92
300.827	104
301.057	102
301.288	110
301.518	100
301.748	86
301.979	113
302.209	89
302.439	98
302.669	99
302.9	81
303.13	108
303.36	104
303.59	109
303.82	145
304.051	98
304.281	89
304.511	93
304.741	76
304.971	90
305.201	98
305.431	84
305.661	95
305.891	102
306.121	83
306.352	119
306.582	117
306.812	113
307.042	117
307.272	133
307.502	152
307.731	152
307.961	117
308.191	86
308.421	100
308.651	81
308.881	99
309.111	120
309.341	103
309.571	101
309.8	110
310.03	93
310.26	117
310.49	94
310.72	103
310.949	107
311.179	112
311.409	81
311.639	91
311.868	100
312.098	98
312.328	102
312.557	103
312.787	114
313.017	102
313.246	102
313.476	92
313.706	101
313.935	103
314.165	123
314.394	122
314.624	96
314.853	102
315.083	95
315.312	92
315.542	96
315.771	84
316.001	115
316.23	92
316.46	96
316.689	91
316.919	96
317.148	121
317.377	96
317.607	106
317.836	88
318.065	87
318.295	88
318.524	95
318.753	99
318.983	82
319.212	96
319.441	116
319.67	119
319.9	96
320.129	77
320.358	93
320.587	95
320.816	95
321.046	99
321.275	126
321.504	104
321.733	102
321.962	98
322.191	113
322.42	121
322.649	136
322.878	121
323.108	127
323.337	137
323.566	143
323.795	182
324.024	245
324.253	489
324.482	1039
324.71	2100
324.939	2758
325.168	1029
325.397	305
325.626	157
325.855	162
326.084	130
326.313	150
326.542	178
326.77	275
326.999	545
327.228	1092
327.457	2025
327.686	1675
327.914	534
328.143	423
328.372	532
328.6	324
328.829	178
329.058	173
329.287	185
329.515	155
329.744	223
329.972	376
330.201	744
330.43	1100
330.658	526
330.887	257
331.115	175
331.344	126
331.572	134
331.801	132
332.03	129
332.258	113
332.486	109
332.715	115
332.943	109
333.172	109
333.4	122
333.629	149
333.857	199
334.085	357
334.314	657
334.542	1356
334.771	1287
334.999	369
335.227	137
335.455	122
335.684	114
335.912	104
336.14	107
336.369	102
336.597	118
336.825	116
337.053	109
337.281	107
337.51	85
337.738	89
337.966	107
338.194	103
338.422	117
338.65	98
338.878	76
339.106	99
339.334	103
339.562	79
339.79	89
340.018	94
340.246	109
340.474	96
340.702	101
340.93	101
341.158	94
341.386	93
341.614	123
341.842	96
342.07	94
342.298	95
342.526	92
342.754	86
342.981	82
343.209	78
343.437	101
343.665	104
343.893	89
344.12	106
344.348	97
344.576	96
344.804	100
345.031	107
345.259	113
345.487	104
345.714	108
345.942	95
346.17	86
346.397	82
346.625	98
346.853	102
347.08	93
347.308	103
347.535	103
347.763	114
347.99	110
348.218	100
348.445	117
348.673	109
348.9	97
349.128	89
349.355	96
349.583	101
349.81	103
350.037	97
350.265	85
350.492	112
350.72	104
350.947	106
351.174	114
351.402	123
351.629	107
351.856	92
352.083	102
352.311	119
352.538	133
352.765	128
352.992	126
353.22	133
353.447	118
353.674	104
353.901	105
354.128	102
354.355	90
354.583	92
354.81	105
355.037	107
355.264	99
355.491	85
355.718	98
355.945	87
356.172	98
356.399	103
356.626	69
356.853	98
357.08	92
357.307	80
357.534	91
357.761	94
357.988	106
358.215	94
358.441	82
358.668	95
358.895	90
359.122	81
359.349	94
359.576	109
359.802	96
360.029	140
360.256	130
360.483	118
360.709	90
360.936	105
361.163	94
361.39	95
361.616	100
361.843	90
362.07	90
362.296	104
362.523	80
362.749	89
362.976	94
363.203	88
363.429	90
363.656	86
363.882	82
364.109	81
364.335	80
364.562	91
364.788	104
365.015	90
365.241	109
365.468	133
365.694	133
365.92	106
366.147	93
366.373	89
366.599	86
366.826	96
367.052	96
367.278	96
367.505	99
367.731	105
367.957	96
368.184	95
368.41	96
368.636	115
368.862	129
369.089	125
369.315	95
369.541	103
369.767	94
369.993	75
370.219	103
370.445	85
370.672	86
370.898	89
371.124	94
371.35	97
371.576	97
371.802	83
372.028	84
372.254	89
372.48	87
372.706	90
372.932	89
373.158	82
373.384	87
373.61	97
373.835	98
374.061	96
374.287	101
374.513	80
374.739	86
374.965	88
375.191	81
375.416	83
375.642	73
375.868	75
376.094	80
376.319	88
376.545	86
376.771	88
376.997	78
377.222	96
377.448	91
377.674	74
377.899	81
378.125	81
378.35	99
378.576	98
378.802	90
379.027	83
379.253	83
379.478	86
379.704	81
379.929	90
380.155	87
380.38	102
380.606	109
380.831	96
381.057	83
381.282	97
381.507	92
381.733	109
381.958	97
382.184	91
382.409	94
382.634	98
382.86	100
383.085	112
383.31	92
383.535	107
383.761	86
383.986	81
384.211	106
384.436	85
384.662	85
384.887	91
385.112	95
385.337	92
385.562	93
385.787	81
386.013	112
386.238	127
386.463	112
386.688	115
386.913	96
387.138	93
387.363	91
387.588	103
387.813	105
388.038	99
388.263	102
388.488	106
388.713	101
388.938	88
389.163	89
389.387	82
389.612	73
389.837	97
390.062	91
390.287	105
390.512	100
390.736	96
390.961	99
391.186	78
391.411	99
391.636	89
391.86	79
392.085	88
392.31	75
392.534	81
392.759	79
392.984	91
393.208	104
393.433	99
393.658	83
393.882	86
394.107	90
394.331	75
394.556	75
394.78	88
395.005	90
395.229	83
395.454	85
395.678	87
395.903	96
396.127	106
396.352	82
396.576	83
396.801	79
397.025	91
397.249	94
397.474	97
397.698	94
397.922	81
398.147	94
398.371	87
398.595	88
398.82	86
399.044	91
399.268	84
399.492	87
399.717	75
399.941	95
400.165	103
400.389	95
400.613	81
400.837	77
401.062	85
401.286	85
401.51	86
401.734	87
401.958	104
402.182	144
402.406	190
402.63	143
402.854	100
403.078	102
403.302	97
403.526	83
403.75	103
403.974	80
404.198	97
404.422	102
404.645	91
404.869	94
405.093	106
405.317	114
405.541	133
405.765	122
405.988	134
406.212	213
406.436	301
406.66	199
406.883	128
407.107	115
407.331	111
407.555	108
407.778	105
408.002	93
408.226	99
408.449	94
408.673	94
408.896	81
409.12	95
409.344	93
409.567	82
409.791	103
410.014	113
410.238	89
410.461	97
410.685	87
410.908	97
411.132	106
411.355	99
411.578	87
411.802	99
412.025	91
412.249	96
412.472	116
412.695	145
412.919	106
413.142	91
413.365	93
413.589	95
413.812	73
414.035	95
414.258	107
414.482	84
414.705	86
414.928	79
415.151	83
415.374	82
415.597	82
415.821	69
416.044	114
416.267	86
416.49	78
416.713	95
416.936	94
417.159	100
417.382	105
417.605	96
417.828	116
418.051	100
418.274	99
418.497	88
418.72	104
418.943	87
419.166	90
419.389	83
419.611	101
419.834	77
420.057	90
420.28	87
420.503	97
420.726	93
420.948	98
421.171	97
421.394	90
421.617	97
421.839	90
422.062	83
422.285	107
422.507	108
422.73	129
422.953	105
423.175	102
423.398	99
423.621	92
423.843	85
424.066	92
424.288	90
424.511	89
424.733	114
424.956	120
425.178	110
425.401	110
425.623	107
425.846	86
426.068	93
426.291	96
426.513	102
426.735	100
426.958	114
427.18	117
427.402	152
427.625	239
427.847	226
428.069	208
428.292	133
428.514	98
428.736	94
428.958	74
429.181	90
429.403	94
429.625	79
429.847	115
430.069	96
430.292	107
430.514	91
430.736	90
430.958	92
431.18	86
431.402	97
431.624	82
431.846	89
432.068	89
432.29	81
432.512	86
432.734	85
432.956	82
433.178	89
433.4	115
433.622	83
433.844	101
434.066	92
434.287	99
434.509	90
434.731	100
434.953	98
435.175	99
435.397	94
435.618	90
435.84	101
436.062	140
436.284	134
436.505	114
436.727	104
436.949	96
437.17	80
437.392	96
437.614	102
437.835	129
438.057	151
438.278	117
438.5	120
438.721	153
438.943	89
439.165	89
439.386	99
439.608	93
439.829	124
440.05	160
440.272	180
440.493	104
440.715	82
440.936	89
441.158	94
441.379	86
441.6	88
441.822	96
442.043	111
442.264	125
442.486	138
442.707	115
442.928	114
443.149	154
443.371	183
443.592	139
443.813	139
444.034	135
444.255	106
444.476	90
444.698	90
444.919	89
445.14	131
445.361	135
445.582	134
445.803	175
446.024	175
446.245	166
446.466	132
446.687	85
446.908	88
447.129	98
447.35	98
447.571	111
447.792	88
448.013	100
448.234	121
448.455	115
448.675	119
448.896	121
449.117	99
449.338	129
449.559	144
449.779	154
450	92
450.221	102
450.442	87
450.662	101
450.883	119
451.104	117
451.324	94
451.545	79
451.766	99
451.986	93
452.207	94
452.428	93
452.648	111
452.869	126
453.089	143
453.31	133
453.53	99
453.751	91
453.971	110
454.192	143
454.412	104
454.633	88
454.853	84
455.073	93
455.294	99
455.514	122
455.734	87
455.955	83
456.175	99
456.395	87
456.616	89
456.836	93
457.056	101
457.276	73
457.497	82
457.717	93
457.937	94
458.157	88
458.377	91
458.598	123
458.818	194
459.038	227
459.258	153
459.478	111
459.698	93
459.918	94
460.138	90
460.358	87
460.578	93
460.798	84
461.018	80
461.238	94
461.458	95
461.678	91
461.898	88
462.118	96
462.338	95
462.558	81
462.777	97
462.997	88
463.217	100
463.437	90
463.657	83
463.876	102
464.096	89
464.316	93
464.536	99
464.755	98
464.975	98
465.195	219
465.414	236
465.634	114
465.854	92
466.073	92
466.293	90
466.512	106
466.732	86
466.951	89
467.171	95
467.391	106
467.61	129
467.829	172
468.049	417
468.268	647
468.488	198
468.707	92
468.927	86
469.146	91
469.365	90
469.585	93
469.804	100
470.023	114
470.243	100
470.462	114
470.681	131
470.901	96
471.12	104
471.339	96
471.558	100
471.777	143
471.997	254
472.216	797
472.435	1841
472.654	492
472.873	153
473.092	103
473.311	94
473.53	102
473.749	90
473.968	104
474.187	117
474.406	114
474.625	102
474.844	87
475.063	99
475.282	93
475.501	90
475.72	81
475.939	79
476.158	101
476.377	95
476.596	85
476.814	112
477.033	116
477.252	90
477.471	98
477.69	110
477.908	98
478.127	98
478.346	78
478.564	119
478.783	102
479.002	100
479.22	102
479.439	117
479.658	119
479.876	115
480.095	122
480.313	139
480.532	150
480.751	222
480.969	719
481.188	3069
481.406	2006
481.624	309
481.843	118
482.061	114
482.28	86
482.498	96
482.717	97
482.935	95
483.153	98
483.372	96
483.59	85
483.808	81
484.027	99
484.245	93
484.463	92
484.681	98
484.9	99
485.118	101
485.336	103
485.554	102
485.772	112
485.99	127
486.209	104
486.427	102
486.645	117
486.863	153
487.081	132
487.299	95
487.517	91
487.735	87
487.953	105
488.171	98
488.389	102
488.607	124
488.825	98
489.043	86
489.261	101
489.479	93
489.696	89
489.914	92
490.132	104
490.35	86
490.568	76
490.786	81
491.003	85
491.221	102
491.439	91
491.657	98
491.874	96
492.092	90
492.31	98
492.527	85
492.745	82
492.963	101
493.18	97
493.398	83
493.615	84
493.833	97
494.05	90
494.268	96
494.485	86
494.703	93
494.92	82
495.138	104
495.355	97
495.573	100
495.79	86
496.008	98
496.225	97
496.442	93
496.66	101
496.877	89
497.094	96
497.312	99
497.529	89
497.746	80
497.963	91
498.181	87
498.398	82
498.615	114
498.832	110
499.049	79
499.267	99
499.484	85
499.701	99
499.918	87
500.135	88
500.352	94
500.569	111
500.786	93
501.003	86
501.22	98
501.437	98
501.654	119
501.871	115
502.088	101
502.305	94
502.522	93
502.739	94
502.956	95
503.172	85
503.389	120
503.606	119
503.823	110
504.04	96
504.256	90
504.473	97
504.69	92
504.907	96
505.123	102
505.34	98
505.557	97
505.773	95
505.99	94
506.207	90
506.423	90
506.64	97
506.856	101
507.073	111
507.289	104
507.506	109
507.722	129
507.939	143
508.155	93
508.372	108
508.588	94
508.805	106
509.021	104
509.238	101
509.454	104
509.67	123
509.887	116
510.103	143
510.319	264
510.536	956
510.752	3293
510.968	940
511.184	199
511.401	122
511.617	100
511.833	96
512.049	94
512.265	92
512.481	87
512.698	110
512.914	96
513.13	111
513.346	94
513.562	93
513.778	98
513.994	110
514.21	115
514.426	147
514.642	169
514.858	154
515.074	234
515.29	656
515.506	2456
515.721	912
515.937	212
516.153	144
516.369	114
516.585	112
516.801	83
517.016	95
517.232	99
517.448	101
517.664	94
517.879	111
518.095	96
518.311	105
518.527	120
518.742	101
518.958	98
519.173	100
519.389	112
519.605	93
519.82	98
520.036	121
520.251	141
520.467	125
520.682	114
520.898	128
521.113	141
521.329	177
521.544	281
521.76	855
521.975	4111
522.19	2542
522.406	504
522.621	159
522.836	119
523.052	91
523.267	106
523.482	98
523.698	123
523.913	150
524.128	105
524.343	102
524.559	88
524.774	104
524.989	85
525.204	115
525.419	117
525.634	103
525.849	96
526.064	85
526.28	99
526.495	87
526.71	90
526.925	86
527.14	91
527.355	90
527.57	111
527.785	96
527.999	89
528.214	102
528.429	97
528.644	100
528.859	100
529.074	93
529.289	139
529.503	252
529.718	122
529.933	94
530.148	100
530.363	81
530.577	106
530.792	108
531.007	92
531.221	101
531.436	90
531.651	90
531.865	90
532.08	89
532.295	78
532.509	98
532.724	97
532.938	89
533.153	103
533.367	94
533.582	90
533.796	95
534.011	88
534.225	92
534.44	99
534.654	105
534.868	101
535.083	88
535.297	101
535.511	122
535.726	105
535.94	112
536.154	113
536.369	88
536.583	85
536.797	88
537.011	94
537.225	81
537.44	86
537.654	88
537.868	89
538.082	79
538.296	91
538.51	88
538.724	83
538.938	92
539.153	89
539.367	133
539.581	111
539.795	106
540.009	82
540.222	95
540.436	84
540.65	72
540.864	91
541.078	93
541.292	102
541.506	92
541.72	82
541.934	110
542.147	113
542.361	72
542.575	88
542.789	92
543.002	78
543.216	93
543.43	113
543.644	104
543.857	89
544.071	97
544.285	106
544.498	90
544.712	103
544.925	97
545.139	95
545.352	99
545.566	109
545.779	88
545.993	83
546.206	85
546.42	86
546.633	82
546.847	90
547.06	98
547.274	99
547.487	94
547.7	93
547.914	90
548.127	102
548.34	91
548.554	85
548.767	92
548.98	78
549.193	85
549.407	103
549.62	98
549.833	93
550.046	85
550.259	88
550.473	92
550.686	99
550.899	90
551.112	89
551.325	92
551.538	102
551.751	85
551.964	85
552.177	104
552.39	86
552.603	87
552.816	92
553.029	95
553.242	91
553.455	98
553.667	117
553.88	112
554.093	98
554.306	105
554.519	112
554.732	84
554.944	86
555.157	91
555.37	100
555.583	99
555.795	100
556.008	73
556.221	80
556.433	99
556.646	95
556.859	87
557.071	85
557.284	83
557.496	104
557.709	83
557.921	87
558.134	89
558.346	90
558.559	102
558.771	89
558.984	94
559.196	104
559.409	94
559.621	95
559.833	104
560.046	83
560.258	105
560.47	122
560.683	111
560.895	95
561.107	101
561.32	85
561.532	96
561.744	88
561.956	96
562.168	94
562.381	100
562.593	94
562.805	95
563.017	89
563.229	81
563.441	76
563.653	82
563.865	91
564.077	93
564.289	90
564.501	80
564.713	94
564.925	102
565.137	110
565.349	99
565.561	96
565.773	100
565.985	104
566.197	102
566.408	88
566.62	79
566.832	81
567.044	79
567.255	74
567.467	95
567.679	93
567.891	94
568.102	97
568.314	83
568.526	88
568.737	79
568.949	100
569.161	87
569.372	86
569.584	101
569.795	95
570.007	110
570.218	297
570.43	158
570.641	82
570.853	89
571.064	80
571.276	97
571.487	94
571.698	93
571.91	98
572.121	97
572.333	89
572.544	85
572.755	88
572.966	105
573.178	100
573.389	81
573.6	93
573.811	78
574.023	86
574.234	94
574.445	96
574.656	97
574.867	96
575.078	86
575.289	102
575.501	85
575.712	91
575.923	85
576.134	93
576.345	78
576.556	88
576.767	95
576.978	99
577.188	79
577.399	105
577.61	89
577.821	92
578.032	121
578.243	322
578.454	1050
578.665	247
578.875	105
579.086	80
579.297	80
579.508	101
579.718	101
579.929	88
580.14	90
580.35	82
580.561	91
