Data from Circ_2023_H10_HRD10591_00041.txt Node
Date: Wed Jan 03 09:50:39 EST 2024
User: Yrep
Spectrometer: HR+D1059
Trigger mode: 1
Integration Time (sec): 1.000000E-1
Scans to average: 1
Electric dark correction enabled: true
Nonlinearity correction enabled: false
Boxcar width: 0
XAxis mode: Wavelengths
Number of Pixels in Spectrum: 2048
>>>>>Begin Spectral Data<<<<<
223.165	-8.19
223.4	-8.19
223.635	-8.19
223.869	-27.19
224.104	-18.19
224.338	-16.19
224.573	-5.19
224.808	-15.19
225.042	-8.19
225.277	-12.19
225.511	-15.19
225.746	-3.19
225.98	14.81
226.215	4.81
226.449	14.81
226.683	31.81
226.918	33.81
227.152	28.81
227.387	32.81
227.621	43.81
227.856	47.81
228.09	52.81
228.324	53.81
228.559	64.81
228.793	63.81
229.027	70.81
229.262	70.81
229.496	71.81
229.73	71.81
229.964	86.81
230.199	78.81
230.433	74.81
230.667	84.81
230.901	88.81
231.136	87.81
231.37	83.81
231.604	85.81
231.838	78.81
232.072	86.81
232.306	87.81
232.541	77.81
232.775	83.81
233.009	80.81
233.243	78.81
233.477	83.81
233.711	79.81
233.945	80.81
234.179	75.81
234.413	64.81
234.647	77.81
234.881	73.81
235.115	88.81
235.349	83.81
235.583	85.81
235.817	74.81
236.051	57.81
236.285	61.81
236.519	79.81
236.753	77.81
236.987	87.81
237.221	73.81
237.455	98.81
237.689	85.81
237.922	81.81
238.156	83.81
238.39	80.81
238.624	68.81
238.858	68.81
239.091	74.81
239.325	72.81
239.559	85.81
239.793	74.81
240.027	61.81
240.26	69.81
240.494	77.81
240.728	82.81
240.961	66.81
241.195	88.81
241.429	72.81
241.662	77.81
241.896	79.81
242.13	73.81
242.363	86.81
242.597	81.81
242.83	81.81
243.064	77.81
243.298	70.81
243.531	81.81
243.765	67.81
243.998	71.81
244.232	81.81
244.465	88.81
244.699	79.81
244.932	92.81
245.166	78.81
245.399	85.81
245.633	67.81
245.866	68.81
246.099	67.81
246.333	78.81
246.566	85.81
246.8	80.81
247.033	69.81
247.266	83.81
247.5	77.81
247.733	72.81
247.966	84.81
248.2	86.81
248.433	91.81
248.666	74.81
248.899	93.81
249.133	83.81
249.366	105.81
249.599	98.81
249.832	84.81
250.066	86.81
250.299	94.81
250.532	86.81
250.765	79.81
250.998	74.81
251.231	84.81
251.465	80.81
251.698	66.81
251.931	73.81
252.164	87.81
252.397	64.81
252.63	80.81
252.863	89.81
253.096	80.81
253.329	72.81
253.562	83.81
253.795	79.81
254.028	87.81
254.261	81.81
254.494	76.81
254.727	81.81
254.96	85.81
255.193	89.81
255.426	79.81
255.659	64.81
255.892	103.81
256.124	85.81
256.357	77.81
256.59	98.81
256.823	74.81
257.056	88.81
257.289	79.81
257.521	90.81
257.754	72.81
257.987	92.81
258.22	85.81
258.452	95.81
258.685	98.81
258.918	88.81
259.151	80.81
259.383	83.81
259.616	84.81
259.849	73.81
260.081	74.81
260.314	80.81
260.547	87.81
260.779	97.81
261.012	103.81
261.244	110.81
261.477	92.81
261.71	104.81
261.942	126.81
262.175	151.81
262.407	92.81
262.64	97.81
262.872	81.81
263.105	80.81
263.337	78.81
263.57	87.81
263.802	89.81
264.035	89.81
264.267	84.81
264.499	80.81
264.732	82.81
264.964	86.81
265.197	75.81
265.429	92.81
265.661	81.81
265.894	89.81
266.126	79.81
266.358	101.81
266.591	89.81
266.823	80.81
267.055	81.81
267.287	92.81
267.52	93.81
267.752	85.81
267.984	75.81
268.216	83.81
268.448	81.81
268.681	86.81
268.913	78.81
269.145	79.81
269.377	88.81
269.609	80.81
269.841	80.81
270.073	68.81
270.306	75.81
270.538	97.81
270.77	81.81
271.002	86.81
271.234	80.81
271.466	88.81
271.698	83.81
271.93	94.81
272.162	81.81
272.394	93.81
272.626	87.81
272.858	79.81
273.09	85.81
273.322	97.81
273.553	75.81
273.785	99.81
274.017	87.81
274.249	98.81
274.481	73.81
274.713	88.81
274.945	93.81
275.176	93.81
275.408	103.81
275.64	120.81
275.872	114.81
276.104	101.81
276.335	89.81
276.567	115.81
276.799	152.81
277.031	164.81
277.262	206.81
277.494	160.81
277.726	107.81
277.957	103.81
278.189	92.81
278.421	88.81
278.652	87.81
278.884	95.81
279.115	85.81
279.347	99.81
279.579	101.81
279.81	137.81
280.042	208.81
280.273	276.81
280.505	200.81
280.736	104.81
280.968	90.81
281.199	97.81
281.431	68.81
281.662	85.81
281.894	89.81
282.125	88.81
282.356	143.81
282.588	182.81
282.819	126.81
283.051	104.81
283.282	89.81
283.513	84.81
283.745	92.81
283.976	81.81
284.207	89.81
284.439	94.81
284.67	88.81
284.901	97.81
285.132	91.81
285.364	114.81
285.595	74.81
285.826	78.81
286.057	86.81
286.288	87.81
286.52	92.81
286.751	86.81
286.982	64.81
287.213	85.81
287.444	80.81
287.675	82.81
287.906	81.81
288.138	89.81
288.369	97.81
288.6	89.81
288.831	85.81
289.062	97.81
289.293	94.81
289.524	91.81
289.755	82.81
289.986	86.81
290.217	84.81
290.448	81.81
290.679	88.81
290.91	77.81
291.141	101.81
291.371	102.81
291.602	96.81
291.833	85.81
292.064	84.81
292.295	85.81
292.526	82.81
292.757	92.81
292.987	94.81
293.218	89.81
293.449	102.81
293.68	86.81
293.91	77.81
294.141	91.81
294.372	83.81
294.603	84.81
294.833	97.81
295.064	93.81
295.295	88.81
295.525	82.81
295.756	102.81
295.987	128.81
296.217	162.81
296.448	131.81
296.679	88.81
296.909	88.81
297.14	92.81
297.37	84.81
297.601	89.81
297.831	80.81
298.062	98.81
298.292	97.81
298.523	89.81
298.753	98.81
298.984	91.81
299.214	96.81
299.445	93.81
299.675	106.81
299.905	102.81
300.136	94.81
300.366	98.81
300.597	89.81
300.827	108.81
301.057	101.81
301.288	112.81
301.518	92.81
301.748	78.81
301.979	113.81
302.209	99.81
302.439	93.81
302.669	77.81
302.9	86.81
303.13	101.81
303.36	110.81
303.59	126.81
303.82	160.81
304.051	107.81
304.281	93.81
304.511	93.81
304.741	90.81
304.971	91.81
305.201	96.81
305.431	99.81
305.661	82.81
305.891	108.81
306.121	100.81
306.352	104.81
306.582	125.81
306.812	104.81
307.042	108.81
307.272	160.81
307.502	158.81
307.731	165.81
307.961	132.81
308.191	95.81
308.421	95.81
308.651	115.81
308.881	105.81
309.111	95.81
309.341	94.81
309.571	112.81
309.8	108.81
310.03	92.81
310.26	110.81
310.49	97.81
310.72	112.81
310.949	120.81
311.179	107.81
311.409	92.81
311.639	90.81
311.868	91.81
312.098	114.81
312.328	107.81
312.557	116.81
312.787	129.81
313.017	116.81
313.246	102.81
313.476	108.81
313.706	99.81
313.935	96.81
314.165	101.81
314.394	114.81
314.624	92.81
314.853	98.81
315.083	97.81
315.312	95.81
315.542	92.81
315.771	97.81
316.001	90.81
316.23	101.81
316.46	94.81
316.689	97.81
316.919	89.81
317.148	100.81
317.377	100.81
317.607	104.81
317.836	90.81
318.065	95.81
318.295	95.81
318.524	93.81
318.753	105.81
318.983	85.81
319.212	89.81
319.441	128.81
319.67	131.81
319.9	96.81
320.129	110.81
320.358	118.81
320.587	123.81
320.816	112.81
321.046	95.81
321.275	100.81
321.504	110.81
321.733	107.81
321.962	101.81
322.191	106.81
322.42	96.81
322.649	117.81
322.878	112.81
323.108	124.81
323.337	136.81
323.566	170.81
323.795	185.81
324.024	244.81
324.253	502.81
324.482	1046.81
324.71	2162.81
324.939	2852.81
325.168	1050.81
325.397	309.81
325.626	176.81
325.855	152.81
326.084	133.81
326.313	153.81
326.542	182.81
326.77	277.81
326.999	552.81
327.228	1127.81
327.457	2080.81
327.686	1720.81
327.914	570.81
328.143	512.81
328.372	711.81
328.6	405.81
328.829	198.81
329.058	198.81
329.287	215.81
329.515	183.81
329.744	254.81
329.972	503.81
330.201	1004.81
330.43	1550.81
330.658	689.81
330.887	316.81
331.115	192.81
331.344	124.81
331.572	128.81
331.801	121.81
332.03	124.81
332.258	113.81
332.486	105.81
332.715	121.81
332.943	110.81
333.172	120.81
333.4	132.81
333.629	176.81
333.857	239.81
334.085	446.81
334.314	935.81
334.542	1871.81
334.771	1855.81
334.999	498.81
335.227	188.81
335.455	117.81
335.684	114.81
335.912	113.81
336.14	109.81
336.369	116.81
336.597	114.81
336.825	119.81
337.053	97.81
337.281	91.81
337.51	86.81
337.738	84.81
337.966	102.81
338.194	94.81
338.422	90.81
338.65	98.81
338.878	88.81
339.106	91.81
339.334	92.81
339.562	93.81
339.79	96.81
340.018	113.81
340.246	93.81
340.474	108.81
340.702	99.81
340.93	88.81
341.158	95.81
341.386	100.81
341.614	109.81
341.842	96.81
342.07	87.81
342.298	85.81
342.526	77.81
342.754	82.81
342.981	95.81
343.209	89.81
343.437	98.81
343.665	94.81
343.893	98.81
344.12	85.81
344.348	90.81
344.576	98.81
344.804	101.81
345.031	93.81
345.259	114.81
345.487	94.81
345.714	98.81
345.942	90.81
346.17	95.81
346.397	91.81
346.625	95.81
346.853	97.81
347.08	102.81
347.308	93.81
347.535	117.81
347.763	110.81
347.99	96.81
348.218	117.81
348.445	124.81
348.673	117.81
348.9	107.81
349.128	105.81
349.355	98.81
349.583	79.81
349.81	90.81
350.037	108.81
350.265	111.81
350.492	99.81
350.72	100.81
350.947	110.81
351.174	105.81
351.402	128.81
351.629	110.81
351.856	122.81
352.083	123.81
352.311	128.81
352.538	121.81
352.765	137.81
352.992	116.81
353.22	120.81
353.447	101.81
353.674	99.81
353.901	83.81
354.128	88.81
354.355	94.81
354.583	101.81
354.81	91.81
355.037	95.81
355.264	90.81
355.491	108.81
355.718	83.81
355.945	100.81
356.172	81.81
356.399	85.81
356.626	88.81
356.853	102.81
357.08	96.81
357.307	78.81
357.534	99.81
357.761	87.81
357.988	97.81
358.215	86.81
358.441	90.81
358.668	88.81
358.895	95.81
359.122	87.81
359.349	86.81
359.576	101.81
359.802	104.81
360.029	133.81
360.256	152.81
360.483	125.81
360.709	97.81
360.936	105.81
361.163	100.81
361.39	115.81
361.616	100.81
361.843	98.81
362.07	103.81
362.296	114.81
362.523	106.81
362.749	92.81
362.976	96.81
363.203	94.81
363.429	85.81
363.656	88.81
363.882	100.81
364.109	105.81
364.335	94.81
364.562	104.81
364.788	88.81
365.015	94.81
365.241	111.81
365.468	109.81
365.694	114.81
365.92	113.81
366.147	90.81
366.373	97.81
366.599	90.81
366.826	89.81
367.052	89.81
367.278	90.81
367.505	75.81
367.731	84.81
367.957	91.81
368.184	96.81
368.41	108.81
368.636	136.81
368.862	131.81
369.089	124.81
369.315	113.81
369.541	97.81
369.767	95.81
369.993	92.81
370.219	108.81
370.445	85.81
370.672	78.81
370.898	92.81
371.124	101.81
371.35	90.81
371.576	104.81
371.802	88.81
372.028	92.81
372.254	96.81
372.48	103.81
372.706	82.81
372.932	81.81
373.158	85.81
373.384	93.81
373.61	85.81
373.835	91.81
374.061	80.81
374.287	106.81
374.513	72.81
374.739	96.81
374.965	84.81
375.191	79.81
375.416	83.81
375.642	89.81
375.868	72.81
376.094	98.81
376.319	83.81
376.545	84.81
376.771	80.81
376.997	84.81
377.222	78.81
377.448	77.81
377.674	76.81
377.899	79.81
378.125	97.81
378.35	93.81
378.576	79.81
378.802	83.81
379.027	90.81
379.253	98.81
379.478	97.81
379.704	95.81
379.929	102.81
380.155	78.81
380.38	96.81
380.606	95.81
380.831	89.81
381.057	90.81
381.282	88.81
381.507	97.81
381.733	96.81
381.958	93.81
382.184	97.81
382.409	102.81
382.634	97.81
382.86	72.81
383.085	82.81
383.31	96.81
383.535	101.81
383.761	103.81
383.986	96.81
384.211	95.81
384.436	95.81
384.662	103.81
384.887	89.81
385.112	97.81
385.337	92.81
385.562	89.81
385.787	97.81
386.013	116.81
386.238	124.81
386.463	113.81
386.688	108.81
386.913	92.81
387.138	97.81
387.363	100.81
387.588	105.81
387.813	93.81
388.038	115.81
388.263	102.81
388.488	94.81
388.713	97.81
388.938	88.81
389.163	88.81
389.387	93.81
389.612	100.81
389.837	84.81
390.062	81.81
390.287	103.81
390.512	89.81
390.736	79.81
390.961	103.81
391.186	93.81
391.411	89.81
391.636	89.81
391.86	97.81
392.085	78.81
392.31	88.81
392.534	85.81
392.759	85.81
392.984	83.81
393.208	99.81
393.433	93.81
393.658	101.81
393.882	87.81
394.107	78.81
394.331	93.81
394.556	88.81
394.78	94.81
395.005	72.81
395.229	93.81
395.454	88.81
395.678	98.81
395.903	90.81
396.127	96.81
396.352	72.81
396.576	92.81
396.801	83.81
397.025	88.81
397.249	94.81
397.474	93.81
397.698	93.81
397.922	106.81
398.147	76.81
398.371	84.81
398.595	89.81
398.82	79.81
399.044	90.81
399.268	90.81
399.492	102.81
399.717	99.81
399.941	89.81
400.165	103.81
400.389	90.81
400.613	108.81
400.837	94.81
401.062	82.81
401.286	90.81
401.51	91.81
401.734	93.81
401.958	117.81
402.182	128.81
402.406	206.81
402.63	152.81
402.854	115.81
403.078	98.81
403.302	96.81
403.526	94.81
403.75	97.81
403.974	77.81
404.198	88.81
404.422	82.81
404.645	86.81
404.869	101.81
405.093	119.81
405.317	154.81
405.541	149.81
405.765	124.81
405.988	126.81
406.212	247.81
406.436	310.81
406.66	214.81
406.883	128.81
407.107	108.81
407.331	96.81
407.555	114.81
407.778	104.81
408.002	102.81
408.226	101.81
408.449	100.81
408.673	84.81
408.896	102.81
409.12	111.81
409.344	89.81
409.567	96.81
409.791	84.81
410.014	86.81
410.238	84.81
410.461	88.81
410.685	81.81
410.908	103.81
411.132	115.81
411.355	111.81
411.578	90.81
411.802	93.81
412.025	82.81
412.249	102.81
412.472	124.81
412.695	143.81
412.919	110.81
413.142	105.81
413.365	79.81
413.589	95.81
413.812	80.81
414.035	107.81
414.258	94.81
414.482	94.81
414.705	95.81
414.928	95.81
415.151	98.81
415.374	82.81
415.597	78.81
415.821	103.81
416.044	104.81
416.267	87.81
416.49	85.81
416.713	98.81
416.936	94.81
417.159	97.81
417.382	90.81
417.605	120.81
417.828	118.81
418.051	100.81
418.274	98.81
418.497	79.81
418.72	91.81
418.943	78.81
419.166	89.81
419.389	85.81
419.611	95.81
419.834	97.81
420.057	94.81
420.28	97.81
420.503	87.81
420.726	95.81
420.948	85.81
421.171	101.81
421.394	99.81
421.617	81.81
421.839	93.81
422.062	102.81
422.285	77.81
422.507	95.81
422.73	114.81
422.953	102.81
423.175	105.81
423.398	83.81
423.621	78.81
423.843	83.81
424.066	90.81
424.288	99.81
424.511	106.81
424.733	132.81
424.956	133.81
425.178	109.81
425.401	111.81
425.623	100.81
425.846	100.81
426.068	113.81
426.291	96.81
426.513	92.81
426.735	93.81
426.958	100.81
427.18	139.81
427.402	175.81
427.625	277.81
427.847	258.81
428.069	240.81
428.292	143.81
428.514	101.81
428.736	102.81
428.958	95.81
429.181	102.81
429.403	89.81
429.625	75.81
429.847	102.81
430.069	123.81
430.292	94.81
430.514	78.81
430.736	94.81
430.958	99.81
431.18	93.81
431.402	90.81
431.624	87.81
431.846	84.81
432.068	89.81
432.29	97.81
432.512	85.81
432.734	95.81
432.956	99.81
433.178	94.81
433.4	86.81
433.622	90.81
433.844	91.81
434.066	103.81
434.287	88.81
434.509	101.81
434.731	96.81
434.953	108.81
435.175	83.81
435.397	81.81
435.618	104.81
435.84	122.81
436.062	151.81
436.284	137.81
436.505	111.81
436.727	104.81
436.949	95.81
437.17	92.81
437.392	97.81
437.614	108.81
437.835	129.81
438.057	159.81
438.278	143.81
438.5	132.81
438.721	153.81
438.943	124.81
439.165	94.81
439.386	94.81
439.608	98.81
439.829	110.81
440.05	144.81
440.272	208.81
440.493	124.81
440.715	102.81
440.936	82.81
441.158	91.81
441.379	92.81
441.6	108.81
441.822	89.81
442.043	104.81
442.264	124.81
442.486	113.81
442.707	121.81
442.928	126.81
443.149	185.81
443.371	172.81
443.592	137.81
443.813	146.81
444.034	122.81
444.255	88.81
444.476	87.81
444.698	104.81
444.919	97.81
445.14	141.81
445.361	131.81
445.582	147.81
445.803	190.81
446.024	194.81
446.245	199.81
446.466	118.81
446.687	93.81
446.908	95.81
447.129	89.81
447.35	98.81
447.571	99.81
447.792	104.81
448.013	101.81
448.234	120.81
448.455	118.81
448.675	156.81
448.896	139.81
449.117	111.81
449.338	112.81
449.559	162.81
449.779	176.81
450	110.81
450.221	102.81
450.442	102.81
450.662	102.81
450.883	134.81
451.104	140.81
451.324	89.81
451.545	81.81
451.766	91.81
451.986	86.81
452.207	93.81
452.428	101.81
452.648	99.81
452.869	120.81
453.089	137.81
453.31	144.81
453.53	106.81
453.751	103.81
453.971	104.81
454.192	134.81
454.412	105.81
454.633	106.81
454.853	92.81
455.073	98.81
455.294	93.81
455.514	114.81
455.734	98.81
455.955	103.81
456.175	91.81
456.395	76.81
456.616	80.81
456.836	90.81
457.056	95.81
457.276	78.81
457.497	75.81
457.717	89.81
457.937	85.81
458.157	87.81
458.377	91.81
458.598	134.81
458.818	200.81
459.038	238.81
459.258	144.81
459.478	109.81
459.698	89.81
459.918	81.81
460.138	83.81
460.358	79.81
460.578	81.81
460.798	81.81
461.018	84.81
461.238	75.81
461.458	89.81
461.678	79.81
461.898	93.81
462.118	74.81
462.338	96.81
462.558	86.81
462.777	75.81
462.997	97.81
463.217	112.81
463.437	106.81
463.657	99.81
463.876	87.81
464.096	105.81
464.316	105.81
464.536	95.81
464.755	105.81
464.975	144.81
465.195	232.81
465.414	238.81
465.634	116.81
465.854	97.81
466.073	118.81
466.293	82.81
466.512	73.81
466.732	97.81
466.951	87.81
467.171	89.81
467.391	107.81
467.61	157.81
467.829	205.81
468.049	549.81
468.268	896.81
468.488	242.81
468.707	116.81
468.927	107.81
469.146	88.81
469.365	99.81
469.585	103.81
469.804	112.81
470.023	120.81
470.243	116.81
470.462	115.81
470.681	134.81
470.901	99.81
471.12	103.81
471.339	109.81
471.558	114.81
471.777	152.81
471.997	291.81
472.216	1106.81
472.435	2616.81
472.654	654.81
472.873	183.81
473.092	108.81
473.311	98.81
473.53	104.81
473.749	89.81
473.968	116.81
474.187	135.81
474.406	116.81
474.625	98.81
474.844	93.81
475.063	80.81
475.282	96.81
475.501	87.81
475.72	102.81
475.939	85.81
476.158	100.81
476.377	89.81
476.596	93.81
476.814	117.81
477.033	105.81
477.252	85.81
477.471	86.81
477.69	103.81
477.908	94.81
478.127	96.81
478.346	96.81
478.564	104.81
478.783	106.81
479.002	106.81
479.22	112.81
479.439	130.81
479.658	137.81
479.876	133.81
480.095	136.81
480.313	140.81
480.532	172.81
480.751	273.81
480.969	1008.81
481.188	4326.81
481.406	2724.81
481.624	390.81
481.843	152.81
482.061	111.81
482.28	98.81
482.498	105.81
482.717	96.81
482.935	83.81
483.153	92.81
483.372	94.81
483.59	109.81
483.808	92.81
484.027	80.81
484.245	80.81
484.463	91.81
484.681	97.81
484.9	97.81
485.118	101.81
485.336	103.81
485.554	100.81
485.772	97.81
485.99	111.81
486.209	99.81
486.427	121.81
486.645	139.81
486.863	114.81
487.081	122.81
487.299	77.81
487.517	95.81
487.735	96.81
487.953	100.81
488.171	89.81
488.389	107.81
488.607	96.81
488.825	94.81
489.043	82.81
489.261	100.81
489.479	97.81
489.696	81.81
489.914	93.81
490.132	90.81
490.35	98.81
490.568	93.81
490.786	95.81
491.003	85.81
491.221	105.81
491.439	99.81
491.657	108.81
491.874	98.81
492.092	83.81
492.31	103.81
492.527	92.81
492.745	98.81
492.963	87.81
493.18	91.81
493.398	101.81
493.615	87.81
493.833	97.81
494.05	93.81
494.268	92.81
494.485	97.81
494.703	95.81
494.92	81.81
495.138	84.81
495.355	96.81
495.573	98.81
495.79	105.81
496.008	96.81
496.225	96.81
496.442	90.81
496.66	99.81
496.877	84.81
497.094	94.81
497.312	80.81
497.529	93.81
497.746	91.81
497.963	93.81
498.181	100.81
498.398	92.81
498.615	122.81
498.832	106.81
499.049	101.81
499.267	93.81
499.484	99.81
499.701	86.81
499.918	84.81
500.135	83.81
500.352	103.81
500.569	99.81
500.786	104.81
501.003	87.81
501.22	103.81
501.437	104.81
501.654	93.81
501.871	124.81
502.088	94.81
502.305	85.81
502.522	84.81
502.739	99.81
502.956	87.81
503.172	99.81
503.389	109.81
503.606	126.81
503.823	90.81
504.04	100.81
504.256	93.81
504.473	92.81
504.69	95.81
504.907	79.81
505.123	99.81
505.34	92.81
505.557	82.81
505.773	91.81
505.99	97.81
506.207	74.81
506.423	89.81
506.64	96.81
506.856	95.81
507.073	95.81
507.289	95.81
507.506	104.81
507.722	138.81
507.939	132.81
508.155	114.81
508.372	95.81
508.588	92.81
508.805	101.81
509.021	108.81
509.238	112.81
509.454	113.81
509.67	103.81
509.887	112.81
510.103	140.81
510.319	251.81
510.536	905.81
510.752	3238.81
510.968	920.81
511.184	198.81
511.401	136.81
511.617	124.81
511.833	126.81
512.049	104.81
512.265	91.81
512.481	89.81
512.698	100.81
512.914	93.81
