Data from Circ_2023_H10_HRD10591_00057.txt Node
Date: Wed Jan 03 09:50:42 EST 2024
User: Yrep
Spectrometer: HR+D1059
Trigger mode: 1
Integration Time (sec): 1.000000E-1
Scans to average: 1
Electric dark correction enabled: true
Nonlinearity correction enabled: false
Boxcar width: 0
XAxis mode: Wavelengths
Number of Pixels in Spectrum: 2048
>>>>>Begin Spectral Data<<<<<
223.165	-11.69
223.4	-11.69
223.635	-11.69
223.869	-13.69
224.104	-12.69
224.338	-25.69
224.573	-10.69
224.808	-8.69
225.042	-11.69
225.277	-5.69
225.511	-15.69
225.746	4.31
225.98	7.31
226.215	16.31
226.449	12.31
226.683	34.31
226.918	21.31
227.152	20.31
227.387	29.31
227.621	39.31
227.856	45.31
228.09	39.31
228.324	44.31
228.559	57.31
228.793	43.31
229.027	76.31
229.262	71.31
229.496	71.31
229.73	95.31
229.964	94.31
230.199	79.31
230.433	80.31
230.667	70.31
230.901	89.31
231.136	86.31
231.37	82.31
231.604	83.31
231.838	64.31
232.072	71.31
232.306	87.31
232.541	81.31
232.775	83.31
233.009	75.31
233.243	87.31
233.477	79.31
233.711	86.31
233.945	77.31
234.179	75.31
234.413	81.31
234.647	78.31
234.881	70.31
235.115	82.31
235.349	77.31
235.583	89.31
235.817	76.31
236.051	66.31
236.285	89.31
236.519	86.31
236.753	79.31
236.987	84.31
237.221	97.31
237.455	103.31
237.689	74.31
237.922	73.31
238.156	83.31
238.39	80.31
238.624	78.31
238.858	80.31
239.091	89.31
239.325	93.31
239.559	83.31
239.793	80.31
240.027	69.31
240.26	80.31
240.494	83.31
240.728	79.31
240.961	80.31
241.195	96.31
241.429	81.31
241.662	80.31
241.896	83.31
242.13	68.31
242.363	85.31
242.597	80.31
242.83	81.31
243.064	73.31
243.298	75.31
243.531	74.31
243.765	76.31
243.998	70.31
244.232	84.31
244.465	87.31
244.699	63.31
244.932	85.31
245.166	71.31
245.399	63.31
245.633	65.31
245.866	72.31
246.099	68.31
246.333	97.31
246.566	74.31
246.8	80.31
247.033	85.31
247.266	93.31
247.5	79.31
247.733	82.31
247.966	97.31
248.2	68.31
248.433	78.31
248.666	82.31
248.899	81.31
249.133	97.31
249.366	92.31
249.599	110.31
249.832	82.31
250.066	76.31
250.299	108.31
250.532	88.31
250.765	85.31
250.998	82.31
251.231	75.31
251.465	85.31
251.698	73.31
251.931	90.31
252.164	88.31
252.397	82.31
252.63	86.31
252.863	79.31
253.096	102.31
253.329	79.31
253.562	85.31
253.795	71.31
254.028	80.31
254.261	101.31
254.494	87.31
254.727	83.31
254.96	82.31
255.193	97.31
255.426	92.31
255.659	92.31
255.892	105.31
256.124	108.31
256.357	90.31
256.59	91.31
256.823	82.31
257.056	78.31
257.289	99.31
257.521	84.31
257.754	80.31
257.987	91.31
258.22	95.31
258.452	110.31
258.685	104.31
258.918	92.31
259.151	88.31
259.383	99.31
259.616	72.31
259.849	76.31
260.081	85.31
260.314	86.31
260.547	87.31
260.779	111.31
261.012	118.31
261.244	121.31
261.477	100.31
261.71	113.31
261.942	118.31
262.175	130.31
262.407	91.31
262.64	85.31
262.872	79.31
263.105	82.31
263.337	81.31
263.57	81.31
263.802	84.31
264.035	80.31
264.267	94.31
264.499	81.31
264.732	96.31
264.964	77.31
265.197	88.31
265.429	95.31
265.661	85.31
265.894	93.31
266.126	73.31
266.358	84.31
266.591	86.31
266.823	83.31
267.055	73.31
267.287	81.31
267.52	87.31
267.752	92.31
267.984	84.31
268.216	80.31
268.448	95.31
268.681	97.31
268.913	91.31
269.145	86.31
269.377	85.31
269.609	80.31
269.841	93.31
270.073	77.31
270.306	76.31
270.538	81.31
270.77	97.31
271.002	90.31
271.234	77.31
271.466	108.31
271.698	91.31
271.93	89.31
272.162	104.31
272.394	89.31
272.626	96.31
272.858	88.31
273.09	82.31
273.322	83.31
273.553	78.31
273.785	97.31
274.017	82.31
274.249	76.31
274.481	89.31
274.713	92.31
274.945	97.31
275.176	76.31
275.408	91.31
275.64	115.31
275.872	141.31
276.104	110.31
276.335	106.31
276.567	132.31
276.799	164.31
277.031	176.31
277.262	225.31
277.494	171.31
277.726	113.31
277.957	105.31
278.189	100.31
278.421	110.31
278.652	101.31
278.884	109.31
279.115	91.31
279.347	102.31
279.579	95.31
279.81	137.31
280.042	212.31
280.273	297.31
280.505	197.31
280.736	108.31
280.968	99.31
281.199	86.31
281.431	83.31
281.662	98.31
281.894	94.31
282.125	110.31
282.356	136.31
282.588	163.31
282.819	125.31
283.051	95.31
283.282	99.31
283.513	84.31
283.745	79.31
283.976	83.31
284.207	91.31
284.439	86.31
284.67	77.31
284.901	87.31
285.132	95.31
285.364	80.31
285.595	80.31
285.826	86.31
286.057	87.31
286.288	96.31
286.52	89.31
286.751	85.31
286.982	98.31
287.213	77.31
287.444	93.31
287.675	94.31
287.906	102.31
288.138	76.31
288.369	110.31
288.6	95.31
288.831	83.31
289.062	74.31
289.293	84.31
289.524	74.31
289.755	89.31
289.986	90.31
290.217	85.31
290.448	75.31
290.679	90.31
290.91	80.31
291.141	70.31
291.371	89.31
291.602	89.31
291.833	94.31
292.064	107.31
292.295	92.31
292.526	99.31
292.757	93.31
292.987	91.31
293.218	91.31
293.449	85.31
293.68	92.31
293.91	93.31
294.141	98.31
294.372	99.31
294.603	78.31
294.833	90.31
295.064	89.31
295.295	82.31
295.525	102.31
295.756	108.31
295.987	132.31
296.217	156.31
296.448	134.31
296.679	106.31
296.909	101.31
297.14	90.31
297.37	82.31
297.601	88.31
297.831	96.31
298.062	98.31
298.292	105.31
298.523	97.31
298.753	97.31
298.984	91.31
299.214	93.31
299.445	95.31
299.675	94.31
299.905	98.31
300.136	96.31
300.366	81.31
300.597	89.31
300.827	104.31
301.057	103.31
301.288	121.31
301.518	110.31
301.748	93.31
301.979	113.31
302.209	102.31
302.439	99.31
302.669	88.31
302.9	95.31
303.13	100.31
303.36	102.31
303.59	134.31
303.82	148.31
304.051	108.31
304.281	96.31
304.511	92.31
304.741	73.31
304.971	87.31
305.201	99.31
305.431	83.31
305.661	105.31
305.891	99.31
306.121	94.31
306.352	97.31
306.582	112.31
306.812	112.31
307.042	140.31
307.272	182.31
307.502	192.31
307.731	174.31
307.961	147.31
308.191	105.31
308.421	92.31
308.651	93.31
308.881	101.31
309.111	92.31
309.341	95.31
309.571	106.31
309.8	98.31
310.03	122.31
310.26	93.31
310.49	101.31
310.72	109.31
310.949	123.31
311.179	112.31
311.409	105.31
311.639	109.31
311.868	115.31
312.098	106.31
312.328	96.31
312.557	107.31
312.787	124.31
313.017	132.31
313.246	108.31
313.476	116.31
313.706	99.31
313.935	104.31
314.165	107.31
314.394	114.31
314.624	107.31
314.853	110.31
315.083	89.31
315.312	104.31
315.542	104.31
315.771	100.31
316.001	108.31
316.23	100.31
316.46	100.31
316.689	77.31
316.919	93.31
317.148	100.31
317.377	126.31
317.607	106.31
317.836	112.31
318.065	81.31
318.295	88.31
318.524	95.31
318.753	78.31
318.983	104.31
319.212	111.31
319.441	120.31
319.67	117.31
319.9	108.31
320.129	92.31
320.358	103.31
320.587	110.31
320.816	108.31
321.046	105.31
321.275	101.31
321.504	112.31
321.733	92.31
321.962	109.31
322.191	121.31
322.42	103.31
322.649	111.31
322.878	117.31
323.108	114.31
323.337	128.31
323.566	154.31
323.795	169.31
324.024	234.31
324.253	464.31
324.482	1024.31
324.71	2084.31
324.939	2783.31
325.168	1012.31
325.397	288.31
325.626	170.31
325.855	149.31
326.084	145.31
326.313	156.31
326.542	184.31
326.77	262.31
326.999	530.31
327.228	1117.31
327.457	2038.31
327.686	1669.31
327.914	592.31
328.143	582.31
328.372	786.31
328.6	432.31
328.829	201.31
329.058	194.31
329.287	205.31
329.515	177.31
329.744	286.31
329.972	581.31
330.201	1199.31
330.43	1762.31
330.658	804.31
330.887	300.31
331.115	192.31
331.344	130.31
331.572	132.31
331.801	148.31
332.03	133.31
332.258	127.31
332.486	100.31
332.715	126.31
332.943	120.31
333.172	135.31
333.4	142.31
333.629	176.31
333.857	258.31
334.085	504.31
334.314	1092.31
334.542	2207.31
334.771	2108.31
334.999	527.31
335.227	196.31
335.455	130.31
335.684	135.31
335.912	94.31
336.14	108.31
336.369	101.31
336.597	110.31
336.825	116.31
337.053	104.31
337.281	117.31
337.51	99.31
337.738	105.31
337.966	100.31
338.194	103.31
338.422	115.31
338.65	97.31
338.878	97.31
339.106	88.31
339.334	102.31
339.562	94.31
339.79	84.31
340.018	86.31
340.246	108.31
340.474	98.31
340.702	95.31
340.93	94.31
341.158	87.31
341.386	103.31
341.614	110.31
341.842	114.31
342.07	89.31
342.298	89.31
342.526	101.31
342.754	85.31
342.981	100.31
343.209	96.31
343.437	94.31
343.665	88.31
343.893	100.31
344.12	92.31
344.348	96.31
344.576	96.31
344.804	100.31
345.031	102.31
345.259	113.31
345.487	110.31
345.714	99.31
345.942	92.31
346.17	87.31
346.397	109.31
346.625	99.31
346.853	111.31
347.08	104.31
347.308	103.31
347.535	124.31
347.763	99.31
347.99	100.31
348.218	107.31
348.445	137.31
348.673	116.31
348.9	87.31
349.128	108.31
349.355	103.31
349.583	102.31
349.81	99.31
350.037	108.31
350.265	88.31
350.492	95.31
350.72	108.31
350.947	114.31
351.174	121.31
351.402	119.31
351.629	117.31
351.856	106.31
352.083	112.31
352.311	117.31
352.538	109.31
352.765	128.31
352.992	120.31
353.22	120.31
353.447	108.31
353.674	110.31
353.901	89.31
354.128	103.31
354.355	96.31
354.583	120.31
354.81	101.31
355.037	114.31
355.264	101.31
355.491	84.31
355.718	87.31
355.945	88.31
356.172	105.31
356.399	92.31
356.626	92.31
356.853	96.31
357.08	97.31
357.307	95.31
357.534	88.31
357.761	92.31
357.988	93.31
358.215	82.31
358.441	97.31
358.668	74.31
358.895	101.31
359.122	105.31
359.349	96.31
359.576	101.31
359.802	112.31
360.029	119.31
360.256	131.31
360.483	124.31
360.709	101.31
360.936	88.31
361.163	112.31
361.39	88.31
361.616	100.31
361.843	93.31
362.07	88.31
362.296	101.31
362.523	103.31
362.749	102.31
362.976	92.31
363.203	106.31
363.429	85.31
363.656	84.31
363.882	92.31
364.109	87.31
364.335	89.31
364.562	83.31
364.788	95.31
365.015	87.31
365.241	102.31
365.468	120.31
365.694	113.31
365.92	112.31
366.147	101.31
366.373	93.31
366.599	99.31
366.826	104.31
367.052	82.31
367.278	109.31
367.505	97.31
367.731	81.31
367.957	85.31
368.184	98.31
368.41	104.31
368.636	131.31
368.862	137.31
369.089	115.31
369.315	88.31
369.541	90.31
369.767	90.31
369.993	95.31
370.219	98.31
370.445	81.31
370.672	80.31
370.898	87.31
371.124	86.31
371.35	80.31
371.576	91.31
371.802	74.31
372.028	84.31
372.254	85.31
372.48	86.31
372.706	78.31
372.932	82.31
373.158	78.31
373.384	93.31
373.61	94.31
373.835	80.31
374.061	95.31
374.287	100.31
374.513	95.31
374.739	93.31
374.965	103.31
375.191	93.31
375.416	97.31
375.642	81.31
375.868	100.31
376.094	86.31
376.319	100.31
376.545	96.31
376.771	79.31
376.997	91.31
377.222	87.31
377.448	92.31
377.674	96.31
377.899	91.31
378.125	80.31
378.35	87.31
378.576	100.31
378.802	87.31
379.027	92.31
379.253	110.31
379.478	86.31
379.704	93.31
379.929	122.31
380.155	83.31
380.38	88.31
380.606	90.31
380.831	87.31
381.057	70.31
381.282	94.31
381.507	85.31
381.733	89.31
381.958	86.31
382.184	89.31
382.409	92.31
382.634	108.31
382.86	112.31
383.085	84.31
383.31	84.31
383.535	94.31
383.761	90.31
383.986	110.31
384.211	88.31
384.436	98.31
384.662	92.31
384.887	93.31
385.112	93.31
385.337	87.31
385.562	87.31
385.787	104.31
386.013	109.31
386.238	105.31
386.463	108.31
386.688	100.31
386.913	95.31
387.138	89.31
387.363	87.31
387.588	93.31
387.813	99.31
388.038	87.31
388.263	111.31
388.488	105.31
388.713	95.31
388.938	100.31
389.163	95.31
389.387	86.31
389.612	87.31
389.837	93.31
390.062	90.31
390.287	100.31
390.512	88.31
390.736	79.31
390.961	95.31
391.186	94.31
391.411	89.31
391.636	94.31
391.86	87.31
392.085	89.31
392.31	101.31
392.534	74.31
392.759	90.31
392.984	82.31
393.208	93.31
393.433	91.31
393.658	90.31
393.882	88.31
394.107	85.31
394.331	79.31
394.556	80.31
394.78	89.31
395.005	91.31
395.229	73.31
395.454	80.31
395.678	73.31
395.903	91.31
396.127	95.31
396.352	99.31
396.576	83.31
396.801	104.31
397.025	78.31
397.249	92.31
397.474	99.31
397.698	83.31
397.922	79.31
398.147	93.31
398.371	87.31
398.595	99.31
398.82	65.31
399.044	88.31
399.268	75.31
399.492	87.31
399.717	108.31
399.941	93.31
400.165	95.31
400.389	88.31
400.613	84.31
400.837	93.31
401.062	98.31
401.286	92.31
401.51	94.31
401.734	89.31
401.958	97.31
402.182	137.31
402.406	189.31
402.63	139.31
402.854	113.31
403.078	93.31
403.302	100.31
403.526	94.31
403.75	90.31
403.974	84.31
404.198	94.31
404.422	103.31
404.645	96.31
404.869	108.31
405.093	124.31
405.317	174.31
405.541	152.31
405.765	136.31
405.988	139.31
406.212	207.31
406.436	269.31
406.66	190.31
406.883	125.31
407.107	102.31
407.331	106.31
407.555	110.31
407.778	104.31
408.002	98.31
408.226	94.31
408.449	94.31
408.673	101.31
408.896	98.31
409.12	103.31
409.344	94.31
409.567	79.31
409.791	88.31
410.014	104.31
410.238	104.31
410.461	92.31
410.685	86.31
410.908	99.31
411.132	106.31
411.355	110.31
411.578	95.31
411.802	95.31
412.025	89.31
412.249	107.31
412.472	124.31
412.695	169.31
412.919	136.31
413.142	96.31
413.365	100.31
413.589	93.31
413.812	98.31
414.035	81.31
414.258	94.31
414.482	97.31
414.705	76.31
414.928	94.31
415.151	101.31
415.374	95.31
415.597	95.31
415.821	88.31
416.044	100.31
416.267	97.31
416.49	84.31
416.713	92.31
416.936	89.31
417.159	79.31
417.382	98.31
417.605	104.31
417.828	113.31
418.051	113.31
418.274	103.31
418.497	100.31
418.72	73.31
418.943	95.31
419.166	73.31
419.389	95.31
419.611	89.31
419.834	89.31
420.057	96.31
420.28	111.31
420.503	93.31
420.726	87.31
420.948	95.31
421.171	98.31
421.394	100.31
421.617	96.31
421.839	85.31
422.062	93.31
422.285	118.31
422.507	103.31
422.73	107.31
422.953	90.31
423.175	94.31
423.398	99.31
423.621	87.31
423.843	79.31
424.066	87.31
424.288	93.31
424.511	89.31
424.733	95.31
424.956	135.31
425.178	92.31
425.401	131.31
425.623	128.31
425.846	97.31
426.068	86.31
426.291	102.31
426.513	108.31
426.735	108.31
426.958	100.31
427.18	122.31
427.402	184.31
427.625	268.31
427.847	244.31
428.069	240.31
428.292	121.31
428.514	88.31
428.736	78.31
428.958	89.31
429.181	102.31
429.403	82.31
429.625	102.31
429.847	96.31
430.069	120.31
430.292	110.31
430.514	96.31
430.736	75.31
430.958	100.31
431.18	94.31
431.402	85.31
431.624	89.31
431.846	100.31
432.068	88.31
432.29	88.31
432.512	96.31
432.734	87.31
432.956	89.31
433.178	116.31
433.4	118.31
433.622	84.31
433.844	101.31
434.066	109.31
434.287	85.31
434.509	110.31
434.731	92.31
434.953	93.31
435.175	88.31
435.397	111.31
435.618	97.31
435.84	117.31
436.062	155.31
436.284	120.31
436.505	116.31
436.727	104.31
436.949	97.31
437.17	94.31
437.392	89.31
437.614	97.31
437.835	119.31
438.057	165.31
438.278	135.31
438.5	129.31
438.721	151.31
438.943	126.31
439.165	83.31
439.386	93.31
439.608	109.31
439.829	117.31
440.05	155.31
440.272	191.31
440.493	115.31
440.715	99.31
440.936	99.31
441.158	92.31
441.379	82.31
441.6	99.31
441.822	102.31
442.043	117.31
442.264	142.31
442.486	110.31
442.707	96.31
442.928	137.31
443.149	167.31
443.371	183.31
443.592	145.31
443.813	133.31
444.034	128.31
444.255	91.31
444.476	102.31
444.698	93.31
444.919	84.31
445.14	148.31
445.361	129.31
445.582	138.31
445.803	205.31
446.024	195.31
446.245	165.31
446.466	134.31
446.687	101.31
446.908	82.31
447.129	101.31
447.35	99.31
447.571	108.31
447.792	99.31
448.013	101.31
448.234	131.31
448.455	117.31
448.675	137.31
448.896	151.31
449.117	116.31
449.338	104.31
449.559	150.31
449.779	178.31
450	105.31
450.221	96.31
450.442	94.31
450.662	105.31
450.883	124.31
451.104	137.31
451.324	108.31
451.545	95.31
451.766	78.31
451.986	105.31
452.207	93.31
452.428	109.31
452.648	102.31
452.869	143.31
453.089	124.31
453.31	109.31
453.53	113.31
453.751	97.31
453.971	112.31
454.192	141.31
454.412	102.31
454.633	89.31
454.853	78.31
455.073	78.31
455.294	97.31
455.514	120.31
455.734	91.31
455.955	90.31
456.175	81.31
456.395	94.31
456.616	90.31
456.836	81.31
457.056	85.31
457.276	99.31
457.497	77.31
457.717	89.31
457.937	84.31
458.157	89.31
458.377	100.31
458.598	132.31
458.818	197.31
459.038	219.31
459.258	165.31
459.478	97.31
459.698	108.31
459.918	86.31
460.138	85.31
460.358	97.31
460.578	82.31
460.798	86.31
461.018	104.31
461.238	92.31
461.458	84.31
461.678	89.31
461.898	79.31
462.118	88.31
462.338	85.31
462.558	90.31
462.777	83.31
462.997	111.31
463.217	101.31
463.437	103.31
463.657	90.31
463.876	90.31
464.096	96.31
464.316	89.31
464.536	85.31
464.755	117.31
464.975	134.31
465.195	203.31
465.414	217.31
465.634	93.31
465.854	105.31
466.073	103.31
466.293	96.31
466.512	89.31
466.732	103.31
466.951	98.31
467.171	101.31
467.391	105.31
467.61	150.31
467.829	225.31
468.049	636.31
468.268	1010.31
468.488	266.31
468.707	118.31
468.927	104.31
469.146	105.31
469.365	92.31
469.585	87.31
469.804	108.31
470.023	121.31
470.243	105.31
470.462	121.31
470.681	127.31
470.901	93.31
471.12	106.31
471.339	117.31
471.558	132.31
471.777	169.31
471.997	351.31
472.216	1244.31
472.435	2930.31
472.654	731.31
472.873	185.31
473.092	111.31
473.311	127.31
473.53	95.31
473.749	109.31
473.968	114.31
474.187	136.31
474.406	120.31
474.625	89.31
474.844	82.31
475.063	89.31
475.282	92.31
475.501	89.31
475.72	108.31
475.939	91.31
476.158	108.31
476.377	84.31
476.596	95.31
476.814	106.31
477.033	100.31
477.252	96.31
477.471	95.31
477.69	81.31
477.908	83.31
478.127	93.31
478.346	95.31
478.564	96.31
478.783	113.31
479.002	98.31
479.22	104.31
479.439	123.31
479.658	122.31
479.876	117.31
480.095	108.31
480.313	144.31
480.532	166.31
480.751	304.31
480.969	1115.31
481.188	4865.31
481.406	3060.31
481.624	450.31
481.843	146.31
482.061	117.31
482.28	115.31
482.498	116.31
482.717	95.31
482.935	96.31
483.153	103.31
483.372	103.31
483.59	97.31
483.808	86.31
484.027	100.31
484.245	104.31
484.463	92.31
484.681	116.31
484.9	84.31
485.118	91.31
485.336	92.31
485.554	98.31
485.772	96.31
485.99	122.31
486.209	106.31
486.427	108.31
486.645	130.31
486.863	133.31
487.081	108.31
487.299	92.31
487.517	101.31
487.735	94.31
487.953	86.31
488.171	95.31
488.389	103.31
488.607	92.31
488.825	83.31
489.043	67.31
489.261	88.31
489.479	89.31
489.696	85.31
489.914	87.31
490.132	99.31
490.35	103.31
490.568	79.31
490.786	88.31
491.003	82.31
491.221	88.31
491.439	109.31
491.657	105.31
491.874	92.31
492.092	97.31
492.31	104.31
492.527	118.31
492.745	120.31
492.963	104.31
493.18	99.31
493.398	93.31
493.615	110.31
493.833	78.31
494.05	105.31
494.268	91.31
494.485	97.31
494.703	90.31
494.92	83.31
495.138	85.31
495.355	79.31
495.573	103.31
495.79	92.31
496.008	99.31
496.225	95.31
496.442	85.31
496.66	96.31
496.877	98.31
497.094	78.31
497.312	84.31
497.529	89.31
497.746	97.31
497.963	88.31
498.181	104.31
498.398	103.31
498.615	110.31
498.832	111.31
499.049	92.31
499.267	90.31
499.484	98.31
499.701	86.31
499.918	90.31
500.135	80.31
500.352	95.31
500.569	108.31
500.786	90.31
501.003	104.31
501.22	100.31
501.437	105.31
501.654	120.31
501.871	117.31
502.088	89.31
502.305	82.31
502.522	81.31
502.739	82.31
502.956	90.31
503.172	94.31
503.389	113.31
503.606	127.31
503.823	135.31
504.04	97.31
504.256	87.31
504.473	85.31
504.69	95.31
504.907	92.31
505.123	103.31
505.34	97.31
505.557	86.31
505.773	101.31
505.99	99.31
506.207	88.31
506.423	94.31
506.64	92.31
506.856	100.31
507.073	101.31
507.289	104.31
507.506	94.31
507.722	134.31
507.939	130.31
508.155	108.31
508.372	88.31
508.588	85.31
508.805	84.31
509.021	97.31
509.238	107.31
509.454	111.31
509.67	108.31
509.887	117.31
510.103	138.31
510.319	245.31
510.536	881.31
510.752	3033.31
510.968	867.31
511.184	182.31
511.401	121.31
511.617	116.31
511.833	126.31
512.049	121.31
512.265	92.31
