Data from Circ_2023_H10_HRD10591_00036.txt Node
Date: Wed Jan 03 09:50:38 EST 2024
User: Yrep
Spectrometer: HR+D1059
Trigger mode: 1
Integration Time (sec): 1.000000E-1
Scans to average: 1
Electric dark correction enabled: true
Nonlinearity correction enabled: false
Boxcar width: 0
XAxis mode: Wavelengths
Number of Pixels in Spectrum: 2048
>>>>>Begin Spectral Data<<<<<
223.165	-11.25
223.4	-11.25
223.635	-11.25
223.869	-11.25
224.104	-13.25
224.338	-14.25
224.573	-13.25
224.808	-12.25
225.042	-3.25
225.277	-9.25
225.511	0.75
225.746	1.75
225.98	-7.25
226.215	0.75
226.449	4.75
226.683	31.75
226.918	25.75
227.152	29.75
227.387	25.75
227.621	37.75
227.856	39.75
228.09	43.75
228.324	35.75
228.559	58.75
228.793	51.75
229.027	71.75
229.262	80.75
229.496	94.75
229.73	102.75
229.964	108.75
230.199	80.75
230.433	83.75
230.667	81.75
230.901	76.75
231.136	67.75
231.37	75.75
231.604	78.75
231.838	70.75
232.072	72.75
232.306	74.75
232.541	86.75
232.775	80.75
233.009	79.75
233.243	55.75
233.477	82.75
233.711	70.75
233.945	83.75
234.179	67.75
234.413	89.75
234.647	69.75
234.881	83.75
235.115	67.75
235.349	86.75
235.583	74.75
235.817	75.75
236.051	75.75
236.285	80.75
236.519	63.75
236.753	75.75
236.987	96.75
237.221	92.75
237.455	86.75
237.689	76.75
237.922	74.75
238.156	73.75
238.39	81.75
238.624	88.75
238.858	69.75
239.091	88.75
239.325	78.75
239.559	84.75
239.793	81.75
240.027	95.75
240.26	84.75
240.494	84.75
240.728	78.75
240.961	86.75
241.195	83.75
241.429	77.75
241.662	77.75
241.896	72.75
242.13	96.75
242.363	71.75
242.597	79.75
242.83	84.75
243.064	72.75
243.298	72.75
243.531	80.75
243.765	81.75
243.998	71.75
244.232	98.75
244.465	93.75
244.699	85.75
244.932	87.75
245.166	87.75
245.399	85.75
245.633	76.75
245.866	72.75
246.099	77.75
246.333	75.75
246.566	78.75
246.8	75.75
247.033	75.75
247.266	79.75
247.5	86.75
247.733	79.75
247.966	93.75
248.2	73.75
248.433	83.75
248.666	83.75
248.899	80.75
249.133	102.75
249.366	110.75
249.599	107.75
249.832	86.75
250.066	82.75
250.299	74.75
250.532	83.75
250.765	81.75
250.998	79.75
251.231	85.75
251.465	69.75
251.698	90.75
251.931	80.75
252.164	96.75
252.397	73.75
252.63	82.75
252.863	82.75
253.096	78.75
253.329	81.75
253.562	72.75
253.795	72.75
254.028	83.75
254.261	75.75
254.494	78.75
254.727	82.75
254.96	84.75
255.193	80.75
255.426	71.75
255.659	82.75
255.892	92.75
256.124	93.75
256.357	84.75
256.59	81.75
256.823	87.75
257.056	91.75
257.289	89.75
257.521	83.75
257.754	82.75
257.987	93.75
258.22	93.75
258.452	108.75
258.685	107.75
258.918	92.75
259.151	80.75
259.383	70.75
259.616	74.75
259.849	71.75
260.081	84.75
260.314	74.75
260.547	81.75
260.779	88.75
261.012	109.75
261.244	94.75
261.477	92.75
261.71	123.75
261.942	168.75
262.175	158.75
262.407	92.75
262.64	95.75
262.872	93.75
263.105	75.75
263.337	103.75
263.57	89.75
263.802	95.75
264.035	79.75
264.267	90.75
264.499	91.75
264.732	83.75
264.964	91.75
265.197	89.75
265.429	73.75
265.661	78.75
265.894	92.75
266.126	78.75
266.358	83.75
266.591	78.75
266.823	73.75
267.055	75.75
267.287	85.75
267.52	82.75
267.752	78.75
267.984	67.75
268.216	80.75
268.448	82.75
268.681	91.75
268.913	89.75
269.145	94.75
269.377	99.75
269.609	89.75
269.841	84.75
270.073	81.75
270.306	79.75
270.538	90.75
270.77	89.75
271.002	94.75
271.234	82.75
271.466	87.75
271.698	91.75
271.93	79.75
272.162	81.75
272.394	87.75
272.626	91.75
272.858	84.75
273.09	98.75
273.322	89.75
273.553	93.75
273.785	89.75
274.017	90.75
274.249	84.75
274.481	89.75
274.713	84.75
274.945	108.75
275.176	84.75
275.408	101.75
275.64	126.75
275.872	132.75
276.104	125.75
276.335	112.75
276.567	128.75
276.799	179.75
277.031	203.75
277.262	220.75
277.494	170.75
277.726	107.75
277.957	100.75
278.189	80.75
278.421	107.75
278.652	103.75
278.884	85.75
279.115	90.75
279.347	100.75
279.579	97.75
279.81	135.75
280.042	201.75
280.273	300.75
280.505	212.75
280.736	131.75
280.968	98.75
281.199	88.75
281.431	89.75
281.662	88.75
281.894	108.75
282.125	113.75
282.356	147.75
282.588	201.75
282.819	152.75
283.051	100.75
283.282	87.75
283.513	79.75
283.745	87.75
283.976	94.75
284.207	86.75
284.439	90.75
284.67	74.75
284.901	88.75
285.132	91.75
285.364	72.75
285.595	89.75
285.826	96.75
286.057	81.75
286.288	94.75
286.52	69.75
286.751	82.75
286.982	81.75
287.213	88.75
287.444	80.75
287.675	102.75
287.906	93.75
288.138	86.75
288.369	99.75
288.6	111.75
288.831	83.75
289.062	108.75
289.293	85.75
289.524	95.75
289.755	89.75
289.986	88.75
290.217	91.75
290.448	101.75
290.679	92.75
290.91	90.75
291.141	78.75
291.371	108.75
291.602	91.75
291.833	88.75
292.064	98.75
292.295	81.75
292.526	98.75
292.757	96.75
292.987	76.75
293.218	93.75
293.449	91.75
293.68	95.75
293.91	90.75
294.141	89.75
294.372	103.75
294.603	108.75
294.833	90.75
295.064	87.75
295.295	91.75
295.525	110.75
295.756	108.75
295.987	153.75
296.217	177.75
296.448	171.75
296.679	107.75
296.909	85.75
297.14	92.75
297.37	78.75
297.601	85.75
297.831	103.75
298.062	88.75
298.292	92.75
298.523	91.75
298.753	87.75
298.984	98.75
299.214	99.75
299.445	95.75
299.675	109.75
299.905	93.75
300.136	91.75
300.366	77.75
300.597	97.75
300.827	105.75
301.057	107.75
301.288	135.75
301.518	109.75
301.748	118.75
301.979	108.75
302.209	109.75
302.439	96.75
302.669	101.75
302.9	101.75
303.13	92.75
303.36	112.75
303.59	145.75
303.82	173.75
304.051	114.75
304.281	95.75
304.511	88.75
304.741	96.75
304.971	96.75
305.201	87.75
305.431	80.75
305.661	96.75
305.891	92.75
306.121	102.75
306.352	124.75
306.582	121.75
306.812	102.75
307.042	119.75
307.272	184.75
307.502	200.75
307.731	188.75
307.961	126.75
308.191	92.75
308.421	92.75
308.651	102.75
308.881	92.75
309.111	105.75
309.341	115.75
309.571	102.75
309.8	99.75
310.03	117.75
310.26	121.75
310.49	118.75
310.72	125.75
310.949	146.75
311.179	136.75
311.409	103.75
311.639	96.75
311.868	99.75
312.098	100.75
312.328	109.75
312.557	136.75
312.787	131.75
313.017	134.75
313.246	98.75
313.476	92.75
313.706	90.75
313.935	98.75
314.165	120.75
314.394	117.75
314.624	119.75
314.853	110.75
315.083	96.75
315.312	107.75
315.542	114.75
315.771	86.75
316.001	101.75
316.23	93.75
316.46	68.75
316.689	88.75
316.919	104.75
317.148	98.75
317.377	95.75
317.607	96.75
317.836	107.75
318.065	85.75
318.295	107.75
318.524	87.75
318.753	89.75
318.983	104.75
319.212	121.75
319.441	126.75
319.67	134.75
319.9	110.75
320.129	103.75
320.358	103.75
320.587	102.75
320.816	108.75
321.046	121.75
321.275	119.75
321.504	92.75
321.733	99.75
321.962	110.75
322.191	123.75
322.42	128.75
322.649	145.75
322.878	135.75
323.108	139.75
323.337	157.75
323.566	181.75
323.795	215.75
324.024	299.75
324.253	600.75
324.482	1265.75
324.71	2682.75
324.939	3590.75
325.168	1324.75
325.397	363.75
325.626	185.75
325.855	148.75
326.084	153.75
326.313	172.75
326.542	190.75
326.77	330.75
326.999	647.75
327.228	1343.75
327.457	2505.75
327.686	2082.75
327.914	704.75
328.143	654.75
328.372	835.75
328.6	467.75
328.829	215.75
329.058	224.75
329.287	238.75
329.515	201.75
329.744	289.75
329.972	565.75
330.201	1174.75
330.43	1802.75
330.658	822.75
330.887	365.75
331.115	240.75
331.344	143.75
331.572	142.75
331.801	152.75
332.03	137.75
332.258	118.75
332.486	116.75
332.715	122.75
332.943	121.75
333.172	129.75
333.4	153.75
333.629	174.75
333.857	262.75
334.085	502.75
334.314	1081.75
334.542	2140.75
334.771	2143.75
334.999	546.75
335.227	204.75
335.455	137.75
335.684	138.75
335.912	101.75
336.14	98.75
336.369	120.75
336.597	128.75
336.825	110.75
337.053	97.75
337.281	97.75
337.51	93.75
337.738	105.75
337.966	86.75
338.194	112.75
338.422	111.75
338.65	95.75
338.878	94.75
339.106	105.75
339.334	93.75
339.562	98.75
339.79	97.75
340.018	100.75
340.246	93.75
340.474	108.75
340.702	93.75
340.93	111.75
341.158	94.75
341.386	93.75
341.614	107.75
341.842	104.75
342.07	98.75
342.298	101.75
342.526	89.75
342.754	100.75
342.981	108.75
343.209	100.75
343.437	106.75
343.665	96.75
343.893	84.75
344.12	85.75
344.348	75.75
344.576	84.75
344.804	102.75
345.031	111.75
345.259	119.75
345.487	112.75
345.714	94.75
345.942	95.75
346.17	89.75
346.397	96.75
346.625	101.75
346.853	105.75
347.08	101.75
347.308	104.75
347.535	110.75
347.763	121.75
347.99	97.75
348.218	119.75
348.445	127.75
348.673	125.75
348.9	110.75
349.128	99.75
349.355	98.75
349.583	89.75
349.81	95.75
350.037	96.75
350.265	102.75
350.492	107.75
350.72	112.75
350.947	111.75
351.174	120.75
351.402	137.75
351.629	118.75
351.856	108.75
352.083	142.75
352.311	133.75
352.538	121.75
352.765	132.75
352.992	136.75
353.22	133.75
353.447	122.75
353.674	114.75
353.901	100.75
354.128	96.75
354.355	109.75
354.583	102.75
354.81	97.75
355.037	110.75
355.264	91.75
355.491	95.75
355.718	80.75
355.945	83.75
356.172	87.75
356.399	96.75
356.626	102.75
356.853	95.75
357.08	80.75
357.307	78.75
357.534	76.75
357.761	93.75
357.988	93.75
358.215	92.75
358.441	86.75
358.668	76.75
358.895	94.75
359.122	78.75
359.349	96.75
359.576	103.75
359.802	123.75
360.029	152.75
360.256	157.75
360.483	132.75
360.709	97.75
360.936	100.75
361.163	98.75
361.39	116.75
361.616	122.75
361.843	110.75
362.07	116.75
362.296	104.75
362.523	101.75
362.749	109.75
362.976	92.75
363.203	94.75
363.429	102.75
363.656	87.75
363.882	86.75
364.109	101.75
364.335	100.75
364.562	81.75
364.788	98.75
365.015	106.75
365.241	129.75
365.468	119.75
365.694	143.75
365.92	113.75
366.147	116.75
366.373	96.75
366.599	104.75
366.826	90.75
367.052	104.75
367.278	84.75
367.505	100.75
367.731	129.75
367.957	118.75
368.184	100.75
368.41	105.75
368.636	130.75
368.862	157.75
369.089	139.75
369.315	114.75
369.541	115.75
369.767	93.75
369.993	102.75
370.219	99.75
370.445	87.75
370.672	99.75
370.898	89.75
371.124	80.75
371.35	88.75
371.576	92.75
371.802	73.75
372.028	79.75
372.254	100.75
372.48	92.75
372.706	101.75
372.932	94.75
373.158	93.75
373.384	94.75
373.61	87.75
373.835	95.75
374.061	97.75
374.287	103.75
374.513	92.75
374.739	86.75
374.965	96.75
375.191	86.75
375.416	81.75
375.642	98.75
375.868	103.75
376.094	94.75
376.319	79.75
376.545	91.75
376.771	86.75
376.997	93.75
377.222	99.75
377.448	95.75
377.674	90.75
377.899	84.75
378.125	98.75
378.35	83.75
378.576	78.75
378.802	91.75
379.027	87.75
379.253	96.75
379.478	79.75
379.704	82.75
379.929	77.75
380.155	85.75
380.38	100.75
380.606	90.75
380.831	94.75
381.057	88.75
381.282	91.75
381.507	104.75
381.733	91.75
381.958	92.75
382.184	105.75
382.409	96.75
382.634	111.75
382.86	110.75
383.085	94.75
383.31	83.75
383.535	103.75
383.761	105.75
383.986	89.75
384.211	91.75
384.436	97.75
384.662	84.75
384.887	90.75
385.112	100.75
385.337	84.75
385.562	90.75
385.787	96.75
386.013	108.75
386.238	128.75
386.463	109.75
386.688	85.75
386.913	99.75
387.138	107.75
387.363	104.75
387.588	95.75
387.813	85.75
388.038	76.75
388.263	94.75
388.488	120.75
388.713	98.75
388.938	104.75
389.163	92.75
389.387	103.75
389.612	79.75
389.837	93.75
390.062	89.75
390.287	84.75
390.512	84.75
390.736	91.75
390.961	85.75
391.186	88.75
391.411	105.75
391.636	84.75
391.86	87.75
392.085	89.75
392.31	83.75
392.534	90.75
392.759	99.75
392.984	86.75
393.208	82.75
393.433	85.75
393.658	93.75
393.882	89.75
394.107	66.75
394.331	72.75
394.556	92.75
394.78	81.75
395.005	90.75
395.229	89.75
395.454	101.75
395.678	92.75
395.903	86.75
396.127	94.75
396.352	98.75
396.576	92.75
396.801	81.75
397.025	87.75
397.249	93.75
397.474	91.75
397.698	84.75
397.922	87.75
398.147	92.75
398.371	89.75
398.595	92.75
398.82	81.75
399.044	92.75
399.268	86.75
399.492	76.75
399.717	91.75
399.941	80.75
400.165	93.75
400.389	94.75
400.613	82.75
400.837	95.75
401.062	84.75
401.286	103.75
401.51	98.75
401.734	113.75
401.958	113.75
402.182	167.75
402.406	259.75
402.63	168.75
402.854	121.75
403.078	115.75
403.302	94.75
403.526	91.75
403.75	81.75
403.974	76.75
404.198	89.75
404.422	87.75
404.645	99.75
404.869	91.75
405.093	131.75
405.317	155.75
405.541	153.75
405.765	115.75
405.988	173.75
406.212	242.75
406.436	392.75
406.66	259.75
406.883	141.75
407.107	106.75
407.331	108.75
407.555	128.75
407.778	100.75
408.002	103.75
408.226	107.75
408.449	98.75
408.673	81.75
408.896	101.75
409.12	107.75
409.344	95.75
409.567	76.75
409.791	87.75
410.014	81.75
410.238	99.75
410.461	94.75
410.685	92.75
410.908	110.75
411.132	111.75
411.355	104.75
411.578	79.75
411.802	90.75
412.025	88.75
412.249	90.75
412.472	116.75
412.695	143.75
412.919	115.75
413.142	94.75
413.365	78.75
413.589	92.75
413.812	104.75
414.035	88.75
414.258	88.75
414.482	99.75
414.705	89.75
414.928	100.75
415.151	88.75
415.374	94.75
415.597	92.75
415.821	93.75
416.044	94.75
416.267	86.75
416.49	85.75
416.713	88.75
416.936	81.75
417.159	84.75
417.382	97.75
417.605	115.75
417.828	108.75
418.051	109.75
418.274	89.75
418.497	97.75
418.72	98.75
418.943	96.75
419.166	79.75
419.389	92.75
419.611	78.75
419.834	107.75
420.057	97.75
420.28	96.75
420.503	93.75
420.726	85.75
420.948	101.75
421.171	114.75
421.394	106.75
421.617	96.75
421.839	81.75
422.062	102.75
422.285	92.75
422.507	107.75
422.73	98.75
422.953	112.75
423.175	98.75
423.398	79.75
423.621	100.75
423.843	89.75
424.066	93.75
424.288	81.75
424.511	99.75
424.733	109.75
424.956	133.75
425.178	120.75
425.401	110.75
425.623	128.75
425.846	104.75
426.068	123.75
426.291	119.75
426.513	89.75
426.735	97.75
426.958	95.75
427.18	134.75
427.402	207.75
427.625	325.75
427.847	281.75
428.069	236.75
428.292	135.75
428.514	102.75
428.736	104.75
428.958	97.75
429.181	92.75
429.403	90.75
429.625	89.75
429.847	107.75
430.069	128.75
430.292	98.75
430.514	99.75
430.736	77.75
430.958	90.75
431.18	89.75
431.402	77.75
431.624	78.75
431.846	92.75
432.068	82.75
432.29	103.75
432.512	82.75
432.734	97.75
432.956	104.75
433.178	111.75
433.4	111.75
433.622	100.75
433.844	87.75
434.066	84.75
434.287	100.75
434.509	97.75
434.731	95.75
434.953	92.75
435.175	86.75
435.397	87.75
435.618	90.75
435.84	122.75
436.062	152.75
436.284	127.75
436.505	115.75
436.727	111.75
436.949	104.75
437.17	114.75
437.392	97.75
437.614	100.75
437.835	145.75
438.057	171.75
438.278	142.75
438.5	111.75
438.721	155.75
438.943	118.75
439.165	90.75
439.386	90.75
439.608	86.75
439.829	117.75
440.05	166.75
440.272	214.75
440.493	133.75
440.715	104.75
440.936	96.75
441.158	84.75
441.379	91.75
441.6	92.75
441.822	108.75
442.043	95.75
442.264	133.75
442.486	125.75
442.707	118.75
442.928	131.75
443.149	203.75
443.371	201.75
443.592	153.75
443.813	141.75
444.034	141.75
444.255	98.75
444.476	94.75
444.698	97.75
444.919	94.75
445.14	126.75
445.361	146.75
445.582	173.75
445.803	207.75
446.024	193.75
446.245	182.75
446.466	158.75
446.687	95.75
446.908	103.75
447.129	82.75
447.35	102.75
447.571	110.75
447.792	109.75
448.013	115.75
448.234	131.75
448.455	119.75
448.675	140.75
448.896	153.75
449.117	118.75
449.338	120.75
449.559	156.75
449.779	160.75
450	100.75
450.221	90.75
450.442	91.75
450.662	99.75
450.883	157.75
451.104	160.75
451.324	107.75
451.545	84.75
451.766	86.75
451.986	80.75
452.207	104.75
452.428	110.75
452.648	115.75
452.869	153.75
453.089	164.75
453.31	167.75
453.53	116.75
453.751	97.75
453.971	142.75
454.192	151.75
454.412	126.75
454.633	84.75
454.853	80.75
455.073	84.75
455.294	86.75
455.514	123.75
455.734	95.75
455.955	82.75
456.175	84.75
456.395	96.75
456.616	96.75
456.836	83.75
457.056	95.75
457.276	85.75
457.497	78.75
457.717	97.75
457.937	85.75
458.157	92.75
458.377	124.75
458.598	144.75
458.818	265.75
459.038	282.75
459.258	175.75
459.478	109.75
459.698	92.75
459.918	93.75
460.138	76.75
460.358	79.75
460.578	102.75
460.798	99.75
461.018	90.75
461.238	88.75
461.458	87.75
461.678	83.75
461.898	95.75
462.118	95.75
462.338	81.75
462.558	92.75
462.777	89.75
462.997	91.75
463.217	133.75
463.437	99.75
463.657	90.75
463.876	100.75
464.096	94.75
464.316	109.75
464.536	104.75
464.755	114.75
464.975	128.75
465.195	317.75
465.414	307.75
465.634	129.75
465.854	102.75
466.073	99.75
466.293	91.75
466.512	94.75
466.732	104.75
466.951	101.75
467.171	103.75
467.391	117.75
467.61	175.75
467.829	238.75
468.049	645.75
468.268	1097.75
468.488	276.75
468.707	115.75
468.927	93.75
469.146	103.75
469.365	96.75
469.585	93.75
469.804	113.75
470.023	129.75
470.243	112.75
470.462	119.75
470.681	166.75
470.901	111.75
471.12	115.75
471.339	117.75
471.558	126.75
471.777	166.75
471.997	313.75
472.216	1273.75
472.435	3105.75
472.654	775.75
472.873	192.75
473.092	115.75
473.311	101.75
473.53	103.75
473.749	95.75
473.968	110.75
474.187	138.75
474.406	118.75
474.625	99.75
474.844	88.75
475.063	93.75
475.282	88.75
475.501	90.75
475.72	85.75
475.939	93.75
476.158	94.75
476.377	90.75
476.596	81.75
476.814	102.75
477.033	110.75
477.252	98.75
477.471	96.75
477.69	90.75
477.908	94.75
478.127	86.75
478.346	101.75
478.564	104.75
478.783	127.75
479.002	119.75
479.22	116.75
479.439	147.75
479.658	155.75
479.876	131.75
480.095	128.75
480.313	142.75
480.532	170.75
480.751	313.75
480.969	1140.75
481.188	4938.75
481.406	3237.75
481.624	452.75
481.843	149.75
482.061	130.75
482.28	110.75
482.498	97.75
482.717	100.75
482.935	94.75
483.153	95.75
483.372	96.75
483.59	89.75
483.808	87.75
484.027	93.75
484.245	85.75
484.463	99.75
484.681	91.75
484.9	95.75
485.118	88.75
485.336	95.75
485.554	100.75
485.772	112.75
485.99	119.75
486.209	98.75
486.427	101.75
486.645	131.75
486.863	150.75
487.081	114.75
487.299	107.75
487.517	95.75
487.735	78.75
487.953	101.75
488.171	97.75
488.389	100.75
488.607	97.75
488.825	102.75
489.043	93.75
489.261	100.75
489.479	96.75
489.696	89.75
489.914	83.75
490.132	92.75
490.35	91.75
490.568	79.75
490.786	72.75
491.003	87.75
491.221	104.75
491.439	103.75
491.657	88.75
491.874	84.75
492.092	101.75
492.31	96.75
492.527	89.75
492.745	109.75
492.963	100.75
493.18	95.75
493.398	99.75
493.615	90.75
493.833	90.75
494.05	90.75
494.268	89.75
494.485	86.75
494.703	93.75
494.92	100.75
495.138	87.75
495.355	85.75
495.573	99.75
495.79	97.75
496.008	107.75
496.225	79.75
496.442	79.75
496.66	87.75
496.877	90.75
497.094	90.75
497.312	100.75
497.529	105.75
497.746	95.75
497.963	85.75
498.181	90.75
498.398	115.75
498.615	131.75
498.832	134.75
499.049	87.75
499.267	104.75
499.484	108.75
499.701	100.75
499.918	79.75
500.135	93.75
500.352	81.75
500.569	95.75
500.786	101.75
501.003	120.75
501.22	87.75
501.437	103.75
501.654	112.75
501.871	136.75
502.088	103.75
502.305	89.75
502.522	86.75
502.739	88.75
502.956	95.75
503.172	101.75
503.389	108.75
503.606	131.75
503.823	117.75
504.04	96.75
504.256	94.75
504.473	115.75
504.69	95.75
504.907	78.75
505.123	94.75
505.34	102.75
505.557	101.75
505.773	89.75
505.99	114.75
506.207	100.75
506.423	92.75
506.64	96.75
506.856	78.75
507.073	100.75
507.289	89.75
507.506	95.75
507.722	153.75
507.939	143.75
508.155	109.75
508.372	99.75
508.588	100.75
508.805	125.75
509.021	109.75
509.238	79.75
509.454	107.75
509.67	109.75
509.887	111.75
510.103	155.75
510.319	301.75
510.536	1181.75
510.752	4394.75
510.968	1203.75
511.184	223.75
511.401	151.75
511.617	119.75
511.833	117.75
512.049	111.75
