Data from Circ_2023_H10_HRD10591_00079.txt Node
Date: Wed Jan 03 09:50:46 EST 2024
User: Yrep
Spectrometer: HR+D1059
Trigger mode: 1
Integration Time (sec): 1.000000E-1
Scans to average: 1
Electric dark correction enabled: true
Nonlinearity correction enabled: false
Boxcar width: 0
XAxis mode: Wavelengths
Number of Pixels in Spectrum: 2048
>>>>>Begin Spectral Data<<<<<
223.165	-11.12
223.4	-11.12
223.635	-11.12
223.869	-16.12
224.104	-30.12
224.338	-18.12
224.573	-11.12
224.808	-24.12
225.042	-11.12
225.277	-6.12
225.511	7.88
225.746	2.88
225.98	13.88
226.215	19.88
226.449	17.88
226.683	23.88
226.918	18.88
227.152	22.88
227.387	39.88
227.621	39.88
227.856	46.88
228.09	55.88
228.324	48.88
228.559	57.88
228.793	174.88
229.027	468.88
229.262	530.88
229.496	633.88
229.73	839.88
229.964	853.88
230.199	565.88
230.433	533.88
230.667	512.88
230.901	493.88
231.136	493.88
231.37	503.88
231.604	504.88
231.838	513.88
232.072	509.88
232.306	509.88
232.541	506.88
232.775	511.88
233.009	517.88
233.243	537.88
233.477	544.88
233.711	561.88
233.945	583.88
234.179	578.88
234.413	560.88
234.647	567.88
234.881	599.88
235.115	594.88
235.349	612.88
235.583	647.88
235.817	650.88
236.051	699.88
236.285	673.88
236.519	710.88
236.753	774.88
236.987	975.88
237.221	1427.88
237.455	1549.88
237.689	935.88
237.922	809.88
238.156	785.88
238.39	744.88
238.624	742.88
238.858	764.88
239.091	768.88
239.325	760.88
239.559	792.88
239.793	811.88
240.027	874.88
240.26	1020.88
240.494	1079.88
240.728	1015.88
240.961	963.88
241.195	882.88
241.429	915.88
241.662	896.88
241.896	904.88
242.13	918.88
242.363	927.88
242.597	955.88
242.83	1006.88
243.064	1014.88
243.298	973.88
243.531	975.88
243.765	1014.88
243.998	1004.88
244.232	1011.88
244.465	1044.88
244.699	1047.88
244.932	1093.88
245.166	1065.88
245.399	1076.88
245.633	1087.88
245.866	1092.88
246.099	1125.88
246.333	1099.88
246.566	1152.88
246.8	1151.88
247.033	1201.88
247.266	1198.88
247.5	1280.88
247.733	1341.88
247.966	1340.88
248.2	1354.88
248.433	1374.88
248.666	1447.88
248.899	1532.88
249.133	1696.88
249.366	1765.88
249.599	1740.88
249.832	1768.88
250.066	2022.88
250.299	2784.88
250.532	3843.88
250.765	3433.88
250.998	2746.88
251.231	2268.88
251.465	1956.88
251.698	1864.88
251.931	1788.88
252.164	1729.88
252.397	1726.88
252.63	1756.88
252.863	1836.88
253.096	1940.88
253.329	1951.88
253.562	1859.88
253.795	1848.88
254.028	1861.88
254.261	1935.88
254.494	2156.88
254.727	2468.88
254.96	2582.88
255.193	2473.88
255.426	2665.88
255.659	3360.88
255.892	5164.88
256.124	6986.88
256.357	5488.88
256.59	3758.88
256.823	2974.88
257.056	2585.88
257.289	2326.88
257.521	2228.88
257.754	2167.88
257.987	2079.88
258.22	2034.88
258.452	2022.88
258.685	2028.88
258.918	2039.88
259.151	1990.88
259.383	2053.88
259.616	2032.88
259.849	2106.88
260.081	2262.88
260.314	2360.88
260.547	2310.88
260.779	2139.88
261.012	2138.88
261.244	2092.88
261.477	2034.88
261.71	1999.88
261.942	2158.88
262.175	2170.88
262.407	2077.88
262.64	1968.88
262.872	1957.88
263.105	2014.88
263.337	1950.88
263.57	2042.88
263.802	2014.88
264.035	1990.88
264.267	1957.88
264.499	1983.88
264.732	1989.88
264.964	2016.88
265.197	2012.88
265.429	2048.88
265.661	2054.88
265.894	2069.88
266.126	2110.88
266.358	2076.88
266.591	2150.88
266.823	2183.88
267.055	2214.88
267.287	2207.88
267.52	2166.88
267.752	2161.88
267.984	2164.88
268.216	2252.88
268.448	2293.88
268.681	2320.88
268.913	2432.88
269.145	2606.88
269.377	2611.88
269.609	2520.88
269.841	2517.88
270.073	2587.88
270.306	2852.88
270.538	2976.88
270.77	2855.88
271.002	2708.88
271.234	2750.88
271.466	2873.88
271.698	2994.88
271.93	3001.88
272.162	2992.88
272.394	2877.88
272.626	2745.88
272.858	2655.88
273.09	2649.88
273.322	2646.88
273.553	2639.88
273.785	2654.88
274.017	2598.88
274.249	2672.88
274.481	2777.88
274.713	2790.88
274.945	2833.88
275.176	2845.88
275.408	2894.88
275.64	2980.88
275.872	3011.88
276.104	3025.88
276.335	3111.88
276.567	3148.88
276.799	3469.88
277.031	3896.88
277.262	4209.88
277.494	3904.88
277.726	3476.88
277.957	3321.88
278.189	3218.88
278.421	3103.88
278.652	3071.88
278.884	3087.88
279.115	3079.88
279.347	3167.88
279.579	3221.88
279.81	3464.88
280.042	3832.88
280.273	4286.88
280.505	4009.88
280.736	3500.88
280.968	3273.88
281.199	3217.88
281.431	3170.88
281.662	3151.88
281.894	3171.88
282.125	3154.88
282.356	3304.88
282.588	3488.88
282.819	3274.88
283.051	3105.88
283.282	3085.88
283.513	3133.88
283.745	3160.88
283.976	3137.88
284.207	3124.88
284.439	3146.88
284.67	3122.88
284.901	3123.88
285.132	3143.88
285.364	3155.88
285.595	3143.88
285.826	3210.88
286.057	3218.88
286.288	3221.88
286.52	3199.88
286.751	3228.88
286.982	3237.88
287.213	3232.88
287.444	3289.88
287.675	3267.88
287.906	3401.88
288.138	3410.88
288.369	3459.88
288.6	3426.88
288.831	3340.88
289.062	3353.88
289.293	3368.88
289.524	3373.88
289.755	3311.88
289.986	3286.88
290.217	3308.88
290.448	3322.88
290.679	3327.88
290.91	3274.88
291.141	3328.88
291.371	3288.88
291.602	3340.88
291.833	3226.88
292.064	3314.88
292.295	3272.88
292.526	3328.88
292.757	3303.88
292.987	3248.88
293.218	3231.88
293.449	3282.88
293.68	3313.88
293.91	3292.88
294.141	3280.88
294.372	3273.88
294.603	3258.88
294.833	3300.88
295.064	3359.88
295.295	3352.88
295.525	3328.88
295.756	3378.88
295.987	3525.88
296.217	3716.88
296.448	3678.88
296.679	3406.88
296.909	3398.88
297.14	3510.88
297.37	3479.88
297.601	3502.88
297.831	3472.88
298.062	3537.88
298.292	3557.88
298.523	3660.88
298.753	3650.88
298.984	3556.88
299.214	3587.88
299.445	3574.88
299.675	3622.88
299.905	3759.88
300.136	3642.88
300.366	3717.88
300.597	3714.88
300.827	3749.88
301.057	3820.88
301.288	3934.88
301.518	3833.88
301.748	3864.88
301.979	4022.88
302.209	4017.88
302.439	3992.88
302.669	3915.88
302.9	3843.88
303.13	3911.88
303.36	3946.88
303.59	4130.88
303.82	4245.88
304.051	4144.88
304.281	3917.88
304.511	3810.88
304.741	3825.88
304.971	3836.88
305.201	3797.88
305.431	3749.88
305.661	3780.88
305.891	3770.88
306.121	3796.88
306.352	3901.88
306.582	3930.88
306.812	3864.88
307.042	4073.88
307.272	4297.88
307.502	4430.88
307.731	4280.88
307.961	4085.88
308.191	3966.88
308.421	3869.88
308.651	3868.88
308.881	3829.88
309.111	3968.88
309.341	3977.88
309.571	4022.88
309.8	4082.88
310.03	4144.88
310.26	4245.88
310.49	4176.88
310.72	4287.88
310.949	4498.88
311.179	4435.88
311.409	4232.88
311.639	4176.88
311.868	4244.88
312.098	4352.88
312.328	4391.88
312.557	4569.88
312.787	4684.88
313.017	4551.88
313.246	4323.88
313.476	4312.88
313.706	4384.88
313.935	4489.88
314.165	4580.88
314.394	4620.88
314.624	4586.88
314.853	4449.88
315.083	4290.88
315.312	4316.88
315.542	4303.88
315.771	4296.88
316.001	4258.88
316.23	4302.88
316.46	4336.88
316.689	4374.88
316.919	4430.88
317.148	4377.88
317.377	4432.88
317.607	4391.88
317.836	4420.88
318.065	4256.88
318.295	4310.88
318.524	4306.88
318.753	4329.88
318.983	4334.88
319.212	4334.88
319.441	4495.88
319.67	4489.88
319.9	4360.88
320.129	4379.88
320.358	4374.88
320.587	4430.88
320.816	4521.88
321.046	4554.88
321.275	4499.88
321.504	4510.88
321.733	4586.88
321.962	4649.88
322.191	4793.88
322.42	4918.88
322.649	5007.88
322.878	5132.88
323.108	5275.88
323.337	5602.88
323.566	5719.88
323.795	6083.88
324.024	6835.88
324.253	8967.88
324.482	13089.88
324.71	15594.88
324.939	15594.88
325.168	14406.88
325.397	7832.88
325.626	6445.88
325.855	6108.88
326.084	6034.88
326.313	6039.88
326.542	6249.88
326.77	7236.88
326.999	9121.88
327.228	12878.88
327.457	15594.88
327.686	15594.88
327.914	11422.88
328.143	11977.88
328.372	13121.88
328.6	10401.88
328.829	8411.88
329.058	8410.88
329.287	8716.88
329.515	8990.88
329.744	10563.88
329.972	13623.88
330.201	15594.88
330.43	15594.88
330.658	14788.88
330.887	10618.88
331.115	8627.88
331.344	7618.88
331.572	7158.88
331.801	7214.88
332.03	7178.88
332.258	7026.88
332.486	7091.88
332.715	7398.88
332.943	7713.88
333.172	8228.88
333.4	8883.88
333.629	9911.88
333.857	11808.88
334.085	14453.88
334.314	15594.88
334.542	15594.88
334.771	15594.88
334.999	14394.88
335.227	10129.88
335.455	8403.88
335.684	7712.88
335.912	7242.88
336.14	6867.88
336.369	6530.88
336.597	6584.88
336.825	6428.88
337.053	6240.88
337.281	5968.88
337.51	5943.88
337.738	5887.88
337.966	5797.88
338.194	5847.88
338.422	5620.88
338.65	5447.88
338.878	5436.88
339.106	5390.88
339.334	5356.88
339.562	5298.88
339.79	5182.88
340.018	5277.88
340.246	5223.88
340.474	5253.88
340.702	5236.88
340.93	5149.88
341.158	5212.88
341.386	5187.88
341.614	5156.88
341.842	5090.88
342.07	5031.88
342.298	5008.88
342.526	4986.88
342.754	4921.88
342.981	5013.88
343.209	5140.88
343.437	5315.88
343.665	5537.88
343.893	5868.88
344.12	5892.88
344.348	5596.88
344.576	5461.88
344.804	5404.88
345.031	5378.88
345.259	5356.88
345.487	5126.88
345.714	4982.88
345.942	4868.88
346.17	4848.88
346.397	4818.88
346.625	4838.88
346.853	4810.88
347.08	4801.88
347.308	4927.88
347.535	4956.88
347.763	5017.88
347.99	4911.88
348.218	4980.88
348.445	5056.88
348.673	4899.88
348.9	4760.88
349.128	4711.88
349.355	4671.88
349.583	4668.88
349.81	4721.88
350.037	4713.88
350.265	4631.88
350.492	4669.88
350.72	4674.88
350.947	4761.88
351.174	4793.88
351.402	4958.88
351.629	4839.88
351.856	4832.88
352.083	4918.88
352.311	4959.88
352.538	4938.88
352.765	4887.88
352.992	4795.88
353.22	4772.88
353.447	4706.88
353.674	4699.88
353.901	4593.88
354.128	4506.88
354.355	4559.88
354.583	4573.88
354.81	4623.88
355.037	4564.88
355.264	4496.88
355.491	4504.88
355.718	4459.88
355.945	4556.88
356.172	4590.88
356.399	4588.88
356.626	4558.88
356.853	4516.88
357.08	4449.88
357.307	4525.88
357.534	4461.88
357.761	4520.88
357.988	4593.88
358.215	4501.88
358.441	4550.88
358.668	4571.88
358.895	4574.88
359.122	4582.88
359.349	4781.88
359.576	4895.88
359.802	5095.88
360.029	5386.88
360.256	5320.88
360.483	5067.88
360.709	4790.88
360.936	4758.88
361.163	4840.88
361.39	4865.88
361.616	4832.88
361.843	4737.88
362.07	4806.88
362.296	4892.88
362.523	4827.88
362.749	4855.88
362.976	4813.88
363.203	4702.88
363.429	4642.88
363.656	4683.88
363.882	4664.88
364.109	4656.88
364.335	4668.88
364.562	4649.88
364.788	4621.88
365.015	4680.88
365.241	4645.88
365.468	4697.88
365.694	4758.88
365.92	4774.88
366.147	4603.88
366.373	4624.88
366.599	4664.88
366.826	4606.88
367.052	4658.88
367.278	4678.88
367.505	4646.88
367.731	4743.88
367.957	4649.88
368.184	4717.88
368.41	4758.88
368.636	4870.88
368.862	4910.88
369.089	4813.88
369.315	4718.88
369.541	4740.88
369.767	4831.88
369.993	4844.88
370.219	4816.88
370.445	4829.88
370.672	4854.88
370.898	4779.88
371.124	4808.88
371.35	4938.88
371.576	4863.88
371.802	4864.88
372.028	4794.88
372.254	4817.88
372.48	4886.88
372.706	5044.88
372.932	5015.88
373.158	5007.88
373.384	5002.88
373.61	4913.88
373.835	4883.88
374.061	4922.88
374.287	5087.88
374.513	5088.88
374.739	5255.88
374.965	5271.88
375.191	5277.88
375.416	5192.88
375.642	5066.88
375.868	5020.88
376.094	5012.88
376.319	4959.88
376.545	4957.88
376.771	4868.88
376.997	4835.88
377.222	4876.88
377.448	4794.88
377.674	4819.88
377.899	4766.88
378.125	4776.88
378.35	4807.88
378.576	4749.88
378.802	4750.88
379.027	4757.88
379.253	4776.88
379.478	4786.88
379.704	4823.88
379.929	4900.88
380.155	4819.88
380.38	4825.88
380.606	4921.88
380.831	4902.88
381.057	4848.88
381.282	4831.88
381.507	4870.88
381.733	4996.88
381.958	5010.88
382.184	4969.88
382.409	5047.88
382.634	5156.88
382.86	5158.88
383.085	5161.88
383.31	5287.88
383.535	5310.88
383.761	5298.88
383.986	5400.88
384.211	5565.88
384.436	5608.88
384.662	5651.88
384.887	5685.88
385.112	5695.88
385.337	5799.88
385.562	5897.88
385.787	5900.88
386.013	5927.88
386.238	5940.88
386.463	5971.88
386.688	5907.88
386.913	5746.88
387.138	5689.88
387.363	5721.88
387.588	5675.88
387.813	5753.88
388.038	5703.88
388.263	5764.88
388.488	5819.88
388.713	5775.88
388.938	5732.88
389.163	5775.88
389.387	5757.88
389.612	5666.88
389.837	5618.88
390.062	5625.88
390.287	5748.88
390.512	5679.88
390.736	5759.88
390.961	5910.88
391.186	5898.88
391.411	6101.88
391.636	6228.88
391.86	6425.88
392.085	6449.88
392.31	6347.88
392.534	6151.88
392.759	6142.88
392.984	6101.88
393.208	6015.88
393.433	5974.88
393.658	6029.88
393.882	6033.88
394.107	6052.88
394.331	6051.88
394.556	6055.88
394.78	6192.88
395.005	6175.88
395.229	6220.88
395.454	6318.88
395.678	6522.88
395.903	6456.88
396.127	6513.88
396.352	6392.88
396.576	6169.88
396.801	6137.88
397.025	6200.88
397.249	6286.88
397.474	6416.88
397.698	6520.88
397.922	6693.88
398.147	6753.88
398.371	6814.88
398.595	7072.88
398.82	7360.88
399.044	7947.88
399.268	8728.88
399.492	9691.88
399.717	10328.88
399.941	10123.88
400.165	9566.88
400.389	8926.88
400.613	8148.88
400.837	7602.88
401.062	7489.88
401.286	7405.88
401.51	7273.88
401.734	7294.88
401.958	7372.88
402.182	7567.88
402.406	7671.88
402.63	7742.88
402.854	7874.88
403.078	7807.88
403.302	8060.88
403.526	8179.88
403.75	8294.88
403.974	8391.88
404.198	8431.88
404.422	8690.88
404.645	8860.88
404.869	9145.88
405.093	9714.88
405.317	10399.88
405.541	10270.88
405.765	9278.88
405.988	8814.88
406.212	8741.88
406.436	8935.88
406.66	8857.88
406.883	8791.88
407.107	9296.88
407.331	9826.88
407.555	10200.88
407.778	9916.88
408.002	9115.88
408.226	8733.88
408.449	8789.88
408.673	8586.88
408.896	8576.88
409.12	8791.88
409.344	8228.88
409.567	7922.88
409.791	8011.88
410.014	7874.88
410.238	7848.88
410.461	7930.88
410.685	7887.88
410.908	7943.88
411.132	8196.88
411.355	8324.88
411.578	8005.88
411.802	7940.88
412.025	8210.88
412.249	8864.88
412.472	9569.88
412.695	10337.88
412.919	9588.88
413.142	9012.88
413.365	8517.88
413.589	8042.88
413.812	7747.88
414.035	7558.88
414.258	7766.88
414.482	7630.88
414.705	7531.88
414.928	7433.88
415.151	7403.88
415.374	7377.88
415.597	7326.88
415.821	7201.88
416.044	7294.88
416.267	7235.88
416.49	7136.88
416.713	7075.88
416.936	7163.88
417.159	7242.88
417.382	7404.88
417.605	7816.88
417.828	7808.88
418.051	7721.88
418.274	7419.88
418.497	7268.88
418.72	7476.88
418.943	7299.88
419.166	7852.88
419.389	8423.88
419.611	8478.88
419.834	8468.88
420.057	8710.88
420.28	9236.88
420.503	8948.88
420.726	8530.88
420.948	8320.88
421.171	8471.88
421.394	8166.88
421.617	7552.88
421.839	7544.88
422.062	7526.88
422.285	7669.88
422.507	8295.88
422.73	8794.88
422.953	8137.88
423.175	7768.88
423.398	7806.88
423.621	7767.88
423.843	7871.88
424.066	7934.88
424.288	7826.88
424.511	8048.88
424.733	8529.88
424.956	8968.88
425.178	8497.88
425.401	8629.88
425.623	8522.88
425.846	7503.88
426.068	7364.88
426.291	7314.88
426.513	7267.88
426.735	7379.88
426.958	7914.88
427.18	8805.88
427.402	10166.88
427.625	10948.88
427.847	10319.88
428.069	10116.88
428.292	8433.88
428.514	7361.88
428.736	6972.88
428.958	6850.88
429.181	6598.88
429.403	6592.88
429.625	6677.88
429.847	7058.88
430.069	7638.88
430.292	7114.88
430.514	6509.88
430.736	6525.88
430.958	6366.88
431.18	6372.88
431.402	6343.88
431.624	6342.88
431.846	6369.88
432.068	6390.88
432.29	6518.88
432.512	6353.88
432.734	6554.88
432.956	6417.88
433.178	6544.88
433.4	6550.88
433.622	6450.88
433.844	6464.88
434.066	6428.88
434.287	6591.88
434.509	6734.88
434.731	6985.88
434.953	7018.88
435.175	7251.88
435.397	7332.88
435.618	7178.88
435.84	7653.88
436.062	8596.88
436.284	8528.88
436.505	7166.88
436.727	6910.88
436.949	6584.88
437.17	6434.88
437.392	6418.88
437.614	6645.88
437.835	7070.88
438.057	8104.88
438.278	8697.88
438.5	8484.88
438.721	9408.88
438.943	8329.88
439.165	7020.88
439.386	6815.88
439.608	6852.88
439.829	7056.88
440.05	7489.88
440.272	7952.88
440.493	7160.88
440.715	6783.88
440.936	6670.88
441.158	6838.88
441.379	6835.88
441.6	7218.88
441.822	7530.88
442.043	7999.88
442.264	8709.88
442.486	8481.88
442.707	7478.88
442.928	7359.88
443.149	7645.88
443.371	7950.88
443.592	8419.88
443.813	9384.88
444.034	9317.88
444.255	8065.88
444.476	7990.88
444.698	8161.88
444.919	8273.88
445.14	8120.88
445.361	7984.88
445.582	8246.88
445.803	8974.88
446.024	9756.88
446.245	9214.88
446.466	8226.88
446.687	7010.88
446.908	6798.88
447.129	6353.88
447.35	6307.88
447.571	6263.88
447.792	6149.88
448.013	6271.88
448.234	6414.88
448.455	7141.88
448.675	8386.88
448.896	8887.88
449.117	7250.88
449.338	7644.88
449.559	8864.88
449.779	9200.88
450	7038.88
450.221	6306.88
450.442	6046.88
450.662	6012.88
450.883	6185.88
451.104	6423.88
451.324	6152.88
451.545	5861.88
451.766	5783.88
451.986	5725.88
452.207	5566.88
452.428	5616.88
452.648	5676.88
452.869	5721.88
453.089	5709.88
453.31	5855.88
453.53	5618.88
453.751	5584.88
453.971	5600.88
454.192	5873.88
454.412	5619.88
454.633	5470.88
454.853	5369.88
455.073	5535.88
455.294	5909.88
455.514	6478.88
455.734	5905.88
455.955	5330.88
456.175	5263.88
456.395	5261.88
456.616	5179.88
456.836	5247.88
457.056	5182.88
457.276	5199.88
457.497	5419.88
457.717	5345.88
457.937	5402.88
458.157	5470.88
458.377	5644.88
458.598	5945.88
458.818	6865.88
459.038	7761.88
459.258	7582.88
459.478	6618.88
459.698	6476.88
459.918	6646.88
460.138	6769.88
460.358	6892.88
460.578	6956.88
460.798	7038.88
461.018	7135.88
461.238	6925.88
461.458	6893.88
461.678	6901.88
461.898	7129.88
462.118	7116.88
462.338	7406.88
462.558	7618.88
462.777	7878.88
462.997	8447.88
463.217	8944.88
463.437	8786.88
463.657	8167.88
463.876	7847.88
464.096	7988.88
464.316	8018.88
464.536	8051.88
464.755	7714.88
464.975	7690.88
465.195	8145.88
465.414	8342.88
465.634	7083.88
465.854	6706.88
466.073	6430.88
466.293	6206.88
466.512	6142.88
466.732	5989.88
466.951	6004.88
467.171	6055.88
467.391	6213.88
467.61	6450.88
467.829	6908.88
468.049	9027.88
468.268	11373.88
468.488	8093.88
468.707	6782.88
468.927	6332.88
469.146	6154.88
469.365	6164.88
469.585	6098.88
469.804	6258.88
470.023	6528.88
470.243	6445.88
470.462	6525.88
470.681	6687.88
470.901	6546.88
471.12	6484.88
471.339	6446.88
471.558	6672.88
471.777	6857.88
471.997	7900.88
472.216	12548.88
472.435	15594.88
472.654	14267.88
472.873	9300.88
473.092	7880.88
473.311	7180.88
473.53	6885.88
473.749	6743.88
473.968	7125.88
474.187	8042.88
474.406	7488.88
474.625	6443.88
474.844	6118.88
475.063	6124.88
475.282	6135.88
475.501	6100.88
475.72	6107.88
475.939	6227.88
476.158	6175.88
476.377	6269.88
476.596	6212.88
476.814	6368.88
477.033	6412.88
477.252	6479.88
477.471	6601.88
477.69	6683.88
477.908	6793.88
478.127	7011.88
478.346	7016.88
478.564	7129.88
478.783	7236.88
479.002	7470.88
479.22	7550.88
479.439	7649.88
479.658	7950.88
479.876	8136.88
480.095	8417.88
480.313	8961.88
480.532	9197.88
480.751	10273.88
480.969	13996.88
481.188	15594.88
481.406	15594.88
481.624	15228.88
481.843	11836.88
482.061	10172.88
482.28	9200.88
482.498	8642.88
482.717	8258.88
482.935	8010.88
483.153	7768.88
483.372	7656.88
483.59	7595.88
483.808	7358.88
484.027	7452.88
484.245	7422.88
484.463	7459.88
484.681	7416.88
484.9	7528.88
485.118	7557.88
485.336	7614.88
485.554	7689.88
485.772	7615.88
485.99	7754.88
486.209	7672.88
486.427	7715.88
486.645	7817.88
486.863	8033.88
487.081	7954.88
