Data from Circ_2023_H10_HRD10591_00070.txt Node
Date: Wed Jan 03 09:50:45 EST 2024
User: Yrep
Spectrometer: HR+D1059
Trigger mode: 1
Integration Time (sec): 1.000000E-1
Scans to average: 1
Electric dark correction enabled: true
Nonlinearity correction enabled: false
Boxcar width: 0
XAxis mode: Wavelengths
Number of Pixels in Spectrum: 2048
>>>>>Begin Spectral Data<<<<<
223.165	-18.19
223.4	-18.19
223.635	-18.19
223.869	-25.19
224.104	-7.19
224.338	-13.19
224.573	-13.19
224.808	-23.19
225.042	-6.19
225.277	-0.19
225.511	1.81
225.746	3.81
225.98	-3.19
226.215	7.81
226.449	6.81
226.683	27.81
226.918	32.81
227.152	28.81
227.387	20.81
227.621	17.81
227.856	37.81
228.09	48.81
228.324	56.81
228.559	54.81
228.793	66.81
229.027	69.81
229.262	68.81
229.496	79.81
229.73	93.81
229.964	119.81
230.199	65.81
230.433	78.81
230.667	76.81
230.901	68.81
231.136	83.81
231.37	85.81
231.604	83.81
231.838	76.81
232.072	80.81
232.306	87.81
232.541	89.81
232.775	96.81
233.009	77.81
233.243	80.81
233.477	92.81
233.711	97.81
233.945	74.81
234.179	83.81
234.413	93.81
234.647	88.81
234.881	88.81
235.115	73.81
235.349	82.81
235.583	73.81
235.817	85.81
236.051	75.81
236.285	80.81
236.519	90.81
236.753	82.81
236.987	87.81
237.221	95.81
237.455	85.81
237.689	90.81
237.922	80.81
238.156	70.81
238.39	65.81
238.624	84.81
238.858	73.81
239.091	69.81
239.325	81.81
239.559	85.81
239.793	81.81
240.027	83.81
240.26	79.81
240.494	77.81
240.728	76.81
240.961	58.81
241.195	83.81
241.429	101.81
241.662	80.81
241.896	75.81
242.13	87.81
242.363	75.81
242.597	83.81
242.83	82.81
243.064	73.81
243.298	93.81
243.531	77.81
243.765	81.81
243.998	71.81
244.232	83.81
244.465	80.81
244.699	89.81
244.932	79.81
245.166	85.81
245.399	89.81
245.633	84.81
245.866	80.81
246.099	73.81
246.333	73.81
246.566	81.81
246.8	89.81
247.033	79.81
247.266	86.81
247.5	88.81
247.733	77.81
247.966	88.81
248.2	89.81
248.433	76.81
248.666	89.81
248.899	88.81
249.133	90.81
249.366	100.81
249.599	88.81
249.832	96.81
250.066	69.81
250.299	96.81
250.532	97.81
250.765	95.81
250.998	90.81
251.231	91.81
251.465	90.81
251.698	88.81
251.931	85.81
252.164	81.81
252.397	85.81
252.63	86.81
252.863	101.81
253.096	85.81
253.329	82.81
253.562	85.81
253.795	79.81
254.028	87.81
254.261	88.81
254.494	87.81
254.727	89.81
254.96	96.81
255.193	80.81
255.426	92.81
255.659	99.81
255.892	113.81
256.124	84.81
256.357	88.81
256.59	82.81
256.823	88.81
257.056	107.81
257.289	99.81
257.521	95.81
257.754	87.81
257.987	97.81
258.22	99.81
258.452	84.81
258.685	93.81
258.918	76.81
259.151	89.81
259.383	100.81
259.616	97.81
259.849	92.81
260.081	91.81
260.314	97.81
260.547	95.81
260.779	94.81
261.012	109.81
261.244	127.81
261.477	106.81
261.71	112.81
261.942	139.81
262.175	149.81
262.407	102.81
262.64	90.81
262.872	98.81
263.105	98.81
263.337	87.81
263.57	100.81
263.802	90.81
264.035	82.81
264.267	103.81
264.499	85.81
264.732	102.81
264.964	81.81
265.197	87.81
265.429	90.81
265.661	90.81
265.894	88.81
266.126	96.81
266.358	100.81
266.591	93.81
266.823	80.81
267.055	101.81
267.287	76.81
267.52	85.81
267.752	91.81
267.984	84.81
268.216	84.81
268.448	92.81
268.681	95.81
268.913	97.81
269.145	87.81
269.377	88.81
269.609	72.81
269.841	81.81
270.073	94.81
270.306	92.81
270.538	83.81
270.77	91.81
271.002	98.81
271.234	102.81
271.466	106.81
271.698	98.81
271.93	99.81
272.162	89.81
272.394	84.81
272.626	87.81
272.858	97.81
273.09	93.81
273.322	84.81
273.553	102.81
273.785	84.81
274.017	86.81
274.249	86.81
274.481	86.81
274.713	84.81
274.945	89.81
275.176	99.81
275.408	105.81
275.64	107.81
275.872	132.81
276.104	113.81
276.335	112.81
276.567	107.81
276.799	131.81
277.031	165.81
277.262	195.81
277.494	153.81
277.726	118.81
277.957	103.81
278.189	87.81
278.421	101.81
278.652	83.81
278.884	95.81
279.115	97.81
279.347	107.81
279.579	123.81
279.81	132.81
280.042	205.81
280.273	251.81
280.505	187.81
280.736	115.81
280.968	100.81
281.199	91.81
281.431	94.81
281.662	86.81
281.894	81.81
282.125	109.81
282.356	114.81
282.588	155.81
282.819	123.81
283.051	98.81
283.282	98.81
283.513	74.81
283.745	92.81
283.976	81.81
284.207	85.81
284.439	88.81
284.67	90.81
284.901	93.81
285.132	91.81
285.364	90.81
285.595	82.81
285.826	84.81
286.057	91.81
286.288	97.81
286.52	103.81
286.751	90.81
286.982	81.81
287.213	95.81
287.444	98.81
287.675	92.81
287.906	85.81
288.138	101.81
288.369	89.81
288.6	103.81
288.831	95.81
289.062	95.81
289.293	89.81
289.524	99.81
289.755	101.81
289.986	95.81
290.217	89.81
290.448	90.81
290.679	96.81
290.91	92.81
291.141	91.81
291.371	93.81
291.602	96.81
291.833	83.81
292.064	78.81
292.295	96.81
292.526	83.81
292.757	86.81
292.987	88.81
293.218	88.81
293.449	91.81
293.68	94.81
293.91	96.81
294.141	91.81
294.372	102.81
294.603	92.81
294.833	103.81
295.064	96.81
295.295	85.81
295.525	97.81
295.756	96.81
295.987	120.81
296.217	155.81
296.448	145.81
296.679	92.81
296.909	87.81
297.14	88.81
297.37	95.81
297.601	87.81
297.831	105.81
298.062	83.81
298.292	104.81
298.523	109.81
298.753	95.81
298.984	84.81
299.214	85.81
299.445	107.81
299.675	91.81
299.905	112.81
300.136	96.81
300.366	88.81
300.597	99.81
300.827	111.81
301.057	106.81
301.288	105.81
301.518	101.81
301.748	95.81
301.979	115.81
302.209	101.81
302.439	96.81
302.669	101.81
302.9	102.81
303.13	99.81
303.36	111.81
303.59	147.81
303.82	139.81
304.051	108.81
304.281	99.81
304.511	97.81
304.741	92.81
304.971	100.81
305.201	89.81
305.431	85.81
305.661	89.81
305.891	86.81
306.121	106.81
306.352	128.81
306.582	106.81
306.812	113.81
307.042	113.81
307.272	184.81
307.502	171.81
307.731	161.81
307.961	123.81
308.191	113.81
308.421	103.81
308.651	82.81
308.881	82.81
309.111	101.81
309.341	95.81
309.571	108.81
309.8	101.81
310.03	116.81
310.26	101.81
310.49	96.81
310.72	108.81
310.949	123.81
311.179	105.81
311.409	101.81
311.639	103.81
311.868	116.81
312.098	91.81
312.328	97.81
312.557	132.81
312.787	122.81
313.017	116.81
313.246	113.81
313.476	100.81
313.706	104.81
313.935	103.81
314.165	108.81
314.394	107.81
314.624	107.81
314.853	115.81
315.083	102.81
315.312	91.81
315.542	110.81
315.771	108.81
316.001	86.81
316.23	86.81
316.46	99.81
316.689	95.81
316.919	91.81
317.148	88.81
317.377	89.81
317.607	101.81
317.836	90.81
318.065	99.81
318.295	108.81
318.524	89.81
318.753	82.81
318.983	109.81
319.212	95.81
319.441	106.81
319.67	105.81
319.9	100.81
320.129	103.81
320.358	94.81
320.587	109.81
320.816	104.81
321.046	103.81
321.275	108.81
321.504	111.81
321.733	99.81
321.962	86.81
322.191	117.81
322.42	112.81
322.649	134.81
322.878	141.81
323.108	134.81
323.337	143.81
323.566	152.81
323.795	183.81
324.024	256.81
324.253	464.81
324.482	1036.81
324.71	2112.81
324.939	2724.81
325.168	1019.81
325.397	288.81
325.626	172.81
325.855	155.81
326.084	139.81
326.313	144.81
326.542	185.81
326.77	275.81
326.999	566.81
327.228	1101.81
327.457	2079.81
327.686	1657.81
327.914	570.81
328.143	547.81
328.372	686.81
328.6	391.81
328.829	190.81
329.058	191.81
329.287	184.81
329.515	169.81
329.744	280.81
329.972	522.81
330.201	1042.81
330.43	1548.81
330.658	689.81
330.887	298.81
331.115	186.81
331.344	127.81
331.572	134.81
331.801	131.81
332.03	132.81
332.258	119.81
332.486	101.81
332.715	119.81
332.943	114.81
333.172	126.81
333.4	133.81
333.629	154.81
333.857	251.81
334.085	476.81
334.314	1004.81
334.542	2026.81
334.771	1824.81
334.999	459.81
335.227	181.81
335.455	136.81
335.684	127.81
335.912	109.81
336.14	101.81
336.369	114.81
336.597	116.81
336.825	120.81
337.053	101.81
337.281	103.81
337.51	118.81
337.738	98.81
337.966	97.81
338.194	106.81
338.422	132.81
338.65	90.81
338.878	103.81
339.106	92.81
339.334	86.81
339.562	99.81
339.79	99.81
340.018	88.81
340.246	107.81
340.474	96.81
340.702	97.81
340.93	85.81
341.158	102.81
341.386	93.81
341.614	115.81
341.842	119.81
342.07	100.81
342.298	97.81
342.526	96.81
342.754	70.81
342.981	95.81
343.209	96.81
343.437	99.81
343.665	89.81
343.893	91.81
344.12	103.81
344.348	90.81
344.576	90.81
344.804	99.81
345.031	110.81
345.259	120.81
345.487	119.81
345.714	95.81
345.942	102.81
346.17	98.81
346.397	95.81
346.625	103.81
346.853	106.81
347.08	100.81
347.308	101.81
347.535	107.81
347.763	106.81
347.99	107.81
348.218	105.81
348.445	122.81
348.673	108.81
348.9	101.81
349.128	88.81
349.355	99.81
349.583	94.81
349.81	94.81
350.037	98.81
350.265	110.81
350.492	98.81
350.72	106.81
350.947	107.81
351.174	110.81
351.402	108.81
351.629	102.81
351.856	119.81
352.083	112.81
352.311	125.81
352.538	109.81
352.765	132.81
352.992	120.81
353.22	114.81
353.447	119.81
353.674	108.81
353.901	92.81
354.128	99.81
354.355	92.81
354.583	92.81
354.81	112.81
355.037	88.81
355.264	92.81
355.491	96.81
355.718	84.81
355.945	95.81
356.172	92.81
356.399	88.81
356.626	91.81
356.853	75.81
357.08	96.81
357.307	82.81
357.534	94.81
357.761	90.81
357.988	95.81
358.215	91.81
358.441	91.81
358.668	98.81
358.895	93.81
359.122	97.81
359.349	88.81
359.576	84.81
359.802	115.81
360.029	135.81
360.256	128.81
360.483	102.81
360.709	106.81
360.936	90.81
361.163	80.81
361.39	111.81
361.616	111.81
361.843	104.81
362.07	108.81
362.296	99.81
362.523	105.81
362.749	94.81
362.976	113.81
363.203	97.81
363.429	85.81
363.656	106.81
363.882	95.81
364.109	99.81
364.335	101.81
364.562	92.81
364.788	116.81
365.015	102.81
365.241	106.81
365.468	122.81
365.694	118.81
365.92	115.81
366.147	98.81
366.373	83.81
366.599	91.81
366.826	98.81
367.052	89.81
367.278	103.81
367.505	100.81
367.731	113.81
367.957	73.81
368.184	100.81
368.41	92.81
368.636	123.81
368.862	129.81
369.089	119.81
369.315	122.81
369.541	102.81
369.767	114.81
369.993	90.81
370.219	116.81
370.445	103.81
370.672	91.81
370.898	82.81
371.124	106.81
371.35	88.81
371.576	95.81
371.802	88.81
372.028	92.81
372.254	85.81
372.48	79.81
372.706	92.81
372.932	85.81
373.158	86.81
373.384	83.81
373.61	91.81
373.835	92.81
374.061	94.81
374.287	96.81
374.513	102.81
374.739	92.81
374.965	91.81
375.191	86.81
375.416	92.81
375.642	93.81
375.868	97.81
376.094	91.81
376.319	95.81
376.545	89.81
376.771	90.81
376.997	97.81
377.222	95.81
377.448	99.81
377.674	70.81
377.899	90.81
378.125	95.81
378.35	81.81
378.576	109.81
378.802	116.81
379.027	89.81
379.253	83.81
379.478	103.81
379.704	94.81
379.929	98.81
380.155	89.81
380.38	94.81
380.606	106.81
380.831	85.81
381.057	102.81
381.282	96.81
381.507	93.81
381.733	86.81
381.958	88.81
382.184	93.81
382.409	104.81
382.634	95.81
382.86	88.81
383.085	113.81
383.31	110.81
383.535	103.81
383.761	87.81
383.986	90.81
384.211	94.81
384.436	93.81
384.662	95.81
384.887	99.81
385.112	90.81
385.337	88.81
385.562	102.81
385.787	98.81
386.013	107.81
386.238	115.81
386.463	92.81
386.688	106.81
386.913	99.81
387.138	107.81
387.363	104.81
387.588	87.81
387.813	92.81
388.038	110.81
388.263	103.81
388.488	100.81
388.713	80.81
388.938	95.81
389.163	103.81
389.387	107.81
389.612	97.81
389.837	86.81
390.062	85.81
390.287	87.81
390.512	96.81
390.736	74.81
390.961	82.81
391.186	99.81
391.411	100.81
391.636	83.81
391.86	91.81
392.085	98.81
392.31	105.81
392.534	100.81
392.759	85.81
392.984	76.81
393.208	84.81
393.433	93.81
393.658	98.81
393.882	90.81
394.107	92.81
394.331	86.81
394.556	80.81
394.78	102.81
395.005	76.81
395.229	81.81
395.454	83.81
395.678	96.81
395.903	87.81
396.127	105.81
396.352	95.81
396.576	92.81
396.801	81.81
397.025	80.81
397.249	87.81
397.474	90.81
397.698	100.81
397.922	117.81
398.147	95.81
398.371	88.81
398.595	94.81
398.82	76.81
399.044	92.81
399.268	94.81
399.492	99.81
399.717	96.81
399.941	106.81
400.165	115.81
400.389	99.81
400.613	100.81
400.837	103.81
401.062	107.81
401.286	95.81
401.51	92.81
401.734	103.81
401.958	112.81
402.182	151.81
402.406	184.81
402.63	159.81
402.854	98.81
403.078	95.81
403.302	87.81
403.526	102.81
403.75	80.81
403.974	92.81
404.198	91.81
404.422	101.81
404.645	95.81
404.869	114.81
405.093	136.81
405.317	149.81
405.541	141.81
405.765	113.81
405.988	142.81
406.212	203.81
406.436	284.81
406.66	180.81
406.883	135.81
407.107	111.81
407.331	101.81
407.555	113.81
407.778	111.81
408.002	95.81
408.226	100.81
408.449	97.81
408.673	92.81
408.896	108.81
409.12	96.81
409.344	94.81
409.567	88.81
409.791	107.81
410.014	90.81
410.238	100.81
410.461	96.81
410.685	100.81
410.908	99.81
411.132	106.81
411.355	113.81
411.578	101.81
411.802	100.81
412.025	88.81
412.249	126.81
412.472	137.81
412.695	163.81
412.919	137.81
413.142	99.81
413.365	102.81
413.589	96.81
413.812	97.81
414.035	112.81
414.258	85.81
414.482	97.81
414.705	94.81
414.928	97.81
415.151	94.81
415.374	93.81
415.597	96.81
415.821	95.81
416.044	92.81
416.267	102.81
416.49	112.81
416.713	107.81
416.936	92.81
417.159	102.81
417.382	96.81
417.605	113.81
417.828	111.81
418.051	109.81
418.274	100.81
418.497	90.81
418.72	87.81
418.943	80.81
419.166	97.81
419.389	93.81
419.611	81.81
419.834	92.81
420.057	90.81
420.28	110.81
420.503	101.81
420.726	99.81
420.948	107.81
421.171	106.81
421.394	104.81
421.617	98.81
421.839	91.81
422.062	94.81
422.285	100.81
422.507	105.81
422.73	120.81
422.953	93.81
423.175	91.81
423.398	94.81
423.621	97.81
423.843	99.81
424.066	98.81
424.288	103.81
424.511	104.81
424.733	101.81
424.956	121.81
425.178	135.81
425.401	105.81
425.623	113.81
425.846	102.81
426.068	94.81
426.291	108.81
426.513	98.81
426.735	98.81
426.958	90.81
427.18	123.81
427.402	161.81
427.625	262.81
427.847	223.81
428.069	228.81
428.292	139.81
428.514	108.81
428.736	92.81
428.958	84.81
429.181	98.81
429.403	91.81
429.625	82.81
429.847	103.81
430.069	129.81
430.292	93.81
430.514	77.81
430.736	100.81
430.958	87.81
431.18	82.81
431.402	87.81
431.624	95.81
431.846	84.81
432.068	78.81
432.29	88.81
432.512	92.81
432.734	99.81
432.956	101.81
433.178	109.81
433.4	111.81
433.622	101.81
433.844	90.81
434.066	101.81
434.287	80.81
434.509	89.81
434.731	97.81
434.953	95.81
435.175	103.81
435.397	91.81
435.618	99.81
435.84	110.81
436.062	155.81
436.284	135.81
436.505	105.81
436.727	112.81
436.949	89.81
437.17	96.81
437.392	82.81
437.614	99.81
437.835	125.81
438.057	147.81
438.278	145.81
438.5	118.81
438.721	145.81
438.943	102.81
439.165	103.81
439.386	84.81
439.608	104.81
439.829	90.81
440.05	168.81
440.272	204.81
440.493	108.81
440.715	90.81
440.936	66.81
441.158	91.81
441.379	112.81
441.6	104.81
441.822	107.81
442.043	101.81
442.264	138.81
442.486	126.81
442.707	108.81
442.928	123.81
443.149	157.81
443.371	146.81
443.592	141.81
443.813	125.81
444.034	146.81
444.255	99.81
444.476	97.81
444.698	99.81
444.919	96.81
445.14	151.81
445.361	147.81
445.582	153.81
445.803	197.81
446.024	171.81
446.245	180.81
446.466	125.81
446.687	100.81
446.908	96.81
447.129	105.81
447.35	90.81
447.571	96.81
447.792	100.81
448.013	113.81
448.234	113.81
448.455	118.81
448.675	134.81
448.896	147.81
449.117	117.81
449.338	125.81
449.559	146.81
449.779	168.81
450	98.81
450.221	100.81
450.442	105.81
450.662	100.81
450.883	127.81
451.104	136.81
451.324	105.81
451.545	104.81
451.766	96.81
451.986	73.81
452.207	84.81
452.428	98.81
452.648	102.81
452.869	116.81
453.089	126.81
453.31	135.81
453.53	119.81
453.751	107.81
453.971	114.81
454.192	130.81
454.412	108.81
454.633	87.81
454.853	94.81
455.073	96.81
455.294	104.81
455.514	108.81
455.734	109.81
455.955	87.81
456.175	84.81
456.395	81.81
456.616	102.81
456.836	98.81
457.056	98.81
457.276	96.81
457.497	89.81
457.717	99.81
457.937	98.81
458.157	96.81
458.377	95.81
458.598	139.81
458.818	184.81
459.038	219.81
459.258	134.81
459.478	102.81
459.698	104.81
459.918	88.81
460.138	97.81
460.358	97.81
460.578	82.81
460.798	87.81
461.018	90.81
461.238	92.81
461.458	78.81
461.678	86.81
461.898	89.81
462.118	95.81
462.338	86.81
462.558	88.81
462.777	88.81
462.997	100.81
463.217	100.81
463.437	88.81
463.657	89.81
463.876	101.81
464.096	106.81
464.316	98.81
464.536	106.81
464.755	106.81
464.975	116.81
465.195	204.81
465.414	216.81
465.634	102.81
465.854	106.81
466.073	93.81
466.293	83.81
466.512	100.81
466.732	99.81
466.951	89.81
467.171	98.81
467.391	110.81
467.61	148.81
467.829	211.81
468.049	586.81
468.268	904.81
468.488	234.81
468.707	122.81
468.927	99.81
469.146	89.81
469.365	87.81
469.585	99.81
469.804	100.81
470.023	116.81
470.243	96.81
470.462	108.81
470.681	138.81
470.901	116.81
471.12	104.81
471.339	99.81
471.558	134.81
471.777	170.81
471.997	316.81
472.216	1120.81
472.435	2627.81
472.654	627.81
472.873	175.81
473.092	115.81
473.311	91.81
473.53	104.81
473.749	95.81
473.968	107.81
474.187	136.81
474.406	126.81
474.625	109.81
474.844	81.81
475.063	96.81
475.282	93.81
475.501	97.81
475.72	96.81
475.939	80.81
476.158	87.81
476.377	81.81
476.596	91.81
476.814	93.81
477.033	98.81
477.252	106.81
477.471	101.81
477.69	94.81
477.908	106.81
478.127	103.81
478.346	88.81
478.564	96.81
478.783	120.81
479.002	101.81
479.22	113.81
479.439	128.81
479.658	141.81
479.876	119.81
480.095	115.81
480.313	127.81
480.532	159.81
480.751	311.81
480.969	1056.81
481.188	4479.81
481.406	2703.81
481.624	374.81
481.843	151.81
482.061	125.81
482.28	114.81
482.498	103.81
482.717	105.81
482.935	90.81
483.153	88.81
483.372	83.81
483.59	102.81
483.808	101.81
484.027	96.81
484.245	99.81
484.463	103.81
484.681	105.81
484.9	106.81
485.118	101.81
485.336	106.81
485.554	101.81
485.772	84.81
485.99	111.81
486.209	102.81
486.427	107.81
486.645	127.81
486.863	141.81
487.081	113.81
487.299	105.81
487.517	96.81
487.735	89.81
487.953	99.81
488.171	99.81
488.389	91.81
488.607	100.81
488.825	104.81
489.043	102.81
489.261	100.81
489.479	103.81
489.696	104.81
489.914	94.81
490.132	88.81
490.35	96.81
490.568	95.81
490.786	101.81
491.003	93.81
491.221	94.81
491.439	114.81
491.657	93.81
491.874	99.81
492.092	104.81
492.31	100.81
492.527	111.81
492.745	99.81
492.963	99.81
493.18	99.81
493.398	106.81
493.615	100.81
493.833	100.81
494.05	82.81
494.268	77.81
494.485	95.81
494.703	90.81
494.92	93.81
495.138	90.81
495.355	99.81
495.573	100.81
495.79	93.81
496.008	102.81
496.225	90.81
496.442	97.81
496.66	98.81
496.877	104.81
497.094	95.81
497.312	87.81
497.529	94.81
497.746	85.81
497.963	93.81
498.181	95.81
498.398	95.81
498.615	121.81
498.832	122.81
499.049	94.81
499.267	97.81
499.484	115.81
499.701	97.81
499.918	97.81
500.135	98.81
500.352	96.81
500.569	98.81
500.786	94.81
501.003	88.81
501.22	85.81
501.437	109.81
501.654	104.81
501.871	129.81
502.088	89.81
502.305	106.81
502.522	89.81
502.739	87.81
502.956	82.81
503.172	104.81
503.389	109.81
503.606	125.81
503.823	113.81
504.04	91.81
504.256	101.81
504.473	97.81
504.69	91.81
504.907	97.81
505.123	112.81
505.34	102.81
505.557	83.81
505.773	91.81
505.99	94.81
506.207	104.81
506.423	103.81
506.64	101.81
506.856	100.81
507.073	88.81
507.289	88.81
507.506	114.81
507.722	121.81
507.939	128.81
508.155	106.81
508.372	95.81
508.588	99.81
508.805	92.81
509.021	104.81
509.238	105.81
509.454	101.81
509.67	114.81
509.887	116.81
510.103	150.81
510.319	215.81
510.536	868.81
510.752	2955.81
510.968	840.81
511.184	164.81
511.401	139.81
511.617	115.81
