Data from Circ_2023_H10_HRD10591_00016.txt Node
Date: Wed Jan 03 09:50:34 EST 2024
User: Yrep
Spectrometer: HR+D1059
Trigger mode: 1
Integration Time (sec): 1.000000E-1
Scans to average: 1
Electric dark correction enabled: true
Nonlinearity correction enabled: false
Boxcar width: 0
XAxis mode: Wavelengths
Number of Pixels in Spectrum: 2048
>>>>>Begin Spectral Data<<<<<
223.165	-3.62
223.4	-3.62
223.635	-3.62
223.869	-11.62
224.104	-20.62
224.338	-6.62
224.573	-12.62
224.808	-13.62
225.042	1.38
225.277	-10.62
225.511	3.38
225.746	-1.62
225.98	-0.62
226.215	-7.62
226.449	9.38
226.683	30.38
226.918	27.38
227.152	17.38
227.387	36.38
227.621	40.38
227.856	59.38
228.09	52.38
228.324	59.38
228.559	61.38
228.793	68.38
229.027	66.38
229.262	67.38
229.496	67.38
229.73	96.38
229.964	93.38
230.199	77.38
230.433	79.38
230.667	67.38
230.901	87.38
231.136	79.38
231.37	81.38
231.604	73.38
231.838	74.38
232.072	73.38
232.306	88.38
232.541	63.38
232.775	70.38
233.009	91.38
233.243	82.38
233.477	66.38
233.711	87.38
233.945	71.38
234.179	72.38
234.413	83.38
234.647	85.38
234.881	91.38
235.115	80.38
235.349	94.38
235.583	90.38
235.817	71.38
236.051	81.38
236.285	62.38
236.519	86.38
236.753	87.38
236.987	62.38
237.221	84.38
237.455	99.38
237.689	92.38
237.922	84.38
238.156	69.38
238.39	75.38
238.624	72.38
238.858	88.38
239.091	82.38
239.325	71.38
239.559	76.38
239.793	108.38
240.027	86.38
240.26	86.38
240.494	81.38
240.728	75.38
240.961	76.38
241.195	64.38
241.429	87.38
241.662	74.38
241.896	86.38
242.13	76.38
242.363	71.38
242.597	83.38
242.83	73.38
243.064	76.38
243.298	95.38
243.531	86.38
243.765	79.38
243.998	74.38
244.232	79.38
244.465	75.38
244.699	76.38
244.932	74.38
245.166	77.38
245.399	81.38
245.633	80.38
245.866	74.38
246.099	69.38
246.333	64.38
246.566	78.38
246.8	74.38
247.033	80.38
247.266	81.38
247.5	78.38
247.733	66.38
247.966	71.38
248.2	97.38
248.433	74.38
248.666	93.38
248.899	85.38
249.133	87.38
249.366	107.38
249.599	102.38
249.832	91.38
250.066	75.38
250.299	81.38
250.532	85.38
250.765	87.38
250.998	74.38
251.231	97.38
251.465	59.38
251.698	77.38
251.931	82.38
252.164	71.38
252.397	68.38
252.63	80.38
252.863	82.38
253.096	98.38
253.329	82.38
253.562	74.38
253.795	90.38
254.028	88.38
254.261	95.38
254.494	70.38
254.727	85.38
254.96	80.38
255.193	79.38
255.426	85.38
255.659	89.38
255.892	88.38
256.124	98.38
256.357	81.38
256.59	85.38
256.823	80.38
257.056	84.38
257.289	91.38
257.521	81.38
257.754	81.38
257.987	79.38
258.22	91.38
258.452	96.38
258.685	102.38
258.918	72.38
259.151	84.38
259.383	83.38
259.616	72.38
259.849	98.38
260.081	84.38
260.314	81.38
260.547	92.38
260.779	95.38
261.012	99.38
261.244	90.38
261.477	103.38
261.71	92.38
261.942	122.38
262.175	119.38
262.407	95.38
262.64	84.38
262.872	91.38
263.105	103.38
263.337	88.38
263.57	84.38
263.802	74.38
264.035	81.38
264.267	73.38
264.499	97.38
264.732	92.38
264.964	65.38
265.197	80.38
265.429	81.38
265.661	75.38
265.894	75.38
266.126	86.38
266.358	89.38
266.591	90.38
266.823	91.38
267.055	91.38
267.287	84.38
267.52	84.38
267.752	80.38
267.984	85.38
268.216	81.38
268.448	83.38
268.681	91.38
268.913	89.38
269.145	90.38
269.377	85.38
269.609	82.38
269.841	84.38
270.073	86.38
270.306	90.38
270.538	89.38
270.77	86.38
271.002	84.38
271.234	96.38
271.466	83.38
271.698	89.38
271.93	80.38
272.162	102.38
272.394	87.38
272.626	102.38
272.858	94.38
273.09	85.38
273.322	95.38
273.553	103.38
273.785	95.38
274.017	87.38
274.249	99.38
274.481	88.38
274.713	83.38
274.945	93.38
275.176	91.38
275.408	108.38
275.64	93.38
275.872	104.38
276.104	107.38
276.335	96.38
276.567	102.38
276.799	130.38
277.031	146.38
277.262	129.38
277.494	132.38
277.726	97.38
277.957	88.38
278.189	83.38
278.421	92.38
278.652	99.38
278.884	85.38
279.115	83.38
279.347	81.38
279.579	100.38
279.81	107.38
280.042	138.38
280.273	189.38
280.505	150.38
280.736	93.38
280.968	85.38
281.199	84.38
281.431	92.38
281.662	80.38
281.894	92.38
282.125	99.38
282.356	129.38
282.588	157.38
282.819	113.38
283.051	103.38
283.282	67.38
283.513	91.38
283.745	92.38
283.976	98.38
284.207	83.38
284.439	84.38
284.67	90.38
284.901	101.38
285.132	88.38
285.364	88.38
285.595	91.38
285.826	85.38
286.057	88.38
286.288	99.38
286.52	88.38
286.751	92.38
286.982	91.38
287.213	82.38
287.444	94.38
287.675	82.38
287.906	84.38
288.138	91.38
288.369	81.38
288.6	94.38
288.831	96.38
289.062	98.38
289.293	106.38
289.524	84.38
289.755	91.38
289.986	108.38
290.217	91.38
290.448	98.38
290.679	99.38
290.91	89.38
291.141	92.38
291.371	100.38
291.602	93.38
291.833	92.38
292.064	78.38
292.295	84.38
292.526	88.38
292.757	87.38
292.987	84.38
293.218	97.38
293.449	96.38
293.68	82.38
293.91	84.38
294.141	92.38
294.372	102.38
294.603	97.38
294.833	89.38
295.064	87.38
295.295	87.38
295.525	96.38
295.756	116.38
295.987	122.38
296.217	152.38
296.448	140.38
296.679	96.38
296.909	103.38
297.14	92.38
297.37	80.38
297.601	72.38
297.831	100.38
298.062	98.38
298.292	90.38
298.523	84.38
298.753	92.38
298.984	97.38
299.214	94.38
299.445	100.38
299.675	97.38
299.905	96.38
300.136	98.38
300.366	98.38
300.597	103.38
300.827	91.38
301.057	115.38
301.288	104.38
301.518	101.38
301.748	103.38
301.979	96.38
302.209	98.38
302.439	97.38
302.669	85.38
302.9	82.38
303.13	100.38
303.36	101.38
303.59	111.38
303.82	128.38
304.051	107.38
304.281	100.38
304.511	104.38
304.741	80.38
304.971	91.38
305.201	89.38
305.431	87.38
305.661	111.38
305.891	104.38
306.121	90.38
306.352	101.38
306.582	95.38
306.812	99.38
307.042	113.38
307.272	117.38
307.502	133.38
307.731	139.38
307.961	97.38
308.191	78.38
308.421	97.38
308.651	107.38
308.881	95.38
309.111	107.38
309.341	94.38
309.571	95.38
309.8	97.38
310.03	91.38
310.26	113.38
310.49	92.38
310.72	111.38
310.949	124.38
311.179	101.38
311.409	98.38
311.639	95.38
311.868	92.38
312.098	82.38
312.328	79.38
312.557	93.38
312.787	101.38
313.017	106.38
313.246	100.38
313.476	90.38
313.706	98.38
313.935	100.38
314.165	104.38
314.394	99.38
314.624	111.38
314.853	98.38
315.083	111.38
315.312	95.38
315.542	89.38
315.771	91.38
316.001	98.38
316.23	104.38
316.46	92.38
316.689	104.38
316.919	112.38
317.148	107.38
317.377	105.38
317.607	107.38
317.836	103.38
318.065	98.38
318.295	97.38
318.524	88.38
318.753	94.38
318.983	90.38
319.212	86.38
319.441	106.38
319.67	106.38
319.9	103.38
320.129	99.38
320.358	108.38
320.587	96.38
320.816	91.38
321.046	119.38
321.275	105.38
321.504	100.38
321.733	90.38
321.962	101.38
322.191	100.38
322.42	99.38
322.649	97.38
322.878	106.38
323.108	129.38
323.337	140.38
323.566	152.38
323.795	170.38
324.024	231.38
324.253	468.38
324.482	1019.38
324.71	2142.38
324.939	2859.38
325.168	1016.38
325.397	280.38
325.626	170.38
325.855	137.38
326.084	140.38
326.313	157.38
326.542	181.38
326.77	268.38
326.999	568.38
327.228	1168.38
327.457	2122.38
327.686	1722.38
327.914	503.38
328.143	378.38
328.372	404.38
328.6	261.38
328.829	155.38
329.058	153.38
329.287	168.38
329.515	146.38
329.744	192.38
329.972	321.38
330.201	558.38
330.43	840.38
330.658	401.38
330.887	220.38
331.115	164.38
331.344	129.38
331.572	103.38
331.801	135.38
332.03	105.38
332.258	112.38
332.486	98.38
332.715	108.38
332.943	89.38
333.172	106.38
333.4	117.38
333.629	137.38
333.857	191.38
334.085	299.38
334.314	536.38
334.542	1021.38
334.771	981.38
334.999	289.38
335.227	150.38
335.455	121.38
335.684	116.38
335.912	109.38
336.14	95.38
336.369	98.38
336.597	108.38
336.825	94.38
337.053	95.38
337.281	103.38
337.51	103.38
337.738	102.38
337.966	104.38
338.194	101.38
338.422	112.38
338.65	93.38
338.878	85.38
339.106	111.38
339.334	90.38
339.562	94.38
339.79	101.38
340.018	99.38
340.246	94.38
340.474	106.38
340.702	95.38
340.93	86.38
341.158	123.38
341.386	86.38
341.614	107.38
341.842	107.38
342.07	94.38
342.298	108.38
342.526	94.38
342.754	110.38
342.981	94.38
343.209	83.38
343.437	105.38
343.665	88.38
343.893	87.38
344.12	105.38
344.348	99.38
344.576	89.38
344.804	107.38
345.031	100.38
345.259	104.38
345.487	115.38
345.714	111.38
345.942	103.38
346.17	96.38
346.397	102.38
346.625	100.38
346.853	82.38
347.08	95.38
347.308	105.38
347.535	108.38
347.763	105.38
347.99	116.38
348.218	106.38
348.445	117.38
348.673	101.38
348.9	81.38
349.128	96.38
349.355	106.38
349.583	77.38
349.81	99.38
350.037	89.38
350.265	96.38
350.492	116.38
350.72	102.38
350.947	107.38
351.174	112.38
351.402	105.38
351.629	91.38
351.856	115.38
352.083	124.38
352.311	127.38
352.538	134.38
352.765	112.38
352.992	114.38
353.22	122.38
353.447	100.38
353.674	109.38
353.901	97.38
354.128	91.38
354.355	80.38
354.583	103.38
354.81	88.38
355.037	98.38
355.264	107.38
355.491	94.38
355.718	100.38
355.945	99.38
356.172	107.38
356.399	98.38
356.626	82.38
356.853	98.38
357.08	96.38
357.307	91.38
357.534	105.38
357.761	105.38
357.988	96.38
358.215	112.38
358.441	102.38
358.668	108.38
358.895	100.38
359.122	94.38
359.349	104.38
359.576	98.38
359.802	106.38
360.029	119.38
360.256	137.38
360.483	112.38
360.709	96.38
360.936	88.38
361.163	89.38
361.39	111.38
361.616	112.38
361.843	100.38
362.07	91.38
362.296	105.38
362.523	95.38
362.749	97.38
362.976	104.38
363.203	87.38
363.429	98.38
363.656	104.38
363.882	89.38
364.109	95.38
364.335	81.38
364.562	87.38
364.788	108.38
365.015	104.38
365.241	100.38
365.468	113.38
365.694	97.38
365.92	98.38
366.147	94.38
366.373	96.38
366.599	86.38
366.826	96.38
367.052	98.38
367.278	107.38
367.505	91.38
367.731	103.38
367.957	98.38
368.184	104.38
368.41	103.38
368.636	116.38
368.862	128.38
369.089	120.38
369.315	89.38
369.541	88.38
369.767	84.38
369.993	105.38
370.219	90.38
370.445	79.38
370.672	93.38
370.898	107.38
371.124	90.38
371.35	87.38
371.576	100.38
371.802	98.38
372.028	98.38
372.254	101.38
372.48	97.38
372.706	91.38
372.932	96.38
373.158	92.38
373.384	85.38
373.61	92.38
373.835	89.38
374.061	82.38
374.287	97.38
374.513	100.38
374.739	105.38
374.965	96.38
375.191	82.38
375.416	72.38
375.642	89.38
375.868	96.38
376.094	104.38
376.319	91.38
376.545	88.38
376.771	84.38
376.997	93.38
377.222	101.38
377.448	85.38
377.674	85.38
377.899	90.38
378.125	94.38
378.35	101.38
378.576	99.38
378.802	90.38
379.027	87.38
379.253	106.38
379.478	84.38
379.704	99.38
379.929	74.38
380.155	92.38
380.38	81.38
380.606	91.38
380.831	84.38
381.057	99.38
381.282	93.38
381.507	83.38
381.733	96.38
381.958	84.38
382.184	92.38
382.409	101.38
382.634	103.38
382.86	101.38
383.085	103.38
383.31	94.38
383.535	101.38
383.761	92.38
383.986	104.38
384.211	91.38
384.436	96.38
384.662	88.38
384.887	98.38
385.112	104.38
385.337	104.38
385.562	88.38
385.787	95.38
386.013	105.38
386.238	110.38
386.463	100.38
386.688	108.38
386.913	91.38
387.138	104.38
387.363	112.38
387.588	99.38
387.813	106.38
388.038	98.38
388.263	108.38
388.488	96.38
388.713	106.38
388.938	93.38
389.163	97.38
389.387	98.38
389.612	86.38
389.837	93.38
390.062	123.38
390.287	104.38
390.512	90.38
390.736	83.38
390.961	83.38
391.186	91.38
391.411	86.38
391.636	92.38
391.86	98.38
392.085	91.38
392.31	85.38
392.534	84.38
392.759	90.38
392.984	108.38
393.208	93.38
393.433	87.38
393.658	89.38
393.882	88.38
394.107	113.38
394.331	86.38
394.556	92.38
394.78	107.38
395.005	83.38
395.229	73.38
395.454	97.38
395.678	75.38
395.903	87.38
396.127	97.38
396.352	85.38
396.576	91.38
396.801	85.38
397.025	83.38
397.249	87.38
397.474	95.38
397.698	83.38
397.922	91.38
398.147	101.38
398.371	90.38
398.595	87.38
398.82	80.38
399.044	85.38
399.268	93.38
399.492	89.38
399.717	91.38
399.941	93.38
400.165	94.38
400.389	89.38
400.613	100.38
400.837	89.38
401.062	84.38
401.286	106.38
401.51	89.38
401.734	97.38
401.958	109.38
402.182	139.38
402.406	181.38
402.63	120.38
402.854	92.38
403.078	91.38
403.302	98.38
403.526	111.38
403.75	101.38
403.974	84.38
404.198	91.38
404.422	79.38
404.645	86.38
404.869	99.38
405.093	97.38
405.317	138.38
405.541	143.38
405.765	106.38
405.988	137.38
406.212	189.38
406.436	253.38
406.66	166.38
406.883	113.38
407.107	100.38
407.331	112.38
407.555	123.38
407.778	117.38
408.002	93.38
408.226	85.38
408.449	90.38
408.673	79.38
408.896	101.38
409.12	113.38
409.344	115.38
409.567	84.38
409.791	102.38
410.014	105.38
410.238	95.38
410.461	80.38
410.685	89.38
410.908	109.38
411.132	91.38
411.355	107.38
411.578	91.38
411.802	82.38
412.025	91.38
412.249	106.38
412.472	114.38
412.695	143.38
412.919	112.38
413.142	86.38
413.365	105.38
413.589	102.38
413.812	88.38
414.035	90.38
414.258	101.38
414.482	97.38
414.705	99.38
414.928	97.38
415.151	98.38
415.374	92.38
415.597	91.38
415.821	71.38
416.044	77.38
416.267	107.38
416.49	92.38
416.713	87.38
416.936	97.38
417.159	101.38
417.382	101.38
417.605	86.38
417.828	101.38
418.051	105.38
418.274	87.38
418.497	90.38
418.72	97.38
418.943	87.38
419.166	76.38
419.389	85.38
419.611	84.38
419.834	92.38
420.057	98.38
420.28	94.38
420.503	101.38
420.726	99.38
420.948	98.38
421.171	90.38
421.394	91.38
421.617	72.38
421.839	88.38
422.062	92.38
422.285	107.38
422.507	108.38
422.73	125.38
422.953	80.38
423.175	75.38
423.398	103.38
423.621	83.38
423.843	76.38
424.066	92.38
424.288	83.38
424.511	98.38
424.733	93.38
424.956	117.38
425.178	105.38
425.401	103.38
425.623	119.38
425.846	117.38
426.068	105.38
426.291	117.38
426.513	92.38
426.735	85.38
426.958	106.38
427.18	111.38
427.402	171.38
427.625	216.38
427.847	210.38
428.069	196.38
428.292	129.38
428.514	97.38
428.736	93.38
428.958	95.38
429.181	90.38
429.403	89.38
429.625	94.38
429.847	98.38
430.069	119.38
430.292	112.38
430.514	89.38
430.736	94.38
430.958	95.38
431.18	93.38
431.402	76.38
431.624	87.38
431.846	74.38
432.068	95.38
432.29	77.38
432.512	95.38
432.734	86.38
432.956	88.38
433.178	105.38
433.4	99.38
433.622	92.38
433.844	96.38
434.066	91.38
434.287	94.38
434.509	99.38
434.731	98.38
434.953	92.38
435.175	90.38
435.397	90.38
435.618	94.38
435.84	111.38
436.062	159.38
436.284	135.38
436.505	116.38
436.727	110.38
436.949	112.38
437.17	93.38
437.392	91.38
437.614	107.38
437.835	116.38
438.057	139.38
438.278	146.38
438.5	105.38
438.721	131.38
438.943	127.38
439.165	99.38
439.386	89.38
439.608	87.38
439.829	106.38
440.05	137.38
440.272	177.38
440.493	116.38
440.715	90.38
440.936	100.38
441.158	86.38
441.379	91.38
441.6	94.38
441.822	93.38
442.043	90.38
442.264	115.38
442.486	108.38
442.707	103.38
442.928	116.38
443.149	153.38
443.371	164.38
443.592	129.38
443.813	142.38
444.034	131.38
444.255	99.38
444.476	94.38
444.698	94.38
444.919	98.38
445.14	124.38
445.361	145.38
445.582	133.38
445.803	177.38
446.024	171.38
446.245	165.38
446.466	122.38
446.687	104.38
446.908	76.38
447.129	95.38
447.35	86.38
447.571	101.38
447.792	94.38
448.013	106.38
448.234	112.38
448.455	106.38
448.675	119.38
448.896	121.38
449.117	111.38
449.338	102.38
449.559	159.38
449.779	154.38
450	97.38
450.221	97.38
450.442	112.38
450.662	88.38
450.883	108.38
451.104	119.38
451.324	104.38
451.545	90.38
451.766	91.38
451.986	95.38
452.207	79.38
452.428	88.38
452.648	109.38
452.869	111.38
453.089	128.38
453.31	141.38
453.53	100.38
453.751	95.38
453.971	106.38
454.192	114.38
454.412	99.38
454.633	97.38
454.853	77.38
455.073	86.38
455.294	88.38
455.514	102.38
455.734	82.38
455.955	88.38
456.175	89.38
456.395	93.38
456.616	79.38
456.836	81.38
457.056	92.38
457.276	98.38
457.497	86.38
457.717	88.38
457.937	81.38
458.157	83.38
458.377	86.38
458.598	114.38
458.818	152.38
459.038	182.38
459.258	112.38
459.478	97.38
459.698	91.38
459.918	87.38
460.138	89.38
460.358	80.38
460.578	92.38
460.798	94.38
461.018	90.38
461.238	87.38
461.458	82.38
461.678	80.38
461.898	84.38
462.118	95.38
462.338	82.38
462.558	80.38
462.777	87.38
462.997	101.38
463.217	86.38
463.437	100.38
463.657	90.38
463.876	88.38
464.096	86.38
464.316	94.38
464.536	111.38
464.755	97.38
464.975	120.38
465.195	194.38
465.414	185.38
465.634	104.38
465.854	88.38
466.073	91.38
466.293	100.38
466.512	101.38
466.732	88.38
466.951	95.38
467.171	92.38
467.391	91.38
467.61	123.38
467.829	161.38
468.049	343.38
468.268	482.38
468.488	175.38
468.707	99.38
468.927	100.38
469.146	99.38
469.365	98.38
469.585	100.38
469.804	111.38
470.023	103.38
470.243	104.38
470.462	109.38
470.681	125.38
470.901	94.38
471.12	102.38
471.339	85.38
471.558	118.38
471.777	127.38
471.997	203.38
472.216	637.38
472.435	1424.38
472.654	372.38
472.873	127.38
473.092	103.38
473.311	87.38
473.53	84.38
473.749	99.38
473.968	97.38
474.187	124.38
474.406	104.38
474.625	93.38
474.844	91.38
475.063	94.38
475.282	103.38
475.501	91.38
475.72	96.38
475.939	89.38
476.158	77.38
476.377	92.38
476.596	98.38
476.814	98.38
477.033	85.38
477.252	100.38
477.471	97.38
477.69	107.38
477.908	105.38
478.127	86.38
478.346	93.38
478.564	96.38
478.783	105.38
479.002	104.38
479.22	105.38
479.439	115.38
479.658	123.38
479.876	94.38
480.095	100.38
480.313	111.38
480.532	121.38
480.751	182.38
480.969	596.38
481.188	2433.38
481.406	1539.38
481.624	272.38
481.843	119.38
482.061	105.38
482.28	111.38
482.498	94.38
482.717	87.38
482.935	90.38
483.153	90.38
483.372	102.38
483.59	103.38
483.808	104.38
484.027	83.38
484.245	100.38
484.463	103.38
484.681	96.38
484.9	94.38
485.118	98.38
485.336	97.38
485.554	90.38
485.772	104.38
485.99	120.38
486.209	99.38
486.427	119.38
486.645	129.38
486.863	118.38
487.081	124.38
487.299	93.38
487.517	107.38
487.735	95.38
487.953	87.38
488.171	119.38
488.389	102.38
488.607	117.38
488.825	97.38
489.043	83.38
489.261	87.38
489.479	91.38
489.696	93.38
489.914	92.38
490.132	95.38
490.35	106.38
490.568	84.38
490.786	91.38
491.003	83.38
491.221	102.38
491.439	108.38
491.657	96.38
491.874	99.38
492.092	99.38
492.31	92.38
492.527	97.38
492.745	88.38
492.963	102.38
493.18	101.38
493.398	95.38
493.615	91.38
493.833	96.38
494.05	90.38
494.268	80.38
494.485	77.38
494.703	96.38
494.92	87.38
495.138	83.38
495.355	111.38
495.573	97.38
495.79	91.38
496.008	95.38
496.225	97.38
496.442	89.38
496.66	95.38
496.877	97.38
497.094	101.38
497.312	95.38
497.529	84.38
497.746	103.38
497.963	95.38
498.181	111.38
498.398	106.38
498.615	132.38
498.832	114.38
499.049	106.38
499.267	92.38
499.484	92.38
499.701	93.38
499.918	97.38
500.135	94.38
500.352	85.38
500.569	100.38
500.786	99.38
501.003	92.38
501.22	108.38
501.437	99.38
501.654	99.38
501.871	125.38
502.088	99.38
502.305	96.38
502.522	96.38
502.739	92.38
502.956	84.38
503.172	90.38
503.389	99.38
503.606	115.38
503.823	102.38
504.04	96.38
504.256	92.38
504.473	97.38
504.69	94.38
504.907	85.38
505.123	100.38
505.34	92.38
505.557	90.38
505.773	96.38
505.99	91.38
506.207	98.38
506.423	90.38
506.64	91.38
506.856	101.38
507.073	96.38
507.289	86.38
507.506	107.38
507.722	119.38
507.939	135.38
508.155	100.38
508.372	103.38
508.588	98.38
508.805	90.38
509.021	99.38
509.238	95.38
509.454	100.38
509.67	115.38
509.887	111.38
510.103	136.38
510.319	212.38
510.536	811.38
510.752	2699.38
510.968	785.38
511.184	171.38
511.401	111.38
511.617	89.38
511.833	114.38
512.049	96.38
512.265	94.38
512.481	89.38
512.698	108.38
512.914	98.38
513.13	115.38
