Data from Circ_2023_H10_HRD10591_00069.txt Node
Date: Wed Jan 03 09:50:44 EST 2024
User: Yrep
Spectrometer: HR+D1059
Trigger mode: 1
Integration Time (sec): 1.000000E-1
Scans to average: 1
Electric dark correction enabled: true
Nonlinearity correction enabled: false
Boxcar width: 0
XAxis mode: Wavelengths
Number of Pixels in Spectrum: 2048
>>>>>Begin Spectral Data<<<<<
223.165	-20
223.4	-20
223.635	-20
223.869	-20
224.104	-4
224.338	-18
224.573	-29
224.808	-7
225.042	-16
225.277	0
225.511	-1
225.746	-7
225.98	8
226.215	11
226.449	8
226.683	27
226.918	27
227.152	41
227.387	36
227.621	35
227.856	48
228.09	32
228.324	47
228.559	62
228.793	69
229.027	67
229.262	63
229.496	91
229.73	95
229.964	97
230.199	85
230.433	72
230.667	68
230.901	74
231.136	82
231.37	93
231.604	87
231.838	84
232.072	91
232.306	97
232.541	86
232.775	87
233.009	81
233.243	83
233.477	90
233.711	82
233.945	71
234.179	73
234.413	95
234.647	79
234.881	75
235.115	86
235.349	77
235.583	100
235.817	83
236.051	78
236.285	82
236.519	81
236.753	80
236.987	76
237.221	93
237.455	99
237.689	82
237.922	73
238.156	71
238.39	89
238.624	78
238.858	79
239.091	94
239.325	74
239.559	90
239.793	81
240.027	75
240.26	87
240.494	84
240.728	82
240.961	75
241.195	87
241.429	90
241.662	70
241.896	80
242.13	82
242.363	78
242.597	85
242.83	80
243.064	95
243.298	88
243.531	60
243.765	85
243.998	86
244.232	86
244.465	79
244.699	74
244.932	78
245.166	89
245.399	86
245.633	83
245.866	75
246.099	89
246.333	84
246.566	81
246.8	81
247.033	89
247.266	77
247.5	83
247.733	78
247.966	85
248.2	86
248.433	73
248.666	80
248.899	91
249.133	88
249.366	100
249.599	108
249.832	88
250.066	72
250.299	76
250.532	91
250.765	94
250.998	76
251.231	86
251.465	81
251.698	76
251.931	85
252.164	90
252.397	88
252.63	78
252.863	86
253.096	89
253.329	75
253.562	80
253.795	69
254.028	84
254.261	86
254.494	81
254.727	93
254.96	76
255.193	67
255.426	78
255.659	96
255.892	98
256.124	104
256.357	90
256.59	79
256.823	78
257.056	99
257.289	84
257.521	90
257.754	90
257.987	80
258.22	92
258.452	99
258.685	112
258.918	94
259.151	82
259.383	82
259.616	80
259.849	105
260.081	97
260.314	105
260.547	91
260.779	88
261.012	121
261.244	107
261.477	97
261.71	98
261.942	132
262.175	136
262.407	90
262.64	77
262.872	82
263.105	81
263.337	102
263.57	84
263.802	88
264.035	95
264.267	85
264.499	84
264.732	85
264.964	90
265.197	84
265.429	82
265.661	90
265.894	92
266.126	83
266.358	81
266.591	83
266.823	75
267.055	84
267.287	83
267.52	79
267.752	75
267.984	93
268.216	82
268.448	83
268.681	80
268.913	102
269.145	81
269.377	73
269.609	73
269.841	83
270.073	92
270.306	92
270.538	81
270.77	76
271.002	92
271.234	85
271.466	109
271.698	91
271.93	85
272.162	79
272.394	94
272.626	86
272.858	83
273.09	105
273.322	90
273.553	80
273.785	102
274.017	90
274.249	89
274.481	97
274.713	87
274.945	79
275.176	88
275.408	94
275.64	118
275.872	133
276.104	126
276.335	106
276.567	110
276.799	142
277.031	165
277.262	210
277.494	159
277.726	95
277.957	100
278.189	82
278.421	89
278.652	103
278.884	94
279.115	104
279.347	82
279.579	115
279.81	151
280.042	205
280.273	303
280.505	186
280.736	119
280.968	103
281.199	101
281.431	111
281.662	95
281.894	89
282.125	97
282.356	137
282.588	166
282.819	122
283.051	83
283.282	97
283.513	86
283.745	84
283.976	85
284.207	92
284.439	91
284.67	97
284.901	96
285.132	86
285.364	91
285.595	76
285.826	99
286.057	90
286.288	95
286.52	88
286.751	101
286.982	91
287.213	80
287.444	74
287.675	103
287.906	83
288.138	101
288.369	103
288.6	96
288.831	86
289.062	83
289.293	93
289.524	87
289.755	82
289.986	94
290.217	88
290.448	96
290.679	89
290.91	83
291.141	87
291.371	96
291.602	92
291.833	95
292.064	95
292.295	93
292.526	94
292.757	91
292.987	81
293.218	76
293.449	71
293.68	86
293.91	107
294.141	88
294.372	88
294.603	87
294.833	94
295.064	88
295.295	110
295.525	93
295.756	107
295.987	138
296.217	160
296.448	134
296.679	82
296.909	94
297.14	88
297.37	91
297.601	108
297.831	72
298.062	104
298.292	89
298.523	87
298.753	91
298.984	88
299.214	87
299.445	99
299.675	90
299.905	103
300.136	78
300.366	102
300.597	100
300.827	103
301.057	111
301.288	112
301.518	107
301.748	101
301.979	106
302.209	117
302.439	94
302.669	100
302.9	100
303.13	93
303.36	120
303.59	136
303.82	152
304.051	113
304.281	101
304.511	90
304.741	91
304.971	88
305.201	84
305.431	86
305.661	88
305.891	89
306.121	109
306.352	114
306.582	122
306.812	107
307.042	122
307.272	158
307.502	194
307.731	171
307.961	130
308.191	114
308.421	90
308.651	89
308.881	82
309.111	97
309.341	94
309.571	105
309.8	99
310.03	102
310.26	112
310.49	102
310.72	112
310.949	122
311.179	113
311.409	105
311.639	91
311.868	90
312.098	105
312.328	112
312.557	112
312.787	132
313.017	113
313.246	99
313.476	97
313.706	99
313.935	102
314.165	110
314.394	106
314.624	106
314.853	114
315.083	100
315.312	94
315.542	89
315.771	90
316.001	102
316.23	86
316.46	87
316.689	94
316.919	98
317.148	98
317.377	104
317.607	103
317.836	95
318.065	90
318.295	98
318.524	92
318.753	117
318.983	103
319.212	124
319.441	128
319.67	110
319.9	107
320.129	102
320.358	101
320.587	114
320.816	117
321.046	105
321.275	123
321.504	92
321.733	92
321.962	105
322.191	114
322.42	115
322.649	134
322.878	118
323.108	119
323.337	116
323.566	145
323.795	179
324.024	232
324.253	454
324.482	892
324.71	1822
324.939	2326
325.168	889
325.397	263
325.626	169
325.855	154
326.084	146
326.313	144
326.542	164
326.77	253
326.999	461
327.228	951
327.457	1701
327.686	1377
327.914	535
328.143	558
328.372	736
328.6	417
328.829	202
329.058	176
329.287	205
329.515	188
329.744	266
329.972	504
330.201	1074
330.43	1614
330.658	723
330.887	291
331.115	186
331.344	134
331.572	131
331.801	125
332.03	128
332.258	113
332.486	114
332.715	110
332.943	121
333.172	127
333.4	119
333.629	165
333.857	242
334.085	477
334.314	975
334.542	1938
334.771	1832
334.999	481
335.227	181
335.455	138
335.684	128
335.912	125
336.14	127
336.369	120
336.597	106
336.825	112
337.053	100
337.281	109
337.51	78
337.738	115
337.966	112
338.194	105
338.422	111
338.65	93
338.878	98
339.106	94
339.334	94
339.562	107
339.79	84
340.018	103
340.246	94
340.474	104
340.702	100
340.93	106
341.158	103
341.386	107
341.614	110
341.842	85
342.07	112
342.298	80
342.526	118
342.754	100
342.981	79
343.209	103
343.437	102
343.665	91
343.893	99
344.12	90
344.348	100
344.576	99
344.804	107
345.031	108
345.259	98
345.487	107
345.714	102
345.942	91
346.17	113
346.397	103
346.625	101
346.853	96
347.08	88
347.308	93
347.535	104
347.763	124
347.99	103
348.218	95
348.445	128
348.673	117
348.9	96
349.128	105
349.355	98
349.583	102
349.81	88
350.037	91
350.265	96
350.492	93
350.72	91
350.947	103
351.174	109
351.402	119
351.629	103
351.856	104
352.083	110
352.311	115
352.538	114
352.765	125
352.992	120
353.22	123
353.447	110
353.674	110
353.901	95
354.128	103
354.355	96
354.583	91
354.81	100
355.037	97
355.264	97
355.491	91
355.718	86
355.945	88
356.172	101
356.399	103
356.626	98
356.853	106
357.08	99
357.307	94
357.534	92
357.761	94
357.988	104
358.215	100
358.441	93
358.668	88
358.895	87
359.122	87
359.349	99
359.576	97
359.802	102
360.029	134
360.256	129
360.483	110
360.709	83
360.936	104
361.163	84
361.39	95
361.616	106
361.843	86
362.07	102
362.296	114
362.523	106
362.749	99
362.976	99
363.203	108
363.429	102
363.656	98
363.882	102
364.109	84
364.335	96
364.562	87
364.788	102
365.015	103
365.241	111
365.468	110
365.694	122
365.92	120
366.147	101
366.373	87
366.599	91
366.826	94
367.052	91
367.278	100
367.505	113
367.731	104
367.957	97
368.184	97
368.41	115
368.636	123
368.862	144
369.089	130
369.315	92
369.541	102
369.767	105
369.993	100
370.219	93
370.445	97
370.672	81
370.898	103
371.124	91
371.35	94
371.576	88
371.802	84
372.028	89
372.254	101
372.48	86
372.706	93
372.932	88
373.158	84
373.384	91
373.61	87
373.835	79
374.061	112
374.287	102
374.513	101
374.739	98
374.965	92
375.191	91
375.416	95
375.642	96
375.868	92
376.094	91
376.319	104
376.545	90
376.771	82
376.997	104
377.222	100
377.448	87
377.674	88
377.899	98
378.125	95
378.35	88
378.576	94
378.802	89
379.027	99
379.253	104
379.478	94
379.704	79
379.929	81
380.155	106
380.38	97
380.606	97
380.831	89
381.057	94
381.282	89
381.507	89
381.733	94
381.958	89
382.184	102
382.409	98
382.634	105
382.86	108
383.085	86
383.31	98
383.535	94
383.761	107
383.986	103
384.211	99
384.436	101
384.662	90
384.887	104
385.112	104
385.337	97
385.562	101
385.787	101
386.013	102
386.238	121
386.463	99
386.688	120
386.913	87
387.138	82
387.363	97
387.588	107
387.813	98
388.038	99
388.263	116
388.488	100
388.713	98
388.938	95
389.163	104
389.387	92
389.612	94
389.837	98
390.062	93
390.287	86
390.512	88
390.736	78
390.961	87
391.186	104
391.411	85
391.636	89
391.86	87
392.085	93
392.31	93
392.534	84
392.759	90
392.984	98
393.208	98
393.433	82
393.658	88
393.882	75
394.107	82
394.331	89
394.556	86
394.78	79
395.005	91
395.229	99
395.454	90
395.678	101
395.903	84
396.127	100
396.352	95
396.576	93
396.801	83
397.025	96
397.249	82
397.474	79
397.698	97
397.922	98
398.147	91
398.371	95
398.595	89
398.82	69
399.044	95
399.268	98
399.492	91
399.717	80
399.941	89
400.165	91
400.389	98
400.613	103
400.837	99
401.062	94
401.286	96
401.51	98
401.734	91
401.958	109
402.182	145
402.406	195
402.63	136
402.854	97
403.078	102
403.302	107
403.526	85
403.75	91
403.974	94
404.198	83
404.422	88
404.645	103
404.869	105
405.093	123
405.317	139
405.541	151
405.765	108
405.988	128
406.212	199
406.436	305
406.66	203
406.883	116
407.107	93
407.331	99
407.555	116
407.778	117
408.002	95
408.226	83
408.449	95
408.673	86
408.896	95
409.12	110
409.344	97
409.567	91
409.791	80
410.014	94
410.238	90
410.461	98
410.685	97
410.908	98
411.132	108
411.355	120
411.578	95
411.802	105
412.025	92
412.249	105
412.472	115
412.695	144
412.919	121
413.142	114
413.365	97
413.589	84
413.812	90
414.035	90
414.258	91
414.482	103
414.705	92
414.928	84
415.151	91
415.374	98
415.597	96
415.821	92
416.044	80
416.267	100
416.49	95
416.713	88
416.936	82
417.159	105
417.382	99
417.605	107
417.828	108
418.051	106
418.274	90
418.497	95
418.72	86
418.943	101
419.166	97
419.389	84
419.611	108
419.834	97
420.057	98
420.28	98
420.503	102
420.726	104
420.948	103
421.171	108
421.394	95
421.617	89
421.839	92
422.062	98
422.285	96
422.507	104
422.73	115
422.953	105
423.175	97
423.398	82
423.621	86
423.843	81
424.066	87
424.288	97
424.511	101
424.733	97
424.956	122
425.178	98
425.401	102
425.623	94
425.846	79
426.068	99
426.291	89
426.513	95
426.735	94
426.958	101
427.18	122
427.402	182
427.625	250
427.847	210
428.069	197
428.292	141
428.514	90
428.736	99
428.958	96
429.181	80
429.403	86
429.625	76
429.847	93
430.069	108
430.292	95
430.514	100
430.736	86
430.958	97
431.18	94
431.402	85
431.624	81
431.846	88
432.068	88
432.29	94
432.512	101
432.734	75
432.956	94
433.178	97
433.4	97
433.622	86
433.844	99
434.066	101
434.287	91
434.509	91
434.731	104
434.953	87
435.175	92
435.397	91
435.618	107
435.84	114
436.062	128
436.284	105
436.505	103
436.727	114
436.949	97
437.17	95
437.392	92
437.614	104
437.835	111
438.057	128
438.278	143
438.5	103
438.721	135
438.943	107
439.165	99
439.386	91
439.608	107
439.829	105
440.05	140
440.272	169
440.493	110
440.715	90
440.936	87
441.158	90
441.379	92
441.6	92
441.822	103
442.043	105
442.264	119
442.486	119
442.707	87
442.928	120
443.149	156
443.371	159
443.592	112
443.813	137
444.034	118
444.255	89
444.476	93
444.698	85
444.919	98
445.14	127
445.361	130
445.582	125
445.803	163
446.024	167
446.245	162
446.466	121
446.687	98
446.908	89
447.129	88
447.35	97
447.571	101
447.792	94
448.013	107
448.234	106
448.455	118
448.675	127
448.896	132
449.117	115
449.338	104
449.559	140
449.779	143
450	88
450.221	91
450.442	110
450.662	100
450.883	126
451.104	136
451.324	103
451.545	92
451.766	89
451.986	82
452.207	74
452.428	96
452.648	103
452.869	123
453.089	144
453.31	151
453.53	91
453.751	87
453.971	106
454.192	125
454.412	102
454.633	95
454.853	81
455.073	91
455.294	94
455.514	92
455.734	101
455.955	91
456.175	89
456.395	81
456.616	95
456.836	99
457.056	82
457.276	84
457.497	79
457.717	96
457.937	96
458.157	87
458.377	98
458.598	146
458.818	214
459.038	206
459.258	143
459.478	88
459.698	96
459.918	80
460.138	89
460.358	87
460.578	72
460.798	105
461.018	93
461.238	96
461.458	99
461.678	109
461.898	89
462.118	91
462.338	81
462.558	95
462.777	87
462.997	106
463.217	93
463.437	97
463.657	82
463.876	98
464.096	97
464.316	94
464.536	89
464.755	98
464.975	139
465.195	227
465.414	228
465.634	114
465.854	93
466.073	101
466.293	98
466.512	88
466.732	90
466.951	98
467.171	104
467.391	100
467.61	169
467.829	223
468.049	633
468.268	978
468.488	261
468.707	122
468.927	100
469.146	100
469.365	108
469.585	89
469.804	104
470.023	102
470.243	113
470.462	110
470.681	135
470.901	103
471.12	104
471.339	104
471.558	119
471.777	188
471.997	323
472.216	1237
472.435	2844
472.654	667
472.873	189
473.092	116
473.311	98
473.53	95
473.749	93
473.968	90
474.187	129
474.406	110
474.625	95
474.844	91
475.063	87
475.282	103
475.501	87
475.72	93
475.939	103
476.158	86
476.377	99
476.596	98
476.814	110
477.033	106
477.252	102
477.471	92
477.69	95
477.908	99
478.127	104
478.346	101
478.564	107
478.783	104
479.002	113
479.22	110
479.439	126
479.658	129
479.876	132
480.095	119
480.313	142
480.532	183
480.751	310
480.969	1069
481.188	4755
481.406	2948
481.624	419
481.843	147
482.061	110
482.28	106
482.498	95
482.717	90
482.935	91
483.153	98
483.372	87
483.59	76
483.808	90
484.027	85
484.245	104
484.463	84
484.681	93
484.9	88
485.118	102
485.336	83
485.554	100
485.772	116
485.99	112
486.209	107
486.427	138
486.645	124
486.863	106
487.081	104
487.299	99
487.517	90
487.735	89
487.953	91
488.171	99
488.389	90
488.607	115
488.825	98
489.043	86
489.261	96
489.479	96
489.696	89
489.914	84
490.132	97
490.35	93
490.568	115
490.786	93
491.003	104
491.221	90
491.439	103
491.657	91
491.874	95
492.092	98
492.31	115
492.527	88
492.745	94
492.963	100
493.18	95
493.398	91
493.615	107
493.833	101
494.05	97
494.268	89
494.485	102
494.703	87
494.92	104
495.138	88
495.355	87
495.573	79
495.79	100
496.008	89
496.225	102
496.442	93
496.66	106
496.877	88
497.094	97
497.312	97
497.529	92
497.746	93
497.963	104
498.181	108
498.398	110
498.615	120
498.832	95
499.049	94
499.267	98
499.484	98
499.701	88
499.918	107
500.135	98
500.352	94
500.569	93
500.786	110
501.003	95
501.22	91
501.437	96
501.654	105
501.871	126
502.088	101
502.305	106
502.522	89
502.739	103
502.956	99
503.172	93
503.389	126
503.606	113
503.823	116
504.04	96
504.256	97
504.473	99
504.69	101
504.907	88
505.123	91
505.34	99
505.557	99
505.773	88
505.99	94
506.207	93
506.423	106
506.64	87
506.856	89
507.073	96
507.289	105
507.506	111
507.722	127
507.939	139
508.155	101
508.372	105
508.588	115
508.805	116
509.021	106
509.238	124
509.454	111
509.67	100
509.887	131
510.103	150
510.319	244
510.536	940
510.752	3223
510.968	926
511.184	199
511.401	124
511.617	96
511.833	111
512.049	107
512.265	102
512.481	102
512.698	107
512.914	100
513.13	95
513.346	100
513.562	100
513.778	115
513.994	126
514.21	119
514.426	135
514.642	188
514.858	158
515.074	235
515.29	691
515.506	2430
515.721	915
515.937	226
516.153	145
516.369	118
516.585	99
516.801	110
517.016	91
517.232	114
517.448	97
517.664	103
517.879	105
518.095	117
518.311	110
518.527	116
518.742	89
518.958	113
519.173	95
519.389	93
519.605	100
519.82	108
520.036	115
520.251	153
520.467	154
520.682	127
520.898	122
521.113	137
521.329	162
521.544	282
521.76	854
521.975	4081
522.19	2490
522.406	504
522.621	166
522.836	122
523.052	106
523.267	103
523.482	99
523.698	112
523.913	151
524.128	115
524.343	92
524.559	104
524.774	93
524.989	100
525.204	120
525.419	125
525.634	106
525.849	105
526.064	95
526.28	93
526.495	84
526.71	80
526.925	88
527.14	96
527.355	100
527.57	101
527.785	90
527.999	97
528.214	90
528.429	91
528.644	111
528.859	102
529.074	99
529.289	166
529.503	254
529.718	118
529.933	92
530.148	86
530.363	99
530.577	102
530.792	85
531.007	86
531.221	105
531.436	84
531.651	93
531.865	110
532.08	101
532.295	106
532.509	75
532.724	84
532.938	107
533.153	102
533.367	92
533.582	98
533.796	91
534.011	88
534.225	111
534.44	92
534.654	104
534.868	96
535.083	86
535.297	91
535.511	105
535.726	113
535.94	90
536.154	106
536.369	90
536.583	102
536.797	83
537.011	84
537.225	107
537.44	93
537.654	95
537.868	90
538.082	87
538.296	94
538.51	85
538.724	83
538.938	90
539.153	102
539.367	109
539.581	103
539.795	95
540.009	81
540.222	99
540.436	86
540.65	103
540.864	95
541.078	105
541.292	100
541.506	90
541.72	96
541.934	84
542.147	97
542.361	97
542.575	87
542.789	83
543.002	107
543.216	98
543.43	122
543.644	115
543.857	90
544.071	88
544.285	97
544.498	80
544.712	86
544.925	87
545.139	91
545.352	96
545.566	100
545.779	99
545.993	91
546.206	90
546.42	95
546.633	90
546.847	92
547.06	96
547.274	75
547.487	97
547.7	99
547.914	105
548.127	101
548.34	84
548.554	91
548.767	86
548.98	99
549.193	90
549.407	90
549.62	106
549.833	97
550.046	89
550.259	87
550.473	80
550.686	86
550.899	99
551.112	94
551.325	94
551.538	106
551.751	114
551.964	97
552.177	100
552.39	105
552.603	87
552.816	101
553.029	99
553.242	94
553.455	99
553.667	130
553.88	121
554.093	95
554.306	114
554.519	110
554.732	113
554.944	104
555.157	81
555.37	94
555.583	103
555.795	92
556.008	103
556.221	92
556.433	97
556.646	80
556.859	90
557.071	103
557.284	93
557.496	111
557.709	93
557.921	94
558.134	92
558.346	94
558.559	110
558.771	86
558.984	68
559.196	70
559.409	79
559.621	89
559.833	87
560.046	95
560.258	110
560.47	158
560.683	102
560.895	93
561.107	105
561.32	100
561.532	100
561.744	90
561.956	110
562.168	102
562.381	102
562.593	105
562.805	96
563.017	89
563.229	85
563.441	83
563.653	94
563.865	102
564.077	92
564.289	92
564.501	85
564.713	109
564.925	95
565.137	103
565.349	97
565.561	96
565.773	85
565.985	102
566.197	88
566.408	77
566.62	94
566.832	81
567.044	95
567.255	87
567.467	93
567.679	102
567.891	95
568.102	90
568.314	84
568.526	100
568.737	88
568.949	83
569.161	87
569.372	90
569.584	73
569.795	107
570.007	111
570.218	313
570.43	168
570.641	113
570.853	89
571.064	99
571.276	81
571.487	80
571.698	90
571.91	79
572.121	98
572.333	76
572.544	89
572.755	105
572.966	98
573.178	83
573.389	92
573.6	70
573.811	83
574.023	92
574.234	92
574.445	113
574.656	92
574.867	101
575.078	87
575.289	90
575.501	89
575.712	92
575.923	97
576.134	88
576.345	97
576.556	93
576.767	108
576.978	90
577.188	105
577.399	90
577.61	93
577.821	98
578.032	132
578.243	306
578.454	1032
578.665	264
578.875	117
