Data from Circ_2023_H10_HRD10591_00061.txt Node
Date: Wed Jan 03 09:50:43 EST 2024
User: Yrep
Spectrometer: HR+D1059
Trigger mode: 1
Integration Time (sec): 1.000000E-1
Scans to average: 1
Electric dark correction enabled: true
Nonlinearity correction enabled: false
Boxcar width: 0
XAxis mode: Wavelengths
Number of Pixels in Spectrum: 2048
>>>>>Begin Spectral Data<<<<<
223.165	-27.12
223.4	-27.12
223.635	-27.12
223.869	-10.12
224.104	-27.12
224.338	-29.12
224.573	-20.12
224.808	-30.12
225.042	0.88
225.277	1.88
225.511	8.88
225.746	5.88
225.98	8.88
226.215	11.88
226.449	12.88
226.683	18.88
226.918	22.88
227.152	50.88
227.387	35.88
227.621	55.88
227.856	42.88
228.09	45.88
228.324	57.88
228.559	49.88
228.793	57.88
229.027	65.88
229.262	68.88
229.496	82.88
229.73	115.88
229.964	95.88
230.199	79.88
230.433	88.88
230.667	73.88
230.901	82.88
231.136	67.88
231.37	80.88
231.604	76.88
231.838	84.88
232.072	72.88
232.306	82.88
232.541	87.88
232.775	82.88
233.009	98.88
233.243	97.88
233.477	85.88
233.711	75.88
233.945	90.88
234.179	86.88
234.413	76.88
234.647	78.88
234.881	83.88
235.115	57.88
235.349	72.88
235.583	82.88
235.817	76.88
236.051	76.88
236.285	88.88
236.519	67.88
236.753	61.88
236.987	86.88
237.221	89.88
237.455	79.88
237.689	83.88
237.922	74.88
238.156	69.88
238.39	73.88
238.624	74.88
238.858	72.88
239.091	75.88
239.325	79.88
239.559	96.88
239.793	66.88
240.027	82.88
240.26	82.88
240.494	72.88
240.728	86.88
240.961	83.88
241.195	91.88
241.429	68.88
241.662	89.88
241.896	75.88
242.13	105.88
242.363	79.88
242.597	88.88
242.83	75.88
243.064	76.88
243.298	68.88
243.531	90.88
243.765	71.88
243.998	85.88
244.232	86.88
244.465	86.88
244.699	73.88
244.932	82.88
245.166	75.88
245.399	79.88
245.633	81.88
245.866	82.88
246.099	95.88
246.333	81.88
246.566	91.88
246.8	76.88
247.033	94.88
247.266	84.88
247.5	91.88
247.733	93.88
247.966	78.88
248.2	81.88
248.433	82.88
248.666	87.88
248.899	95.88
249.133	94.88
249.366	107.88
249.599	106.88
249.832	98.88
250.066	96.88
250.299	81.88
250.532	98.88
250.765	91.88
250.998	75.88
251.231	73.88
251.465	92.88
251.698	85.88
251.931	87.88
252.164	64.88
252.397	82.88
252.63	89.88
252.863	84.88
253.096	83.88
253.329	88.88
253.562	80.88
253.795	83.88
254.028	80.88
254.261	77.88
254.494	83.88
254.727	83.88
254.96	84.88
255.193	101.88
255.426	70.88
255.659	89.88
255.892	102.88
256.124	91.88
256.357	85.88
256.59	95.88
256.823	89.88
257.056	88.88
257.289	88.88
257.521	82.88
257.754	93.88
257.987	93.88
258.22	90.88
258.452	111.88
258.685	94.88
258.918	77.88
259.151	87.88
259.383	98.88
259.616	91.88
259.849	86.88
260.081	90.88
260.314	90.88
260.547	93.88
260.779	96.88
261.012	110.88
261.244	100.88
261.477	111.88
261.71	119.88
261.942	133.88
262.175	167.88
262.407	108.88
262.64	89.88
262.872	92.88
263.105	94.88
263.337	99.88
263.57	82.88
263.802	91.88
264.035	85.88
264.267	82.88
264.499	88.88
264.732	89.88
264.964	83.88
265.197	88.88
265.429	79.88
265.661	100.88
265.894	83.88
266.126	93.88
266.358	70.88
266.591	86.88
266.823	79.88
267.055	76.88
267.287	89.88
267.52	100.88
267.752	94.88
267.984	68.88
268.216	75.88
268.448	89.88
268.681	93.88
268.913	90.88
269.145	90.88
269.377	94.88
269.609	84.88
269.841	83.88
270.073	89.88
270.306	90.88
270.538	78.88
270.77	93.88
271.002	85.88
271.234	91.88
271.466	91.88
271.698	94.88
271.93	91.88
272.162	98.88
272.394	86.88
272.626	98.88
272.858	99.88
273.09	88.88
273.322	91.88
273.553	80.88
273.785	79.88
274.017	90.88
274.249	89.88
274.481	98.88
274.713	108.88
274.945	88.88
275.176	95.88
275.408	94.88
275.64	115.88
275.872	128.88
276.104	128.88
276.335	118.88
276.567	140.88
276.799	161.88
277.031	201.88
277.262	199.88
277.494	161.88
277.726	113.88
277.957	114.88
278.189	101.88
278.421	90.88
278.652	91.88
278.884	86.88
279.115	92.88
279.347	102.88
279.579	111.88
279.81	130.88
280.042	210.88
280.273	299.88
280.505	190.88
280.736	118.88
280.968	113.88
281.199	104.88
281.431	78.88
281.662	92.88
281.894	102.88
282.125	107.88
282.356	141.88
282.588	163.88
282.819	140.88
283.051	90.88
283.282	94.88
283.513	88.88
283.745	78.88
283.976	96.88
284.207	87.88
284.439	99.88
284.67	90.88
284.901	86.88
285.132	94.88
285.364	87.88
285.595	97.88
285.826	85.88
286.057	107.88
286.288	80.88
286.52	94.88
286.751	80.88
286.982	92.88
287.213	88.88
287.444	87.88
287.675	90.88
287.906	94.88
288.138	94.88
288.369	110.88
288.6	102.88
288.831	87.88
289.062	89.88
289.293	86.88
289.524	97.88
289.755	71.88
289.986	89.88
290.217	81.88
290.448	101.88
290.679	85.88
290.91	89.88
291.141	102.88
291.371	90.88
291.602	102.88
291.833	91.88
292.064	99.88
292.295	91.88
292.526	91.88
292.757	80.88
292.987	94.88
293.218	86.88
293.449	87.88
293.68	93.88
293.91	91.88
294.141	100.88
294.372	110.88
294.603	88.88
294.833	91.88
295.064	102.88
295.295	94.88
295.525	103.88
295.756	100.88
295.987	133.88
296.217	170.88
296.448	150.88
296.679	114.88
296.909	88.88
297.14	87.88
297.37	102.88
297.601	95.88
297.831	105.88
298.062	98.88
298.292	103.88
298.523	96.88
298.753	82.88
298.984	94.88
299.214	95.88
299.445	96.88
299.675	96.88
299.905	114.88
300.136	98.88
300.366	97.88
300.597	97.88
300.827	103.88
301.057	112.88
301.288	123.88
301.518	100.88
301.748	102.88
301.979	112.88
302.209	115.88
302.439	100.88
302.669	115.88
302.9	91.88
303.13	98.88
303.36	110.88
303.59	148.88
303.82	162.88
304.051	111.88
304.281	83.88
304.511	102.88
304.741	95.88
304.971	83.88
305.201	97.88
305.431	93.88
305.661	98.88
305.891	104.88
306.121	104.88
306.352	105.88
306.582	126.88
306.812	138.88
307.042	140.88
307.272	161.88
307.502	190.88
307.731	187.88
307.961	138.88
308.191	99.88
308.421	94.88
308.651	98.88
308.881	96.88
309.111	87.88
309.341	96.88
309.571	103.88
309.8	115.88
310.03	96.88
310.26	105.88
310.49	87.88
310.72	106.88
310.949	106.88
311.179	124.88
311.409	104.88
311.639	108.88
311.868	106.88
312.098	102.88
312.328	103.88
312.557	110.88
312.787	124.88
313.017	128.88
313.246	111.88
313.476	106.88
313.706	105.88
313.935	106.88
314.165	107.88
314.394	127.88
314.624	102.88
314.853	107.88
315.083	110.88
315.312	99.88
315.542	97.88
315.771	104.88
316.001	100.88
316.23	79.88
316.46	94.88
316.689	107.88
316.919	102.88
317.148	102.88
317.377	106.88
317.607	113.88
317.836	96.88
318.065	103.88
318.295	93.88
318.524	105.88
318.753	99.88
318.983	107.88
319.212	107.88
319.441	129.88
319.67	117.88
319.9	102.88
320.129	87.88
320.358	112.88
320.587	112.88
320.816	103.88
321.046	102.88
321.275	105.88
321.504	98.88
321.733	119.88
321.962	88.88
322.191	105.88
322.42	122.88
322.649	126.88
322.878	125.88
323.108	142.88
323.337	146.88
323.566	159.88
323.795	194.88
324.024	250.88
324.253	522.88
324.482	1102.88
324.71	2235.88
324.939	2978.88
325.168	1134.88
325.397	302.88
325.626	186.88
325.855	142.88
326.084	146.88
326.313	150.88
326.542	178.88
326.77	289.88
326.999	560.88
327.228	1160.88
327.457	2180.88
327.686	1787.88
327.914	614.88
328.143	599.88
328.372	788.88
328.6	436.88
328.829	209.88
329.058	210.88
329.287	219.88
329.515	204.88
329.744	284.88
329.972	524.88
330.201	1131.88
330.43	1666.88
330.658	743.88
330.887	315.88
331.115	212.88
331.344	132.88
331.572	145.88
331.801	146.88
332.03	120.88
332.258	117.88
332.486	124.88
332.715	111.88
332.943	117.88
333.172	146.88
333.4	148.88
333.629	164.88
333.857	235.88
334.085	473.88
334.314	1022.88
334.542	2079.88
334.771	1985.88
334.999	514.88
335.227	199.88
335.455	144.88
335.684	129.88
335.912	119.88
336.14	95.88
336.369	105.88
336.597	151.88
336.825	107.88
337.053	102.88
337.281	117.88
337.51	97.88
337.738	111.88
337.966	94.88
338.194	114.88
338.422	116.88
338.65	93.88
338.878	110.88
339.106	91.88
339.334	106.88
339.562	97.88
339.79	99.88
340.018	96.88
340.246	113.88
340.474	112.88
340.702	105.88
340.93	96.88
341.158	90.88
341.386	104.88
341.614	123.88
341.842	103.88
342.07	99.88
342.298	94.88
342.526	98.88
342.754	83.88
342.981	89.88
343.209	100.88
343.437	94.88
343.665	103.88
343.893	84.88
344.12	90.88
344.348	89.88
344.576	107.88
344.804	95.88
345.031	106.88
345.259	103.88
345.487	101.88
345.714	100.88
345.942	106.88
346.17	90.88
346.397	89.88
346.625	86.88
346.853	92.88
347.08	111.88
347.308	99.88
347.535	85.88
347.763	118.88
347.99	107.88
348.218	113.88
348.445	123.88
348.673	112.88
348.9	102.88
349.128	105.88
349.355	87.88
349.583	94.88
349.81	79.88
350.037	81.88
350.265	99.88
350.492	114.88
350.72	103.88
350.947	100.88
351.174	106.88
351.402	122.88
351.629	102.88
351.856	104.88
352.083	112.88
352.311	139.88
352.538	132.88
352.765	127.88
352.992	133.88
353.22	126.88
353.447	122.88
353.674	116.88
353.901	106.88
354.128	98.88
354.355	111.88
354.583	105.88
354.81	94.88
355.037	90.88
355.264	86.88
355.491	100.88
355.718	113.88
355.945	95.88
356.172	93.88
356.399	92.88
356.626	94.88
356.853	86.88
357.08	89.88
357.307	96.88
357.534	78.88
357.761	88.88
357.988	99.88
358.215	98.88
358.441	92.88
358.668	97.88
358.895	89.88
359.122	111.88
359.349	97.88
359.576	107.88
359.802	111.88
360.029	146.88
360.256	146.88
360.483	112.88
360.709	91.88
360.936	96.88
361.163	98.88
361.39	100.88
361.616	117.88
361.843	94.88
362.07	94.88
362.296	116.88
362.523	101.88
362.749	113.88
362.976	90.88
363.203	85.88
363.429	95.88
363.656	106.88
363.882	91.88
364.109	97.88
364.335	100.88
364.562	109.88
364.788	94.88
365.015	96.88
365.241	111.88
365.468	124.88
365.694	136.88
365.92	95.88
366.147	100.88
366.373	92.88
366.599	89.88
366.826	97.88
367.052	90.88
367.278	103.88
367.505	107.88
367.731	96.88
367.957	92.88
368.184	98.88
368.41	108.88
368.636	142.88
368.862	125.88
369.089	117.88
369.315	92.88
369.541	78.88
369.767	87.88
369.993	100.88
370.219	113.88
370.445	94.88
370.672	83.88
370.898	88.88
371.124	100.88
371.35	83.88
371.576	98.88
371.802	80.88
372.028	98.88
372.254	95.88
372.48	97.88
372.706	79.88
372.932	89.88
373.158	99.88
373.384	90.88
373.61	89.88
373.835	104.88
374.061	98.88
374.287	94.88
374.513	93.88
374.739	99.88
374.965	87.88
375.191	84.88
375.416	92.88
375.642	92.88
375.868	89.88
376.094	90.88
376.319	89.88
376.545	99.88
376.771	102.88
376.997	87.88
377.222	100.88
377.448	105.88
377.674	85.88
377.899	92.88
378.125	85.88
378.35	91.88
378.576	101.88
378.802	95.88
379.027	105.88
379.253	87.88
379.478	99.88
379.704	88.88
379.929	89.88
380.155	76.88
380.38	91.88
380.606	87.88
380.831	103.88
381.057	112.88
381.282	90.88
381.507	95.88
381.733	107.88
381.958	94.88
382.184	99.88
382.409	108.88
382.634	93.88
382.86	87.88
383.085	100.88
383.31	94.88
383.535	90.88
383.761	92.88
383.986	96.88
384.211	92.88
384.436	102.88
384.662	95.88
384.887	89.88
385.112	108.88
385.337	108.88
385.562	100.88
385.787	107.88
386.013	115.88
386.238	138.88
386.463	98.88
386.688	107.88
386.913	115.88
387.138	98.88
387.363	110.88
387.588	104.88
387.813	103.88
388.038	78.88
388.263	105.88
388.488	99.88
388.713	96.88
388.938	88.88
389.163	111.88
389.387	91.88
389.612	104.88
389.837	90.88
390.062	68.88
390.287	98.88
390.512	89.88
390.736	88.88
390.961	89.88
391.186	89.88
391.411	97.88
391.636	101.88
391.86	85.88
392.085	90.88
392.31	92.88
392.534	68.88
392.759	87.88
392.984	74.88
393.208	86.88
393.433	84.88
393.658	88.88
393.882	87.88
394.107	71.88
394.331	88.88
394.556	93.88
394.78	85.88
395.005	94.88
395.229	80.88
395.454	90.88
395.678	97.88
395.903	91.88
396.127	103.88
396.352	97.88
396.576	82.88
396.801	81.88
397.025	95.88
397.249	102.88
397.474	85.88
397.698	100.88
397.922	86.88
398.147	95.88
398.371	87.88
398.595	94.88
398.82	96.88
399.044	82.88
399.268	86.88
399.492	97.88
399.717	76.88
399.941	92.88
400.165	97.88
400.389	102.88
400.613	89.88
400.837	74.88
401.062	90.88
401.286	86.88
401.51	95.88
401.734	93.88
401.958	120.88
402.182	142.88
402.406	203.88
402.63	155.88
402.854	107.88
403.078	92.88
403.302	89.88
403.526	74.88
403.75	90.88
403.974	96.88
404.198	91.88
404.422	92.88
404.645	90.88
404.869	116.88
405.093	135.88
405.317	150.88
405.541	138.88
405.765	127.88
405.988	150.88
406.212	209.88
406.436	319.88
406.66	200.88
406.883	130.88
407.107	106.88
407.331	105.88
407.555	115.88
407.778	112.88
408.002	99.88
408.226	98.88
408.449	83.88
408.673	75.88
408.896	113.88
409.12	100.88
409.344	84.88
409.567	87.88
409.791	91.88
410.014	81.88
410.238	90.88
410.461	92.88
410.685	102.88
410.908	99.88
411.132	118.88
411.355	110.88
411.578	94.88
411.802	91.88
412.025	115.88
412.249	108.88
412.472	140.88
412.695	130.88
412.919	105.88
413.142	80.88
413.365	88.88
413.589	92.88
413.812	98.88
414.035	107.88
414.258	105.88
414.482	89.88
414.705	96.88
414.928	95.88
415.151	85.88
415.374	106.88
415.597	91.88
415.821	82.88
416.044	101.88
416.267	87.88
416.49	81.88
416.713	88.88
416.936	79.88
417.159	96.88
417.382	102.88
417.605	119.88
417.828	123.88
418.051	111.88
418.274	90.88
418.497	91.88
418.72	111.88
418.943	99.88
419.166	94.88
419.389	88.88
419.611	97.88
419.834	106.88
420.057	93.88
420.28	90.88
420.503	93.88
420.726	110.88
420.948	80.88
421.171	105.88
421.394	99.88
421.617	93.88
421.839	107.88
422.062	79.88
422.285	89.88
422.507	104.88
422.73	128.88
422.953	107.88
423.175	109.88
423.398	101.88
423.621	99.88
423.843	91.88
424.066	95.88
424.288	82.88
424.511	99.88
424.733	98.88
424.956	132.88
425.178	107.88
425.401	107.88
425.623	125.88
425.846	87.88
426.068	114.88
426.291	102.88
426.513	99.88
426.735	101.88
426.958	117.88
427.18	140.88
427.402	196.88
427.625	259.88
427.847	262.88
428.069	231.88
428.292	138.88
428.514	99.88
428.736	87.88
428.958	82.88
429.181	104.88
429.403	100.88
429.625	95.88
429.847	101.88
430.069	117.88
430.292	103.88
430.514	80.88
430.736	84.88
430.958	83.88
431.18	96.88
431.402	98.88
431.624	87.88
431.846	80.88
432.068	84.88
432.29	104.88
432.512	90.88
432.734	95.88
432.956	98.88
433.178	110.88
433.4	119.88
433.622	94.88
433.844	97.88
434.066	101.88
434.287	91.88
434.509	102.88
434.731	90.88
434.953	95.88
435.175	99.88
435.397	96.88
435.618	93.88
435.84	101.88
436.062	133.88
436.284	132.88
436.505	120.88
436.727	107.88
436.949	107.88
437.17	95.88
437.392	98.88
437.614	90.88
437.835	131.88
438.057	154.88
438.278	124.88
438.5	127.88
438.721	160.88
438.943	107.88
439.165	97.88
439.386	103.88
439.608	101.88
439.829	116.88
440.05	159.88
440.272	193.88
440.493	127.88
440.715	96.88
440.936	103.88
441.158	89.88
441.379	112.88
441.6	102.88
441.822	103.88
442.043	93.88
442.264	126.88
442.486	116.88
442.707	120.88
442.928	127.88
443.149	162.88
443.371	177.88
443.592	128.88
443.813	148.88
444.034	131.88
444.255	98.88
444.476	97.88
444.698	86.88
444.919	102.88
445.14	150.88
445.361	145.88
445.582	160.88
445.803	197.88
446.024	197.88
446.245	189.88
446.466	140.88
446.687	112.88
446.908	81.88
447.129	65.88
447.35	86.88
447.571	97.88
447.792	99.88
448.013	116.88
448.234	134.88
448.455	136.88
448.675	134.88
448.896	141.88
449.117	116.88
449.338	120.88
449.559	145.88
449.779	153.88
450	102.88
450.221	106.88
450.442	86.88
450.662	92.88
450.883	134.88
451.104	148.88
451.324	114.88
451.545	88.88
451.766	95.88
451.986	85.88
452.207	96.88
452.428	100.88
452.648	101.88
452.869	139.88
453.089	147.88
453.31	148.88
453.53	106.88
453.751	110.88
453.971	118.88
454.192	150.88
454.412	107.88
454.633	85.88
454.853	86.88
455.073	76.88
455.294	99.88
455.514	123.88
455.734	104.88
455.955	96.88
456.175	85.88
456.395	74.88
456.616	80.88
456.836	81.88
457.056	82.88
457.276	72.88
457.497	94.88
457.717	94.88
457.937	82.88
458.157	89.88
458.377	94.88
458.598	114.88
458.818	197.88
459.038	244.88
459.258	146.88
459.478	103.88
459.698	100.88
459.918	98.88
460.138	95.88
460.358	98.88
460.578	87.88
460.798	101.88
461.018	97.88
461.238	89.88
461.458	107.88
461.678	95.88
461.898	82.88
462.118	91.88
462.338	91.88
462.558	79.88
462.777	86.88
462.997	109.88
463.217	116.88
463.437	115.88
463.657	111.88
463.876	97.88
464.096	84.88
464.316	101.88
464.536	108.88
464.755	117.88
464.975	145.88
465.195	241.88
465.414	254.88
465.634	108.88
465.854	108.88
466.073	105.88
466.293	99.88
466.512	90.88
466.732	86.88
466.951	85.88
467.171	106.88
467.391	112.88
467.61	155.88
467.829	223.88
468.049	653.88
468.268	1015.88
468.488	265.88
468.707	119.88
468.927	99.88
469.146	95.88
469.365	93.88
469.585	97.88
469.804	113.88
470.023	116.88
470.243	107.88
470.462	130.88
470.681	139.88
470.901	113.88
471.12	116.88
471.339	134.88
471.558	128.88
471.777	186.88
471.997	321.88
472.216	1221.88
472.435	2956.88
472.654	715.88
472.873	192.88
473.092	113.88
473.311	93.88
473.53	89.88
473.749	108.88
473.968	122.88
474.187	125.88
474.406	121.88
474.625	94.88
474.844	94.88
475.063	84.88
475.282	87.88
475.501	103.88
475.72	91.88
475.939	89.88
476.158	91.88
476.377	105.88
476.596	84.88
476.814	101.88
477.033	97.88
477.252	105.88
477.471	101.88
477.69	105.88
477.908	89.88
478.127	99.88
478.346	98.88
478.564	102.88
478.783	107.88
479.002	105.88
479.22	117.88
479.439	136.88
479.658	157.88
479.876	121.88
480.095	128.88
480.313	138.88
480.532	171.88
480.751	305.88
480.969	1100.88
481.188	4814.88
481.406	3016.88
481.624	414.88
481.843	152.88
482.061	115.88
482.28	112.88
482.498	87.88
482.717	104.88
482.935	110.88
483.153	97.88
483.372	98.88
483.59	94.88
483.808	79.88
484.027	109.88
484.245	99.88
484.463	99.88
484.681	100.88
484.9	99.88
485.118	104.88
485.336	104.88
485.554	96.88
485.772	103.88
485.99	103.88
486.209	114.88
486.427	118.88
486.645	138.88
486.863	133.88
487.081	115.88
487.299	109.88
487.517	115.88
487.735	101.88
487.953	99.88
488.171	95.88
488.389	97.88
488.607	103.88
488.825	91.88
489.043	79.88
489.261	92.88
489.479	95.88
489.696	100.88
489.914	86.88
490.132	90.88
490.35	92.88
490.568	83.88
490.786	102.88
491.003	89.88
491.221	91.88
491.439	105.88
491.657	94.88
491.874	106.88
492.092	96.88
492.31	99.88
492.527	107.88
492.745	95.88
492.963	102.88
493.18	92.88
493.398	103.88
493.615	97.88
493.833	100.88
494.05	105.88
494.268	93.88
494.485	96.88
494.703	85.88
494.92	85.88
495.138	102.88
495.355	86.88
495.573	81.88
495.79	91.88
496.008	87.88
496.225	103.88
496.442	92.88
496.66	94.88
496.877	98.88
497.094	76.88
497.312	85.88
497.529	98.88
497.746	101.88
497.963	104.88
498.181	91.88
498.398	91.88
498.615	119.88
498.832	123.88
499.049	92.88
499.267	98.88
499.484	85.88
499.701	80.88
499.918	95.88
500.135	99.88
500.352	106.88
500.569	101.88
500.786	92.88
501.003	97.88
501.22	87.88
501.437	103.88
501.654	99.88
501.871	135.88
502.088	118.88
502.305	111.88
502.522	81.88
502.739	92.88
502.956	113.88
503.172	95.88
503.389	114.88
503.606	124.88
503.823	126.88
504.04	125.88
504.256	95.88
504.473	93.88
504.69	93.88
504.907	101.88
505.123	98.88
505.34	92.88
505.557	100.88
505.773	89.88
505.99	99.88
506.207	100.88
506.423	99.88
506.64	89.88
506.856	100.88
507.073	105.88
507.289	95.88
507.506	117.88
507.722	132.88
507.939	146.88
508.155	110.88
508.372	94.88
508.588	107.88
508.805	103.88
509.021	110.88
509.238	96.88
509.454	127.88
509.67	110.88
509.887	127.88
510.103	156.88
510.319	243.88
510.536	919.88
510.752	3280.88
510.968	929.88
511.184	202.88
511.401	145.88
511.617	111.88
