Data from Circ_2023_H10_HRD10591_00052.txt Node
Date: Wed Jan 03 09:50:41 EST 2024
User: Yrep
Spectrometer: HR+D1059
Trigger mode: 1
Integration Time (sec): 1.000000E-1
Scans to average: 1
Electric dark correction enabled: true
Nonlinearity correction enabled: false
Boxcar width: 0
XAxis mode: Wavelengths
Number of Pixels in Spectrum: 2048
>>>>>Begin Spectral Data<<<<<
223.165	-28.81
223.4	-28.81
223.635	-28.81
223.869	-36.81
224.104	-27.81
224.338	-9.81
224.573	-6.81
224.808	-10.81
225.042	-6.81
225.277	1.19
225.511	-9.81
225.746	5.19
225.98	10.19
226.215	17.19
226.449	22.19
226.683	24.19
226.918	32.19
227.152	25.19
227.387	45.19
227.621	46.19
227.856	47.19
228.09	41.19
228.324	43.19
228.559	64.19
228.793	57.19
229.027	62.19
229.262	78.19
229.496	69.19
229.73	88.19
229.964	107.19
230.199	93.19
230.433	74.19
230.667	80.19
230.901	77.19
231.136	94.19
231.37	92.19
231.604	76.19
231.838	85.19
232.072	82.19
232.306	76.19
232.541	100.19
232.775	75.19
233.009	82.19
233.243	87.19
233.477	89.19
233.711	79.19
233.945	79.19
234.179	90.19
234.413	87.19
234.647	79.19
234.881	99.19
235.115	85.19
235.349	75.19
235.583	86.19
235.817	71.19
236.051	97.19
236.285	82.19
236.519	72.19
236.753	81.19
236.987	86.19
237.221	79.19
237.455	84.19
237.689	80.19
237.922	82.19
238.156	87.19
238.39	84.19
238.624	77.19
238.858	74.19
239.091	105.19
239.325	89.19
239.559	91.19
239.793	83.19
240.027	63.19
240.26	83.19
240.494	92.19
240.728	76.19
240.961	79.19
241.195	90.19
241.429	72.19
241.662	81.19
241.896	82.19
242.13	82.19
242.363	83.19
242.597	80.19
242.83	74.19
243.064	79.19
243.298	95.19
243.531	83.19
243.765	82.19
243.998	79.19
244.232	92.19
244.465	94.19
244.699	80.19
244.932	77.19
245.166	90.19
245.399	86.19
245.633	84.19
245.866	78.19
246.099	88.19
246.333	83.19
246.566	91.19
246.8	84.19
247.033	84.19
247.266	80.19
247.5	74.19
247.733	87.19
247.966	84.19
248.2	73.19
248.433	99.19
248.666	84.19
248.899	96.19
249.133	94.19
249.366	115.19
249.599	95.19
249.832	87.19
250.066	96.19
250.299	91.19
250.532	87.19
250.765	90.19
250.998	87.19
251.231	71.19
251.465	82.19
251.698	88.19
251.931	86.19
252.164	84.19
252.397	93.19
252.63	81.19
252.863	91.19
253.096	99.19
253.329	82.19
253.562	86.19
253.795	94.19
254.028	94.19
254.261	75.19
254.494	80.19
254.727	88.19
254.96	89.19
255.193	86.19
255.426	75.19
255.659	88.19
255.892	105.19
256.124	115.19
256.357	96.19
256.59	81.19
256.823	84.19
257.056	100.19
257.289	98.19
257.521	90.19
257.754	82.19
257.987	80.19
258.22	83.19
258.452	98.19
258.685	98.19
258.918	78.19
259.151	79.19
259.383	87.19
259.616	82.19
259.849	101.19
260.081	94.19
260.314	95.19
260.547	101.19
260.779	101.19
261.012	119.19
261.244	134.19
261.477	114.19
261.71	111.19
261.942	144.19
262.175	140.19
262.407	101.19
262.64	95.19
262.872	96.19
263.105	85.19
263.337	86.19
263.57	83.19
263.802	89.19
264.035	92.19
264.267	101.19
264.499	89.19
264.732	84.19
264.964	88.19
265.197	94.19
265.429	78.19
265.661	74.19
265.894	84.19
266.126	91.19
266.358	87.19
266.591	80.19
266.823	88.19
267.055	79.19
267.287	101.19
267.52	86.19
267.752	85.19
267.984	85.19
268.216	82.19
268.448	85.19
268.681	100.19
268.913	90.19
269.145	99.19
269.377	88.19
269.609	82.19
269.841	100.19
270.073	89.19
270.306	83.19
270.538	90.19
270.77	80.19
271.002	87.19
271.234	88.19
271.466	101.19
271.698	95.19
271.93	87.19
272.162	99.19
272.394	95.19
272.626	84.19
272.858	97.19
273.09	81.19
273.322	91.19
273.553	95.19
273.785	94.19
274.017	86.19
274.249	93.19
274.481	95.19
274.713	83.19
274.945	98.19
275.176	96.19
275.408	112.19
275.64	128.19
275.872	130.19
276.104	130.19
276.335	115.19
276.567	126.19
276.799	148.19
277.031	199.19
277.262	217.19
277.494	154.19
277.726	100.19
277.957	100.19
278.189	103.19
278.421	94.19
278.652	103.19
278.884	98.19
279.115	101.19
279.347	101.19
279.579	102.19
279.81	144.19
280.042	213.19
280.273	289.19
280.505	204.19
280.736	120.19
280.968	105.19
281.199	89.19
281.431	89.19
281.662	96.19
281.894	103.19
282.125	108.19
282.356	148.19
282.588	183.19
282.819	134.19
283.051	101.19
283.282	98.19
283.513	93.19
283.745	93.19
283.976	95.19
284.207	92.19
284.439	92.19
284.67	94.19
284.901	95.19
285.132	99.19
285.364	87.19
285.595	93.19
285.826	88.19
286.057	97.19
286.288	94.19
286.52	81.19
286.751	87.19
286.982	87.19
287.213	91.19
287.444	80.19
287.675	105.19
287.906	92.19
288.138	91.19
288.369	95.19
288.6	90.19
288.831	97.19
289.062	100.19
289.293	95.19
289.524	84.19
289.755	89.19
289.986	92.19
290.217	88.19
290.448	87.19
290.679	89.19
290.91	104.19
291.141	68.19
291.371	91.19
291.602	80.19
291.833	75.19
292.064	90.19
292.295	106.19
292.526	85.19
292.757	80.19
292.987	100.19
293.218	87.19
293.449	96.19
293.68	83.19
293.91	93.19
294.141	103.19
294.372	98.19
294.603	82.19
294.833	94.19
295.064	95.19
295.295	89.19
295.525	97.19
295.756	116.19
295.987	144.19
296.217	175.19
296.448	170.19
296.679	107.19
296.909	84.19
297.14	89.19
297.37	84.19
297.601	84.19
297.831	94.19
298.062	89.19
298.292	97.19
298.523	93.19
298.753	86.19
298.984	96.19
299.214	91.19
299.445	96.19
299.675	106.19
299.905	97.19
300.136	95.19
300.366	90.19
300.597	95.19
300.827	98.19
301.057	103.19
301.288	108.19
301.518	82.19
301.748	101.19
301.979	120.19
302.209	113.19
302.439	101.19
302.669	101.19
302.9	92.19
303.13	104.19
303.36	114.19
303.59	150.19
303.82	169.19
304.051	115.19
304.281	87.19
304.511	105.19
304.741	82.19
304.971	93.19
305.201	88.19
305.431	90.19
305.661	100.19
305.891	88.19
306.121	110.19
306.352	103.19
306.582	126.19
306.812	110.19
307.042	135.19
307.272	163.19
307.502	182.19
307.731	188.19
307.961	126.19
308.191	116.19
308.421	110.19
308.651	91.19
308.881	100.19
309.111	110.19
309.341	94.19
309.571	112.19
309.8	111.19
310.03	102.19
310.26	109.19
310.49	94.19
310.72	105.19
310.949	112.19
311.179	109.19
311.409	94.19
311.639	104.19
311.868	124.19
312.098	107.19
312.328	106.19
312.557	129.19
312.787	140.19
313.017	107.19
313.246	113.19
313.476	82.19
313.706	100.19
313.935	94.19
314.165	112.19
314.394	115.19
314.624	118.19
314.853	134.19
315.083	98.19
315.312	88.19
315.542	104.19
315.771	100.19
316.001	106.19
316.23	104.19
316.46	108.19
316.689	93.19
316.919	89.19
317.148	98.19
317.377	112.19
317.607	109.19
317.836	112.19
318.065	91.19
318.295	106.19
318.524	95.19
318.753	87.19
318.983	97.19
319.212	120.19
319.441	99.19
319.67	113.19
319.9	107.19
320.129	94.19
320.358	102.19
320.587	106.19
320.816	112.19
321.046	102.19
321.275	101.19
321.504	111.19
321.733	114.19
321.962	131.19
322.191	108.19
322.42	128.19
322.649	130.19
322.878	117.19
323.108	120.19
323.337	160.19
323.566	171.19
323.795	195.19
324.024	272.19
324.253	512.19
324.482	1150.19
324.71	2336.19
324.939	3186.19
325.168	1141.19
325.397	320.19
325.626	181.19
325.855	151.19
326.084	131.19
326.313	156.19
326.542	188.19
326.77	306.19
326.999	612.19
327.228	1284.19
327.457	2316.19
327.686	1900.19
327.914	633.19
328.143	603.19
328.372	789.19
328.6	441.19
328.829	223.19
329.058	213.19
329.287	208.19
329.515	210.19
329.744	280.19
329.972	581.19
330.201	1173.19
330.43	1751.19
330.658	772.19
330.887	327.19
331.115	224.19
331.344	128.19
331.572	139.19
331.801	126.19
332.03	134.19
332.258	135.19
332.486	122.19
332.715	101.19
332.943	108.19
333.172	147.19
333.4	147.19
333.629	178.19
333.857	257.19
334.085	516.19
334.314	1087.19
334.542	2118.19
334.771	2103.19
334.999	536.19
335.227	204.19
335.455	148.19
335.684	120.19
335.912	114.19
336.14	105.19
336.369	111.19
336.597	119.19
336.825	122.19
337.053	104.19
337.281	110.19
337.51	87.19
337.738	104.19
337.966	102.19
338.194	118.19
338.422	111.19
338.65	110.19
338.878	103.19
339.106	89.19
339.334	78.19
339.562	97.19
339.79	93.19
340.018	109.19
340.246	100.19
340.474	96.19
340.702	103.19
340.93	97.19
341.158	99.19
341.386	120.19
341.614	116.19
341.842	100.19
342.07	96.19
342.298	89.19
342.526	107.19
342.754	88.19
342.981	88.19
343.209	82.19
343.437	84.19
343.665	95.19
343.893	100.19
344.12	102.19
344.348	83.19
344.576	102.19
344.804	96.19
345.031	115.19
345.259	107.19
345.487	111.19
345.714	97.19
345.942	84.19
346.17	99.19
346.397	94.19
346.625	115.19
346.853	105.19
347.08	89.19
347.308	108.19
347.535	112.19
347.763	98.19
347.99	106.19
348.218	107.19
348.445	130.19
348.673	127.19
348.9	95.19
349.128	107.19
349.355	104.19
349.583	100.19
349.81	109.19
350.037	107.19
350.265	112.19
350.492	91.19
350.72	103.19
350.947	112.19
351.174	125.19
351.402	140.19
351.629	116.19
351.856	98.19
352.083	114.19
352.311	126.19
352.538	133.19
352.765	128.19
352.992	123.19
353.22	114.19
353.447	131.19
353.674	113.19
353.901	93.19
354.128	99.19
354.355	97.19
354.583	107.19
354.81	87.19
355.037	105.19
355.264	100.19
355.491	86.19
355.718	95.19
355.945	87.19
356.172	102.19
356.399	89.19
356.626	96.19
356.853	92.19
357.08	94.19
357.307	88.19
357.534	87.19
357.761	97.19
357.988	97.19
358.215	94.19
358.441	83.19
358.668	97.19
358.895	98.19
359.122	98.19
359.349	99.19
359.576	89.19
359.802	114.19
360.029	137.19
360.256	151.19
360.483	121.19
360.709	101.19
360.936	100.19
361.163	99.19
361.39	101.19
361.616	81.19
361.843	97.19
362.07	105.19
362.296	115.19
362.523	103.19
362.749	97.19
362.976	88.19
363.203	98.19
363.429	101.19
363.656	89.19
363.882	96.19
364.109	88.19
364.335	81.19
364.562	85.19
364.788	99.19
365.015	102.19
365.241	119.19
365.468	128.19
365.694	136.19
365.92	105.19
366.147	105.19
366.373	91.19
366.599	108.19
366.826	99.19
367.052	86.19
367.278	94.19
367.505	96.19
367.731	88.19
367.957	86.19
368.184	106.19
368.41	103.19
368.636	132.19
368.862	133.19
369.089	118.19
369.315	116.19
369.541	98.19
369.767	105.19
369.993	107.19
370.219	102.19
370.445	96.19
370.672	97.19
370.898	89.19
371.124	81.19
371.35	97.19
371.576	86.19
371.802	98.19
372.028	84.19
372.254	92.19
372.48	95.19
372.706	87.19
372.932	83.19
373.158	82.19
373.384	81.19
373.61	93.19
373.835	96.19
374.061	97.19
374.287	87.19
374.513	87.19
374.739	93.19
374.965	87.19
375.191	91.19
375.416	98.19
375.642	78.19
375.868	108.19
376.094	106.19
376.319	103.19
376.545	87.19
376.771	94.19
376.997	86.19
377.222	83.19
377.448	108.19
377.674	94.19
377.899	98.19
378.125	93.19
378.35	94.19
378.576	96.19
378.802	91.19
379.027	91.19
379.253	89.19
379.478	92.19
379.704	77.19
379.929	99.19
380.155	105.19
380.38	83.19
380.606	106.19
380.831	104.19
381.057	85.19
381.282	111.19
381.507	91.19
381.733	97.19
381.958	96.19
382.184	104.19
382.409	102.19
382.634	102.19
382.86	101.19
383.085	100.19
383.31	105.19
383.535	101.19
383.761	98.19
383.986	81.19
384.211	98.19
384.436	101.19
384.662	95.19
384.887	109.19
385.112	99.19
385.337	92.19
385.562	101.19
385.787	104.19
386.013	103.19
386.238	122.19
386.463	115.19
386.688	86.19
386.913	97.19
387.138	112.19
387.363	112.19
387.588	100.19
387.813	83.19
388.038	101.19
388.263	94.19
388.488	105.19
388.713	89.19
388.938	105.19
389.163	110.19
389.387	96.19
389.612	103.19
389.837	83.19
390.062	106.19
390.287	95.19
390.512	88.19
390.736	101.19
390.961	99.19
391.186	111.19
391.411	86.19
391.636	102.19
391.86	91.19
392.085	94.19
392.31	92.19
392.534	100.19
392.759	98.19
392.984	93.19
393.208	95.19
393.433	95.19
393.658	86.19
393.882	101.19
394.107	92.19
394.331	95.19
394.556	85.19
394.78	97.19
395.005	97.19
395.229	83.19
395.454	90.19
395.678	82.19
395.903	86.19
396.127	100.19
396.352	95.19
396.576	90.19
396.801	89.19
397.025	98.19
397.249	80.19
397.474	98.19
397.698	83.19
397.922	88.19
398.147	93.19
398.371	97.19
398.595	84.19
398.82	93.19
399.044	94.19
399.268	94.19
399.492	93.19
399.717	80.19
399.941	94.19
400.165	93.19
400.389	95.19
400.613	99.19
400.837	96.19
401.062	94.19
401.286	81.19
401.51	86.19
401.734	101.19
401.958	118.19
402.182	174.19
402.406	211.19
402.63	169.19
402.854	103.19
403.078	113.19
403.302	96.19
403.526	105.19
403.75	105.19
403.974	88.19
404.198	101.19
404.422	113.19
404.645	101.19
404.869	106.19
405.093	117.19
405.317	179.19
405.541	153.19
405.765	135.19
405.988	142.19
406.212	224.19
406.436	324.19
406.66	215.19
406.883	142.19
407.107	108.19
407.331	103.19
407.555	118.19
407.778	118.19
408.002	105.19
408.226	76.19
408.449	95.19
408.673	93.19
408.896	91.19
409.12	99.19
409.344	100.19
409.567	99.19
409.791	95.19
410.014	95.19
410.238	102.19
410.461	80.19
410.685	81.19
410.908	93.19
411.132	110.19
411.355	115.19
411.578	77.19
411.802	89.19
412.025	108.19
412.249	103.19
412.472	130.19
412.695	142.19
412.919	112.19
413.142	106.19
413.365	97.19
413.589	99.19
413.812	89.19
414.035	96.19
414.258	97.19
414.482	97.19
414.705	97.19
414.928	95.19
415.151	103.19
415.374	105.19
415.597	95.19
415.821	98.19
416.044	98.19
416.267	90.19
416.49	102.19
416.713	107.19
416.936	93.19
417.159	96.19
417.382	87.19
417.605	106.19
417.828	126.19
418.051	112.19
418.274	98.19
418.497	88.19
418.72	99.19
418.943	87.19
419.166	95.19
419.389	90.19
419.611	115.19
419.834	109.19
420.057	95.19
420.28	100.19
420.503	110.19
420.726	88.19
420.948	99.19
421.171	107.19
421.394	104.19
421.617	88.19
421.839	98.19
422.062	89.19
422.285	99.19
422.507	98.19
422.73	117.19
422.953	110.19
423.175	98.19
423.398	86.19
423.621	91.19
423.843	103.19
424.066	87.19
424.288	101.19
424.511	104.19
424.733	113.19
424.956	132.19
425.178	118.19
425.401	108.19
425.623	135.19
425.846	103.19
426.068	113.19
426.291	95.19
426.513	97.19
426.735	103.19
426.958	113.19
427.18	122.19
427.402	195.19
427.625	274.19
427.847	276.19
428.069	244.19
428.292	138.19
428.514	104.19
428.736	102.19
428.958	89.19
429.181	96.19
429.403	88.19
429.625	102.19
429.847	104.19
430.069	113.19
430.292	105.19
430.514	94.19
430.736	88.19
430.958	86.19
431.18	92.19
431.402	92.19
431.624	89.19
431.846	98.19
432.068	91.19
432.29	94.19
432.512	87.19
432.734	82.19
432.956	104.19
433.178	96.19
433.4	117.19
433.622	104.19
433.844	100.19
434.066	97.19
434.287	96.19
434.509	95.19
434.731	115.19
434.953	103.19
435.175	93.19
435.397	96.19
435.618	99.19
435.84	117.19
436.062	148.19
436.284	122.19
436.505	110.19
436.727	113.19
436.949	87.19
437.17	107.19
437.392	93.19
437.614	100.19
437.835	136.19
438.057	161.19
438.278	145.19
438.5	121.19
438.721	154.19
438.943	118.19
439.165	83.19
439.386	95.19
439.608	116.19
439.829	125.19
440.05	170.19
440.272	207.19
440.493	136.19
440.715	92.19
440.936	92.19
441.158	99.19
441.379	102.19
441.6	110.19
441.822	105.19
442.043	107.19
442.264	124.19
442.486	125.19
442.707	118.19
442.928	131.19
443.149	186.19
443.371	187.19
443.592	144.19
443.813	138.19
444.034	120.19
444.255	105.19
444.476	89.19
444.698	76.19
444.919	103.19
445.14	131.19
445.361	144.19
445.582	150.19
445.803	197.19
446.024	185.19
446.245	182.19
446.466	126.19
446.687	106.19
446.908	94.19
447.129	95.19
447.35	96.19
447.571	111.19
447.792	104.19
448.013	112.19
448.234	124.19
448.455	118.19
448.675	133.19
448.896	157.19
449.117	122.19
449.338	118.19
449.559	178.19
449.779	166.19
450	98.19
450.221	95.19
450.442	82.19
450.662	104.19
450.883	128.19
451.104	138.19
451.324	111.19
451.545	92.19
451.766	94.19
451.986	88.19
452.207	93.19
452.428	114.19
452.648	116.19
452.869	136.19
453.089	148.19
453.31	157.19
453.53	105.19
453.751	94.19
453.971	115.19
454.192	138.19
454.412	105.19
454.633	97.19
454.853	102.19
455.073	89.19
455.294	99.19
455.514	127.19
455.734	113.19
455.955	108.19
456.175	89.19
456.395	97.19
456.616	82.19
456.836	84.19
457.056	86.19
457.276	88.19
457.497	91.19
457.717	92.19
457.937	96.19
458.157	97.19
458.377	97.19
458.598	135.19
458.818	225.19
459.038	248.19
459.258	177.19
459.478	102.19
459.698	102.19
459.918	98.19
460.138	86.19
460.358	94.19
460.578	93.19
460.798	84.19
461.018	107.19
461.238	87.19
461.458	91.19
461.678	81.19
461.898	91.19
462.118	85.19
462.338	86.19
462.558	96.19
462.777	92.19
462.997	84.19
463.217	131.19
463.437	101.19
463.657	92.19
463.876	93.19
464.096	111.19
464.316	101.19
464.536	100.19
464.755	107.19
464.975	128.19
465.195	242.19
465.414	268.19
465.634	115.19
465.854	101.19
466.073	95.19
466.293	79.19
466.512	103.19
466.732	103.19
466.951	100.19
467.171	104.19
467.391	100.19
467.61	161.19
467.829	216.19
468.049	652.19
468.268	987.19
468.488	270.19
468.707	143.19
468.927	103.19
469.146	94.19
469.365	94.19
469.585	91.19
469.804	113.19
470.023	112.19
470.243	115.19
470.462	96.19
470.681	154.19
470.901	127.19
471.12	94.19
471.339	120.19
471.558	129.19
471.777	163.19
471.997	339.19
472.216	1280.19
472.435	2964.19
472.654	731.19
472.873	187.19
473.092	121.19
473.311	100.19
473.53	98.19
473.749	101.19
473.968	93.19
474.187	115.19
474.406	119.19
474.625	98.19
474.844	110.19
475.063	100.19
475.282	101.19
475.501	89.19
475.72	78.19
475.939	80.19
476.158	81.19
476.377	100.19
476.596	88.19
476.814	102.19
477.033	93.19
477.252	105.19
477.471	97.19
477.69	100.19
477.908	105.19
478.127	96.19
478.346	88.19
478.564	100.19
478.783	110.19
479.002	111.19
479.22	114.19
479.439	135.19
479.658	164.19
479.876	131.19
480.095	131.19
480.313	154.19
480.532	159.19
480.751	306.19
480.969	1114.19
481.188	4942.19
481.406	3073.19
481.624	439.19
481.843	164.19
482.061	128.19
482.28	110.19
482.498	91.19
482.717	104.19
482.935	100.19
483.153	90.19
483.372	101.19
483.59	106.19
483.808	88.19
484.027	99.19
484.245	84.19
484.463	84.19
484.681	112.19
484.9	108.19
485.118	99.19
485.336	101.19
485.554	102.19
485.772	98.19
485.99	126.19
486.209	123.19
486.427	126.19
486.645	139.19
486.863	142.19
487.081	112.19
487.299	115.19
487.517	114.19
487.735	98.19
487.953	105.19
488.171	106.19
488.389	90.19
488.607	103.19
488.825	83.19
489.043	81.19
489.261	89.19
489.479	97.19
489.696	99.19
489.914	98.19
490.132	82.19
490.35	93.19
490.568	87.19
490.786	86.19
491.003	94.19
491.221	110.19
491.439	109.19
491.657	107.19
491.874	102.19
492.092	98.19
492.31	99.19
492.527	95.19
492.745	104.19
492.963	107.19
493.18	94.19
493.398	106.19
493.615	94.19
493.833	102.19
494.05	88.19
494.268	102.19
494.485	97.19
494.703	115.19
494.92	97.19
495.138	91.19
495.355	95.19
495.573	94.19
495.79	87.19
496.008	100.19
496.225	106.19
496.442	82.19
496.66	94.19
496.877	112.19
497.094	86.19
497.312	88.19
497.529	87.19
497.746	99.19
497.963	98.19
498.181	93.19
498.398	92.19
498.615	129.19
498.832	107.19
499.049	98.19
499.267	95.19
499.484	103.19
499.701	98.19
499.918	95.19
500.135	101.19
500.352	84.19
500.569	103.19
500.786	111.19
501.003	102.19
501.22	103.19
501.437	92.19
501.654	119.19
501.871	119.19
502.088	94.19
502.305	98.19
502.522	81.19
502.739	88.19
502.956	93.19
503.172	95.19
503.389	111.19
503.606	142.19
503.823	107.19
504.04	101.19
504.256	103.19
504.473	87.19
504.69	104.19
504.907	95.19
505.123	102.19
505.34	89.19
505.557	107.19
505.773	103.19
505.99	115.19
506.207	83.19
506.423	91.19
506.64	110.19
506.856	109.19
507.073	92.19
507.289	101.19
507.506	103.19
507.722	143.19
507.939	137.19
508.155	118.19
508.372	110.19
508.588	103.19
508.805	110.19
509.021	113.19
509.238	83.19
509.454	102.19
509.67	98.19
509.887	128.19
510.103	143.19
510.319	264.19
510.536	997.19
510.752	3486.19
510.968	986.19
511.184	199.19
