Data from Circ_2023_H10_HRD10591_00100.txt Node
Date: Wed Jan 03 09:50:51 EST 2024
User: Yrep
Spectrometer: HR+D1059
Trigger mode: 1
Integration Time (sec): 1.000000E-1
Scans to average: 1
Electric dark correction enabled: true
Nonlinearity correction enabled: false
Boxcar width: 0
XAxis mode: Wavelengths
Number of Pixels in Spectrum: 2048
>>>>>Begin Spectral Data<<<<<
223.165	-14
223.4	-14
223.635	-14
223.869	-19
224.104	-12
224.338	-16
224.573	-20
224.808	-8
225.042	-18
225.277	-5
225.511	-4
225.746	10
225.98	8
226.215	21
226.449	9
226.683	8
226.918	25
227.152	35
227.387	46
227.621	30
227.856	43
228.09	30
228.324	39
228.559	45
228.793	57
229.027	63
229.262	62
229.496	69
229.73	123
229.964	118
230.199	83
230.433	66
230.667	84
230.901	85
231.136	62
231.37	77
231.604	83
231.838	87
232.072	79
232.306	83
232.541	95
232.775	95
233.009	79
233.243	81
233.477	84
233.711	79
233.945	82
234.179	84
234.413	77
234.647	81
234.881	71
235.115	75
235.349	97
235.583	84
235.817	76
236.051	83
236.285	83
236.519	82
236.753	85
236.987	86
237.221	83
237.455	98
237.689	70
237.922	65
238.156	87
238.39	81
238.624	72
238.858	84
239.091	83
239.325	89
239.559	91
239.793	94
240.027	86
240.26	85
240.494	83
240.728	87
240.961	81
241.195	74
241.429	71
241.662	77
241.896	65
242.13	77
242.363	75
242.597	80
242.83	84
243.064	80
243.298	85
243.531	87
243.765	80
243.998	80
244.232	85
244.465	101
244.699	77
244.932	77
245.166	80
245.399	90
245.633	84
245.866	80
246.099	76
246.333	93
246.566	91
246.8	89
247.033	85
247.266	70
247.5	80
247.733	76
247.966	95
248.2	94
248.433	82
248.666	73
248.899	91
249.133	102
249.366	131
249.599	116
249.832	101
250.066	81
250.299	89
250.532	95
250.765	99
250.998	105
251.231	80
251.465	91
251.698	79
251.931	96
252.164	79
252.397	92
252.63	92
252.863	80
253.096	85
253.329	71
253.562	89
253.795	81
254.028	84
254.261	85
254.494	83
254.727	109
254.96	89
255.193	78
255.426	82
255.659	79
255.892	117
256.124	136
256.357	109
256.59	85
256.823	103
257.056	93
257.289	84
257.521	89
257.754	87
257.987	78
258.22	102
258.452	128
258.685	103
258.918	91
259.151	80
259.383	83
259.616	84
259.849	83
260.081	88
260.314	83
260.547	93
260.779	116
261.012	129
261.244	141
261.477	116
261.71	126
261.942	166
262.175	203
262.407	104
262.64	82
262.872	97
263.105	84
263.337	79
263.57	77
263.802	88
264.035	64
264.267	85
264.499	80
264.732	78
264.964	87
265.197	87
265.429	89
265.661	83
265.894	82
266.126	73
266.358	87
266.591	87
266.823	98
267.055	79
267.287	77
267.52	93
267.752	85
267.984	77
268.216	70
268.448	93
268.681	75
268.913	96
269.145	72
269.377	74
269.609	84
269.841	79
270.073	77
270.306	86
270.538	96
270.77	79
271.002	95
271.234	86
271.466	112
271.698	95
271.93	84
272.162	87
272.394	100
272.626	94
272.858	82
273.09	91
273.322	78
273.553	80
273.785	83
274.017	94
274.249	89
274.481	95
274.713	86
274.945	88
275.176	101
275.408	102
275.64	150
275.872	172
276.104	127
276.335	113
276.567	146
276.799	195
277.031	267
277.262	311
277.494	226
277.726	127
277.957	102
278.189	87
278.421	106
278.652	105
278.884	101
279.115	96
279.347	90
279.579	117
279.81	179
280.042	321
280.273	483
280.505	302
280.736	145
280.968	113
281.199	101
281.431	100
281.662	84
281.894	96
282.125	118
282.356	173
282.588	224
282.819	168
283.051	105
283.282	99
283.513	83
283.745	106
283.976	104
284.207	82
284.439	96
284.67	95
284.901	97
285.132	87
285.364	90
285.595	87
285.826	92
286.057	101
286.288	89
286.52	96
286.751	81
286.982	80
287.213	82
287.444	88
287.675	96
287.906	100
288.138	81
288.369	103
288.6	94
288.831	86
289.062	94
289.293	91
289.524	81
289.755	100
289.986	87
290.217	89
290.448	82
290.679	91
290.91	99
291.141	82
291.371	89
291.602	79
291.833	95
292.064	89
292.295	104
292.526	96
292.757	95
292.987	98
293.218	82
293.449	86
293.68	80
293.91	96
294.141	91
294.372	81
294.603	89
294.833	91
295.064	83
295.295	104
295.525	107
295.756	105
295.987	148
296.217	212
296.448	175
296.679	100
296.909	107
297.14	102
297.37	91
297.601	90
297.831	84
298.062	89
298.292	107
298.523	98
298.753	111
298.984	92
299.214	76
299.445	102
299.675	92
299.905	101
300.136	97
300.366	96
300.597	99
300.827	98
301.057	114
301.288	148
301.518	123
301.748	127
301.979	124
302.209	128
302.439	107
302.669	103
302.9	90
303.13	108
303.36	138
303.59	179
303.82	189
304.051	126
304.281	88
304.511	104
304.741	84
304.971	94
305.201	89
305.431	88
305.661	95
305.891	98
306.121	100
306.352	116
306.582	136
306.812	123
307.042	155
307.272	222
307.502	267
307.731	236
307.961	151
308.191	101
308.421	85
308.651	91
308.881	91
309.111	107
309.341	109
309.571	101
309.8	99
310.03	115
310.26	118
310.49	119
310.72	136
310.949	148
311.179	146
311.409	120
311.639	128
311.868	126
312.098	114
312.328	127
312.557	125
312.787	141
313.017	129
313.246	108
313.476	103
313.706	109
313.935	95
314.165	126
314.394	123
314.624	104
314.853	122
315.083	114
315.312	107
315.542	95
315.771	99
316.001	91
316.23	88
316.46	81
316.689	109
316.919	104
317.148	113
317.377	115
317.607	109
317.836	107
318.065	87
318.295	99
318.524	88
318.753	97
318.983	104
319.212	124
319.441	133
319.67	156
319.9	94
320.129	100
320.358	81
320.587	106
320.816	121
321.046	113
321.275	100
321.504	112
321.733	97
321.962	118
322.191	132
322.42	124
322.649	158
322.878	153
323.108	153
323.337	179
323.566	188
323.795	253
324.024	348
324.253	733
324.482	1582
324.71	3368
324.939	4349
325.168	1553
325.397	414
325.626	232
325.855	184
326.084	163
326.313	164
326.542	241
326.77	369
326.999	781
327.228	1641
327.457	3027
327.686	2514
327.914	911
328.143	960
328.372	1282
328.6	672
328.829	277
329.058	285
329.287	295
329.515	283
329.744	432
329.972	874
330.201	1987
330.43	2997
330.658	1248
330.887	491
331.115	287
331.344	173
331.572	148
331.801	159
332.03	154
332.258	146
332.486	132
332.715	128
332.943	145
333.172	183
333.4	182
333.629	236
333.857	357
334.085	802
334.314	1805
334.542	3611
334.771	3461
334.999	800
335.227	263
335.455	165
335.684	136
335.912	126
336.14	135
336.369	130
336.597	132
336.825	131
337.053	109
337.281	99
337.51	103
337.738	120
337.966	124
338.194	129
338.422	132
338.65	107
338.878	101
339.106	103
339.334	93
339.562	108
339.79	99
340.018	114
340.246	111
340.474	113
340.702	107
340.93	94
341.158	105
341.386	109
341.614	115
341.842	124
342.07	94
342.298	119
342.526	107
342.754	94
342.981	93
343.209	107
343.437	104
343.665	96
343.893	84
344.12	94
344.348	83
344.576	77
344.804	98
345.031	110
345.259	130
345.487	127
345.714	118
345.942	108
346.17	106
346.397	106
346.625	112
346.853	99
347.08	105
347.308	94
347.535	101
347.763	123
347.99	114
348.218	141
348.445	146
348.673	146
348.9	111
349.128	107
349.355	85
349.583	105
349.81	100
350.037	102
350.265	110
350.492	111
350.72	106
350.947	103
351.174	139
351.402	146
351.629	100
351.856	109
352.083	135
352.311	131
352.538	133
352.765	154
352.992	147
353.22	145
353.447	121
353.674	100
353.901	98
354.128	97
354.355	100
354.583	117
354.81	95
355.037	100
355.264	85
355.491	100
355.718	79
355.945	92
356.172	92
356.399	89
356.626	99
356.853	104
357.08	103
357.307	89
357.534	86
357.761	88
357.988	94
358.215	83
358.441	98
358.668	97
358.895	96
359.122	100
359.349	87
359.576	107
359.802	145
360.029	183
360.256	200
360.483	143
360.709	98
360.936	96
361.163	109
361.39	115
361.616	112
361.843	99
362.07	107
362.296	123
362.523	104
362.749	109
362.976	113
363.203	110
363.429	95
363.656	93
363.882	88
364.109	113
364.335	102
364.562	88
364.788	101
365.015	119
365.241	111
365.468	151
365.694	150
365.92	124
366.147	109
366.373	99
366.599	102
366.826	92
367.052	107
367.278	118
367.505	104
367.731	103
367.957	100
368.184	107
368.41	125
368.636	174
368.862	145
369.089	143
369.315	107
369.541	96
369.767	106
369.993	98
370.219	114
370.445	94
370.672	80
370.898	92
371.124	93
371.35	97
371.576	93
371.802	88
372.028	81
372.254	96
372.48	93
372.706	85
372.932	83
373.158	88
373.384	92
373.61	96
373.835	93
374.061	97
374.287	111
374.513	98
374.739	103
374.965	82
375.191	86
375.416	85
375.642	98
375.868	93
376.094	90
376.319	88
376.545	77
376.771	79
376.997	89
377.222	99
377.448	92
377.674	94
377.899	80
378.125	78
378.35	83
378.576	87
378.802	88
379.027	80
379.253	96
379.478	97
379.704	112
379.929	88
380.155	97
380.38	90
380.606	102
380.831	91
381.057	83
381.282	97
381.507	88
381.733	100
381.958	107
382.184	88
382.409	110
382.634	91
382.86	89
383.085	92
383.31	92
383.535	93
383.761	91
383.986	105
384.211	89
384.436	104
384.662	90
384.887	94
385.112	88
385.337	86
385.562	98
385.787	89
386.013	110
386.238	124
386.463	112
386.688	114
386.913	103
387.138	101
387.363	85
387.588	84
387.813	92
388.038	108
388.263	103
388.488	94
388.713	103
388.938	102
389.163	92
389.387	105
389.612	103
389.837	84
390.062	92
390.287	88
390.512	80
390.736	83
390.961	96
391.186	77
391.411	81
391.636	97
391.86	89
392.085	103
392.31	91
392.534	83
392.759	76
392.984	89
393.208	93
393.433	90
393.658	95
393.882	86
394.107	86
394.331	92
394.556	80
394.78	76
395.005	84
395.229	80
395.454	88
395.678	88
395.903	103
396.127	93
396.352	83
396.576	84
396.801	108
397.025	83
397.249	83
397.474	91
397.698	109
397.922	90
398.147	91
398.371	80
398.595	84
398.82	87
399.044	89
399.268	93
399.492	101
399.717	93
399.941	105
400.165	103
400.389	96
400.613	119
400.837	88
401.062	102
401.286	95
401.51	96
401.734	115
401.958	127
402.182	197
402.406	272
402.63	192
402.854	116
403.078	96
403.302	99
403.526	98
403.75	84
403.974	88
404.198	96
404.422	85
404.645	100
404.869	111
405.093	129
405.317	187
405.541	195
405.765	155
405.988	179
406.212	291
406.436	462
406.66	294
406.883	151
407.107	129
407.331	117
407.555	141
407.778	121
408.002	105
408.226	94
408.449	108
408.673	102
408.896	104
409.12	103
409.344	99
409.567	89
409.791	80
410.014	93
410.238	108
410.461	85
410.685	116
410.908	102
411.132	102
411.355	112
411.578	98
411.802	95
412.025	98
412.249	109
412.472	136
412.695	179
412.919	120
413.142	128
413.365	100
413.589	97
413.812	95
414.035	101
414.258	89
414.482	104
414.705	81
414.928	83
415.151	79
415.374	106
415.597	93
415.821	86
416.044	89
416.267	98
416.49	91
416.713	92
416.936	90
417.159	89
417.382	114
417.605	127
417.828	152
418.051	112
418.274	88
418.497	80
418.72	82
418.943	84
419.166	86
419.389	106
419.611	87
419.834	95
420.057	87
420.28	90
420.503	102
420.726	99
420.948	86
421.171	116
421.394	109
421.617	93
421.839	95
422.062	82
422.285	117
422.507	108
422.73	130
422.953	99
423.175	97
423.398	86
423.621	102
423.843	86
424.066	90
424.288	103
424.511	109
424.733	132
424.956	144
425.178	123
425.401	101
425.623	118
425.846	111
426.068	107
426.291	107
426.513	102
426.735	107
426.958	110
427.18	145
427.402	240
427.625	384
427.847	364
428.069	310
428.292	156
428.514	111
428.736	104
428.958	91
429.181	90
429.403	97
429.625	95
429.847	95
430.069	121
430.292	113
430.514	78
430.736	87
430.958	94
431.18	88
431.402	91
431.624	97
431.846	85
432.068	78
432.29	80
432.512	85
432.734	86
432.956	108
433.178	114
433.4	118
433.622	90
433.844	94
434.066	88
434.287	108
434.509	87
434.731	70
434.953	93
435.175	93
435.397	86
435.618	114
435.84	114
436.062	163
436.284	149
436.505	124
436.727	116
436.949	104
437.17	90
437.392	97
437.614	118
437.835	164
438.057	189
438.278	159
438.5	140
438.721	168
438.943	124
439.165	95
439.386	96
439.608	79
439.829	126
440.05	193
440.272	275
440.493	147
440.715	107
440.936	75
441.158	98
441.379	106
441.6	112
441.822	134
442.043	123
442.264	140
442.486	137
442.707	111
442.928	141
443.149	236
443.371	234
443.592	164
443.813	157
444.034	164
444.255	98
444.476	118
444.698	95
444.919	99
445.14	147
445.361	152
445.582	166
445.803	257
446.024	245
446.245	226
446.466	157
446.687	96
446.908	97
447.129	111
447.35	89
447.571	91
447.792	104
448.013	123
448.234	138
448.455	131
448.675	158
448.896	159
449.117	120
449.338	113
449.559	172
449.779	193
450	105
450.221	88
450.442	95
450.662	113
450.883	155
451.104	170
451.324	140
451.545	102
451.766	93
451.986	100
452.207	91
452.428	111
452.648	131
452.869	156
453.089	172
453.31	189
453.53	129
453.751	99
453.971	143
454.192	179
454.412	123
454.633	95
454.853	96
455.073	114
455.294	115
455.514	137
455.734	101
455.955	102
456.175	93
456.395	92
456.616	99
456.836	96
457.056	99
457.276	85
457.497	86
457.717	78
457.937	83
458.157	105
458.377	114
458.598	149
458.818	310
459.038	344
459.258	215
459.478	125
459.698	102
459.918	96
460.138	98
460.358	95
460.578	95
460.798	101
461.018	107
461.238	75
461.458	82
461.678	90
461.898	89
462.118	92
462.338	83
462.558	83
462.777	105
462.997	114
463.217	157
463.437	119
463.657	96
463.876	91
464.096	97
464.316	102
464.536	109
464.755	92
464.975	159
465.195	352
465.414	379
465.634	148
465.854	100
466.073	97
466.293	93
466.512	97
466.732	82
466.951	94
467.171	119
467.391	143
467.61	204
467.829	334
468.049	1050
468.268	1689
468.488	379
468.707	148
468.927	115
469.146	107
469.365	99
469.585	120
469.804	132
470.023	126
470.243	122
470.462	165
470.681	197
470.901	130
471.12	111
471.339	128
471.558	152
471.777	213
471.997	501
472.216	2078
472.435	5007
472.654	1111
472.873	259
473.092	130
473.311	122
473.53	78
473.749	93
473.968	122
474.187	143
474.406	140
474.625	102
474.844	94
475.063	107
475.282	104
475.501	104
475.72	95
475.939	95
476.158	100
476.377	107
476.596	95
476.814	124
477.033	134
477.252	101
477.471	101
477.69	105
477.908	99
478.127	98
478.346	107
478.564	124
478.783	123
479.002	129
479.22	133
479.439	156
479.658	184
479.876	166
480.095	162
480.313	178
480.532	235
480.751	449
480.969	1781
481.188	8119
481.406	5020
481.624	631
481.843	207
482.061	135
482.28	119
482.498	116
482.717	98
482.935	101
483.153	96
483.372	97
483.59	98
483.808	100
484.027	116
484.245	99
484.463	104
484.681	94
484.9	96
485.118	100
485.336	99
485.554	102
485.772	96
485.99	119
486.209	108
486.427	105
486.645	137
486.863	149
487.081	103
487.299	102
487.517	102
487.735	102
487.953	104
488.171	106
488.389	100
488.607	103
488.825	107
489.043	113
489.261	98
489.479	88
489.696	96
489.914	100
490.132	90
490.35	99
490.568	101
490.786	99
491.003	93
491.221	107
491.439	116
491.657	107
491.874	89
492.092	113
492.31	94
492.527	118
492.745	114
492.963	101
493.18	93
493.398	92
493.615	102
493.833	89
494.05	104
494.268	98
494.485	92
494.703	98
494.92	83
495.138	92
495.355	91
495.573	93
495.79	102
496.008	86
496.225	85
496.442	71
496.66	91
496.877	84
497.094	97
497.312	102
497.529	92
497.746	89
497.963	100
498.181	100
498.398	106
498.615	144
498.832	147
499.049	98
499.267	95
499.484	101
499.701	89
499.918	89
500.135	87
500.352	100
500.569	119
500.786	115
501.003	111
501.22	99
501.437	100
501.654	96
501.871	155
502.088	118
502.305	100
502.522	92
502.739	110
502.956	104
503.172	97
503.389	136
503.606	140
503.823	120
504.04	91
504.256	100
504.473	88
504.69	101
504.907	99
505.123	102
505.34	93
505.557	89
505.773	86
505.99	98
506.207	109
506.423	96
506.64	93
506.856	93
507.073	87
507.289	102
507.506	132
507.722	160
507.939	182
508.155	103
508.372	96
508.588	89
508.805	111
509.021	105
509.238	110
509.454	123
509.67	108
509.887	141
510.103	175
510.319	312
510.536	1309
510.752	4907
510.968	1295
511.184	241
511.401	166
511.617	124
511.833	140
512.049	110
512.265	99
512.481	103
512.698	101
512.914	101
513.13	104
513.346	116
513.562	112
513.778	110
513.994	124
514.21	147
514.426	182
514.642	244
514.858	216
515.074	325
515.29	1153
515.506	4299
515.721	1512
515.937	307
516.153	177
516.369	138
516.585	137
516.801	134
517.016	108
517.232	98
517.448	111
517.664	105
517.879	124
518.095	111
518.311	123
518.527	131
518.742	116
518.958	94
519.173	104
519.389	112
519.605	111
519.82	119
520.036	137
520.251	204
520.467	176
520.682	143
520.898	151
521.113	180
521.329	247
521.544	460
521.76	1541
521.975	7204
522.19	4398
522.406	819
522.621	236
522.836	158
523.052	138
523.267	132
523.482	117
523.698	133
523.913	200
524.128	149
524.343	125
524.559	98
524.774	102
524.989	126
525.204	155
525.419	131
525.634	96
525.849	106
526.064	102
526.28	110
526.495	100
526.71	100
526.925	99
527.14	103
527.355	92
527.57	113
527.785	100
527.999	110
528.214	94
528.429	93
528.644	96
528.859	100
529.074	109
529.289	206
529.503	445
529.718	148
529.933	81
530.148	91
530.363	91
530.577	94
530.792	97
531.007	80
531.221	92
531.436	93
531.651	100
531.865	93
532.08	99
532.295	90
532.509	86
532.724	84
532.938	93
533.153	91
533.367	88
533.582	89
533.796	106
534.011	98
534.225	85
534.44	95
534.654	92
534.868	85
535.083	108
535.297	98
535.511	132
535.726	135
535.94	114
536.154	103
536.369	105
536.583	93
536.797	91
537.011	90
537.225	103
537.44	99
537.654	95
537.868	107
538.082	92
538.296	84
538.51	104
538.724	80
538.938	103
539.153	107
539.367	137
539.581	112
539.795	98
540.009	102
540.222	83
540.436	88
540.65	106
540.864	101
541.078	100
541.292	104
541.506	98
541.72	96
541.934	107
542.147	76
542.361	98
542.575	86
542.789	102
543.002	83
543.216	116
543.43	127
543.644	94
543.857	86
544.071	91
544.285	91
544.498	90
544.712	82
544.925	84
545.139	87
545.352	95
545.566	96
545.779	99
545.993	78
546.206	83
546.42	100
546.633	103
546.847	91
547.06	85
547.274	88
547.487	85
547.7	93
547.914	78
548.127	87
548.34	76
548.554	79
548.767	81
548.98	95
549.193	84
549.407	86
549.62	94
549.833	80
550.046	96
550.259	96
550.473	84
550.686	87
550.899	96
551.112	87
551.325	96
551.538	123
551.751	89
551.964	102
552.177	109
552.39	93
552.603	88
552.816	96
553.029	92
553.242	111
553.455	119
553.667	128
553.88	142
554.093	102
554.306	133
554.519	143
554.732	107
554.944	104
555.157	93
555.37	87
555.583	101
555.795	101
556.008	87
556.221	91
556.433	95
556.646	90
556.859	91
557.071	113
557.284	91
557.496	100
557.709	97
557.921	79
558.134	82
558.346	83
558.559	79
558.771	86
558.984	96
559.196	84
559.409	101
559.621	92
559.833	95
560.046	108
560.258	143
560.47	209
560.683	123
560.895	96
561.107	115
561.32	98
561.532	83
561.744	108
561.956	84
562.168	88
562.381	83
562.593	98
562.805	87
563.017	100
563.229	96
563.441	84
563.653	88
563.865	82
564.077	96
564.289	101
564.501	78
564.713	87
564.925	105
565.137	126
565.349	94
565.561	100
565.773	96
565.985	81
566.197	70
566.408	83
566.62	88
566.832	84
567.044	105
567.255	82
567.467	100
567.679	83
567.891	78
568.102	86
568.314	87
568.526	96
568.737	94
568.949	109
569.161	70
569.372	98
569.584	105
569.795	99
570.007	148
570.218	409
570.43	202
570.641	110
570.853	87
571.064	91
571.276	82
571.487	88
571.698	90
571.91	92
572.121	78
572.333	81
572.544	89
572.755	86
572.966	76
573.178	74
573.389	97
573.6	98
573.811	89
574.023	89
574.234	76
574.445	91
574.656	86
574.867	79
575.078	87
575.289	83
575.501	82
575.712	92
575.923	84
576.134	86
576.345	88
576.556	85
