Data from Circ_2023_H10_HRD10591_00046.txt Node
Date: Wed Jan 03 09:50:40 EST 2024
User: Yrep
Spectrometer: HR+D1059
Trigger mode: 1
Integration Time (sec): 1.000000E-1
Scans to average: 1
Electric dark correction enabled: true
Nonlinearity correction enabled: false
Boxcar width: 0
XAxis mode: Wavelengths
Number of Pixels in Spectrum: 2048
>>>>>Begin Spectral Data<<<<<
223.165	-9.94
223.4	-9.94
223.635	-9.94
223.869	-15.94
224.104	-11.94
224.338	-21.94
224.573	-12.94
224.808	-19.94
225.042	-3.94
225.277	-20.94
225.511	0.06
225.746	-7.94
225.98	2.06
226.215	11.06
226.449	22.06
226.683	27.06
226.918	40.06
227.152	23.06
227.387	38.06
227.621	42.06
227.856	47.06
228.09	56.06
228.324	55.06
228.559	52.06
228.793	55.06
229.027	75.06
229.262	74.06
229.496	84.06
229.73	88.06
229.964	98.06
230.199	77.06
230.433	73.06
230.667	76.06
230.901	76.06
231.136	88.06
231.37	67.06
231.604	86.06
231.838	91.06
232.072	80.06
232.306	88.06
232.541	96.06
232.775	86.06
233.009	72.06
233.243	73.06
233.477	70.06
233.711	95.06
233.945	85.06
234.179	91.06
234.413	76.06
234.647	79.06
234.881	82.06
235.115	68.06
235.349	76.06
235.583	81.06
235.817	88.06
236.051	81.06
236.285	87.06
236.519	72.06
236.753	87.06
236.987	100.06
237.221	107.06
237.455	91.06
237.689	81.06
237.922	86.06
238.156	89.06
238.39	72.06
238.624	72.06
238.858	70.06
239.091	78.06
239.325	87.06
239.559	101.06
239.793	102.06
240.027	78.06
240.26	85.06
240.494	78.06
240.728	86.06
240.961	73.06
241.195	103.06
241.429	81.06
241.662	75.06
241.896	75.06
242.13	61.06
242.363	76.06
242.597	83.06
242.83	82.06
243.064	81.06
243.298	81.06
243.531	87.06
243.765	78.06
243.998	87.06
244.232	87.06
244.465	82.06
244.699	79.06
244.932	81.06
245.166	74.06
245.399	86.06
245.633	74.06
245.866	100.06
246.099	91.06
246.333	77.06
246.566	83.06
246.8	82.06
247.033	86.06
247.266	84.06
247.5	90.06
247.733	79.06
247.966	83.06
248.2	80.06
248.433	84.06
248.666	91.06
248.899	82.06
249.133	91.06
249.366	119.06
249.599	123.06
249.832	91.06
250.066	93.06
250.299	94.06
250.532	78.06
250.765	84.06
250.998	93.06
251.231	91.06
251.465	85.06
251.698	93.06
251.931	95.06
252.164	82.06
252.397	104.06
252.63	95.06
252.863	88.06
253.096	81.06
253.329	82.06
253.562	72.06
253.795	74.06
254.028	85.06
254.261	79.06
254.494	92.06
254.727	95.06
254.96	87.06
255.193	81.06
255.426	85.06
255.659	84.06
255.892	110.06
256.124	91.06
256.357	102.06
256.59	78.06
256.823	88.06
257.056	95.06
257.289	87.06
257.521	85.06
257.754	107.06
257.987	86.06
258.22	97.06
258.452	86.06
258.685	91.06
258.918	99.06
259.151	81.06
259.383	82.06
259.616	90.06
259.849	94.06
260.081	86.06
260.314	97.06
260.547	86.06
260.779	91.06
261.012	101.06
261.244	111.06
261.477	104.06
261.71	105.06
261.942	134.06
262.175	146.06
262.407	100.06
262.64	86.06
262.872	95.06
263.105	100.06
263.337	89.06
263.57	90.06
263.802	77.06
264.035	83.06
264.267	89.06
264.499	77.06
264.732	82.06
264.964	107.06
265.197	85.06
265.429	92.06
265.661	80.06
265.894	79.06
266.126	86.06
266.358	87.06
266.591	82.06
266.823	78.06
267.055	76.06
267.287	94.06
267.52	86.06
267.752	92.06
267.984	87.06
268.216	92.06
268.448	95.06
268.681	101.06
268.913	86.06
269.145	94.06
269.377	89.06
269.609	96.06
269.841	94.06
270.073	85.06
270.306	82.06
270.538	101.06
270.77	95.06
271.002	79.06
271.234	85.06
271.466	100.06
271.698	82.06
271.93	75.06
272.162	91.06
272.394	92.06
272.626	105.06
272.858	108.06
273.09	87.06
273.322	91.06
273.553	80.06
273.785	90.06
274.017	83.06
274.249	89.06
274.481	89.06
274.713	80.06
274.945	81.06
275.176	102.06
275.408	111.06
275.64	139.06
275.872	140.06
276.104	112.06
276.335	104.06
276.567	116.06
276.799	158.06
277.031	193.06
277.262	246.06
277.494	186.06
277.726	93.06
277.957	92.06
278.189	86.06
278.421	86.06
278.652	97.06
278.884	108.06
279.115	91.06
279.347	96.06
279.579	116.06
279.81	144.06
280.042	226.06
280.273	304.06
280.505	204.06
280.736	112.06
280.968	97.06
281.199	98.06
281.431	84.06
281.662	85.06
281.894	104.06
282.125	102.06
282.356	135.06
282.588	191.06
282.819	145.06
283.051	89.06
283.282	79.06
283.513	92.06
283.745	94.06
283.976	93.06
284.207	80.06
284.439	89.06
284.67	97.06
284.901	98.06
285.132	75.06
285.364	91.06
285.595	95.06
285.826	84.06
286.057	92.06
286.288	92.06
286.52	87.06
286.751	72.06
286.982	96.06
287.213	95.06
287.444	96.06
287.675	91.06
287.906	98.06
288.138	90.06
288.369	108.06
288.6	108.06
288.831	94.06
289.062	89.06
289.293	87.06
289.524	94.06
289.755	94.06
289.986	91.06
290.217	90.06
290.448	97.06
290.679	94.06
290.91	105.06
291.141	88.06
291.371	80.06
291.602	88.06
291.833	89.06
292.064	97.06
292.295	86.06
292.526	89.06
292.757	82.06
292.987	98.06
293.218	68.06
293.449	87.06
293.68	86.06
293.91	100.06
294.141	84.06
294.372	88.06
294.603	100.06
294.833	94.06
295.064	86.06
295.295	90.06
295.525	94.06
295.756	103.06
295.987	140.06
296.217	177.06
296.448	147.06
296.679	114.06
296.909	74.06
297.14	83.06
297.37	94.06
297.601	93.06
297.831	104.06
298.062	96.06
298.292	95.06
298.523	100.06
298.753	99.06
298.984	92.06
299.214	92.06
299.445	95.06
299.675	103.06
299.905	106.06
300.136	98.06
300.366	88.06
300.597	83.06
300.827	115.06
301.057	129.06
301.288	112.06
301.518	118.06
301.748	103.06
301.979	112.06
302.209	105.06
302.439	110.06
302.669	79.06
302.9	91.06
303.13	99.06
303.36	116.06
303.59	130.06
303.82	157.06
304.051	100.06
304.281	86.06
304.511	104.06
304.741	100.06
304.971	92.06
305.201	96.06
305.431	85.06
305.661	90.06
305.891	107.06
306.121	103.06
306.352	102.06
306.582	130.06
306.812	123.06
307.042	140.06
307.272	172.06
307.502	199.06
307.731	171.06
307.961	134.06
308.191	98.06
308.421	96.06
308.651	98.06
308.881	82.06
309.111	95.06
309.341	103.06
309.571	103.06
309.8	119.06
310.03	104.06
310.26	107.06
310.49	121.06
310.72	126.06
310.949	120.06
311.179	112.06
311.409	91.06
311.639	109.06
311.868	104.06
312.098	98.06
312.328	113.06
312.557	116.06
312.787	133.06
313.017	120.06
313.246	102.06
313.476	89.06
313.706	97.06
313.935	119.06
314.165	110.06
314.394	132.06
314.624	112.06
314.853	118.06
315.083	102.06
315.312	100.06
315.542	96.06
315.771	95.06
316.001	105.06
316.23	103.06
316.46	98.06
316.689	86.06
316.919	91.06
317.148	98.06
317.377	87.06
317.607	111.06
317.836	99.06
318.065	97.06
318.295	86.06
318.524	89.06
318.753	117.06
318.983	99.06
319.212	99.06
319.441	122.06
319.67	131.06
319.9	105.06
320.129	98.06
320.358	103.06
320.587	118.06
320.816	125.06
321.046	110.06
321.275	96.06
321.504	91.06
321.733	112.06
321.962	112.06
322.191	128.06
322.42	120.06
322.649	127.06
322.878	130.06
323.108	150.06
323.337	145.06
323.566	148.06
323.795	173.06
324.024	260.06
324.253	521.06
324.482	1122.06
324.71	2355.06
324.939	3013.06
325.168	1118.06
325.397	300.06
325.626	179.06
325.855	142.06
326.084	140.06
326.313	139.06
326.542	180.06
326.77	272.06
326.999	584.06
327.228	1240.06
327.457	2207.06
327.686	1796.06
327.914	629.06
328.143	632.06
328.372	817.06
328.6	454.06
328.829	215.06
329.058	209.06
329.287	211.06
329.515	191.06
329.744	314.06
329.972	610.06
330.201	1206.06
330.43	1842.06
330.658	804.06
330.887	323.06
331.115	223.06
331.344	132.06
331.572	129.06
331.801	148.06
332.03	135.06
332.258	114.06
332.486	122.06
332.715	90.06
332.943	106.06
333.172	118.06
333.4	146.06
333.629	178.06
333.857	281.06
334.085	539.06
334.314	1143.06
334.542	2279.06
334.771	2162.06
334.999	539.06
335.227	213.06
335.455	138.06
335.684	115.06
335.912	102.06
336.14	119.06
336.369	111.06
336.597	127.06
336.825	120.06
337.053	97.06
337.281	91.06
337.51	113.06
337.738	104.06
337.966	88.06
338.194	114.06
338.422	101.06
338.65	98.06
338.878	101.06
339.106	91.06
339.334	101.06
339.562	98.06
339.79	78.06
340.018	89.06
340.246	104.06
340.474	116.06
340.702	110.06
340.93	86.06
341.158	106.06
341.386	103.06
341.614	92.06
341.842	106.06
342.07	96.06
342.298	112.06
342.526	88.06
342.754	104.06
342.981	92.06
343.209	96.06
343.437	103.06
343.665	88.06
343.893	88.06
344.12	101.06
344.348	85.06
344.576	93.06
344.804	96.06
345.031	99.06
345.259	111.06
345.487	97.06
345.714	103.06
345.942	107.06
346.17	102.06
346.397	86.06
346.625	93.06
346.853	100.06
347.08	103.06
347.308	117.06
347.535	99.06
347.763	118.06
347.99	104.06
348.218	114.06
348.445	126.06
348.673	116.06
348.9	107.06
349.128	89.06
349.355	102.06
349.583	98.06
349.81	95.06
350.037	103.06
350.265	118.06
350.492	96.06
350.72	108.06
350.947	112.06
351.174	123.06
351.402	136.06
351.629	132.06
351.856	115.06
352.083	122.06
352.311	119.06
352.538	141.06
352.765	115.06
352.992	117.06
353.22	130.06
353.447	117.06
353.674	114.06
353.901	99.06
354.128	96.06
354.355	92.06
354.583	113.06
354.81	96.06
355.037	111.06
355.264	98.06
355.491	98.06
355.718	91.06
355.945	102.06
356.172	100.06
356.399	88.06
356.626	85.06
356.853	100.06
357.08	90.06
357.307	87.06
357.534	89.06
357.761	103.06
357.988	100.06
358.215	92.06
358.441	82.06
358.668	90.06
358.895	81.06
359.122	81.06
359.349	89.06
359.576	104.06
359.802	126.06
360.029	160.06
360.256	152.06
360.483	122.06
360.709	104.06
360.936	113.06
361.163	97.06
361.39	108.06
361.616	109.06
361.843	88.06
362.07	103.06
362.296	102.06
362.523	86.06
362.749	110.06
362.976	89.06
363.203	99.06
363.429	88.06
363.656	107.06
363.882	88.06
364.109	91.06
364.335	97.06
364.562	102.06
364.788	105.06
365.015	111.06
365.241	113.06
365.468	137.06
365.694	132.06
365.92	111.06
366.147	103.06
366.373	94.06
366.599	111.06
366.826	96.06
367.052	98.06
367.278	112.06
367.505	94.06
367.731	94.06
367.957	108.06
368.184	99.06
368.41	103.06
368.636	129.06
368.862	139.06
369.089	124.06
369.315	99.06
369.541	90.06
369.767	90.06
369.993	115.06
370.219	101.06
370.445	102.06
370.672	99.06
370.898	90.06
371.124	98.06
371.35	88.06
371.576	84.06
371.802	97.06
372.028	95.06
372.254	96.06
372.48	87.06
372.706	84.06
372.932	80.06
373.158	78.06
373.384	121.06
373.61	94.06
373.835	91.06
374.061	96.06
374.287	105.06
374.513	90.06
374.739	105.06
374.965	105.06
375.191	91.06
375.416	83.06
375.642	105.06
375.868	81.06
376.094	97.06
376.319	95.06
376.545	88.06
376.771	89.06
376.997	97.06
377.222	92.06
377.448	92.06
377.674	86.06
377.899	77.06
378.125	95.06
378.35	102.06
378.576	87.06
378.802	93.06
379.027	102.06
379.253	86.06
379.478	103.06
379.704	107.06
379.929	99.06
380.155	99.06
380.38	85.06
380.606	94.06
380.831	87.06
381.057	93.06
381.282	99.06
381.507	84.06
381.733	97.06
381.958	86.06
382.184	99.06
382.409	102.06
382.634	103.06
382.86	100.06
383.085	91.06
383.31	85.06
383.535	93.06
383.761	111.06
383.986	89.06
384.211	89.06
384.436	105.06
384.662	113.06
384.887	103.06
385.112	90.06
385.337	96.06
385.562	90.06
385.787	99.06
386.013	110.06
386.238	128.06
386.463	107.06
386.688	126.06
386.913	94.06
387.138	115.06
387.363	95.06
387.588	95.06
387.813	104.06
388.038	89.06
388.263	115.06
388.488	103.06
388.713	105.06
388.938	99.06
389.163	96.06
389.387	90.06
389.612	88.06
389.837	91.06
390.062	91.06
390.287	96.06
390.512	101.06
390.736	100.06
390.961	98.06
391.186	98.06
391.411	86.06
391.636	91.06
391.86	88.06
392.085	97.06
392.31	87.06
392.534	93.06
392.759	107.06
392.984	79.06
393.208	91.06
393.433	100.06
393.658	96.06
393.882	75.06
394.107	87.06
394.331	85.06
394.556	105.06
394.78	94.06
395.005	99.06
395.229	78.06
395.454	87.06
395.678	96.06
395.903	89.06
396.127	105.06
396.352	95.06
396.576	94.06
396.801	88.06
397.025	92.06
397.249	82.06
397.474	91.06
397.698	96.06
397.922	92.06
398.147	92.06
398.371	84.06
398.595	87.06
398.82	92.06
399.044	73.06
399.268	86.06
399.492	82.06
399.717	102.06
399.941	84.06
400.165	105.06
400.389	100.06
400.613	99.06
400.837	88.06
401.062	92.06
401.286	99.06
401.51	109.06
401.734	106.06
401.958	128.06
402.182	154.06
402.406	196.06
402.63	169.06
402.854	106.06
403.078	104.06
403.302	81.06
403.526	91.06
403.75	99.06
403.974	94.06
404.198	91.06
404.422	101.06
404.645	96.06
404.869	115.06
405.093	134.06
405.317	150.06
405.541	147.06
405.765	126.06
405.988	147.06
406.212	226.06
406.436	330.06
406.66	225.06
406.883	120.06
407.107	109.06
407.331	118.06
407.555	129.06
407.778	118.06
408.002	86.06
408.226	98.06
408.449	79.06
408.673	95.06
408.896	101.06
409.12	97.06
409.344	106.06
409.567	82.06
409.791	82.06
410.014	103.06
410.238	102.06
410.461	99.06
410.685	91.06
410.908	104.06
411.132	115.06
411.355	100.06
411.578	89.06
411.802	110.06
412.025	95.06
412.249	112.06
412.472	130.06
412.695	151.06
412.919	129.06
413.142	112.06
413.365	110.06
413.589	102.06
413.812	93.06
414.035	96.06
414.258	87.06
414.482	92.06
414.705	97.06
414.928	102.06
415.151	87.06
415.374	91.06
415.597	95.06
415.821	86.06
416.044	96.06
416.267	111.06
416.49	87.06
416.713	94.06
416.936	88.06
417.159	99.06
417.382	103.06
417.605	133.06
417.828	128.06
418.051	108.06
418.274	94.06
418.497	94.06
418.72	95.06
418.943	88.06
419.166	79.06
419.389	79.06
419.611	103.06
419.834	105.06
420.057	97.06
420.28	113.06
420.503	94.06
420.726	86.06
420.948	104.06
421.171	112.06
421.394	102.06
421.617	102.06
421.839	93.06
422.062	91.06
422.285	95.06
422.507	101.06
422.73	108.06
422.953	89.06
423.175	95.06
423.398	88.06
423.621	82.06
423.843	102.06
424.066	89.06
424.288	90.06
424.511	104.06
424.733	107.06
424.956	136.06
425.178	121.06
425.401	122.06
425.623	100.06
425.846	103.06
426.068	108.06
426.291	97.06
426.513	112.06
426.735	91.06
426.958	108.06
427.18	132.06
427.402	193.06
427.625	280.06
427.847	258.06
428.069	232.06
428.292	154.06
428.514	114.06
428.736	88.06
428.958	99.06
429.181	87.06
429.403	92.06
429.625	93.06
429.847	99.06
430.069	119.06
430.292	109.06
430.514	81.06
430.736	87.06
430.958	75.06
431.18	89.06
431.402	96.06
431.624	94.06
431.846	85.06
432.068	81.06
432.29	103.06
432.512	97.06
432.734	100.06
432.956	96.06
433.178	112.06
433.4	107.06
433.622	84.06
433.844	83.06
434.066	88.06
434.287	97.06
434.509	99.06
434.731	90.06
434.953	76.06
435.175	83.06
435.397	88.06
435.618	101.06
435.84	128.06
436.062	161.06
436.284	160.06
436.505	116.06
436.727	106.06
436.949	99.06
437.17	94.06
437.392	86.06
437.614	106.06
437.835	125.06
438.057	167.06
438.278	137.06
438.5	128.06
438.721	158.06
438.943	127.06
439.165	93.06
439.386	91.06
439.608	107.06
439.829	123.06
440.05	163.06
440.272	226.06
440.493	120.06
440.715	92.06
440.936	96.06
441.158	85.06
441.379	98.06
441.6	118.06
441.822	106.06
442.043	117.06
442.264	133.06
442.486	123.06
442.707	109.06
442.928	140.06
443.149	187.06
443.371	183.06
443.592	133.06
443.813	125.06
444.034	126.06
444.255	107.06
444.476	93.06
444.698	83.06
444.919	97.06
445.14	139.06
445.361	136.06
445.582	147.06
445.803	201.06
446.024	200.06
446.245	193.06
446.466	130.06
446.687	106.06
446.908	89.06
447.129	91.06
447.35	97.06
447.571	85.06
447.792	93.06
448.013	106.06
448.234	133.06
448.455	126.06
448.675	147.06
448.896	159.06
449.117	110.06
449.338	135.06
449.559	162.06
449.779	171.06
450	117.06
450.221	102.06
450.442	88.06
450.662	121.06
450.883	128.06
451.104	138.06
451.324	124.06
451.545	94.06
451.766	78.06
451.986	87.06
452.207	90.06
452.428	95.06
452.648	122.06
452.869	150.06
453.089	145.06
453.31	148.06
453.53	118.06
453.751	95.06
453.971	143.06
454.192	141.06
454.412	114.06
454.633	80.06
454.853	85.06
455.073	89.06
455.294	97.06
455.514	114.06
455.734	94.06
455.955	102.06
456.175	104.06
456.395	86.06
456.616	92.06
456.836	82.06
457.056	88.06
457.276	94.06
457.497	94.06
457.717	86.06
457.937	98.06
458.157	84.06
458.377	102.06
458.598	142.06
458.818	244.06
459.038	272.06
459.258	166.06
459.478	100.06
459.698	90.06
459.918	82.06
460.138	85.06
460.358	91.06
460.578	82.06
460.798	91.06
461.018	93.06
461.238	93.06
461.458	98.06
461.678	83.06
461.898	75.06
462.118	94.06
462.338	84.06
462.558	105.06
462.777	100.06
462.997	112.06
463.217	120.06
463.437	100.06
463.657	94.06
463.876	93.06
464.096	95.06
464.316	108.06
464.536	103.06
464.755	97.06
464.975	143.06
465.195	262.06
465.414	273.06
465.634	118.06
465.854	86.06
466.073	81.06
466.293	87.06
466.512	106.06
466.732	90.06
466.951	79.06
467.171	104.06
467.391	131.06
467.61	152.06
467.829	244.06
468.049	664.06
468.268	1044.06
468.488	247.06
468.707	119.06
468.927	118.06
469.146	106.06
469.365	91.06
469.585	105.06
469.804	130.06
470.023	119.06
470.243	129.06
470.462	131.06
470.681	145.06
470.901	115.06
471.12	110.06
471.339	124.06
471.558	130.06
471.777	183.06
471.997	340.06
472.216	1341.06
472.435	3036.06
472.654	748.06
472.873	192.06
473.092	118.06
473.311	119.06
473.53	110.06
473.749	98.06
473.968	113.06
474.187	132.06
474.406	142.06
474.625	101.06
474.844	99.06
475.063	103.06
475.282	88.06
475.501	96.06
475.72	101.06
475.939	88.06
476.158	84.06
476.377	96.06
476.596	102.06
476.814	116.06
477.033	101.06
477.252	92.06
477.471	94.06
477.69	101.06
477.908	116.06
478.127	102.06
478.346	72.06
478.564	93.06
478.783	114.06
479.002	111.06
479.22	111.06
479.439	122.06
479.658	154.06
479.876	133.06
480.095	135.06
480.313	147.06
480.532	173.06
480.751	320.06
480.969	1208.06
481.188	5061.06
481.406	3161.06
481.624	437.06
481.843	154.06
482.061	109.06
482.28	100.06
482.498	92.06
482.717	100.06
482.935	104.06
483.153	101.06
483.372	99.06
483.59	81.06
483.808	104.06
484.027	99.06
484.245	97.06
484.463	108.06
484.681	91.06
484.9	100.06
485.118	114.06
485.336	92.06
485.554	118.06
485.772	92.06
485.99	102.06
486.209	104.06
486.427	110.06
486.645	129.06
486.863	157.06
487.081	118.06
487.299	106.06
487.517	103.06
487.735	93.06
487.953	120.06
488.171	90.06
488.389	111.06
488.607	105.06
488.825	98.06
489.043	114.06
489.261	101.06
489.479	99.06
489.696	102.06
489.914	92.06
490.132	95.06
490.35	95.06
490.568	92.06
490.786	103.06
491.003	93.06
491.221	102.06
491.439	111.06
491.657	104.06
491.874	96.06
492.092	107.06
492.31	104.06
492.527	111.06
492.745	105.06
492.963	100.06
493.18	106.06
493.398	91.06
493.615	96.06
493.833	112.06
494.05	85.06
494.268	111.06
494.485	108.06
494.703	90.06
494.92	97.06
495.138	101.06
495.355	96.06
495.573	88.06
495.79	95.06
496.008	94.06
496.225	90.06
496.442	87.06
496.66	103.06
496.877	91.06
497.094	88.06
497.312	97.06
497.529	81.06
497.746	96.06
497.963	82.06
498.181	116.06
498.398	103.06
498.615	134.06
498.832	117.06
499.049	104.06
499.267	92.06
499.484	85.06
499.701	115.06
499.918	86.06
500.135	111.06
500.352	92.06
500.569	104.06
500.786	98.06
501.003	94.06
501.22	100.06
501.437	103.06
501.654	115.06
501.871	146.06
502.088	102.06
502.305	97.06
502.522	105.06
502.739	95.06
502.956	95.06
503.172	104.06
503.389	103.06
503.606	123.06
503.823	110.06
504.04	99.06
504.256	98.06
504.473	100.06
504.69	87.06
504.907	95.06
505.123	85.06
505.34	102.06
505.557	95.06
505.773	103.06
505.99	96.06
506.207	84.06
506.423	76.06
506.64	103.06
506.856	81.06
507.073	88.06
507.289	88.06
507.506	95.06
507.722	148.06
507.939	149.06
508.155	110.06
508.372	102.06
508.588	95.06
508.805	114.06
509.021	102.06
509.238	108.06
509.454	102.06
509.67	110.06
509.887	109.06
510.103	149.06
510.319	262.06
510.536	1001.06
510.752	3497.06
510.968	990.06
511.184	201.06
