Data from Circ_2023_H10_HRD10591_00093.txt Node
Date: Wed Jan 03 09:50:49 EST 2024
User: Yrep
Spectrometer: HR+D1059
Trigger mode: 1
Integration Time (sec): 1.000000E-1
Scans to average: 1
Electric dark correction enabled: true
Nonlinearity correction enabled: false
Boxcar width: 0
XAxis mode: Wavelengths
Number of Pixels in Spectrum: 2048
>>>>>Begin Spectral Data<<<<<
223.165	-17.38
223.4	-17.38
223.635	-17.38
223.869	-18.38
224.104	-33.38
224.338	-11.38
224.573	-9.38
224.808	-6.38
225.042	-22.38
225.277	-1.38
225.511	-5.38
225.746	-7.38
225.98	9.62
226.215	13.62
226.449	18.62
226.683	31.62
226.918	25.62
227.152	33.62
227.387	27.62
227.621	38.62
227.856	38.62
228.09	48.62
228.324	48.62
228.559	69.62
228.793	45.62
229.027	60.62
229.262	70.62
229.496	62.62
229.73	81.62
229.964	100.62
230.199	85.62
230.433	74.62
230.667	72.62
230.901	74.62
231.136	83.62
231.37	72.62
231.604	68.62
231.838	81.62
232.072	76.62
232.306	71.62
232.541	88.62
232.775	74.62
233.009	74.62
233.243	79.62
233.477	81.62
233.711	81.62
233.945	69.62
234.179	89.62
234.413	82.62
234.647	63.62
234.881	80.62
235.115	82.62
235.349	76.62
235.583	81.62
235.817	81.62
236.051	74.62
236.285	82.62
236.519	72.62
236.753	86.62
236.987	86.62
237.221	83.62
237.455	81.62
237.689	73.62
237.922	74.62
238.156	74.62
238.39	80.62
238.624	74.62
238.858	78.62
239.091	65.62
239.325	66.62
239.559	82.62
239.793	67.62
240.027	73.62
240.26	85.62
240.494	83.62
240.728	87.62
240.961	79.62
241.195	79.62
241.429	77.62
241.662	68.62
241.896	72.62
242.13	71.62
242.363	66.62
242.597	64.62
242.83	71.62
243.064	67.62
243.298	84.62
243.531	81.62
243.765	68.62
243.998	84.62
244.232	82.62
244.465	84.62
244.699	88.62
244.932	74.62
245.166	80.62
245.399	77.62
245.633	74.62
245.866	80.62
246.099	69.62
246.333	63.62
246.566	83.62
246.8	72.62
247.033	89.62
247.266	78.62
247.5	83.62
247.733	83.62
247.966	80.62
248.2	83.62
248.433	66.62
248.666	78.62
248.899	66.62
249.133	83.62
249.366	86.62
249.599	97.62
249.832	79.62
250.066	83.62
250.299	78.62
250.532	82.62
250.765	71.62
250.998	80.62
251.231	77.62
251.465	83.62
251.698	86.62
251.931	74.62
252.164	77.62
252.397	71.62
252.63	84.62
252.863	86.62
253.096	84.62
253.329	77.62
253.562	81.62
253.795	89.62
254.028	93.62
254.261	73.62
254.494	62.62
254.727	82.62
254.96	74.62
255.193	73.62
255.426	87.62
255.659	87.62
255.892	86.62
256.124	83.62
256.357	92.62
256.59	76.62
256.823	73.62
257.056	84.62
257.289	101.62
257.521	77.62
257.754	95.62
257.987	81.62
258.22	86.62
258.452	92.62
258.685	94.62
258.918	87.62
259.151	78.62
259.383	75.62
259.616	72.62
259.849	78.62
260.081	84.62
260.314	78.62
260.547	85.62
260.779	90.62
261.012	90.62
261.244	102.62
261.477	90.62
261.71	95.62
261.942	133.62
262.175	124.62
262.407	96.62
262.64	87.62
262.872	96.62
263.105	79.62
263.337	86.62
263.57	89.62
263.802	90.62
264.035	83.62
264.267	93.62
264.499	79.62
264.732	88.62
264.964	84.62
265.197	73.62
265.429	86.62
265.661	85.62
265.894	81.62
266.126	77.62
266.358	73.62
266.591	78.62
266.823	62.62
267.055	71.62
267.287	83.62
267.52	79.62
267.752	77.62
267.984	73.62
268.216	73.62
268.448	96.62
268.681	80.62
268.913	93.62
269.145	75.62
269.377	83.62
269.609	74.62
269.841	88.62
270.073	80.62
270.306	89.62
270.538	93.62
270.77	84.62
271.002	92.62
271.234	72.62
271.466	65.62
271.698	93.62
271.93	74.62
272.162	86.62
272.394	89.62
272.626	90.62
272.858	74.62
273.09	82.62
273.322	76.62
273.553	93.62
273.785	88.62
274.017	88.62
274.249	86.62
274.481	71.62
274.713	73.62
274.945	84.62
275.176	89.62
275.408	97.62
275.64	111.62
275.872	117.62
276.104	120.62
276.335	106.62
276.567	106.62
276.799	152.62
277.031	164.62
277.262	188.62
277.494	162.62
277.726	110.62
277.957	120.62
278.189	79.62
278.421	84.62
278.652	97.62
278.884	89.62
279.115	86.62
279.347	83.62
279.579	92.62
279.81	129.62
280.042	178.62
280.273	270.62
280.505	176.62
280.736	96.62
280.968	79.62
281.199	80.62
281.431	104.62
281.662	98.62
281.894	92.62
282.125	106.62
282.356	120.62
282.588	176.62
282.819	125.62
283.051	103.62
283.282	92.62
283.513	104.62
283.745	92.62
283.976	95.62
284.207	88.62
284.439	87.62
284.67	81.62
284.901	83.62
285.132	87.62
285.364	70.62
285.595	86.62
285.826	78.62
286.057	89.62
286.288	87.62
286.52	102.62
286.751	77.62
286.982	86.62
287.213	84.62
287.444	85.62
287.675	93.62
287.906	94.62
288.138	93.62
288.369	80.62
288.6	93.62
288.831	86.62
289.062	79.62
289.293	98.62
289.524	96.62
289.755	91.62
289.986	78.62
290.217	78.62
290.448	89.62
290.679	93.62
290.91	79.62
291.141	86.62
291.371	68.62
291.602	74.62
291.833	87.62
292.064	89.62
292.295	85.62
292.526	103.62
292.757	94.62
292.987	77.62
293.218	79.62
293.449	89.62
293.68	83.62
293.91	94.62
294.141	90.62
294.372	81.62
294.603	92.62
294.833	102.62
295.064	87.62
295.295	91.62
295.525	95.62
295.756	94.62
295.987	116.62
296.217	166.62
296.448	149.62
296.679	95.62
296.909	85.62
297.14	89.62
297.37	86.62
297.601	92.62
297.831	73.62
298.062	94.62
298.292	98.62
298.523	92.62
298.753	91.62
298.984	77.62
299.214	100.62
299.445	86.62
299.675	94.62
299.905	100.62
300.136	97.62
300.366	86.62
300.597	96.62
300.827	101.62
301.057	100.62
301.288	108.62
301.518	101.62
301.748	96.62
301.979	105.62
302.209	103.62
302.439	93.62
302.669	86.62
302.9	85.62
303.13	100.62
303.36	98.62
303.59	124.62
303.82	146.62
304.051	116.62
304.281	98.62
304.511	80.62
304.741	80.62
304.971	80.62
305.201	82.62
305.431	109.62
305.661	102.62
305.891	111.62
306.121	100.62
306.352	101.62
306.582	99.62
306.812	104.62
307.042	124.62
307.272	170.62
307.502	173.62
307.731	165.62
307.961	127.62
308.191	89.62
308.421	84.62
308.651	87.62
308.881	95.62
309.111	100.62
309.341	98.62
309.571	114.62
309.8	101.62
310.03	96.62
310.26	95.62
310.49	106.62
310.72	105.62
310.949	104.62
311.179	113.62
311.409	101.62
311.639	95.62
311.868	106.62
312.098	88.62
312.328	93.62
312.557	102.62
312.787	111.62
313.017	102.62
313.246	95.62
313.476	79.62
313.706	80.62
313.935	94.62
314.165	102.62
314.394	95.62
314.624	93.62
314.853	94.62
315.083	86.62
315.312	87.62
315.542	80.62
315.771	90.62
316.001	82.62
316.23	92.62
316.46	90.62
316.689	86.62
316.919	82.62
317.148	103.62
317.377	97.62
317.607	106.62
317.836	86.62
318.065	86.62
318.295	79.62
318.524	103.62
318.753	86.62
318.983	96.62
319.212	107.62
319.441	110.62
319.67	124.62
319.9	101.62
320.129	84.62
320.358	97.62
320.587	105.62
320.816	96.62
321.046	110.62
321.275	113.62
321.504	101.62
321.733	79.62
321.962	84.62
322.191	103.62
322.42	105.62
322.649	109.62
322.878	112.62
323.108	113.62
323.337	129.62
323.566	145.62
323.795	164.62
324.024	192.62
324.253	354.62
324.482	686.62
324.71	1326.62
324.939	1783.62
325.168	734.62
325.397	243.62
325.626	146.62
325.855	124.62
326.084	112.62
326.313	117.62
326.542	131.62
326.77	211.62
326.999	361.62
327.228	704.62
327.457	1239.62
327.686	1044.62
327.914	423.62
328.143	496.62
328.372	630.62
328.6	382.62
328.829	179.62
329.058	177.62
329.287	179.62
329.515	179.62
329.744	246.62
329.972	439.62
330.201	889.62
330.43	1326.62
330.658	606.62
330.887	265.62
331.115	178.62
331.344	120.62
331.572	121.62
331.801	112.62
332.03	109.62
332.258	104.62
332.486	116.62
332.715	96.62
332.943	96.62
333.172	117.62
333.4	128.62
333.629	142.62
333.857	224.62
334.085	365.62
334.314	786.62
334.542	1529.62
334.771	1546.62
334.999	415.62
335.227	172.62
335.455	128.62
335.684	103.62
335.912	104.62
336.14	117.62
336.369	93.62
336.597	109.62
336.825	109.62
337.053	108.62
337.281	97.62
337.51	88.62
337.738	98.62
337.966	94.62
338.194	100.62
338.422	93.62
338.65	97.62
338.878	112.62
339.106	97.62
339.334	100.62
339.562	86.62
339.79	74.62
340.018	89.62
340.246	92.62
340.474	95.62
340.702	93.62
340.93	95.62
341.158	108.62
341.386	101.62
341.614	96.62
341.842	85.62
342.07	93.62
342.298	88.62
342.526	96.62
342.754	90.62
342.981	75.62
343.209	81.62
343.437	84.62
343.665	94.62
343.893	73.62
344.12	86.62
344.348	91.62
344.576	84.62
344.804	97.62
345.031	103.62
345.259	91.62
345.487	86.62
345.714	96.62
345.942	87.62
346.17	96.62
346.397	100.62
346.625	88.62
346.853	85.62
347.08	100.62
347.308	98.62
347.535	83.62
347.763	103.62
347.99	102.62
348.218	102.62
348.445	102.62
348.673	97.62
348.9	102.62
349.128	95.62
349.355	104.62
349.583	89.62
349.81	94.62
350.037	81.62
350.265	97.62
350.492	80.62
350.72	91.62
350.947	100.62
351.174	98.62
351.402	110.62
351.629	95.62
351.856	96.62
352.083	98.62
352.311	109.62
352.538	100.62
352.765	102.62
352.992	112.62
353.22	109.62
353.447	103.62
353.674	88.62
353.901	88.62
354.128	82.62
354.355	96.62
354.583	88.62
354.81	93.62
355.037	88.62
355.264	83.62
355.491	85.62
355.718	97.62
355.945	90.62
356.172	85.62
356.399	101.62
356.626	81.62
356.853	95.62
357.08	86.62
357.307	78.62
357.534	83.62
357.761	74.62
357.988	87.62
358.215	93.62
358.441	80.62
358.668	85.62
358.895	89.62
359.122	101.62
359.349	84.62
359.576	103.62
359.802	111.62
360.029	137.62
360.256	130.62
360.483	99.62
360.709	87.62
360.936	93.62
361.163	84.62
361.39	98.62
361.616	100.62
361.843	88.62
362.07	92.62
362.296	100.62
362.523	101.62
362.749	83.62
362.976	102.62
363.203	97.62
363.429	82.62
363.656	88.62
363.882	89.62
364.109	92.62
364.335	75.62
364.562	87.62
364.788	86.62
365.015	85.62
365.241	101.62
365.468	102.62
365.694	127.62
365.92	97.62
366.147	96.62
366.373	95.62
366.599	79.62
366.826	86.62
367.052	81.62
367.278	84.62
367.505	85.62
367.731	86.62
367.957	104.62
368.184	83.62
368.41	105.62
368.636	115.62
368.862	136.62
369.089	109.62
369.315	92.62
369.541	101.62
369.767	94.62
369.993	96.62
370.219	88.62
370.445	80.62
370.672	91.62
370.898	91.62
371.124	75.62
371.35	93.62
371.576	101.62
371.802	90.62
372.028	91.62
372.254	72.62
372.48	90.62
372.706	80.62
372.932	79.62
373.158	83.62
373.384	91.62
373.61	95.62
373.835	81.62
374.061	83.62
374.287	78.62
374.513	94.62
374.739	72.62
374.965	82.62
375.191	88.62
375.416	93.62
375.642	94.62
375.868	93.62
376.094	83.62
376.319	83.62
376.545	77.62
376.771	66.62
376.997	76.62
377.222	72.62
377.448	90.62
377.674	87.62
377.899	86.62
378.125	76.62
378.35	72.62
378.576	77.62
378.802	73.62
379.027	75.62
379.253	73.62
379.478	83.62
379.704	85.62
379.929	77.62
380.155	86.62
380.38	92.62
380.606	97.62
380.831	95.62
381.057	91.62
381.282	97.62
381.507	88.62
381.733	78.62
381.958	76.62
382.184	86.62
382.409	81.62
382.634	89.62
382.86	89.62
383.085	96.62
383.31	90.62
383.535	79.62
383.761	72.62
383.986	63.62
384.211	97.62
384.436	97.62
384.662	81.62
384.887	74.62
385.112	88.62
385.337	87.62
385.562	86.62
385.787	89.62
386.013	81.62
386.238	117.62
386.463	98.62
386.688	94.62
386.913	84.62
387.138	95.62
387.363	98.62
387.588	95.62
387.813	90.62
388.038	89.62
388.263	100.62
388.488	76.62
388.713	77.62
388.938	80.62
389.163	85.62
389.387	78.62
389.612	87.62
389.837	94.62
390.062	87.62
390.287	84.62
390.512	83.62
390.736	68.62
390.961	82.62
391.186	83.62
391.411	86.62
391.636	84.62
391.86	92.62
392.085	73.62
392.31	79.62
392.534	77.62
392.759	83.62
392.984	73.62
393.208	84.62
393.433	89.62
393.658	84.62
393.882	92.62
394.107	80.62
394.331	86.62
394.556	90.62
394.78	84.62
395.005	88.62
395.229	72.62
395.454	84.62
395.678	70.62
395.903	93.62
396.127	84.62
396.352	91.62
396.576	87.62
396.801	74.62
397.025	74.62
397.249	81.62
397.474	80.62
397.698	91.62
397.922	85.62
398.147	82.62
398.371	83.62
398.595	76.62
398.82	80.62
399.044	75.62
399.268	88.62
399.492	77.62
399.717	75.62
399.941	74.62
400.165	90.62
400.389	97.62
400.613	87.62
400.837	77.62
401.062	96.62
401.286	87.62
401.51	84.62
401.734	86.62
401.958	106.62
402.182	152.62
402.406	193.62
402.63	146.62
402.854	93.62
403.078	80.62
403.302	81.62
403.526	88.62
403.75	79.62
403.974	88.62
404.198	85.62
404.422	81.62
404.645	79.62
404.869	83.62
405.093	96.62
405.317	110.62
405.541	118.62
405.765	101.62
405.988	127.62
406.212	215.62
406.436	304.62
406.66	193.62
406.883	126.62
407.107	96.62
407.331	93.62
407.555	89.62
407.778	82.62
408.002	82.62
408.226	101.62
408.449	90.62
408.673	78.62
408.896	101.62
409.12	78.62
409.344	73.62
409.567	84.62
409.791	81.62
410.014	79.62
410.238	96.62
410.461	88.62
410.685	85.62
410.908	85.62
411.132	79.62
411.355	77.62
411.578	85.62
411.802	88.62
412.025	74.62
412.249	94.62
412.472	102.62
412.695	110.62
412.919	98.62
413.142	94.62
413.365	91.62
413.589	88.62
413.812	85.62
414.035	84.62
414.258	80.62
414.482	79.62
414.705	78.62
414.928	86.62
415.151	84.62
415.374	80.62
415.597	91.62
415.821	92.62
416.044	82.62
416.267	89.62
416.49	87.62
416.713	82.62
416.936	64.62
417.159	94.62
417.382	92.62
417.605	99.62
417.828	96.62
418.051	104.62
418.274	105.62
418.497	87.62
418.72	85.62
418.943	76.62
419.166	92.62
419.389	80.62
419.611	72.62
419.834	92.62
420.057	83.62
420.28	86.62
420.503	83.62
420.726	88.62
420.948	78.62
421.171	84.62
421.394	94.62
421.617	80.62
421.839	79.62
422.062	73.62
422.285	85.62
422.507	95.62
422.73	88.62
422.953	75.62
423.175	90.62
423.398	80.62
423.621	87.62
423.843	82.62
424.066	73.62
424.288	79.62
424.511	77.62
424.733	93.62
424.956	103.62
425.178	88.62
425.401	86.62
425.623	92.62
425.846	93.62
426.068	96.62
426.291	95.62
426.513	86.62
426.735	91.62
426.958	77.62
427.18	105.62
427.402	140.62
427.625	206.62
427.847	206.62
428.069	160.62
428.292	109.62
428.514	83.62
428.736	88.62
428.958	90.62
429.181	81.62
429.403	74.62
429.625	75.62
429.847	86.62
430.069	94.62
430.292	93.62
430.514	82.62
430.736	92.62
430.958	98.62
431.18	73.62
431.402	94.62
431.624	71.62
431.846	84.62
432.068	79.62
432.29	71.62
432.512	85.62
432.734	88.62
432.956	84.62
433.178	97.62
433.4	88.62
433.622	84.62
433.844	73.62
434.066	86.62
434.287	92.62
434.509	94.62
434.731	82.62
434.953	83.62
435.175	85.62
435.397	83.62
435.618	80.62
435.84	95.62
436.062	108.62
436.284	92.62
436.505	101.62
436.727	81.62
436.949	85.62
437.17	72.62
437.392	82.62
437.614	96.62
437.835	111.62
438.057	120.62
438.278	106.62
438.5	108.62
438.721	118.62
438.943	103.62
439.165	101.62
439.386	87.62
439.608	85.62
439.829	93.62
440.05	127.62
440.272	147.62
440.493	90.62
440.715	94.62
440.936	85.62
441.158	92.62
441.379	106.62
441.6	86.62
441.822	98.62
442.043	83.62
442.264	98.62
442.486	93.62
442.707	90.62
442.928	110.62
443.149	156.62
443.371	144.62
443.592	116.62
443.813	120.62
444.034	98.62
444.255	83.62
444.476	68.62
444.698	100.62
444.919	86.62
445.14	125.62
445.361	112.62
445.582	97.62
445.803	145.62
446.024	135.62
446.245	129.62
446.466	113.62
446.687	97.62
446.908	92.62
447.129	100.62
447.35	78.62
447.571	87.62
447.792	98.62
448.013	117.62
448.234	129.62
448.455	95.62
448.675	103.62
448.896	85.62
449.117	99.62
449.338	97.62
449.559	105.62
449.779	105.62
450	95.62
450.221	88.62
450.442	80.62
450.662	103.62
450.883	128.62
451.104	110.62
451.324	98.62
451.545	82.62
451.766	73.62
451.986	84.62
452.207	79.62
452.428	97.62
452.648	93.62
452.869	115.62
453.089	131.62
453.31	132.62
453.53	95.62
453.751	95.62
453.971	113.62
454.192	117.62
454.412	99.62
454.633	84.62
454.853	84.62
455.073	89.62
455.294	92.62
455.514	87.62
455.734	85.62
455.955	92.62
456.175	89.62
456.395	84.62
456.616	77.62
456.836	73.62
457.056	84.62
457.276	85.62
457.497	84.62
457.717	80.62
457.937	89.62
458.157	82.62
458.377	92.62
458.598	129.62
458.818	176.62
459.038	198.62
459.258	116.62
459.478	93.62
459.698	88.62
459.918	71.62
460.138	87.62
460.358	87.62
460.578	86.62
460.798	89.62
461.018	81.62
461.238	79.62
461.458	92.62
461.678	85.62
461.898	82.62
462.118	64.62
462.338	78.62
462.558	88.62
462.777	85.62
462.997	95.62
463.217	85.62
463.437	105.62
463.657	87.62
463.876	78.62
464.096	70.62
464.316	106.62
464.536	94.62
464.755	96.62
464.975	136.62
465.195	223.62
465.414	204.62
465.634	101.62
465.854	98.62
466.073	74.62
466.293	83.62
466.512	85.62
466.732	82.62
466.951	87.62
467.171	101.62
467.391	112.62
467.61	135.62
467.829	229.62
468.049	575.62
468.268	960.62
468.488	242.62
468.707	113.62
468.927	97.62
469.146	84.62
469.365	96.62
469.585	98.62
469.804	97.62
470.023	101.62
470.243	108.62
470.462	94.62
470.681	140.62
470.901	103.62
471.12	94.62
471.339	103.62
471.558	126.62
471.777	164.62
471.997	276.62
472.216	1086.62
472.435	2567.62
472.654	628.62
472.873	177.62
473.092	120.62
473.311	101.62
473.53	97.62
473.749	90.62
473.968	102.62
474.187	91.62
474.406	92.62
474.625	92.62
474.844	95.62
475.063	93.62
475.282	87.62
475.501	82.62
475.72	84.62
475.939	90.62
476.158	94.62
476.377	80.62
476.596	84.62
476.814	97.62
477.033	86.62
477.252	86.62
477.471	81.62
477.69	90.62
477.908	88.62
478.127	102.62
478.346	89.62
478.564	85.62
478.783	99.62
479.002	104.62
479.22	102.62
479.439	131.62
479.658	142.62
479.876	124.62
480.095	121.62
480.313	129.62
480.532	145.62
480.751	255.62
480.969	931.62
481.188	3910.62
481.406	2484.62
481.624	361.62
481.843	123.62
482.061	122.62
482.28	110.62
482.498	81.62
482.717	98.62
482.935	85.62
483.153	83.62
483.372	95.62
483.59	87.62
483.808	88.62
484.027	87.62
484.245	86.62
484.463	91.62
484.681	95.62
484.9	94.62
485.118	84.62
485.336	80.62
485.554	95.62
485.772	95.62
485.99	106.62
486.209	87.62
486.427	94.62
486.645	111.62
486.863	110.62
487.081	89.62
487.299	102.62
487.517	84.62
487.735	92.62
487.953	88.62
488.171	95.62
488.389	92.62
488.607	100.62
488.825	103.62
489.043	85.62
489.261	98.62
489.479	88.62
489.696	88.62
489.914	80.62
490.132	95.62
490.35	96.62
490.568	80.62
490.786	80.62
491.003	90.62
491.221	80.62
491.439	86.62
491.657	77.62
491.874	75.62
492.092	77.62
492.31	81.62
492.527	106.62
492.745	99.62
492.963	90.62
493.18	84.62
493.398	83.62
493.615	97.62
493.833	90.62
494.05	92.62
494.268	94.62
494.485	100.62
494.703	99.62
494.92	76.62
495.138	85.62
495.355	85.62
495.573	78.62
495.79	80.62
496.008	91.62
496.225	80.62
496.442	88.62
496.66	74.62
496.877	90.62
497.094	90.62
497.312	79.62
497.529	80.62
497.746	87.62
497.963	83.62
498.181	92.62
498.398	95.62
498.615	111.62
498.832	91.62
499.049	93.62
499.267	96.62
499.484	91.62
499.701	83.62
499.918	78.62
500.135	85.62
500.352	88.62
500.569	91.62
500.786	86.62
501.003	88.62
501.22	85.62
501.437	76.62
501.654	88.62
501.871	117.62
502.088	81.62
502.305	97.62
502.522	86.62
502.739	93.62
502.956	87.62
503.172	83.62
503.389	101.62
503.606	109.62
503.823	109.62
504.04	97.62
504.256	97.62
504.473	87.62
504.69	74.62
504.907	91.62
505.123	75.62
505.34	77.62
505.557	65.62
505.773	73.62
505.99	95.62
506.207	103.62
506.423	78.62
506.64	101.62
506.856	85.62
507.073	78.62
507.289	93.62
507.506	101.62
507.722	120.62
507.939	126.62
508.155	102.62
508.372	98.62
508.588	91.62
508.805	87.62
509.021	87.62
509.238	102.62
509.454	95.62
509.67	99.62
509.887	110.62
510.103	142.62
510.319	244.62
510.536	910.62
510.752	3233.62
510.968	927.62
511.184	186.62
511.401	145.62
511.617	98.62
511.833	105.62
512.049	100.62
512.265	79.62
512.481	88.62
512.698	96.62
512.914	100.62
513.13	90.62
513.346	101.62
513.562	87.62
513.778	94.62
513.994	93.62
514.21	104.62
514.426	119.62
514.642	156.62
514.858	148.62
515.074	209.62
