Data from Circ_2023_H10_HRD10591_00091.txt Node
Date: Wed Jan 03 09:50:49 EST 2024
User: Yrep
Spectrometer: HR+D1059
Trigger mode: 1
Integration Time (sec): 1.000000E-1
Scans to average: 1
Electric dark correction enabled: true
Nonlinearity correction enabled: false
Boxcar width: 0
XAxis mode: Wavelengths
Number of Pixels in Spectrum: 2048
>>>>>Begin Spectral Data<<<<<
223.165	-26
223.4	-26
223.635	-26
223.869	-16
224.104	-22
224.338	-9
224.573	-10
224.808	-22
225.042	-12
225.277	-6
225.511	14
225.746	3
225.98	3
226.215	15
226.449	12
226.683	12
226.918	35
227.152	29
227.387	33
227.621	31
227.856	30
228.09	37
228.324	40
228.559	64
228.793	78
229.027	69
229.262	80
229.496	96
229.73	98
229.964	105
230.199	72
230.433	77
230.667	90
230.901	77
231.136	67
231.37	81
231.604	96
231.838	88
232.072	88
232.306	86
232.541	77
232.775	83
233.009	74
233.243	79
233.477	85
233.711	81
233.945	86
234.179	78
234.413	73
234.647	65
234.881	68
235.115	76
235.349	82
235.583	86
235.817	83
236.051	91
236.285	74
236.519	90
236.753	78
236.987	86
237.221	83
237.455	98
237.689	73
237.922	79
238.156	76
238.39	84
238.624	76
238.858	76
239.091	81
239.325	80
239.559	82
239.793	67
240.027	80
240.26	88
240.494	82
240.728	78
240.961	74
241.195	88
241.429	71
241.662	76
241.896	92
242.13	82
242.363	75
242.597	78
242.83	79
243.064	88
243.298	67
243.531	79
243.765	92
243.998	82
244.232	95
244.465	81
244.699	95
244.932	92
245.166	75
245.399	75
245.633	92
245.866	80
246.099	87
246.333	62
246.566	71
246.8	84
247.033	82
247.266	85
247.5	86
247.733	81
247.966	82
248.2	90
248.433	89
248.666	82
248.899	90
249.133	92
249.366	112
249.599	113
249.832	98
250.066	78
250.299	72
250.532	88
250.765	87
250.998	93
251.231	82
251.465	86
251.698	90
251.931	83
252.164	83
252.397	83
252.63	72
252.863	81
253.096	77
253.329	89
253.562	85
253.795	82
254.028	75
254.261	92
254.494	100
254.727	89
254.96	81
255.193	87
255.426	81
255.659	89
255.892	106
256.124	107
256.357	88
256.59	72
256.823	79
257.056	79
257.289	102
257.521	90
257.754	86
257.987	95
258.22	94
258.452	104
258.685	98
258.918	99
259.151	109
259.383	83
259.616	87
259.849	80
260.081	85
260.314	85
260.547	91
260.779	103
261.012	107
261.244	115
261.477	93
261.71	99
261.942	128
262.175	136
262.407	82
262.64	84
262.872	93
263.105	82
263.337	94
263.57	88
263.802	86
264.035	77
264.267	89
264.499	109
264.732	77
264.964	87
265.197	75
265.429	81
265.661	81
265.894	87
266.126	86
266.358	67
266.591	88
266.823	83
267.055	83
267.287	92
267.52	86
267.752	82
267.984	80
268.216	77
268.448	83
268.681	78
268.913	76
269.145	97
269.377	91
269.609	90
269.841	81
270.073	95
270.306	76
270.538	88
270.77	78
271.002	91
271.234	97
271.466	110
271.698	93
271.93	82
272.162	90
272.394	72
272.626	92
272.858	90
273.09	76
273.322	95
273.553	83
273.785	77
274.017	96
274.249	96
274.481	83
274.713	98
274.945	100
275.176	93
275.408	107
275.64	126
275.872	140
276.104	112
276.335	106
276.567	124
276.799	160
277.031	189
277.262	239
277.494	178
277.726	124
277.957	103
278.189	87
278.421	105
278.652	86
278.884	88
279.115	90
279.347	99
279.579	123
279.81	145
280.042	233
280.273	321
280.505	212
280.736	104
280.968	98
281.199	93
281.431	85
281.662	94
281.894	95
282.125	114
282.356	121
282.588	183
282.819	134
283.051	88
283.282	98
283.513	88
283.745	85
283.976	84
284.207	103
284.439	86
284.67	88
284.901	82
285.132	90
285.364	93
285.595	90
285.826	95
286.057	92
286.288	87
286.52	101
286.751	75
286.982	105
287.213	87
287.444	88
287.675	89
287.906	88
288.138	85
288.369	104
288.6	106
288.831	95
289.062	89
289.293	100
289.524	104
289.755	82
289.986	75
290.217	88
290.448	102
290.679	93
290.91	92
291.141	79
291.371	86
291.602	104
291.833	84
292.064	95
292.295	86
292.526	91
292.757	92
292.987	97
293.218	88
293.449	81
293.68	84
293.91	77
294.141	89
294.372	84
294.603	88
294.833	94
295.064	87
295.295	90
295.525	90
295.756	92
295.987	129
296.217	154
296.448	148
296.679	98
296.909	94
297.14	96
297.37	89
297.601	84
297.831	96
298.062	99
298.292	103
298.523	86
298.753	82
298.984	114
299.214	98
299.445	93
299.675	106
299.905	127
300.136	98
300.366	81
300.597	89
300.827	90
301.057	105
301.288	108
301.518	117
301.748	100
301.979	118
302.209	98
302.439	99
302.669	88
302.9	88
303.13	104
303.36	113
303.59	136
303.82	156
304.051	98
304.281	95
304.511	103
304.741	103
304.971	101
305.201	107
305.431	102
305.661	93
305.891	100
306.121	106
306.352	116
306.582	116
306.812	115
307.042	128
307.272	189
307.502	204
307.731	190
307.961	145
308.191	96
308.421	91
308.651	100
308.881	110
309.111	96
309.341	100
309.571	97
309.8	107
310.03	102
310.26	113
310.49	98
310.72	95
310.949	128
311.179	122
311.409	103
311.639	99
311.868	122
312.098	105
312.328	106
312.557	122
312.787	138
313.017	127
313.246	102
313.476	81
313.706	94
313.935	102
314.165	129
314.394	106
314.624	107
314.853	106
315.083	86
315.312	90
315.542	116
315.771	90
316.001	96
316.23	93
316.46	106
316.689	90
316.919	101
317.148	127
317.377	119
317.607	110
317.836	94
318.065	99
318.295	94
318.524	83
318.753	89
318.983	112
319.212	113
319.441	121
319.67	125
319.9	99
320.129	89
320.358	112
320.587	95
320.816	110
321.046	136
321.275	102
321.504	110
321.733	107
321.962	95
322.191	123
322.42	126
322.649	130
322.878	123
323.108	124
323.337	140
323.566	164
323.795	178
324.024	244
324.253	474
324.482	985
324.71	2008
324.939	2609
325.168	962
325.397	269
325.626	184
325.855	150
326.084	144
326.313	158
326.542	178
326.77	258
326.999	542
327.228	1072
327.457	1938
327.686	1570
327.914	599
328.143	589
328.372	803
328.6	442
328.829	206
329.058	197
329.287	201
329.515	195
329.744	294
329.972	586
330.201	1243
330.43	1826
330.658	794
330.887	324
331.115	210
331.344	134
331.572	121
331.801	128
332.03	132
332.258	131
332.486	122
332.715	125
332.943	117
333.172	144
333.4	148
333.629	182
333.857	248
334.085	515
334.314	1131
334.542	2210
334.771	2121
334.999	533
335.227	199
335.455	140
335.684	123
335.912	116
336.14	120
336.369	116
336.597	115
336.825	107
337.053	93
337.281	110
337.51	88
337.738	94
337.966	98
338.194	103
338.422	112
338.65	98
338.878	102
339.106	100
339.334	98
339.562	106
339.79	101
340.018	105
340.246	95
340.474	108
340.702	103
340.93	106
341.158	106
341.386	105
341.614	110
341.842	103
342.07	108
342.298	97
342.526	91
342.754	82
342.981	95
343.209	92
343.437	111
343.665	97
343.893	90
344.12	95
344.348	95
344.576	94
344.804	99
345.031	101
345.259	108
345.487	112
345.714	113
345.942	100
346.17	76
346.397	105
346.625	97
346.853	97
347.08	100
347.308	101
347.535	92
347.763	105
347.99	115
348.218	120
348.445	134
348.673	110
348.9	98
349.128	103
349.355	95
349.583	88
349.81	111
350.037	107
350.265	108
350.492	95
350.72	99
350.947	96
351.174	114
351.402	137
351.629	92
351.856	115
352.083	123
352.311	125
352.538	131
352.765	127
352.992	127
353.22	110
353.447	115
353.674	98
353.901	99
354.128	96
354.355	100
354.583	103
354.81	108
355.037	99
355.264	103
355.491	91
355.718	81
355.945	76
356.172	108
356.399	82
356.626	95
356.853	98
357.08	94
357.307	80
357.534	98
357.761	96
357.988	111
358.215	97
358.441	82
358.668	83
358.895	96
359.122	91
359.349	80
359.576	94
359.802	116
360.029	135
360.256	138
360.483	126
360.709	110
360.936	91
361.163	91
361.39	107
361.616	106
361.843	109
362.07	106
362.296	112
362.523	101
362.749	95
362.976	100
363.203	95
363.429	82
363.656	85
363.882	92
364.109	101
364.335	100
364.562	111
364.788	99
365.015	98
365.241	110
365.468	124
365.694	121
365.92	110
366.147	110
366.373	89
366.599	96
366.826	103
367.052	90
367.278	87
367.505	105
367.731	100
367.957	101
368.184	113
368.41	106
368.636	122
368.862	127
369.089	131
369.315	114
369.541	94
369.767	96
369.993	75
370.219	103
370.445	99
370.672	87
370.898	97
371.124	83
371.35	93
371.576	88
371.802	92
372.028	82
372.254	97
372.48	101
372.706	81
372.932	79
373.158	95
373.384	98
373.61	102
373.835	96
374.061	100
374.287	99
374.513	95
374.739	97
374.965	123
375.191	96
375.416	97
375.642	106
375.868	90
376.094	97
376.319	95
376.545	100
376.771	100
376.997	87
377.222	97
377.448	104
377.674	85
377.899	95
378.125	81
378.35	99
378.576	86
378.802	89
379.027	84
379.253	91
379.478	89
379.704	88
379.929	102
380.155	89
380.38	82
380.606	123
380.831	106
381.057	111
381.282	84
381.507	97
381.733	89
381.958	96
382.184	94
382.409	98
382.634	115
382.86	96
383.085	99
383.31	103
383.535	98
383.761	83
383.986	113
384.211	95
384.436	97
384.662	94
384.887	102
385.112	98
385.337	96
385.562	96
385.787	98
386.013	116
386.238	104
386.463	96
386.688	108
386.913	96
387.138	103
387.363	102
387.588	97
387.813	94
388.038	107
388.263	97
388.488	111
388.713	82
388.938	97
389.163	107
389.387	92
389.612	85
389.837	85
390.062	94
390.287	98
390.512	102
390.736	84
390.961	87
391.186	118
391.411	89
391.636	98
391.86	98
392.085	83
392.31	89
392.534	102
392.759	86
392.984	87
393.208	96
393.433	86
393.658	102
393.882	100
394.107	88
394.331	88
394.556	86
394.78	90
395.005	111
395.229	91
395.454	90
395.678	95
395.903	89
396.127	90
396.352	85
396.576	78
396.801	100
397.025	90
397.249	83
397.474	86
397.698	89
397.922	102
398.147	94
398.371	75
398.595	103
398.82	88
399.044	102
399.268	94
399.492	96
399.717	98
399.941	95
400.165	122
400.389	94
400.613	98
400.837	90
401.062	95
401.286	100
401.51	98
401.734	80
401.958	110
402.182	144
402.406	202
402.63	164
402.854	94
403.078	83
403.302	89
403.526	95
403.75	91
403.974	92
404.198	92
404.422	97
404.645	99
404.869	98
405.093	129
405.317	163
405.541	151
405.765	123
405.988	121
406.212	217
406.436	323
406.66	203
406.883	129
407.107	105
407.331	121
407.555	111
407.778	116
408.002	102
408.226	97
408.449	100
408.673	79
408.896	102
409.12	120
409.344	87
409.567	97
409.791	81
410.014	101
410.238	103
410.461	98
410.685	112
410.908	100
411.132	114
411.355	115
411.578	93
411.802	112
412.025	95
412.249	103
412.472	138
412.695	155
412.919	118
413.142	100
413.365	99
413.589	86
413.812	91
414.035	94
414.258	99
414.482	87
414.705	101
414.928	90
415.151	93
415.374	99
415.597	96
415.821	90
416.044	89
416.267	101
416.49	88
416.713	92
416.936	84
417.159	95
417.382	104
417.605	122
417.828	127
418.051	105
418.274	114
418.497	101
418.72	92
418.943	91
419.166	83
419.389	91
419.611	96
419.834	102
420.057	107
420.28	95
420.503	100
420.726	96
420.948	104
421.171	104
421.394	99
421.617	94
421.839	90
422.062	89
422.285	99
422.507	107
422.73	133
422.953	102
423.175	92
423.398	86
423.621	90
423.843	71
424.066	84
424.288	91
424.511	100
424.733	104
424.956	136
425.178	107
425.401	115
425.623	120
425.846	93
426.068	98
426.291	97
426.513	92
426.735	95
426.958	115
427.18	145
427.402	180
427.625	261
427.847	248
428.069	233
428.292	145
428.514	106
428.736	95
428.958	92
429.181	102
429.403	93
429.625	112
429.847	97
430.069	130
430.292	103
430.514	82
430.736	92
430.958	91
431.18	84
431.402	88
431.624	91
431.846	83
432.068	87
432.29	103
432.512	82
432.734	95
432.956	108
433.178	105
433.4	116
433.622	100
433.844	91
434.066	82
434.287	89
434.509	106
434.731	99
434.953	104
435.175	95
435.397	117
435.618	95
435.84	115
436.062	145
436.284	130
436.505	111
436.727	111
436.949	93
437.17	99
437.392	103
437.614	101
437.835	123
438.057	164
438.278	155
438.5	116
438.721	158
438.943	120
439.165	94
439.386	98
439.608	117
439.829	116
440.05	154
440.272	202
440.493	112
440.715	88
440.936	91
441.158	86
441.379	92
441.6	103
441.822	103
442.043	115
442.264	130
442.486	129
442.707	119
442.928	116
443.149	156
443.371	170
443.592	148
443.813	137
444.034	134
444.255	101
444.476	111
444.698	103
444.919	97
445.14	133
445.361	142
445.582	154
445.803	194
446.024	187
446.245	169
446.466	126
446.687	90
446.908	91
447.129	93
447.35	94
447.571	110
447.792	106
448.013	121
448.234	121
448.455	126
448.675	130
448.896	152
449.117	105
449.338	117
449.559	148
449.779	156
450	102
450.221	87
450.442	97
450.662	128
450.883	130
451.104	126
451.324	104
451.545	99
451.766	81
451.986	82
452.207	90
452.428	89
452.648	106
452.869	123
453.089	142
453.31	161
453.53	97
453.751	87
453.971	118
454.192	154
454.412	101
454.633	117
454.853	94
455.073	83
455.294	90
455.514	113
455.734	94
455.955	89
456.175	94
456.395	90
456.616	85
456.836	84
457.056	85
457.276	97
457.497	96
457.717	99
457.937	84
458.157	96
458.377	106
458.598	134
458.818	200
459.038	236
459.258	152
459.478	110
459.698	83
459.918	90
460.138	71
460.358	90
460.578	92
460.798	92
461.018	90
461.238	89
461.458	91
461.678	82
461.898	107
462.118	78
462.338	92
462.558	98
462.777	101
462.997	112
463.217	123
463.437	105
463.657	88
463.876	103
464.096	97
464.316	97
464.536	107
464.755	115
464.975	138
465.195	244
465.414	232
465.634	108
465.854	98
466.073	109
466.293	104
466.512	96
466.732	86
466.951	94
467.171	107
467.391	110
467.61	144
467.829	256
468.049	713
468.268	1138
468.488	268
468.707	107
468.927	93
469.146	93
469.365	90
469.585	107
469.804	109
470.023	107
470.243	102
470.462	127
470.681	148
470.901	101
471.12	99
471.339	113
471.558	145
471.777	158
471.997	372
472.216	1345
472.435	3241
472.654	774
472.873	190
473.092	110
473.311	106
473.53	90
473.749	97
473.968	119
474.187	128
474.406	117
474.625	99
474.844	99
475.063	89
475.282	99
475.501	82
475.72	111
475.939	102
476.158	93
476.377	87
476.596	101
476.814	96
477.033	102
477.252	90
477.471	95
477.69	99
477.908	112
478.127	88
478.346	85
478.564	111
478.783	132
479.002	115
479.22	116
479.439	147
479.658	148
479.876	128
480.095	127
480.313	147
480.532	198
480.751	327
480.969	1192
481.188	5315
481.406	3276
481.624	455
481.843	155
482.061	126
482.28	88
482.498	115
482.717	106
482.935	92
483.153	102
483.372	95
483.59	89
483.808	100
484.027	98
484.245	111
484.463	103
484.681	102
484.9	97
485.118	111
485.336	95
485.554	109
485.772	103
485.99	114
486.209	103
486.427	107
486.645	114
486.863	126
487.081	115
487.299	106
487.517	94
487.735	104
487.953	103
488.171	112
488.389	115
488.607	112
488.825	90
489.043	82
489.261	84
489.479	89
489.696	94
489.914	91
490.132	93
490.35	86
490.568	96
490.786	103
491.003	106
491.221	103
491.439	87
491.657	91
491.874	113
492.092	93
492.31	101
492.527	110
492.745	112
492.963	83
493.18	111
493.398	98
493.615	97
493.833	103
494.05	90
494.268	83
494.485	95
494.703	113
494.92	102
495.138	91
495.355	104
495.573	88
495.79	110
496.008	102
496.225	96
496.442	99
496.66	90
496.877	100
497.094	97
497.312	88
497.529	100
497.746	91
497.963	94
498.181	82
498.398	111
498.615	137
498.832	101
499.049	83
499.267	97
499.484	102
499.701	90
499.918	93
500.135	108
500.352	109
500.569	105
500.786	97
501.003	94
501.22	93
501.437	90
501.654	103
501.871	121
502.088	102
502.305	86
502.522	94
502.739	100
502.956	105
503.172	98
503.389	108
503.606	129
503.823	103
504.04	112
504.256	91
504.473	91
504.69	88
504.907	97
505.123	97
505.34	88
505.557	95
505.773	101
505.99	113
506.207	102
506.423	105
506.64	92
506.856	85
507.073	97
507.289	104
507.506	116
507.722	146
507.939	137
508.155	118
508.372	99
508.588	107
508.805	94
509.021	98
509.238	91
509.454	103
509.67	91
509.887	114
510.103	143
510.319	234
510.536	900
510.752	3240
510.968	909
511.184	203
511.401	118
511.617	132
511.833	113
512.049	100
512.265	99
512.481	118
512.698	80
512.914	81
513.13	104
513.346	95
513.562	111
513.778	106
513.994	99
514.21	117
514.426	133
514.642	178
514.858	154
515.074	219
515.29	706
515.506	2464
515.721	901
515.937	210
516.153	118
516.369	110
516.585	111
516.801	137
517.016	108
517.232	112
517.448	106
517.664	98
517.879	107
518.095	104
518.311	109
518.527	132
518.742	106
518.958	122
519.173	98
519.389	89
519.605	105
519.82	103
520.036	126
520.251	148
520.467	130
520.682	131
520.898	130
521.113	150
521.329	186
521.544	284
521.76	912
521.975	4141
522.19	2591
522.406	514
522.621	167
522.836	127
523.052	118
523.267	115
523.482	106
523.698	104
523.913	146
524.128	118
524.343	98
524.559	90
524.774	95
524.989	96
525.204	131
525.419	126
525.634	104
525.849	88
526.064	97
526.28	88
526.495	90
526.71	87
526.925	99
527.14	99
527.355	98
527.57	90
527.785	104
527.999	98
528.214	106
528.429	94
528.644	118
528.859	91
529.074	99
529.289	141
529.503	284
529.718	121
529.933	102
530.148	80
530.363	103
530.577	102
530.792	88
531.007	104
531.221	97
531.436	99
531.651	97
531.865	98
532.08	88
532.295	94
532.509	91
532.724	85
532.938	106
533.153	100
533.367	107
533.582	96
533.796	93
534.011	98
534.225	86
534.44	90
534.654	96
534.868	98
535.083	87
535.297	96
535.511	104
535.726	104
535.94	116
536.154	100
536.369	103
536.583	84
536.797	92
537.011	82
537.225	99
537.44	99
537.654	87
537.868	89
538.082	100
538.296	87
538.51	88
538.724	81
538.938	91
539.153	102
539.367	120
539.581	109
539.795	90
540.009	87
540.222	94
540.436	100
540.65	99
540.864	111
541.078	106
541.292	86
541.506	94
541.72	97
541.934	101
542.147	78
542.361	83
542.575	82
542.789	89
543.002	76
543.216	95
543.43	107
543.644	99
543.857	95
544.071	94
544.285	110
544.498	90
544.712	79
544.925	97
545.139	96
545.352	98
545.566	68
545.779	76
545.993	116
546.206	86
546.42	100
546.633	103
546.847	94
547.06	102
547.274	101
547.487	102
547.7	84
547.914	107
548.127	91
548.34	96
548.554	105
548.767	89
548.98	87
549.193	76
549.407	87
549.62	75
549.833	95
550.046	88
550.259	85
550.473	97
550.686	84
550.899	93
551.112	99
551.325	107
551.538	97
551.751	93
551.964	102
552.177	93
552.39	99
552.603	92
552.816	97
553.029	97
553.242	102
553.455	102
553.667	126
553.88	118
554.093	104
554.306	127
554.519	142
554.732	113
554.944	112
555.157	98
555.37	85
555.583	97
555.795	95
556.008	105
556.221	94
556.433	80
556.646	108
556.859	90
557.071	94
557.284	87
557.496	81
557.709	84
557.921	104
558.134	99
558.346	80
558.559	81
558.771	94
558.984	94
559.196	81
559.409	102
559.621	97
559.833	111
560.046	84
560.258	122
560.47	147
560.683	114
560.895	104
561.107	98
561.32	92
561.532	90
561.744	87
561.956	95
562.168	99
562.381	79
562.593	100
562.805	83
563.017	111
563.229	94
563.441	75
563.653	90
563.865	86
564.077	98
564.289	89
564.501	103
564.713	87
564.925	86
565.137	107
565.349	95
565.561	106
565.773	105
565.985	86
566.197	84
566.408	86
566.62	102
566.832	95
567.044	92
567.255	80
567.467	98
567.679	98
567.891	91
568.102	82
568.314	79
568.526	73
568.737	102
568.949	88
569.161	90
569.372	106
569.584	95
569.795	102
570.007	113
570.218	298
570.43	159
570.641	102
570.853	82
571.064	101
571.276	89
571.487	96
571.698	84
571.91	72
572.121	105
572.333	76
572.544	96
572.755	93
572.966	99
573.178	87
573.389	97
573.6	87
573.811	102
574.023	83
574.234	95
574.445	89
574.656	85
574.867	80
575.078	90
575.289	97
575.501	106
575.712	96
575.923	91
576.134	105
576.345	93
576.556	88
576.767	89
576.978	87
577.188	86
577.399	98
577.61	98
577.821	87
578.032	138
