Data from Circ_2023_H10_HRD10591_00066.txt Node
Date: Wed Jan 03 09:50:44 EST 2024
User: Yrep
Spectrometer: HR+D1059
Trigger mode: 1
Integration Time (sec): 1.000000E-1
Scans to average: 1
Electric dark correction enabled: true
Nonlinearity correction enabled: false
Boxcar width: 0
XAxis mode: Wavelengths
Number of Pixels in Spectrum: 2048
>>>>>Begin Spectral Data<<<<<
223.165	-17.75
223.4	-17.75
223.635	-17.75
223.869	-14.75
224.104	-27.75
224.338	-20.75
224.573	-3.75
224.808	-16.75
225.042	-9.75
225.277	4.25
225.511	-10.75
225.746	-10.75
225.98	2.25
226.215	25.25
226.449	12.25
226.683	26.25
226.918	24.25
227.152	38.25
227.387	35.25
227.621	31.25
227.856	34.25
228.09	46.25
228.324	45.25
228.559	47.25
228.793	63.25
229.027	66.25
229.262	64.25
229.496	78.25
229.73	80.25
229.964	79.25
230.199	88.25
230.433	84.25
230.667	73.25
230.901	100.25
231.136	73.25
231.37	75.25
231.604	84.25
231.838	84.25
232.072	79.25
232.306	87.25
232.541	86.25
232.775	78.25
233.009	79.25
233.243	85.25
233.477	84.25
233.711	73.25
233.945	70.25
234.179	84.25
234.413	88.25
234.647	75.25
234.881	86.25
235.115	84.25
235.349	79.25
235.583	85.25
235.817	89.25
236.051	73.25
236.285	75.25
236.519	74.25
236.753	81.25
236.987	89.25
237.221	91.25
237.455	102.25
237.689	81.25
237.922	94.25
238.156	71.25
238.39	62.25
238.624	69.25
238.858	86.25
239.091	91.25
239.325	93.25
239.559	87.25
239.793	93.25
240.027	74.25
240.26	83.25
240.494	76.25
240.728	70.25
240.961	86.25
241.195	83.25
241.429	70.25
241.662	88.25
241.896	76.25
242.13	71.25
242.363	68.25
242.597	83.25
242.83	76.25
243.064	59.25
243.298	84.25
243.531	70.25
243.765	78.25
243.998	82.25
244.232	85.25
244.465	85.25
244.699	89.25
244.932	81.25
245.166	71.25
245.399	79.25
245.633	69.25
245.866	82.25
246.099	75.25
246.333	75.25
246.566	67.25
246.8	85.25
247.033	77.25
247.266	78.25
247.5	82.25
247.733	74.25
247.966	75.25
248.2	77.25
248.433	76.25
248.666	79.25
248.899	77.25
249.133	104.25
249.366	107.25
249.599	104.25
249.832	93.25
250.066	83.25
250.299	83.25
250.532	96.25
250.765	75.25
250.998	78.25
251.231	89.25
251.465	85.25
251.698	88.25
251.931	83.25
252.164	76.25
252.397	81.25
252.63	76.25
252.863	77.25
253.096	85.25
253.329	78.25
253.562	79.25
253.795	68.25
254.028	83.25
254.261	83.25
254.494	76.25
254.727	81.25
254.96	67.25
255.193	91.25
255.426	104.25
255.659	86.25
255.892	104.25
256.124	103.25
256.357	97.25
256.59	87.25
256.823	84.25
257.056	91.25
257.289	78.25
257.521	89.25
257.754	88.25
257.987	77.25
258.22	96.25
258.452	108.25
258.685	94.25
258.918	99.25
259.151	97.25
259.383	80.25
259.616	89.25
259.849	84.25
260.081	91.25
260.314	86.25
260.547	91.25
260.779	83.25
261.012	108.25
261.244	123.25
261.477	111.25
261.71	96.25
261.942	136.25
262.175	134.25
262.407	103.25
262.64	78.25
262.872	99.25
263.105	76.25
263.337	102.25
263.57	71.25
263.802	80.25
264.035	93.25
264.267	73.25
264.499	84.25
264.732	102.25
264.964	78.25
265.197	78.25
265.429	88.25
265.661	79.25
265.894	76.25
266.126	104.25
266.358	95.25
266.591	81.25
266.823	102.25
267.055	89.25
267.287	91.25
267.52	70.25
267.752	84.25
267.984	68.25
268.216	85.25
268.448	81.25
268.681	111.25
268.913	86.25
269.145	91.25
269.377	80.25
269.609	88.25
269.841	83.25
270.073	83.25
270.306	96.25
270.538	72.25
270.77	78.25
271.002	79.25
271.234	92.25
271.466	106.25
271.698	93.25
271.93	91.25
272.162	85.25
272.394	91.25
272.626	71.25
272.858	92.25
273.09	88.25
273.322	91.25
273.553	85.25
273.785	83.25
274.017	88.25
274.249	84.25
274.481	94.25
274.713	97.25
274.945	88.25
275.176	103.25
275.408	109.25
275.64	117.25
275.872	128.25
276.104	109.25
276.335	103.25
276.567	107.25
276.799	155.25
277.031	192.25
277.262	215.25
277.494	179.25
277.726	133.25
277.957	99.25
278.189	91.25
278.421	73.25
278.652	92.25
278.884	90.25
279.115	101.25
279.347	95.25
279.579	107.25
279.81	144.25
280.042	207.25
280.273	294.25
280.505	207.25
280.736	123.25
280.968	96.25
281.199	83.25
281.431	99.25
281.662	96.25
281.894	90.25
282.125	108.25
282.356	153.25
282.588	182.25
282.819	133.25
283.051	103.25
283.282	82.25
283.513	91.25
283.745	75.25
283.976	92.25
284.207	70.25
284.439	85.25
284.67	91.25
284.901	107.25
285.132	80.25
285.364	89.25
285.595	99.25
285.826	89.25
286.057	93.25
286.288	95.25
286.52	93.25
286.751	74.25
286.982	82.25
287.213	81.25
287.444	88.25
287.675	99.25
287.906	85.25
288.138	91.25
288.369	95.25
288.6	102.25
288.831	87.25
289.062	92.25
289.293	68.25
289.524	90.25
289.755	97.25
289.986	93.25
290.217	78.25
290.448	78.25
290.679	100.25
290.91	77.25
291.141	92.25
291.371	86.25
291.602	96.25
291.833	88.25
292.064	103.25
292.295	95.25
292.526	92.25
292.757	98.25
292.987	86.25
293.218	104.25
293.449	98.25
293.68	86.25
293.91	96.25
294.141	82.25
294.372	99.25
294.603	102.25
294.833	82.25
295.064	93.25
295.295	90.25
295.525	101.25
295.756	107.25
295.987	120.25
296.217	160.25
296.448	131.25
296.679	86.25
296.909	83.25
297.14	86.25
297.37	92.25
297.601	99.25
297.831	88.25
298.062	91.25
298.292	97.25
298.523	91.25
298.753	93.25
298.984	104.25
299.214	106.25
299.445	84.25
299.675	111.25
299.905	81.25
300.136	76.25
300.366	94.25
300.597	107.25
300.827	104.25
301.057	115.25
301.288	102.25
301.518	104.25
301.748	108.25
301.979	123.25
302.209	110.25
302.439	94.25
302.669	99.25
302.9	99.25
303.13	90.25
303.36	106.25
303.59	118.25
303.82	138.25
304.051	117.25
304.281	92.25
304.511	95.25
304.741	92.25
304.971	98.25
305.201	83.25
305.431	85.25
305.661	95.25
305.891	87.25
306.121	97.25
306.352	114.25
306.582	110.25
306.812	129.25
307.042	143.25
307.272	156.25
307.502	169.25
307.731	174.25
307.961	127.25
308.191	91.25
308.421	95.25
308.651	94.25
308.881	96.25
309.111	87.25
309.341	95.25
309.571	100.25
309.8	87.25
310.03	114.25
310.26	102.25
310.49	120.25
310.72	112.25
310.949	124.25
311.179	116.25
311.409	94.25
311.639	99.25
311.868	118.25
312.098	101.25
312.328	94.25
312.557	123.25
312.787	137.25
313.017	132.25
313.246	85.25
313.476	83.25
313.706	87.25
313.935	112.25
314.165	109.25
314.394	126.25
314.624	91.25
314.853	98.25
315.083	108.25
315.312	93.25
315.542	89.25
315.771	89.25
316.001	101.25
316.23	107.25
316.46	86.25
316.689	87.25
316.919	100.25
317.148	107.25
317.377	103.25
317.607	103.25
317.836	100.25
318.065	96.25
318.295	96.25
318.524	96.25
318.753	100.25
318.983	98.25
319.212	103.25
319.441	115.25
319.67	117.25
319.9	91.25
320.129	98.25
320.358	98.25
320.587	108.25
320.816	96.25
321.046	107.25
321.275	115.25
321.504	109.25
321.733	91.25
321.962	100.25
322.191	121.25
322.42	109.25
322.649	115.25
322.878	119.25
323.108	134.25
323.337	144.25
323.566	150.25
323.795	177.25
324.024	250.25
324.253	472.25
324.482	1025.25
324.71	2112.25
324.939	2808.25
325.168	1030.25
325.397	297.25
325.626	165.25
325.855	156.25
326.084	141.25
326.313	144.25
326.542	190.25
326.77	269.25
326.999	549.25
327.228	1122.25
327.457	2021.25
327.686	1670.25
327.914	591.25
328.143	605.25
328.372	762.25
328.6	429.25
328.829	209.25
329.058	195.25
329.287	206.25
329.515	200.25
329.744	294.25
329.972	570.25
330.201	1165.25
330.43	1728.25
330.658	753.25
330.887	313.25
331.115	205.25
331.344	139.25
331.572	110.25
331.801	136.25
332.03	115.25
332.258	116.25
332.486	111.25
332.715	135.25
332.943	111.25
333.172	134.25
333.4	126.25
333.629	175.25
333.857	247.25
334.085	497.25
334.314	1081.25
334.542	2092.25
334.771	2017.25
334.999	512.25
335.227	197.25
335.455	142.25
335.684	119.25
335.912	121.25
336.14	107.25
336.369	111.25
336.597	123.25
336.825	111.25
337.053	93.25
337.281	96.25
337.51	94.25
337.738	96.25
337.966	99.25
338.194	113.25
338.422	107.25
338.65	104.25
338.878	86.25
339.106	86.25
339.334	95.25
339.562	97.25
339.79	88.25
340.018	98.25
340.246	101.25
340.474	104.25
340.702	105.25
340.93	82.25
341.158	95.25
341.386	94.25
341.614	103.25
341.842	97.25
342.07	93.25
342.298	90.25
342.526	96.25
342.754	92.25
342.981	93.25
343.209	86.25
343.437	105.25
343.665	93.25
343.893	82.25
344.12	93.25
344.348	83.25
344.576	86.25
344.804	102.25
345.031	103.25
345.259	110.25
345.487	92.25
345.714	99.25
345.942	95.25
346.17	98.25
346.397	105.25
346.625	104.25
346.853	94.25
347.08	94.25
347.308	112.25
347.535	95.25
347.763	113.25
347.99	100.25
348.218	102.25
348.445	101.25
348.673	116.25
348.9	92.25
349.128	94.25
349.355	108.25
349.583	87.25
349.81	91.25
350.037	98.25
350.265	87.25
350.492	87.25
350.72	98.25
350.947	102.25
351.174	124.25
351.402	112.25
351.629	108.25
351.856	99.25
352.083	98.25
352.311	102.25
352.538	123.25
352.765	122.25
352.992	126.25
353.22	114.25
353.447	102.25
353.674	110.25
353.901	94.25
354.128	108.25
354.355	86.25
354.583	97.25
354.81	98.25
355.037	94.25
355.264	103.25
355.491	85.25
355.718	87.25
355.945	96.25
356.172	78.25
356.399	91.25
356.626	93.25
356.853	96.25
357.08	86.25
357.307	88.25
357.534	105.25
357.761	110.25
357.988	80.25
358.215	87.25
358.441	88.25
358.668	92.25
358.895	96.25
359.122	86.25
359.349	91.25
359.576	89.25
359.802	119.25
360.029	129.25
360.256	143.25
360.483	99.25
360.709	81.25
360.936	96.25
361.163	103.25
361.39	94.25
361.616	121.25
361.843	99.25
362.07	89.25
362.296	104.25
362.523	98.25
362.749	109.25
362.976	95.25
363.203	100.25
363.429	90.25
363.656	94.25
363.882	98.25
364.109	81.25
364.335	94.25
364.562	93.25
364.788	94.25
365.015	95.25
365.241	99.25
365.468	109.25
365.694	124.25
365.92	103.25
366.147	98.25
366.373	101.25
366.599	87.25
366.826	86.25
367.052	98.25
367.278	104.25
367.505	88.25
367.731	94.25
367.957	101.25
368.184	95.25
368.41	103.25
368.636	116.25
368.862	137.25
369.089	107.25
369.315	94.25
369.541	91.25
369.767	91.25
369.993	92.25
370.219	96.25
370.445	83.25
370.672	82.25
370.898	84.25
371.124	92.25
371.35	85.25
371.576	84.25
371.802	83.25
372.028	88.25
372.254	88.25
372.48	87.25
372.706	91.25
372.932	91.25
373.158	78.25
373.384	81.25
373.61	82.25
373.835	96.25
374.061	84.25
374.287	102.25
374.513	100.25
374.739	95.25
374.965	94.25
375.191	89.25
375.416	86.25
375.642	93.25
375.868	84.25
376.094	92.25
376.319	88.25
376.545	91.25
376.771	82.25
376.997	95.25
377.222	89.25
377.448	85.25
377.674	83.25
377.899	78.25
378.125	90.25
378.35	88.25
378.576	93.25
378.802	104.25
379.027	89.25
379.253	102.25
379.478	81.25
379.704	76.25
379.929	99.25
380.155	98.25
380.38	95.25
380.606	102.25
380.831	88.25
381.057	102.25
381.282	99.25
381.507	84.25
381.733	88.25
381.958	98.25
382.184	95.25
382.409	89.25
382.634	94.25
382.86	86.25
383.085	104.25
383.31	94.25
383.535	101.25
383.761	104.25
383.986	96.25
384.211	104.25
384.436	99.25
384.662	112.25
384.887	95.25
385.112	94.25
385.337	99.25
385.562	90.25
385.787	94.25
386.013	113.25
386.238	122.25
386.463	88.25
386.688	111.25
386.913	111.25
387.138	96.25
387.363	102.25
387.588	105.25
387.813	90.25
388.038	94.25
388.263	100.25
388.488	101.25
388.713	85.25
388.938	90.25
389.163	91.25
389.387	107.25
389.612	83.25
389.837	88.25
390.062	94.25
390.287	81.25
390.512	84.25
390.736	82.25
390.961	86.25
391.186	93.25
391.411	90.25
391.636	82.25
391.86	92.25
392.085	87.25
392.31	97.25
392.534	83.25
392.759	83.25
392.984	86.25
393.208	85.25
393.433	85.25
393.658	97.25
393.882	89.25
394.107	76.25
394.331	80.25
394.556	63.25
394.78	84.25
395.005	83.25
395.229	101.25
395.454	96.25
395.678	91.25
395.903	92.25
396.127	83.25
396.352	104.25
396.576	91.25
396.801	72.25
397.025	81.25
397.249	83.25
397.474	95.25
397.698	78.25
397.922	96.25
398.147	95.25
398.371	95.25
398.595	93.25
398.82	85.25
399.044	96.25
399.268	78.25
399.492	83.25
399.717	93.25
399.941	88.25
400.165	96.25
400.389	100.25
400.613	85.25
400.837	102.25
401.062	112.25
401.286	100.25
401.51	103.25
401.734	105.25
401.958	122.25
402.182	137.25
402.406	208.25
402.63	131.25
402.854	111.25
403.078	112.25
403.302	95.25
403.526	92.25
403.75	83.25
403.974	80.25
404.198	108.25
404.422	74.25
404.645	73.25
404.869	88.25
405.093	132.25
405.317	162.25
405.541	161.25
405.765	127.25
405.988	146.25
406.212	201.25
406.436	279.25
406.66	207.25
406.883	115.25
407.107	98.25
407.331	124.25
407.555	123.25
407.778	112.25
408.002	91.25
408.226	92.25
408.449	79.25
408.673	102.25
408.896	94.25
409.12	106.25
409.344	103.25
409.567	85.25
409.791	86.25
410.014	82.25
410.238	91.25
410.461	100.25
410.685	104.25
410.908	94.25
411.132	107.25
411.355	121.25
411.578	97.25
411.802	82.25
412.025	90.25
412.249	114.25
412.472	128.25
412.695	154.25
412.919	116.25
413.142	103.25
413.365	88.25
413.589	85.25
413.812	84.25
414.035	89.25
414.258	87.25
414.482	96.25
414.705	102.25
414.928	104.25
415.151	91.25
415.374	91.25
415.597	96.25
415.821	112.25
416.044	96.25
416.267	94.25
416.49	81.25
416.713	107.25
416.936	91.25
417.159	83.25
417.382	95.25
417.605	108.25
417.828	109.25
418.051	100.25
418.274	77.25
418.497	82.25
418.72	104.25
418.943	85.25
419.166	82.25
419.389	91.25
419.611	95.25
419.834	80.25
420.057	91.25
420.28	92.25
420.503	83.25
420.726	94.25
420.948	95.25
421.171	109.25
421.394	113.25
421.617	91.25
421.839	92.25
422.062	96.25
422.285	88.25
422.507	107.25
422.73	109.25
422.953	103.25
423.175	96.25
423.398	91.25
423.621	91.25
423.843	87.25
424.066	87.25
424.288	95.25
424.511	99.25
424.733	128.25
424.956	123.25
425.178	127.25
425.401	115.25
425.623	97.25
425.846	98.25
426.068	97.25
426.291	100.25
426.513	96.25
426.735	97.25
426.958	121.25
427.18	127.25
427.402	177.25
427.625	269.25
427.847	251.25
428.069	253.25
428.292	132.25
428.514	100.25
428.736	89.25
428.958	82.25
429.181	69.25
429.403	76.25
429.625	108.25
429.847	114.25
430.069	123.25
430.292	116.25
430.514	86.25
430.736	91.25
430.958	98.25
431.18	87.25
431.402	94.25
431.624	97.25
431.846	83.25
432.068	73.25
432.29	97.25
432.512	90.25
432.734	92.25
432.956	87.25
433.178	97.25
433.4	104.25
433.622	90.25
433.844	93.25
434.066	99.25
434.287	96.25
434.509	93.25
434.731	100.25
434.953	93.25
435.175	96.25
435.397	100.25
435.618	96.25
435.84	110.25
436.062	141.25
436.284	150.25
436.505	114.25
436.727	88.25
436.949	91.25
437.17	89.25
437.392	77.25
437.614	108.25
437.835	131.25
438.057	156.25
438.278	142.25
438.5	134.25
438.721	144.25
438.943	115.25
439.165	76.25
439.386	92.25
439.608	87.25
439.829	126.25
440.05	148.25
440.272	190.25
440.493	129.25
440.715	96.25
440.936	92.25
441.158	104.25
441.379	93.25
441.6	110.25
441.822	94.25
442.043	108.25
442.264	122.25
442.486	126.25
442.707	94.25
442.928	123.25
443.149	189.25
443.371	174.25
443.592	149.25
443.813	150.25
444.034	137.25
444.255	108.25
444.476	95.25
444.698	84.25
444.919	94.25
445.14	127.25
445.361	157.25
445.582	150.25
445.803	199.25
446.024	199.25
446.245	181.25
446.466	139.25
446.687	81.25
446.908	81.25
447.129	104.25
447.35	94.25
447.571	113.25
447.792	75.25
448.013	96.25
448.234	111.25
448.455	123.25
448.675	146.25
448.896	174.25
449.117	117.25
449.338	135.25
449.559	160.25
449.779	175.25
450	120.25
450.221	91.25
450.442	83.25
450.662	99.25
450.883	120.25
451.104	139.25
451.324	93.25
451.545	92.25
451.766	79.25
451.986	77.25
452.207	94.25
452.428	96.25
452.648	116.25
452.869	144.25
453.089	136.25
453.31	150.25
453.53	94.25
453.751	86.25
453.971	114.25
454.192	139.25
454.412	88.25
454.633	88.25
454.853	92.25
455.073	82.25
455.294	107.25
455.514	107.25
455.734	104.25
455.955	85.25
456.175	88.25
456.395	94.25
456.616	97.25
456.836	89.25
457.056	89.25
457.276	88.25
457.497	83.25
457.717	91.25
457.937	80.25
458.157	76.25
458.377	96.25
458.598	148.25
458.818	190.25
459.038	226.25
459.258	158.25
459.478	99.25
459.698	85.25
459.918	94.25
460.138	81.25
460.358	100.25
460.578	97.25
460.798	100.25
461.018	110.25
461.238	79.25
461.458	75.25
461.678	96.25
461.898	97.25
462.118	84.25
462.338	86.25
462.558	91.25
462.777	81.25
462.997	100.25
463.217	89.25
463.437	106.25
463.657	97.25
463.876	91.25
464.096	92.25
464.316	91.25
464.536	108.25
464.755	115.25
464.975	141.25
465.195	230.25
465.414	245.25
465.634	118.25
465.854	95.25
466.073	93.25
466.293	91.25
466.512	95.25
466.732	103.25
466.951	94.25
467.171	100.25
467.391	108.25
467.61	163.25
467.829	232.25
468.049	622.25
468.268	1009.25
468.488	260.25
468.707	115.25
468.927	95.25
469.146	109.25
469.365	81.25
469.585	88.25
469.804	127.25
470.023	111.25
470.243	107.25
470.462	121.25
470.681	147.25
470.901	134.25
471.12	96.25
471.339	109.25
471.558	113.25
471.777	152.25
471.997	344.25
472.216	1247.25
472.435	2972.25
472.654	718.25
472.873	196.25
473.092	103.25
473.311	107.25
473.53	84.25
473.749	89.25
473.968	99.25
474.187	130.25
474.406	104.25
474.625	87.25
474.844	85.25
475.063	76.25
475.282	85.25
475.501	76.25
475.72	101.25
475.939	86.25
476.158	107.25
476.377	92.25
476.596	89.25
476.814	123.25
477.033	120.25
477.252	97.25
477.471	96.25
477.69	92.25
477.908	104.25
478.127	92.25
478.346	96.25
478.564	90.25
478.783	100.25
479.002	116.25
479.22	110.25
479.439	143.25
479.658	141.25
479.876	141.25
480.095	128.25
480.313	136.25
480.532	174.25
480.751	314.25
480.969	1106.25
481.188	4872.25
481.406	3034.25
481.624	429.25
481.843	147.25
482.061	118.25
482.28	124.25
482.498	100.25
482.717	95.25
482.935	94.25
483.153	101.25
483.372	101.25
483.59	95.25
483.808	76.25
484.027	91.25
484.245	82.25
484.463	89.25
484.681	93.25
484.9	109.25
485.118	95.25
485.336	100.25
485.554	95.25
485.772	98.25
485.99	104.25
486.209	124.25
486.427	112.25
486.645	115.25
486.863	136.25
487.081	130.25
487.299	104.25
487.517	80.25
487.735	79.25
487.953	90.25
488.171	109.25
488.389	99.25
488.607	103.25
488.825	103.25
489.043	82.25
489.261	87.25
489.479	83.25
489.696	86.25
489.914	96.25
490.132	85.25
490.35	86.25
490.568	105.25
490.786	77.25
491.003	96.25
491.221	101.25
491.439	105.25
491.657	82.25
491.874	96.25
492.092	98.25
492.31	96.25
492.527	108.25
492.745	119.25
492.963	91.25
493.18	87.25
493.398	80.25
493.615	91.25
493.833	91.25
494.05	88.25
494.268	91.25
494.485	87.25
494.703	96.25
494.92	94.25
495.138	93.25
495.355	86.25
495.573	87.25
495.79	96.25
496.008	99.25
496.225	99.25
496.442	90.25
496.66	100.25
496.877	86.25
497.094	108.25
497.312	92.25
497.529	92.25
497.746	88.25
497.963	97.25
498.181	90.25
498.398	81.25
498.615	123.25
498.832	117.25
499.049	104.25
499.267	85.25
499.484	91.25
499.701	81.25
499.918	95.25
500.135	99.25
500.352	84.25
500.569	95.25
500.786	102.25
501.003	95.25
501.22	92.25
501.437	91.25
501.654	102.25
501.871	113.25
502.088	101.25
502.305	82.25
502.522	78.25
502.739	102.25
502.956	104.25
503.172	99.25
503.389	98.25
503.606	131.25
503.823	113.25
504.04	100.25
504.256	92.25
504.473	100.25
504.69	81.25
504.907	100.25
505.123	92.25
505.34	86.25
505.557	80.25
505.773	99.25
505.99	94.25
506.207	93.25
506.423	93.25
506.64	92.25
506.856	84.25
507.073	105.25
507.289	85.25
507.506	85.25
507.722	127.25
507.939	119.25
508.155	103.25
508.372	93.25
508.588	112.25
508.805	105.25
509.021	112.25
509.238	101.25
509.454	95.25
509.67	106.25
509.887	115.25
510.103	134.25
510.319	232.25
510.536	887.25
510.752	3118.25
510.968	871.25
511.184	186.25
511.401	129.25
511.617	112.25
511.833	129.25
512.049	100.25
512.265	95.25
512.481	95.25
512.698	104.25
