Data from Circ_2023_H10_HRD10591_00030.txt Node
Date: Wed Jan 03 09:50:37 EST 2024
User: Yrep
Spectrometer: HR+D1059
Trigger mode: 1
Integration Time (sec): 1.000000E-1
Scans to average: 1
Electric dark correction enabled: true
Nonlinearity correction enabled: false
Boxcar width: 0
XAxis mode: Wavelengths
Number of Pixels in Spectrum: 2048
>>>>>Begin Spectral Data<<<<<
223.165	-27.19
223.4	-27.19
223.635	-27.19
223.869	-17.19
224.104	-24.19
224.338	-17.19
224.573	-25.19
224.808	-10.19
225.042	-9.19
225.277	-14.19
225.511	14.81
225.746	7.81
225.98	14.81
226.215	7.81
226.449	30.81
226.683	12.81
226.918	18.81
227.152	36.81
227.387	28.81
227.621	42.81
227.856	48.81
228.09	51.81
228.324	40.81
228.559	52.81
228.793	56.81
229.027	70.81
229.262	68.81
229.496	78.81
229.73	93.81
229.964	104.81
230.199	66.81
230.433	62.81
230.667	86.81
230.901	88.81
231.136	71.81
231.37	66.81
231.604	79.81
231.838	87.81
232.072	85.81
232.306	86.81
232.541	77.81
232.775	83.81
233.009	82.81
233.243	74.81
233.477	77.81
233.711	66.81
233.945	91.81
234.179	84.81
234.413	80.81
234.647	78.81
234.881	87.81
235.115	93.81
235.349	80.81
235.583	81.81
235.817	75.81
236.051	81.81
236.285	80.81
236.519	84.81
236.753	69.81
236.987	80.81
237.221	95.81
237.455	98.81
237.689	75.81
237.922	79.81
238.156	68.81
238.39	88.81
238.624	80.81
238.858	81.81
239.091	78.81
239.325	78.81
239.559	82.81
239.793	78.81
240.027	84.81
240.26	82.81
240.494	87.81
240.728	81.81
240.961	92.81
241.195	71.81
241.429	85.81
241.662	83.81
241.896	79.81
242.13	88.81
242.363	91.81
242.597	80.81
242.83	73.81
243.064	80.81
243.298	83.81
243.531	79.81
243.765	65.81
243.998	73.81
244.232	83.81
244.465	89.81
244.699	88.81
244.932	84.81
245.166	77.81
245.399	79.81
245.633	73.81
245.866	77.81
246.099	86.81
246.333	75.81
246.566	97.81
246.8	78.81
247.033	74.81
247.266	85.81
247.5	69.81
247.733	67.81
247.966	84.81
248.2	75.81
248.433	88.81
248.666	85.81
248.899	72.81
249.133	84.81
249.366	110.81
249.599	97.81
249.832	98.81
250.066	71.81
250.299	92.81
250.532	89.81
250.765	86.81
250.998	92.81
251.231	73.81
251.465	92.81
251.698	80.81
251.931	74.81
252.164	85.81
252.397	82.81
252.63	97.81
252.863	81.81
253.096	90.81
253.329	72.81
253.562	74.81
253.795	87.81
254.028	98.81
254.261	84.81
254.494	80.81
254.727	80.81
254.96	89.81
255.193	81.81
255.426	81.81
255.659	83.81
255.892	84.81
256.124	85.81
256.357	93.81
256.59	89.81
256.823	90.81
257.056	85.81
257.289	88.81
257.521	82.81
257.754	80.81
257.987	87.81
258.22	87.81
258.452	96.81
258.685	101.81
258.918	101.81
259.151	100.81
259.383	83.81
259.616	87.81
259.849	83.81
260.081	92.81
260.314	81.81
260.547	80.81
260.779	94.81
261.012	114.81
261.244	105.81
261.477	105.81
261.71	89.81
261.942	126.81
262.175	146.81
262.407	96.81
262.64	87.81
262.872	83.81
263.105	82.81
263.337	88.81
263.57	94.81
263.802	90.81
264.035	83.81
264.267	90.81
264.499	86.81
264.732	81.81
264.964	79.81
265.197	82.81
265.429	85.81
265.661	99.81
265.894	72.81
266.126	88.81
266.358	89.81
266.591	90.81
266.823	74.81
267.055	89.81
267.287	98.81
267.52	93.81
267.752	87.81
267.984	97.81
268.216	85.81
268.448	86.81
268.681	84.81
268.913	81.81
269.145	80.81
269.377	90.81
269.609	82.81
269.841	88.81
270.073	94.81
270.306	80.81
270.538	82.81
270.77	74.81
271.002	75.81
271.234	85.81
271.466	97.81
271.698	87.81
271.93	98.81
272.162	73.81
272.394	93.81
272.626	102.81
272.858	87.81
273.09	87.81
273.322	77.81
273.553	72.81
273.785	83.81
274.017	65.81
274.249	91.81
274.481	82.81
274.713	99.81
274.945	84.81
275.176	92.81
275.408	110.81
275.64	120.81
275.872	128.81
276.104	124.81
276.335	96.81
276.567	115.81
276.799	166.81
277.031	183.81
277.262	206.81
277.494	182.81
277.726	89.81
277.957	103.81
278.189	91.81
278.421	81.81
278.652	95.81
278.884	100.81
279.115	80.81
279.347	92.81
279.579	108.81
279.81	133.81
280.042	203.81
280.273	291.81
280.505	209.81
280.736	108.81
280.968	90.81
281.199	98.81
281.431	97.81
281.662	88.81
281.894	95.81
282.125	95.81
282.356	133.81
282.588	190.81
282.819	132.81
283.051	94.81
283.282	84.81
283.513	81.81
283.745	72.81
283.976	81.81
284.207	87.81
284.439	83.81
284.67	95.81
284.901	92.81
285.132	86.81
285.364	80.81
285.595	90.81
285.826	98.81
286.057	84.81
286.288	86.81
286.52	82.81
286.751	86.81
286.982	85.81
287.213	86.81
287.444	83.81
287.675	86.81
287.906	80.81
288.138	78.81
288.369	98.81
288.6	77.81
288.831	85.81
289.062	96.81
289.293	88.81
289.524	89.81
289.755	85.81
289.986	84.81
290.217	90.81
290.448	86.81
290.679	71.81
290.91	86.81
291.141	93.81
291.371	85.81
291.602	85.81
291.833	92.81
292.064	78.81
292.295	91.81
292.526	96.81
292.757	84.81
292.987	104.81
293.218	86.81
293.449	87.81
293.68	96.81
293.91	86.81
294.141	103.81
294.372	84.81
294.603	85.81
294.833	96.81
295.064	81.81
295.295	94.81
295.525	102.81
295.756	103.81
295.987	148.81
296.217	172.81
296.448	144.81
296.679	98.81
296.909	86.81
297.14	93.81
297.37	84.81
297.601	97.81
297.831	89.81
298.062	91.81
298.292	85.81
298.523	92.81
298.753	82.81
298.984	109.81
299.214	110.81
299.445	83.81
299.675	102.81
299.905	121.81
300.136	94.81
300.366	94.81
300.597	92.81
300.827	94.81
301.057	122.81
301.288	120.81
301.518	111.81
301.748	101.81
301.979	110.81
302.209	96.81
302.439	94.81
302.669	93.81
302.9	87.81
303.13	104.81
303.36	97.81
303.59	128.81
303.82	138.81
304.051	91.81
304.281	97.81
304.511	95.81
304.741	76.81
304.971	84.81
305.201	88.81
305.431	87.81
305.661	99.81
305.891	85.81
306.121	98.81
306.352	101.81
306.582	117.81
306.812	122.81
307.042	134.81
307.272	155.81
307.502	157.81
307.731	153.81
307.961	137.81
308.191	95.81
308.421	93.81
308.651	90.81
308.881	86.81
309.111	93.81
309.341	95.81
309.571	105.81
309.8	102.81
310.03	95.81
310.26	102.81
310.49	95.81
310.72	113.81
310.949	131.81
311.179	115.81
311.409	119.81
311.639	110.81
311.868	103.81
312.098	103.81
312.328	94.81
312.557	110.81
312.787	132.81
313.017	127.81
313.246	98.81
313.476	95.81
313.706	107.81
313.935	97.81
314.165	110.81
314.394	99.81
314.624	103.81
314.853	97.81
315.083	113.81
315.312	82.81
315.542	99.81
315.771	92.81
316.001	92.81
316.23	90.81
316.46	88.81
316.689	94.81
316.919	95.81
317.148	101.81
317.377	91.81
317.607	89.81
317.836	112.81
318.065	97.81
318.295	83.81
318.524	93.81
318.753	88.81
318.983	92.81
319.212	120.81
319.441	114.81
319.67	135.81
319.9	85.81
320.129	107.81
320.358	104.81
320.587	93.81
320.816	108.81
321.046	117.81
321.275	100.81
321.504	101.81
321.733	97.81
321.962	97.81
322.191	114.81
322.42	108.81
322.649	121.81
322.878	120.81
323.108	129.81
323.337	147.81
323.566	162.81
323.795	182.81
324.024	260.81
324.253	498.81
324.482	1090.81
324.71	2160.81
324.939	2891.81
325.168	1073.81
325.397	308.81
325.626	180.81
325.855	136.81
326.084	124.81
326.313	138.81
326.542	174.81
326.77	297.81
326.999	569.81
327.228	1166.81
327.457	2067.81
327.686	1690.81
327.914	601.81
328.143	573.81
328.372	745.81
328.6	399.81
328.829	199.81
329.058	207.81
329.287	210.81
329.515	202.81
329.744	280.81
329.972	526.81
330.201	1063.81
330.43	1593.81
330.658	690.81
330.887	313.81
331.115	212.81
331.344	122.81
331.572	128.81
331.801	138.81
332.03	135.81
332.258	112.81
332.486	96.81
332.715	118.81
332.943	122.81
333.172	128.81
333.4	144.81
333.629	159.81
333.857	228.81
334.085	471.81
334.314	992.81
334.542	1949.81
334.771	1864.81
334.999	472.81
335.227	204.81
335.455	139.81
335.684	127.81
335.912	111.81
336.14	90.81
336.369	118.81
336.597	128.81
336.825	120.81
337.053	108.81
337.281	103.81
337.51	96.81
337.738	106.81
337.966	109.81
338.194	93.81
338.422	100.81
338.65	111.81
338.878	93.81
339.106	93.81
339.334	91.81
339.562	94.81
339.79	95.81
340.018	88.81
340.246	96.81
340.474	97.81
340.702	104.81
340.93	97.81
341.158	94.81
341.386	93.81
341.614	99.81
341.842	101.81
342.07	90.81
342.298	89.81
342.526	92.81
342.754	90.81
342.981	85.81
343.209	78.81
343.437	92.81
343.665	99.81
343.893	96.81
344.12	92.81
344.348	92.81
344.576	88.81
344.804	105.81
345.031	104.81
345.259	111.81
345.487	90.81
345.714	93.81
345.942	100.81
346.17	101.81
346.397	88.81
346.625	88.81
346.853	100.81
347.08	96.81
347.308	97.81
347.535	97.81
347.763	111.81
347.99	95.81
348.218	132.81
348.445	124.81
348.673	97.81
348.9	95.81
349.128	93.81
349.355	93.81
349.583	103.81
349.81	91.81
350.037	87.81
350.265	88.81
350.492	102.81
350.72	90.81
350.947	101.81
351.174	123.81
351.402	124.81
351.629	117.81
351.856	106.81
352.083	100.81
352.311	129.81
352.538	123.81
352.765	122.81
352.992	120.81
353.22	113.81
353.447	113.81
353.674	100.81
353.901	80.81
354.128	97.81
354.355	107.81
354.583	101.81
354.81	99.81
355.037	94.81
355.264	95.81
355.491	81.81
355.718	88.81
355.945	91.81
356.172	93.81
356.399	90.81
356.626	82.81
356.853	93.81
357.08	97.81
357.307	95.81
357.534	91.81
357.761	81.81
357.988	89.81
358.215	85.81
358.441	93.81
358.668	93.81
358.895	91.81
359.122	88.81
359.349	95.81
359.576	93.81
359.802	114.81
360.029	140.81
360.256	145.81
360.483	135.81
360.709	106.81
360.936	87.81
361.163	88.81
361.39	104.81
361.616	106.81
361.843	104.81
362.07	110.81
362.296	122.81
362.523	120.81
362.749	106.81
362.976	101.81
363.203	106.81
363.429	96.81
363.656	94.81
363.882	80.81
364.109	101.81
364.335	99.81
364.562	98.81
364.788	82.81
365.015	101.81
365.241	90.81
365.468	126.81
365.694	115.81
365.92	106.81
366.147	92.81
366.373	96.81
366.599	95.81
366.826	104.81
367.052	95.81
367.278	103.81
367.505	100.81
367.731	101.81
367.957	97.81
368.184	87.81
368.41	106.81
368.636	143.81
368.862	137.81
369.089	135.81
369.315	97.81
369.541	102.81
369.767	104.81
369.993	96.81
370.219	88.81
370.445	93.81
370.672	79.81
370.898	65.81
371.124	84.81
371.35	78.81
371.576	93.81
371.802	84.81
372.028	85.81
372.254	85.81
372.48	84.81
372.706	82.81
372.932	86.81
373.158	94.81
373.384	87.81
373.61	94.81
373.835	91.81
374.061	101.81
374.287	92.81
374.513	95.81
374.739	103.81
374.965	87.81
375.191	94.81
375.416	91.81
375.642	88.81
375.868	92.81
376.094	87.81
376.319	88.81
376.545	77.81
376.771	80.81
376.997	88.81
377.222	81.81
377.448	88.81
377.674	97.81
377.899	98.81
378.125	85.81
378.35	91.81
378.576	97.81
378.802	99.81
379.027	103.81
379.253	91.81
379.478	85.81
379.704	94.81
379.929	101.81
380.155	104.81
380.38	88.81
380.606	73.81
380.831	95.81
381.057	89.81
381.282	83.81
381.507	92.81
381.733	100.81
381.958	90.81
382.184	98.81
382.409	99.81
382.634	93.81
382.86	70.81
383.085	97.81
383.31	88.81
383.535	93.81
383.761	97.81
383.986	83.81
384.211	89.81
384.436	100.81
384.662	88.81
384.887	98.81
385.112	107.81
385.337	85.81
385.562	103.81
385.787	107.81
386.013	104.81
386.238	124.81
386.463	85.81
386.688	108.81
386.913	96.81
387.138	112.81
387.363	100.81
387.588	95.81
387.813	105.81
388.038	94.81
388.263	112.81
388.488	97.81
388.713	94.81
388.938	93.81
389.163	94.81
389.387	94.81
389.612	90.81
389.837	95.81
390.062	82.81
390.287	84.81
390.512	81.81
390.736	94.81
390.961	108.81
391.186	96.81
391.411	88.81
391.636	86.81
391.86	85.81
392.085	79.81
392.31	93.81
392.534	72.81
392.759	84.81
392.984	87.81
393.208	77.81
393.433	86.81
393.658	85.81
393.882	92.81
394.107	90.81
394.331	89.81
394.556	77.81
394.78	84.81
395.005	85.81
395.229	89.81
395.454	88.81
395.678	64.81
395.903	83.81
396.127	84.81
396.352	83.81
396.576	93.81
396.801	77.81
397.025	74.81
397.249	70.81
397.474	86.81
397.698	101.81
397.922	94.81
398.147	100.81
398.371	81.81
398.595	86.81
398.82	86.81
399.044	100.81
399.268	78.81
399.492	90.81
399.717	81.81
399.941	84.81
400.165	103.81
400.389	89.81
400.613	96.81
400.837	94.81
401.062	96.81
401.286	84.81
401.51	89.81
401.734	97.81
401.958	121.81
402.182	153.81
402.406	201.81
402.63	150.81
402.854	105.81
403.078	74.81
403.302	86.81
403.526	86.81
403.75	96.81
403.974	85.81
404.198	89.81
404.422	96.81
404.645	90.81
404.869	100.81
405.093	125.81
405.317	152.81
405.541	145.81
405.765	119.81
405.988	143.81
406.212	228.81
406.436	333.81
406.66	221.81
406.883	120.81
407.107	105.81
407.331	90.81
407.555	109.81
407.778	104.81
408.002	99.81
408.226	97.81
408.449	86.81
408.673	93.81
408.896	94.81
409.12	104.81
409.344	81.81
409.567	101.81
409.791	85.81
410.014	82.81
410.238	91.81
410.461	92.81
410.685	88.81
410.908	92.81
411.132	106.81
411.355	104.81
411.578	100.81
411.802	81.81
412.025	88.81
412.249	104.81
412.472	121.81
412.695	151.81
412.919	126.81
413.142	108.81
413.365	88.81
413.589	100.81
413.812	82.81
414.035	100.81
414.258	96.81
414.482	88.81
414.705	73.81
414.928	102.81
415.151	85.81
415.374	90.81
415.597	94.81
415.821	91.81
416.044	97.81
416.267	92.81
416.49	98.81
416.713	80.81
416.936	84.81
417.159	87.81
417.382	93.81
417.605	102.81
417.828	106.81
418.051	97.81
418.274	97.81
418.497	88.81
418.72	85.81
418.943	87.81
419.166	90.81
419.389	87.81
419.611	71.81
419.834	84.81
420.057	92.81
420.28	90.81
420.503	76.81
420.726	75.81
420.948	109.81
421.171	106.81
421.394	96.81
421.617	87.81
421.839	81.81
422.062	98.81
422.285	82.81
422.507	96.81
422.73	119.81
422.953	84.81
423.175	92.81
423.398	99.81
423.621	85.81
423.843	82.81
424.066	98.81
424.288	78.81
424.511	95.81
424.733	119.81
424.956	128.81
425.178	117.81
425.401	112.81
425.623	121.81
425.846	106.81
426.068	95.81
426.291	80.81
426.513	96.81
426.735	83.81
426.958	102.81
427.18	130.81
427.402	190.81
427.625	281.81
427.847	244.81
428.069	220.81
428.292	135.81
428.514	100.81
428.736	96.81
428.958	86.81
429.181	85.81
429.403	77.81
429.625	92.81
429.847	106.81
430.069	128.81
430.292	96.81
430.514	94.81
430.736	75.81
430.958	79.81
431.18	82.81
431.402	81.81
431.624	79.81
431.846	81.81
432.068	100.81
432.29	89.81
432.512	97.81
432.734	84.81
432.956	106.81
433.178	103.81
433.4	106.81
433.622	86.81
433.844	88.81
434.066	83.81
434.287	101.81
434.509	92.81
434.731	94.81
434.953	75.81
435.175	74.81
435.397	101.81
435.618	88.81
435.84	112.81
436.062	137.81
436.284	148.81
436.505	110.81
436.727	114.81
436.949	98.81
437.17	80.81
437.392	82.81
437.614	92.81
437.835	135.81
438.057	157.81
438.278	133.81
438.5	108.81
438.721	167.81
438.943	113.81
439.165	94.81
439.386	99.81
439.608	108.81
439.829	110.81
440.05	159.81
440.272	208.81
440.493	126.81
440.715	109.81
440.936	93.81
441.158	95.81
441.379	99.81
441.6	106.81
441.822	103.81
442.043	91.81
442.264	123.81
442.486	148.81
442.707	117.81
442.928	128.81
443.149	190.81
443.371	184.81
443.592	136.81
443.813	144.81
444.034	133.81
444.255	106.81
444.476	100.81
444.698	87.81
444.919	110.81
445.14	130.81
445.361	123.81
445.582	149.81
445.803	195.81
446.024	187.81
446.245	191.81
446.466	115.81
446.687	95.81
446.908	104.81
447.129	100.81
447.35	95.81
447.571	102.81
447.792	98.81
448.013	116.81
448.234	121.81
448.455	119.81
448.675	147.81
448.896	146.81
449.117	114.81
449.338	102.81
449.559	144.81
449.779	159.81
450	95.81
450.221	101.81
450.442	111.81
450.662	112.81
450.883	130.81
451.104	135.81
451.324	96.81
451.545	93.81
451.766	91.81
451.986	89.81
452.207	90.81
452.428	99.81
452.648	112.81
452.869	143.81
453.089	132.81
453.31	149.81
453.53	110.81
453.751	115.81
453.971	138.81
454.192	142.81
454.412	118.81
454.633	92.81
454.853	80.81
455.073	78.81
455.294	94.81
455.514	118.81
455.734	104.81
455.955	93.81
456.175	84.81
456.395	85.81
456.616	86.81
456.836	86.81
457.056	84.81
457.276	80.81
457.497	76.81
457.717	95.81
457.937	83.81
458.157	108.81
458.377	109.81
458.598	141.81
458.818	230.81
459.038	219.81
459.258	151.81
459.478	108.81
459.698	90.81
459.918	84.81
460.138	91.81
460.358	81.81
460.578	97.81
460.798	96.81
461.018	88.81
461.238	87.81
461.458	87.81
461.678	81.81
461.898	75.81
462.118	96.81
462.338	81.81
462.558	83.81
462.777	99.81
462.997	105.81
463.217	100.81
463.437	90.81
463.657	86.81
463.876	101.81
464.096	101.81
464.316	68.81
464.536	101.81
464.755	105.81
464.975	119.81
465.195	252.81
465.414	272.81
465.634	121.81
465.854	95.81
466.073	101.81
466.293	88.81
466.512	94.81
466.732	78.81
466.951	96.81
467.171	87.81
467.391	104.81
467.61	152.81
467.829	229.81
468.049	577.81
468.268	913.81
468.488	232.81
468.707	125.81
468.927	92.81
469.146	93.81
469.365	89.81
469.585	103.81
469.804	113.81
470.023	107.81
470.243	103.81
470.462	113.81
470.681	139.81
470.901	112.81
471.12	112.81
471.339	109.81
471.558	134.81
471.777	160.81
471.997	310.81
472.216	1152.81
472.435	2678.81
472.654	644.81
472.873	182.81
473.092	132.81
473.311	77.81
473.53	89.81
473.749	99.81
473.968	111.81
474.187	141.81
474.406	119.81
474.625	88.81
474.844	73.81
475.063	94.81
475.282	97.81
475.501	97.81
475.72	84.81
475.939	86.81
476.158	90.81
476.377	81.81
476.596	94.81
476.814	108.81
477.033	105.81
477.252	95.81
477.471	109.81
477.69	95.81
477.908	94.81
478.127	105.81
478.346	101.81
478.564	103.81
478.783	114.81
479.002	105.81
479.22	115.81
479.439	130.81
479.658	153.81
479.876	128.81
480.095	134.81
480.313	130.81
480.532	171.81
480.751	292.81
480.969	1008.81
481.188	4446.81
481.406	2796.81
481.624	401.81
481.843	149.81
482.061	112.81
482.28	100.81
482.498	95.81
482.717	92.81
482.935	105.81
483.153	89.81
483.372	98.81
483.59	79.81
483.808	78.81
484.027	101.81
484.245	89.81
484.463	102.81
484.681	102.81
484.9	87.81
485.118	82.81
485.336	100.81
485.554	98.81
485.772	111.81
485.99	104.81
486.209	114.81
486.427	126.81
486.645	138.81
486.863	129.81
487.081	110.81
487.299	101.81
487.517	102.81
487.735	101.81
487.953	102.81
488.171	105.81
488.389	103.81
488.607	113.81
488.825	87.81
489.043	83.81
489.261	98.81
489.479	87.81
489.696	82.81
489.914	93.81
490.132	96.81
490.35	89.81
490.568	103.81
490.786	79.81
491.003	81.81
491.221	86.81
491.439	103.81
491.657	110.81
491.874	90.81
492.092	92.81
492.31	89.81
492.527	85.81
492.745	103.81
492.963	94.81
493.18	78.81
493.398	100.81
493.615	109.81
493.833	97.81
494.05	97.81
494.268	95.81
494.485	91.81
494.703	101.81
494.92	98.81
495.138	76.81
495.355	86.81
495.573	87.81
495.79	100.81
496.008	72.81
496.225	76.81
496.442	87.81
496.66	83.81
496.877	76.81
497.094	93.81
497.312	108.81
497.529	94.81
497.746	84.81
497.963	95.81
498.181	100.81
498.398	106.81
498.615	122.81
498.832	114.81
499.049	85.81
499.267	95.81
499.484	98.81
499.701	95.81
499.918	87.81
500.135	90.81
500.352	92.81
500.569	95.81
500.786	108.81
501.003	97.81
501.22	92.81
501.437	101.81
501.654	97.81
501.871	140.81
502.088	108.81
502.305	95.81
502.522	83.81
502.739	87.81
502.956	95.81
503.172	92.81
503.389	98.81
503.606	137.81
503.823	116.81
504.04	100.81
504.256	82.81
504.473	93.81
504.69	93.81
504.907	103.81
505.123	89.81
505.34	89.81
505.557	88.81
505.773	96.81
505.99	98.81
506.207	99.81
506.423	97.81
506.64	88.81
506.856	85.81
507.073	91.81
507.289	100.81
507.506	104.81
507.722	145.81
507.939	134.81
508.155	105.81
508.372	103.81
508.588	101.81
508.805	104.81
509.021	102.81
509.238	110.81
509.454	104.81
509.67	100.81
509.887	111.81
510.103	143.81
510.319	268.81
510.536	998.81
510.752	3548.81
510.968	1010.81
511.184	211.81
511.401	136.81
511.617	104.81
511.833	123.81
512.049	112.81
512.265	98.81
512.481	93.81
512.698	96.81
512.914	109.81
