Data from Circ_2023_H10_HRD10591_00071.txt Node
Date: Wed Jan 03 09:50:45 EST 2024
User: Yrep
Spectrometer: HR+D1059
Trigger mode: 1
Integration Time (sec): 1.000000E-1
Scans to average: 1
Electric dark correction enabled: true
Nonlinearity correction enabled: false
Boxcar width: 0
XAxis mode: Wavelengths
Number of Pixels in Spectrum: 2048
>>>>>Begin Spectral Data<<<<<
223.165	-26.12
223.4	-26.12
223.635	-26.12
223.869	-18.12
224.104	-16.12
224.338	-18.12
224.573	-9.12
224.808	-15.12
225.042	-18.12
225.277	3.88
225.511	-0.12
225.746	-2.12
225.98	9.88
226.215	16.88
226.449	9.88
226.683	31.88
226.918	21.88
227.152	28.88
227.387	33.88
227.621	36.88
227.856	55.88
228.09	40.88
228.324	54.88
228.559	63.88
228.793	60.88
229.027	48.88
229.262	55.88
229.496	67.88
229.73	115.88
229.964	92.88
230.199	67.88
230.433	73.88
230.667	66.88
230.901	91.88
231.136	81.88
231.37	73.88
231.604	72.88
231.838	85.88
232.072	75.88
232.306	68.88
232.541	78.88
232.775	88.88
233.009	74.88
233.243	82.88
233.477	79.88
233.711	79.88
233.945	80.88
234.179	73.88
234.413	80.88
234.647	77.88
234.881	88.88
235.115	72.88
235.349	85.88
235.583	77.88
235.817	65.88
236.051	68.88
236.285	73.88
236.519	83.88
236.753	83.88
236.987	85.88
237.221	88.88
237.455	88.88
237.689	92.88
237.922	76.88
238.156	64.88
238.39	73.88
238.624	81.88
238.858	90.88
239.091	90.88
239.325	67.88
239.559	68.88
239.793	73.88
240.027	89.88
240.26	82.88
240.494	90.88
240.728	75.88
240.961	85.88
241.195	79.88
241.429	74.88
241.662	61.88
241.896	84.88
242.13	83.88
242.363	77.88
242.597	60.88
242.83	71.88
243.064	79.88
243.298	78.88
243.531	89.88
243.765	78.88
243.998	97.88
244.232	84.88
244.465	92.88
244.699	96.88
244.932	87.88
245.166	87.88
245.399	85.88
245.633	76.88
245.866	68.88
246.099	81.88
246.333	79.88
246.566	73.88
246.8	97.88
247.033	88.88
247.266	76.88
247.5	77.88
247.733	80.88
247.966	69.88
248.2	87.88
248.433	83.88
248.666	81.88
248.899	86.88
249.133	92.88
249.366	107.88
249.599	112.88
249.832	87.88
250.066	90.88
250.299	85.88
250.532	100.88
250.765	81.88
250.998	97.88
251.231	82.88
251.465	85.88
251.698	91.88
251.931	105.88
252.164	96.88
252.397	87.88
252.63	92.88
252.863	77.88
253.096	76.88
253.329	93.88
253.562	75.88
253.795	76.88
254.028	81.88
254.261	65.88
254.494	80.88
254.727	84.88
254.96	90.88
255.193	81.88
255.426	79.88
255.659	87.88
255.892	101.88
256.124	106.88
256.357	101.88
256.59	86.88
256.823	96.88
257.056	88.88
257.289	93.88
257.521	101.88
257.754	89.88
257.987	89.88
258.22	99.88
258.452	93.88
258.685	101.88
258.918	93.88
259.151	99.88
259.383	90.88
259.616	79.88
259.849	99.88
260.081	88.88
260.314	93.88
260.547	93.88
260.779	86.88
261.012	109.88
261.244	129.88
261.477	99.88
261.71	91.88
261.942	145.88
262.175	151.88
262.407	98.88
262.64	103.88
262.872	90.88
263.105	85.88
263.337	91.88
263.57	110.88
263.802	95.88
264.035	86.88
264.267	92.88
264.499	88.88
264.732	83.88
264.964	87.88
265.197	78.88
265.429	83.88
265.661	88.88
265.894	80.88
266.126	90.88
266.358	79.88
266.591	74.88
266.823	85.88
267.055	100.88
267.287	83.88
267.52	83.88
267.752	98.88
267.984	84.88
268.216	76.88
268.448	79.88
268.681	102.88
268.913	95.88
269.145	78.88
269.377	95.88
269.609	92.88
269.841	94.88
270.073	81.88
270.306	79.88
270.538	90.88
270.77	83.88
271.002	83.88
271.234	79.88
271.466	98.88
271.698	91.88
271.93	88.88
272.162	107.88
272.394	94.88
272.626	94.88
272.858	77.88
273.09	77.88
273.322	93.88
273.553	94.88
273.785	71.88
274.017	81.88
274.249	92.88
274.481	74.88
274.713	92.88
274.945	83.88
275.176	88.88
275.408	99.88
275.64	121.88
275.872	121.88
276.104	123.88
276.335	117.88
276.567	113.88
276.799	151.88
277.031	219.88
277.262	255.88
277.494	169.88
277.726	108.88
277.957	96.88
278.189	95.88
278.421	94.88
278.652	90.88
278.884	84.88
279.115	110.88
279.347	104.88
279.579	110.88
279.81	159.88
280.042	262.88
280.273	357.88
280.505	243.88
280.736	134.88
280.968	94.88
281.199	100.88
281.431	84.88
281.662	86.88
281.894	98.88
282.125	101.88
282.356	138.88
282.588	180.88
282.819	144.88
283.051	110.88
283.282	84.88
283.513	101.88
283.745	89.88
283.976	79.88
284.207	78.88
284.439	98.88
284.67	93.88
284.901	88.88
285.132	84.88
285.364	80.88
285.595	97.88
285.826	79.88
286.057	85.88
286.288	96.88
286.52	91.88
286.751	80.88
286.982	102.88
287.213	85.88
287.444	103.88
287.675	100.88
287.906	102.88
288.138	98.88
288.369	104.88
288.6	102.88
288.831	85.88
289.062	91.88
289.293	97.88
289.524	93.88
289.755	103.88
289.986	82.88
290.217	110.88
290.448	89.88
290.679	86.88
290.91	95.88
291.141	83.88
291.371	96.88
291.602	85.88
291.833	82.88
292.064	87.88
292.295	89.88
292.526	96.88
292.757	94.88
292.987	108.88
293.218	89.88
293.449	79.88
293.68	97.88
293.91	109.88
294.141	108.88
294.372	97.88
294.603	98.88
294.833	81.88
295.064	86.88
295.295	88.88
295.525	99.88
295.756	108.88
295.987	137.88
296.217	171.88
296.448	152.88
296.679	95.88
296.909	89.88
297.14	93.88
297.37	88.88
297.601	95.88
297.831	95.88
298.062	94.88
298.292	103.88
298.523	101.88
298.753	95.88
298.984	101.88
299.214	101.88
299.445	88.88
299.675	81.88
299.905	102.88
300.136	91.88
300.366	98.88
300.597	102.88
300.827	109.88
301.057	107.88
301.288	113.88
301.518	107.88
301.748	101.88
301.979	112.88
302.209	106.88
302.439	92.88
302.669	79.88
302.9	100.88
303.13	110.88
303.36	117.88
303.59	145.88
303.82	181.88
304.051	127.88
304.281	102.88
304.511	99.88
304.741	88.88
304.971	104.88
305.201	87.88
305.431	97.88
305.661	90.88
305.891	97.88
306.121	116.88
306.352	101.88
306.582	120.88
306.812	117.88
307.042	132.88
307.272	204.88
307.502	222.88
307.731	197.88
307.961	141.88
308.191	87.88
308.421	98.88
308.651	107.88
308.881	104.88
309.111	94.88
309.341	96.88
309.571	104.88
309.8	108.88
310.03	101.88
310.26	112.88
310.49	124.88
310.72	115.88
310.949	121.88
311.179	110.88
311.409	115.88
311.639	108.88
311.868	129.88
312.098	111.88
312.328	96.88
312.557	116.88
312.787	140.88
313.017	115.88
313.246	107.88
313.476	115.88
313.706	89.88
313.935	106.88
314.165	109.88
314.394	116.88
314.624	116.88
314.853	95.88
315.083	75.88
315.312	83.88
315.542	81.88
315.771	98.88
316.001	94.88
316.23	95.88
316.46	96.88
316.689	79.88
316.919	97.88
317.148	111.88
317.377	109.88
317.607	100.88
317.836	99.88
318.065	96.88
318.295	91.88
318.524	100.88
318.753	95.88
318.983	110.88
319.212	112.88
319.441	130.88
319.67	126.88
319.9	92.88
320.129	84.88
320.358	102.88
320.587	93.88
320.816	116.88
321.046	99.88
321.275	116.88
321.504	97.88
321.733	114.88
321.962	99.88
322.191	101.88
322.42	120.88
322.649	127.88
322.878	131.88
323.108	143.88
323.337	160.88
323.566	161.88
323.795	200.88
324.024	262.88
324.253	542.88
324.482	1151.88
324.71	2380.88
324.939	3075.88
325.168	1135.88
325.397	332.88
325.626	193.88
325.855	138.88
326.084	149.88
326.313	166.88
326.542	178.88
326.77	300.88
326.999	587.88
327.228	1252.88
327.457	2219.88
327.686	1846.88
327.914	673.88
328.143	691.88
328.372	953.88
328.6	507.88
328.829	228.88
329.058	215.88
329.287	239.88
329.515	227.88
329.744	335.88
329.972	657.88
330.201	1383.88
330.43	2093.88
330.658	928.88
330.887	381.88
331.115	248.88
331.344	137.88
331.572	150.88
331.801	129.88
332.03	157.88
332.258	123.88
332.486	124.88
332.715	109.88
332.943	116.88
333.172	140.88
333.4	144.88
333.629	192.88
333.857	294.88
334.085	595.88
334.314	1323.88
334.542	2567.88
334.771	2493.88
334.999	603.88
335.227	211.88
335.455	138.88
335.684	127.88
335.912	119.88
336.14	113.88
336.369	123.88
336.597	108.88
336.825	115.88
337.053	100.88
337.281	87.88
337.51	101.88
337.738	110.88
337.966	114.88
338.194	97.88
338.422	115.88
338.65	104.88
338.878	91.88
339.106	101.88
339.334	106.88
339.562	93.88
339.79	91.88
340.018	111.88
340.246	102.88
340.474	98.88
340.702	97.88
340.93	103.88
341.158	96.88
341.386	96.88
341.614	112.88
341.842	94.88
342.07	95.88
342.298	93.88
342.526	89.88
342.754	97.88
342.981	75.88
343.209	88.88
343.437	100.88
343.665	101.88
343.893	99.88
344.12	101.88
344.348	92.88
344.576	103.88
344.804	98.88
345.031	96.88
345.259	115.88
345.487	95.88
345.714	96.88
345.942	93.88
346.17	95.88
346.397	96.88
346.625	99.88
346.853	96.88
347.08	87.88
347.308	96.88
347.535	97.88
347.763	126.88
347.99	96.88
348.218	100.88
348.445	125.88
348.673	114.88
348.9	100.88
349.128	89.88
349.355	91.88
349.583	84.88
349.81	98.88
350.037	90.88
350.265	77.88
350.492	96.88
350.72	102.88
350.947	126.88
351.174	120.88
351.402	132.88
351.629	108.88
351.856	114.88
352.083	113.88
352.311	127.88
352.538	134.88
352.765	112.88
352.992	135.88
353.22	132.88
353.447	112.88
353.674	101.88
353.901	107.88
354.128	98.88
354.355	89.88
354.583	95.88
354.81	88.88
355.037	105.88
355.264	99.88
355.491	91.88
355.718	92.88
355.945	93.88
356.172	88.88
356.399	91.88
356.626	94.88
356.853	89.88
357.08	97.88
357.307	76.88
357.534	88.88
357.761	101.88
357.988	100.88
358.215	86.88
358.441	104.88
358.668	87.88
358.895	94.88
359.122	92.88
359.349	82.88
359.576	101.88
359.802	118.88
360.029	142.88
360.256	134.88
360.483	133.88
360.709	100.88
360.936	87.88
361.163	100.88
361.39	104.88
361.616	112.88
361.843	104.88
362.07	95.88
362.296	112.88
362.523	96.88
362.749	109.88
362.976	97.88
363.203	104.88
363.429	87.88
363.656	102.88
363.882	92.88
364.109	84.88
364.335	91.88
364.562	95.88
364.788	106.88
365.015	100.88
365.241	106.88
365.468	111.88
365.694	107.88
365.92	91.88
366.147	81.88
366.373	79.88
366.599	85.88
366.826	96.88
367.052	95.88
367.278	99.88
367.505	89.88
367.731	95.88
367.957	87.88
368.184	102.88
368.41	113.88
368.636	123.88
368.862	136.88
369.089	132.88
369.315	110.88
369.541	93.88
369.767	84.88
369.993	85.88
370.219	96.88
370.445	90.88
370.672	80.88
370.898	94.88
371.124	93.88
371.35	86.88
371.576	81.88
371.802	85.88
372.028	100.88
372.254	105.88
372.48	88.88
372.706	89.88
372.932	87.88
373.158	98.88
373.384	86.88
373.61	98.88
373.835	80.88
374.061	86.88
374.287	79.88
374.513	93.88
374.739	92.88
374.965	77.88
375.191	92.88
375.416	85.88
375.642	83.88
375.868	101.88
376.094	88.88
376.319	86.88
376.545	84.88
376.771	101.88
376.997	80.88
377.222	87.88
377.448	74.88
377.674	100.88
377.899	95.88
378.125	89.88
378.35	89.88
378.576	91.88
378.802	80.88
379.027	89.88
379.253	90.88
379.478	77.88
379.704	97.88
379.929	99.88
380.155	97.88
380.38	88.88
380.606	95.88
380.831	86.88
381.057	74.88
381.282	93.88
381.507	87.88
381.733	91.88
381.958	97.88
382.184	98.88
382.409	98.88
382.634	95.88
382.86	104.88
383.085	83.88
383.31	89.88
383.535	102.88
383.761	89.88
383.986	99.88
384.211	112.88
384.436	97.88
384.662	97.88
384.887	91.88
385.112	90.88
385.337	93.88
385.562	89.88
385.787	92.88
386.013	105.88
386.238	109.88
386.463	88.88
386.688	101.88
386.913	94.88
387.138	93.88
387.363	95.88
387.588	86.88
387.813	94.88
388.038	100.88
388.263	103.88
388.488	101.88
388.713	91.88
388.938	98.88
389.163	90.88
389.387	88.88
389.612	99.88
389.837	92.88
390.062	91.88
390.287	84.88
390.512	86.88
390.736	92.88
390.961	84.88
391.186	86.88
391.411	97.88
391.636	98.88
391.86	86.88
392.085	91.88
392.31	84.88
392.534	80.88
392.759	97.88
392.984	89.88
393.208	91.88
393.433	98.88
393.658	97.88
393.882	94.88
394.107	89.88
394.331	83.88
394.556	99.88
394.78	88.88
395.005	80.88
395.229	95.88
395.454	78.88
395.678	90.88
395.903	81.88
396.127	93.88
396.352	79.88
396.576	77.88
396.801	87.88
397.025	68.88
397.249	81.88
397.474	102.88
397.698	86.88
397.922	94.88
398.147	93.88
398.371	83.88
398.595	78.88
398.82	86.88
399.044	100.88
399.268	96.88
399.492	100.88
399.717	91.88
399.941	84.88
400.165	91.88
400.389	87.88
400.613	87.88
400.837	97.88
401.062	89.88
401.286	87.88
401.51	99.88
401.734	97.88
401.958	110.88
402.182	145.88
402.406	217.88
402.63	156.88
402.854	116.88
403.078	104.88
403.302	96.88
403.526	103.88
403.75	92.88
403.974	103.88
404.198	101.88
404.422	101.88
404.645	104.88
404.869	94.88
405.093	138.88
405.317	161.88
405.541	164.88
405.765	136.88
405.988	135.88
406.212	205.88
406.436	337.88
406.66	230.88
406.883	133.88
407.107	114.88
407.331	99.88
407.555	132.88
407.778	111.88
408.002	95.88
408.226	93.88
408.449	99.88
408.673	94.88
408.896	98.88
409.12	112.88
409.344	108.88
409.567	79.88
409.791	89.88
410.014	88.88
410.238	93.88
410.461	102.88
410.685	118.88
410.908	100.88
411.132	108.88
411.355	106.88
411.578	99.88
411.802	91.88
412.025	100.88
412.249	112.88
412.472	123.88
412.695	155.88
412.919	126.88
413.142	83.88
413.365	95.88
413.589	92.88
413.812	96.88
414.035	84.88
414.258	102.88
414.482	92.88
414.705	88.88
414.928	84.88
415.151	92.88
415.374	96.88
415.597	80.88
415.821	96.88
416.044	77.88
416.267	82.88
416.49	88.88
416.713	85.88
416.936	98.88
417.159	89.88
417.382	107.88
417.605	130.88
417.828	123.88
418.051	101.88
418.274	92.88
418.497	82.88
418.72	93.88
418.943	96.88
419.166	91.88
419.389	104.88
419.611	89.88
419.834	103.88
420.057	86.88
420.28	99.88
420.503	97.88
420.726	96.88
420.948	83.88
421.171	102.88
421.394	102.88
421.617	95.88
421.839	96.88
422.062	95.88
422.285	90.88
422.507	89.88
422.73	118.88
422.953	101.88
423.175	97.88
423.398	91.88
423.621	88.88
423.843	81.88
424.066	88.88
424.288	94.88
424.511	103.88
424.733	115.88
424.956	140.88
425.178	83.88
425.401	117.88
425.623	115.88
425.846	107.88
426.068	104.88
426.291	93.88
426.513	108.88
426.735	105.88
426.958	125.88
427.18	141.88
427.402	214.88
427.625	305.88
427.847	263.88
428.069	245.88
428.292	146.88
428.514	110.88
428.736	91.88
428.958	87.88
429.181	92.88
429.403	83.88
429.625	81.88
429.847	112.88
430.069	128.88
430.292	111.88
430.514	87.88
430.736	84.88
430.958	98.88
431.18	80.88
431.402	94.88
431.624	86.88
431.846	86.88
432.068	85.88
432.29	88.88
432.512	101.88
432.734	94.88
432.956	108.88
433.178	117.88
433.4	110.88
433.622	83.88
433.844	80.88
434.066	92.88
434.287	102.88
434.509	94.88
434.731	103.88
434.953	80.88
435.175	86.88
435.397	89.88
435.618	108.88
435.84	114.88
436.062	164.88
436.284	150.88
436.505	123.88
436.727	98.88
436.949	112.88
437.17	100.88
437.392	93.88
437.614	103.88
437.835	150.88
438.057	166.88
438.278	146.88
438.5	120.88
438.721	137.88
438.943	121.88
439.165	108.88
439.386	88.88
439.608	99.88
439.829	116.88
440.05	172.88
440.272	200.88
440.493	120.88
440.715	87.88
440.936	78.88
441.158	101.88
441.379	89.88
441.6	113.88
441.822	97.88
442.043	96.88
442.264	118.88
442.486	114.88
442.707	115.88
442.928	132.88
443.149	196.88
443.371	191.88
443.592	138.88
443.813	145.88
444.034	128.88
444.255	96.88
444.476	89.88
444.698	91.88
444.919	94.88
445.14	143.88
445.361	152.88
445.582	134.88
445.803	209.88
446.024	209.88
446.245	197.88
446.466	149.88
446.687	108.88
446.908	97.88
447.129	82.88
447.35	98.88
447.571	93.88
447.792	109.88
448.013	117.88
448.234	132.88
448.455	111.88
448.675	150.88
448.896	151.88
449.117	120.88
449.338	124.88
449.559	152.88
449.779	174.88
450	111.88
450.221	88.88
450.442	82.88
450.662	107.88
450.883	144.88
451.104	149.88
451.324	112.88
451.545	83.88
451.766	99.88
451.986	74.88
452.207	90.88
452.428	92.88
452.648	98.88
452.869	138.88
453.089	125.88
453.31	137.88
453.53	116.88
453.751	102.88
453.971	115.88
454.192	147.88
454.412	98.88
454.633	92.88
454.853	85.88
455.073	84.88
455.294	91.88
455.514	118.88
455.734	124.88
455.955	91.88
456.175	91.88
456.395	96.88
456.616	93.88
456.836	87.88
457.056	94.88
457.276	82.88
457.497	93.88
457.717	98.88
457.937	102.88
458.157	79.88
458.377	95.88
458.598	145.88
458.818	221.88
459.038	270.88
459.258	173.88
459.478	96.88
459.698	83.88
459.918	89.88
460.138	97.88
460.358	94.88
460.578	90.88
460.798	112.88
461.018	109.88
461.238	88.88
461.458	80.88
461.678	80.88
461.898	87.88
462.118	93.88
462.338	89.88
462.558	95.88
462.777	80.88
462.997	112.88
463.217	111.88
463.437	101.88
463.657	93.88
463.876	72.88
464.096	96.88
464.316	107.88
464.536	114.88
464.755	108.88
464.975	127.88
465.195	243.88
465.414	259.88
465.634	115.88
465.854	96.88
466.073	98.88
466.293	99.88
466.512	85.88
466.732	78.88
466.951	90.88
467.171	109.88
467.391	125.88
467.61	180.88
467.829	250.88
468.049	737.88
468.268	1240.88
468.488	326.88
468.707	129.88
468.927	110.88
469.146	87.88
469.365	94.88
469.585	114.88
469.804	123.88
470.023	117.88
470.243	109.88
470.462	122.88
470.681	157.88
470.901	125.88
471.12	111.88
471.339	121.88
471.558	141.88
471.777	168.88
471.997	377.88
472.216	1468.88
472.435	3606.88
472.654	835.88
472.873	194.88
473.092	116.88
473.311	107.88
473.53	108.88
473.749	97.88
473.968	108.88
474.187	132.88
474.406	116.88
474.625	75.88
474.844	85.88
475.063	91.88
475.282	93.88
475.501	92.88
475.72	86.88
475.939	105.88
476.158	89.88
476.377	85.88
476.596	102.88
476.814	97.88
477.033	103.88
477.252	92.88
477.471	95.88
477.69	91.88
477.908	94.88
478.127	101.88
478.346	93.88
478.564	90.88
478.783	114.88
479.002	110.88
479.22	115.88
479.439	124.88
479.658	156.88
479.876	126.88
480.095	143.88
480.313	148.88
480.532	179.88
480.751	348.88
480.969	1310.88
481.188	5805.88
481.406	3641.88
481.624	494.88
481.843	165.88
482.061	113.88
482.28	123.88
482.498	100.88
482.717	100.88
482.935	111.88
483.153	103.88
483.372	110.88
483.59	91.88
483.808	92.88
484.027	94.88
484.245	104.88
484.463	93.88
484.681	87.88
484.9	89.88
485.118	92.88
485.336	121.88
485.554	88.88
485.772	102.88
485.99	101.88
486.209	108.88
486.427	103.88
486.645	143.88
486.863	137.88
487.081	117.88
487.299	81.88
487.517	91.88
487.735	102.88
487.953	105.88
488.171	101.88
488.389	98.88
488.607	109.88
488.825	97.88
489.043	82.88
489.261	94.88
489.479	93.88
489.696	101.88
489.914	99.88
490.132	91.88
490.35	91.88
490.568	97.88
490.786	94.88
491.003	93.88
491.221	97.88
491.439	93.88
491.657	98.88
491.874	99.88
492.092	86.88
492.31	90.88
492.527	108.88
492.745	118.88
492.963	113.88
493.18	99.88
493.398	79.88
493.615	100.88
493.833	109.88
494.05	97.88
494.268	87.88
494.485	97.88
494.703	93.88
494.92	93.88
495.138	87.88
495.355	100.88
495.573	108.88
495.79	86.88
496.008	88.88
496.225	95.88
496.442	86.88
496.66	92.88
496.877	83.88
497.094	94.88
497.312	97.88
497.529	100.88
497.746	92.88
497.963	102.88
498.181	93.88
498.398	81.88
498.615	117.88
498.832	118.88
499.049	111.88
499.267	95.88
499.484	99.88
499.701	84.88
499.918	85.88
500.135	92.88
500.352	94.88
500.569	108.88
500.786	111.88
501.003	95.88
501.22	91.88
501.437	102.88
501.654	97.88
501.871	143.88
502.088	109.88
502.305	96.88
502.522	107.88
502.739	88.88
502.956	103.88
503.172	91.88
503.389	113.88
503.606	138.88
503.823	108.88
504.04	100.88
504.256	102.88
504.473	87.88
504.69	89.88
504.907	114.88
505.123	98.88
505.34	100.88
505.557	93.88
505.773	92.88
505.99	102.88
506.207	86.88
506.423	94.88
506.64	89.88
506.856	83.88
507.073	95.88
507.289	102.88
507.506	125.88
507.722	131.88
507.939	128.88
508.155	101.88
508.372	97.88
508.588	94.88
508.805	107.88
509.021	101.88
509.238	111.88
509.454	98.88
509.67	104.88
509.887	124.88
510.103	150.88
510.319	251.88
510.536	989.88
510.752	3579.88
510.968	995.88
511.184	191.88
511.401	141.88
511.617	107.88
511.833	131.88
512.049	119.88
