Data from Circ_2023_H10_HRD10591_00021.txt Node
Date: Wed Jan 03 09:50:35 EST 2024
User: Yrep
Spectrometer: HR+D1059
Trigger mode: 1
Integration Time (sec): 1.000000E-1
Scans to average: 1
Electric dark correction enabled: true
Nonlinearity correction enabled: false
Boxcar width: 0
XAxis mode: Wavelengths
Number of Pixels in Spectrum: 2048
>>>>>Begin Spectral Data<<<<<
223.165	-10.56
223.4	-10.56
223.635	-10.56
223.869	-30.56
224.104	-26.56
224.338	-13.56
224.573	-7.56
224.808	-14.56
225.042	-7.56
225.277	-10.56
225.511	3.44
225.746	-1.56
225.98	4.44
226.215	24.44
226.449	21.44
226.683	21.44
226.918	15.44
227.152	32.44
227.387	31.44
227.621	24.44
227.856	28.44
228.09	52.44
228.324	52.44
228.559	53.44
228.793	51.44
229.027	56.44
229.262	60.44
229.496	80.44
229.73	82.44
229.964	90.44
230.199	80.44
230.433	78.44
230.667	75.44
230.901	79.44
231.136	75.44
231.37	80.44
231.604	89.44
231.838	76.44
232.072	65.44
232.306	92.44
232.541	91.44
232.775	83.44
233.009	64.44
233.243	80.44
233.477	66.44
233.711	77.44
233.945	83.44
234.179	72.44
234.413	73.44
234.647	69.44
234.881	75.44
235.115	70.44
235.349	79.44
235.583	85.44
235.817	80.44
236.051	79.44
236.285	83.44
236.519	77.44
236.753	84.44
236.987	87.44
237.221	94.44
237.455	86.44
237.689	57.44
237.922	69.44
238.156	77.44
238.39	80.44
238.624	73.44
238.858	71.44
239.091	89.44
239.325	76.44
239.559	86.44
239.793	68.44
240.027	78.44
240.26	75.44
240.494	62.44
240.728	91.44
240.961	72.44
241.195	79.44
241.429	75.44
241.662	71.44
241.896	69.44
242.13	80.44
242.363	72.44
242.597	81.44
242.83	76.44
243.064	72.44
243.298	75.44
243.531	86.44
243.765	90.44
243.998	78.44
244.232	82.44
244.465	79.44
244.699	73.44
244.932	87.44
245.166	78.44
245.399	76.44
245.633	78.44
245.866	76.44
246.099	78.44
246.333	84.44
246.566	77.44
246.8	82.44
247.033	81.44
247.266	70.44
247.5	71.44
247.733	84.44
247.966	81.44
248.2	80.44
248.433	68.44
248.666	77.44
248.899	63.44
249.133	80.44
249.366	112.44
249.599	99.44
249.832	85.44
250.066	89.44
250.299	94.44
250.532	78.44
250.765	79.44
250.998	94.44
251.231	90.44
251.465	102.44
251.698	82.44
251.931	86.44
252.164	87.44
252.397	76.44
252.63	98.44
252.863	79.44
253.096	78.44
253.329	93.44
253.562	87.44
253.795	88.44
254.028	84.44
254.261	83.44
254.494	64.44
254.727	85.44
254.96	87.44
255.193	71.44
255.426	75.44
255.659	90.44
255.892	99.44
256.124	85.44
256.357	80.44
256.59	81.44
256.823	76.44
257.056	91.44
257.289	80.44
257.521	72.44
257.754	76.44
257.987	79.44
258.22	95.44
258.452	80.44
258.685	96.44
258.918	67.44
259.151	71.44
259.383	83.44
259.616	85.44
259.849	84.44
260.081	91.44
260.314	90.44
260.547	89.44
260.779	76.44
261.012	110.44
261.244	107.44
261.477	79.44
261.71	89.44
261.942	121.44
262.175	123.44
262.407	89.44
262.64	90.44
262.872	80.44
263.105	67.44
263.337	73.44
263.57	72.44
263.802	73.44
264.035	91.44
264.267	89.44
264.499	72.44
264.732	80.44
264.964	79.44
265.197	77.44
265.429	72.44
265.661	93.44
265.894	71.44
266.126	81.44
266.358	71.44
266.591	92.44
266.823	88.44
267.055	87.44
267.287	82.44
267.52	88.44
267.752	67.44
267.984	84.44
268.216	89.44
268.448	84.44
268.681	77.44
268.913	79.44
269.145	72.44
269.377	88.44
269.609	75.44
269.841	78.44
270.073	75.44
270.306	89.44
270.538	89.44
270.77	79.44
271.002	89.44
271.234	90.44
271.466	99.44
271.698	85.44
271.93	73.44
272.162	79.44
272.394	99.44
272.626	86.44
272.858	88.44
273.09	91.44
273.322	82.44
273.553	80.44
273.785	75.44
274.017	67.44
274.249	90.44
274.481	74.44
274.713	98.44
274.945	82.44
275.176	92.44
275.408	91.44
275.64	96.44
275.872	93.44
276.104	83.44
276.335	89.44
276.567	108.44
276.799	143.44
277.031	146.44
277.262	155.44
277.494	127.44
277.726	91.44
277.957	93.44
278.189	92.44
278.421	84.44
278.652	90.44
278.884	95.44
279.115	102.44
279.347	77.44
279.579	86.44
279.81	113.44
280.042	164.44
280.273	204.44
280.505	156.44
280.736	108.44
280.968	74.44
281.199	93.44
281.431	85.44
281.662	83.44
281.894	68.44
282.125	94.44
282.356	123.44
282.588	143.44
282.819	121.44
283.051	96.44
283.282	92.44
283.513	83.44
283.745	85.44
283.976	81.44
284.207	78.44
284.439	91.44
284.67	75.44
284.901	88.44
285.132	82.44
285.364	82.44
285.595	85.44
285.826	86.44
286.057	91.44
286.288	82.44
286.52	82.44
286.751	73.44
286.982	89.44
287.213	75.44
287.444	83.44
287.675	91.44
287.906	85.44
288.138	85.44
288.369	85.44
288.6	78.44
288.831	81.44
289.062	80.44
289.293	85.44
289.524	91.44
289.755	84.44
289.986	81.44
290.217	95.44
290.448	72.44
290.679	81.44
290.91	85.44
291.141	83.44
291.371	95.44
291.602	83.44
291.833	91.44
292.064	84.44
292.295	107.44
292.526	92.44
292.757	85.44
292.987	90.44
293.218	94.44
293.449	81.44
293.68	93.44
293.91	90.44
294.141	101.44
294.372	89.44
294.603	54.44
294.833	83.44
295.064	84.44
295.295	66.44
295.525	91.44
295.756	108.44
295.987	101.44
296.217	149.44
296.448	119.44
296.679	102.44
296.909	101.44
297.14	88.44
297.37	100.44
297.601	97.44
297.831	101.44
298.062	100.44
298.292	86.44
298.523	85.44
298.753	83.44
298.984	83.44
299.214	83.44
299.445	88.44
299.675	104.44
299.905	94.44
300.136	95.44
300.366	87.44
300.597	86.44
300.827	97.44
301.057	111.44
301.288	112.44
301.518	107.44
301.748	98.44
301.979	101.44
302.209	97.44
302.439	103.44
302.669	83.44
302.9	90.44
303.13	92.44
303.36	92.44
303.59	133.44
303.82	127.44
304.051	104.44
304.281	78.44
304.511	87.44
304.741	97.44
304.971	75.44
305.201	92.44
305.431	86.44
305.661	98.44
305.891	104.44
306.121	101.44
306.352	99.44
306.582	92.44
306.812	96.44
307.042	107.44
307.272	129.44
307.502	141.44
307.731	137.44
307.961	117.44
308.191	82.44
308.421	98.44
308.651	95.44
308.881	83.44
309.111	96.44
309.341	100.44
309.571	108.44
309.8	93.44
310.03	90.44
310.26	85.44
310.49	100.44
310.72	98.44
310.949	118.44
311.179	95.44
311.409	109.44
311.639	105.44
311.868	95.44
312.098	96.44
312.328	78.44
312.557	101.44
312.787	111.44
313.017	111.44
313.246	99.44
313.476	89.44
313.706	99.44
313.935	104.44
314.165	101.44
314.394	111.44
314.624	92.44
314.853	105.44
315.083	92.44
315.312	95.44
315.542	79.44
315.771	83.44
316.001	96.44
316.23	100.44
316.46	102.44
316.689	88.44
316.919	107.44
317.148	91.44
317.377	104.44
317.607	85.44
317.836	91.44
318.065	92.44
318.295	86.44
318.524	83.44
318.753	86.44
318.983	101.44
319.212	109.44
319.441	113.44
319.67	123.44
319.9	90.44
320.129	91.44
320.358	88.44
320.587	91.44
320.816	94.44
321.046	105.44
321.275	102.44
321.504	96.44
321.733	100.44
321.962	97.44
322.191	98.44
322.42	105.44
322.649	107.44
322.878	125.44
323.108	117.44
323.337	142.44
323.566	155.44
323.795	175.44
324.024	242.44
324.253	495.44
324.482	1048.44
324.71	2140.44
324.939	2867.44
325.168	1053.44
325.397	307.44
325.626	163.44
325.855	161.44
326.084	149.44
326.313	147.44
326.542	174.44
326.77	282.44
326.999	571.44
327.228	1124.44
327.457	2135.44
327.686	1760.44
327.914	552.44
328.143	445.44
328.372	525.44
328.6	301.44
328.829	169.44
329.058	168.44
329.287	173.44
329.515	161.44
329.744	227.44
329.972	382.44
330.201	762.44
330.43	1108.44
330.658	511.44
330.887	228.44
331.115	158.44
331.344	104.44
331.572	120.44
331.801	117.44
332.03	116.44
332.258	119.44
332.486	98.44
332.715	102.44
332.943	105.44
333.172	118.44
333.4	129.44
333.629	134.44
333.857	201.44
334.085	345.44
334.314	676.44
334.542	1328.44
334.771	1308.44
334.999	340.44
335.227	157.44
335.455	107.44
335.684	112.44
335.912	108.44
336.14	103.44
336.369	111.44
336.597	120.44
336.825	98.44
337.053	94.44
337.281	100.44
337.51	100.44
337.738	94.44
337.966	89.44
338.194	104.44
338.422	94.44
338.65	98.44
338.878	100.44
339.106	85.44
339.334	87.44
339.562	92.44
339.79	93.44
340.018	89.44
340.246	110.44
340.474	104.44
340.702	101.44
340.93	90.44
341.158	99.44
341.386	102.44
341.614	104.44
341.842	94.44
342.07	79.44
342.298	100.44
342.526	98.44
342.754	91.44
342.981	92.44
343.209	89.44
343.437	80.44
343.665	83.44
343.893	91.44
344.12	90.44
344.348	92.44
344.576	84.44
344.804	96.44
345.031	110.44
345.259	103.44
345.487	88.44
345.714	81.44
345.942	89.44
346.17	88.44
346.397	106.44
346.625	97.44
346.853	85.44
347.08	87.44
347.308	100.44
347.535	98.44
347.763	95.44
347.99	108.44
348.218	107.44
348.445	101.44
348.673	110.44
348.9	104.44
349.128	96.44
349.355	91.44
349.583	85.44
349.81	91.44
350.037	88.44
350.265	96.44
350.492	84.44
350.72	107.44
350.947	84.44
351.174	100.44
351.402	111.44
351.629	106.44
351.856	103.44
352.083	123.44
352.311	111.44
352.538	111.44
352.765	119.44
352.992	127.44
353.22	121.44
353.447	117.44
353.674	92.44
353.901	96.44
354.128	95.44
354.355	99.44
354.583	113.44
354.81	102.44
355.037	91.44
355.264	85.44
355.491	87.44
355.718	101.44
355.945	93.44
356.172	88.44
356.399	92.44
356.626	95.44
356.853	78.44
357.08	94.44
357.307	83.44
357.534	98.44
357.761	99.44
357.988	85.44
358.215	102.44
358.441	84.44
358.668	86.44
358.895	86.44
359.122	70.44
359.349	86.44
359.576	103.44
359.802	102.44
360.029	130.44
360.256	111.44
360.483	91.44
360.709	95.44
360.936	84.44
361.163	113.44
361.39	104.44
361.616	95.44
361.843	80.44
362.07	98.44
362.296	89.44
362.523	87.44
362.749	109.44
362.976	99.44
363.203	84.44
363.429	93.44
363.656	97.44
363.882	93.44
364.109	83.44
364.335	86.44
364.562	77.44
364.788	102.44
365.015	99.44
365.241	95.44
365.468	101.44
365.694	85.44
365.92	102.44
366.147	96.44
366.373	75.44
366.599	90.44
366.826	107.44
367.052	85.44
367.278	88.44
367.505	93.44
367.731	81.44
367.957	91.44
368.184	102.44
368.41	119.44
368.636	119.44
368.862	135.44
369.089	112.44
369.315	93.44
369.541	85.44
369.767	99.44
369.993	111.44
370.219	74.44
370.445	92.44
370.672	72.44
370.898	87.44
371.124	80.44
371.35	81.44
371.576	96.44
371.802	93.44
372.028	92.44
372.254	81.44
372.48	84.44
372.706	97.44
372.932	87.44
373.158	88.44
373.384	88.44
373.61	98.44
373.835	96.44
374.061	84.44
374.287	86.44
374.513	81.44
374.739	90.44
374.965	86.44
375.191	97.44
375.416	102.44
375.642	89.44
375.868	79.44
376.094	77.44
376.319	78.44
376.545	98.44
376.771	95.44
376.997	89.44
377.222	93.44
377.448	84.44
377.674	82.44
377.899	83.44
378.125	83.44
378.35	99.44
378.576	89.44
378.802	93.44
379.027	85.44
379.253	86.44
379.478	93.44
379.704	88.44
379.929	91.44
380.155	86.44
380.38	86.44
380.606	85.44
380.831	87.44
381.057	92.44
381.282	93.44
381.507	118.44
381.733	105.44
381.958	82.44
382.184	104.44
382.409	112.44
382.634	117.44
382.86	103.44
383.085	95.44
383.31	100.44
383.535	110.44
383.761	94.44
383.986	93.44
384.211	87.44
384.436	84.44
384.662	115.44
384.887	90.44
385.112	84.44
385.337	88.44
385.562	103.44
385.787	94.44
386.013	101.44
386.238	112.44
386.463	102.44
386.688	104.44
386.913	100.44
387.138	84.44
387.363	94.44
387.588	85.44
387.813	96.44
388.038	102.44
388.263	101.44
388.488	98.44
388.713	90.44
388.938	92.44
389.163	93.44
389.387	93.44
389.612	86.44
389.837	106.44
390.062	94.44
390.287	94.44
390.512	91.44
390.736	77.44
390.961	93.44
391.186	88.44
391.411	84.44
391.636	88.44
391.86	73.44
392.085	97.44
392.31	89.44
392.534	88.44
392.759	91.44
392.984	73.44
393.208	84.44
393.433	84.44
393.658	88.44
393.882	90.44
394.107	78.44
394.331	69.44
394.556	94.44
394.78	93.44
395.005	68.44
395.229	86.44
395.454	88.44
395.678	71.44
395.903	81.44
396.127	96.44
396.352	86.44
396.576	95.44
396.801	76.44
397.025	77.44
397.249	85.44
397.474	94.44
397.698	83.44
397.922	77.44
398.147	83.44
398.371	86.44
398.595	85.44
398.82	86.44
399.044	73.44
399.268	100.44
399.492	78.44
399.717	89.44
399.941	81.44
400.165	91.44
400.389	97.44
400.613	80.44
400.837	87.44
401.062	94.44
401.286	91.44
401.51	91.44
401.734	77.44
401.958	107.44
402.182	143.44
402.406	187.44
402.63	133.44
402.854	96.44
403.078	88.44
403.302	73.44
403.526	103.44
403.75	87.44
403.974	95.44
404.198	89.44
404.422	87.44
404.645	87.44
404.869	100.44
405.093	122.44
405.317	119.44
405.541	127.44
405.765	113.44
405.988	123.44
406.212	209.44
406.436	255.44
406.66	176.44
406.883	108.44
407.107	94.44
407.331	113.44
407.555	115.44
407.778	124.44
408.002	100.44
408.226	91.44
408.449	81.44
408.673	84.44
408.896	95.44
409.12	92.44
409.344	74.44
409.567	88.44
409.791	82.44
410.014	79.44
410.238	96.44
410.461	82.44
410.685	93.44
410.908	85.44
411.132	104.44
411.355	98.44
411.578	98.44
411.802	79.44
412.025	92.44
412.249	85.44
412.472	117.44
412.695	139.44
412.919	100.44
413.142	88.44
413.365	88.44
413.589	92.44
413.812	95.44
414.035	93.44
414.258	97.44
414.482	105.44
414.705	89.44
414.928	78.44
415.151	88.44
415.374	96.44
415.597	95.44
415.821	92.44
416.044	81.44
416.267	93.44
416.49	91.44
416.713	93.44
416.936	87.44
417.159	86.44
417.382	80.44
417.605	98.44
417.828	101.44
418.051	83.44
418.274	83.44
418.497	88.44
418.72	87.44
418.943	87.44
419.166	72.44
419.389	85.44
419.611	102.44
419.834	99.44
420.057	89.44
420.28	78.44
420.503	96.44
420.726	89.44
420.948	88.44
421.171	106.44
421.394	97.44
421.617	91.44
421.839	95.44
422.062	81.44
422.285	94.44
422.507	95.44
422.73	118.44
422.953	100.44
423.175	100.44
423.398	99.44
423.621	100.44
423.843	79.44
424.066	90.44
424.288	88.44
424.511	78.44
424.733	118.44
424.956	111.44
425.178	116.44
425.401	104.44
425.623	103.44
425.846	81.44
426.068	94.44
426.291	97.44
426.513	91.44
426.735	89.44
426.958	101.44
427.18	127.44
427.402	168.44
427.625	247.44
427.847	235.44
428.069	206.44
428.292	121.44
428.514	100.44
428.736	80.44
428.958	85.44
429.181	96.44
429.403	92.44
429.625	84.44
429.847	102.44
430.069	109.44
430.292	105.44
430.514	93.44
430.736	84.44
430.958	82.44
431.18	97.44
431.402	87.44
431.624	83.44
431.846	85.44
432.068	108.44
432.29	88.44
432.512	100.44
432.734	82.44
432.956	88.44
433.178	97.44
433.4	101.44
433.622	94.44
433.844	79.44
434.066	84.44
434.287	90.44
434.509	87.44
434.731	79.44
434.953	84.44
435.175	78.44
435.397	88.44
435.618	93.44
435.84	125.44
436.062	148.44
436.284	143.44
436.505	107.44
436.727	111.44
436.949	92.44
437.17	100.44
437.392	81.44
437.614	113.44
437.835	108.44
438.057	134.44
438.278	140.44
438.5	116.44
438.721	135.44
438.943	116.44
439.165	89.44
439.386	86.44
439.608	101.44
439.829	126.44
440.05	139.44
440.272	178.44
440.493	107.44
440.715	89.44
440.936	85.44
441.158	95.44
441.379	82.44
441.6	85.44
441.822	93.44
442.043	89.44
442.264	136.44
442.486	111.44
442.707	107.44
442.928	112.44
443.149	158.44
443.371	168.44
443.592	128.44
443.813	126.44
444.034	116.44
444.255	91.44
444.476	92.44
444.698	97.44
444.919	78.44
445.14	129.44
445.361	107.44
445.582	126.44
445.803	160.44
446.024	157.44
446.245	165.44
446.466	126.44
446.687	98.44
446.908	84.44
447.129	83.44
447.35	94.44
447.571	96.44
447.792	96.44
448.013	91.44
448.234	108.44
448.455	104.44
448.675	126.44
448.896	134.44
449.117	118.44
449.338	115.44
449.559	157.44
449.779	150.44
450	98.44
450.221	80.44
450.442	98.44
450.662	101.44
450.883	116.44
451.104	118.44
451.324	85.44
451.545	84.44
451.766	88.44
451.986	83.44
452.207	89.44
452.428	103.44
452.648	94.44
452.869	130.44
453.089	125.44
453.31	134.44
453.53	85.44
453.751	96.44
453.971	105.44
454.192	136.44
454.412	112.44
454.633	74.44
454.853	84.44
455.073	89.44
455.294	94.44
455.514	111.44
455.734	87.44
455.955	77.44
456.175	77.44
456.395	79.44
456.616	86.44
456.836	88.44
457.056	85.44
457.276	99.44
457.497	86.44
457.717	93.44
457.937	94.44
458.157	83.44
458.377	95.44
458.598	103.44
458.818	177.44
459.038	203.44
459.258	133.44
459.478	88.44
459.698	92.44
459.918	79.44
460.138	78.44
460.358	86.44
460.578	94.44
460.798	84.44
461.018	71.44
461.238	72.44
461.458	70.44
461.678	87.44
461.898	81.44
462.118	90.44
462.338	95.44
462.558	77.44
462.777	100.44
462.997	90.44
463.217	98.44
463.437	105.44
463.657	96.44
463.876	88.44
464.096	86.44
464.316	88.44
464.536	105.44
464.755	95.44
464.975	110.44
465.195	203.44
465.414	212.44
465.634	94.44
465.854	84.44
466.073	91.44
466.293	72.44
466.512	88.44
466.732	90.44
466.951	80.44
467.171	94.44
467.391	127.44
467.61	127.44
467.829	183.44
468.049	422.44
468.268	659.44
468.488	215.44
468.707	100.44
468.927	97.44
469.146	101.44
469.365	85.44
469.585	97.44
469.804	101.44
470.023	106.44
470.243	107.44
470.462	104.44
470.681	120.44
470.901	108.44
471.12	92.44
471.339	101.44
471.558	107.44
471.777	151.44
471.997	259.44
472.216	815.44
472.435	1887.44
472.654	480.44
472.873	143.44
473.092	120.44
473.311	95.44
473.53	89.44
473.749	87.44
473.968	98.44
474.187	118.44
474.406	98.44
474.625	95.44
474.844	99.44
475.063	101.44
475.282	89.44
475.501	77.44
475.72	72.44
475.939	77.44
476.158	97.44
476.377	86.44
476.596	102.44
476.814	86.44
477.033	91.44
477.252	84.44
477.471	84.44
477.69	92.44
477.908	96.44
478.127	82.44
478.346	88.44
478.564	99.44
478.783	93.44
479.002	95.44
479.22	95.44
479.439	123.44
479.658	122.44
479.876	99.44
480.095	106.44
480.313	102.44
480.532	144.44
480.751	231.44
480.969	760.44
481.188	3189.44
481.406	1931.44
481.624	306.44
481.843	131.44
482.061	98.44
482.28	85.44
482.498	80.44
482.717	97.44
482.935	76.44
483.153	104.44
483.372	87.44
483.59	86.44
483.808	79.44
484.027	95.44
484.245	83.44
484.463	85.44
484.681	109.44
484.9	93.44
485.118	101.44
485.336	94.44
485.554	100.44
485.772	87.44
485.99	102.44
486.209	105.44
486.427	103.44
486.645	115.44
486.863	119.44
487.081	102.44
487.299	94.44
487.517	95.44
487.735	97.44
487.953	86.44
488.171	90.44
488.389	87.44
488.607	108.44
488.825	101.44
489.043	85.44
489.261	87.44
489.479	99.44
489.696	86.44
489.914	82.44
490.132	91.44
490.35	90.44
490.568	82.44
490.786	78.44
491.003	96.44
491.221	93.44
491.439	104.44
491.657	93.44
491.874	91.44
492.092	97.44
492.31	97.44
492.527	87.44
492.745	95.44
492.963	89.44
493.18	104.44
493.398	99.44
493.615	90.44
493.833	92.44
494.05	91.44
494.268	79.44
494.485	88.44
494.703	86.44
494.92	99.44
495.138	95.44
495.355	77.44
495.573	98.44
495.79	76.44
496.008	83.44
496.225	94.44
496.442	85.44
496.66	87.44
496.877	91.44
497.094	88.44
497.312	85.44
497.529	100.44
497.746	97.44
497.963	87.44
498.181	76.44
498.398	85.44
498.615	107.44
498.832	123.44
499.049	85.44
499.267	83.44
499.484	93.44
499.701	92.44
499.918	92.44
500.135	73.44
500.352	102.44
500.569	94.44
500.786	93.44
501.003	96.44
501.22	96.44
501.437	82.44
501.654	98.44
501.871	117.44
502.088	102.44
502.305	98.44
502.522	90.44
502.739	92.44
502.956	73.44
503.172	81.44
503.389	96.44
503.606	111.44
503.823	110.44
504.04	97.44
504.256	92.44
504.473	73.44
504.69	88.44
504.907	91.44
505.123	77.44
505.34	74.44
505.557	87.44
505.773	86.44
505.99	85.44
506.207	84.44
506.423	98.44
506.64	88.44
506.856	75.44
507.073	102.44
507.289	89.44
507.506	102.44
507.722	130.44
507.939	129.44
508.155	101.44
508.372	95.44
508.588	93.44
508.805	88.44
509.021	92.44
509.238	105.44
509.454	96.44
509.67	90.44
509.887	97.44
510.103	137.44
510.319	221.44
510.536	825.44
510.752	2687.44
510.968	800.44
511.184	184.44
511.401	124.44
511.617	105.44
511.833	109.44
512.049	99.44
512.265	95.44
512.481	92.44
512.698	82.44
512.914	88.44
513.13	96.44
513.346	86.44
513.562	89.44
513.778	79.44
513.994	95.44
514.21	114.44
514.426	139.44
