Data from Circ_2023_H10_HRD10591_00045.txt Node
Date: Wed Jan 03 09:50:40 EST 2024
User: Yrep
Spectrometer: HR+D1059
Trigger mode: 1
Integration Time (sec): 1.000000E-1
Scans to average: 1
Electric dark correction enabled: true
Nonlinearity correction enabled: false
Boxcar width: 0
XAxis mode: Wavelengths
Number of Pixels in Spectrum: 2048
>>>>>Begin Spectral Data<<<<<
223.165	-27.06
223.4	-27.06
223.635	-27.06
223.869	-6.06
224.104	-25.06
224.338	-10.06
224.573	-20.06
224.808	-14.06
225.042	-6.06
225.277	-9.06
225.511	-20.06
225.746	-3.06
225.98	12.94
226.215	10.94
226.449	30.94
226.683	18.94
226.918	34.94
227.152	31.94
227.387	40.94
227.621	38.94
227.856	43.94
228.09	40.94
228.324	59.94
228.559	54.94
228.793	63.94
229.027	69.94
229.262	77.94
229.496	88.94
229.73	88.94
229.964	103.94
230.199	79.94
230.433	86.94
230.667	80.94
230.901	91.94
231.136	83.94
231.37	93.94
231.604	85.94
231.838	93.94
232.072	80.94
232.306	90.94
232.541	86.94
232.775	88.94
233.009	81.94
233.243	85.94
233.477	80.94
233.711	79.94
233.945	82.94
234.179	87.94
234.413	81.94
234.647	85.94
234.881	67.94
235.115	79.94
235.349	83.94
235.583	75.94
235.817	82.94
236.051	79.94
236.285	66.94
236.519	76.94
236.753	79.94
236.987	89.94
237.221	97.94
237.455	94.94
237.689	88.94
237.922	71.94
238.156	79.94
238.39	102.94
238.624	81.94
238.858	72.94
239.091	78.94
239.325	92.94
239.559	87.94
239.793	90.94
240.027	77.94
240.26	75.94
240.494	83.94
240.728	67.94
240.961	75.94
241.195	75.94
241.429	58.94
241.662	88.94
241.896	71.94
242.13	53.94
242.363	74.94
242.597	87.94
242.83	86.94
243.064	75.94
243.298	77.94
243.531	78.94
243.765	70.94
243.998	83.94
244.232	91.94
244.465	85.94
244.699	94.94
244.932	77.94
245.166	70.94
245.399	80.94
245.633	84.94
245.866	74.94
246.099	73.94
246.333	64.94
246.566	74.94
246.8	71.94
247.033	91.94
247.266	82.94
247.5	79.94
247.733	89.94
247.966	79.94
248.2	88.94
248.433	76.94
248.666	83.94
248.899	90.94
249.133	97.94
249.366	105.94
249.599	121.94
249.832	105.94
250.066	89.94
250.299	82.94
250.532	99.94
250.765	76.94
250.998	72.94
251.231	74.94
251.465	85.94
251.698	90.94
251.931	76.94
252.164	93.94
252.397	90.94
252.63	104.94
252.863	98.94
253.096	75.94
253.329	75.94
253.562	66.94
253.795	77.94
254.028	78.94
254.261	75.94
254.494	84.94
254.727	71.94
254.96	91.94
255.193	80.94
255.426	77.94
255.659	72.94
255.892	108.94
256.124	96.94
256.357	86.94
256.59	87.94
256.823	95.94
257.056	80.94
257.289	83.94
257.521	81.94
257.754	91.94
257.987	82.94
258.22	86.94
258.452	116.94
258.685	81.94
258.918	80.94
259.151	87.94
259.383	94.94
259.616	93.94
259.849	84.94
260.081	89.94
260.314	93.94
260.547	78.94
260.779	91.94
261.012	111.94
261.244	103.94
261.477	123.94
261.71	109.94
261.942	138.94
262.175	145.94
262.407	96.94
262.64	82.94
262.872	89.94
263.105	98.94
263.337	72.94
263.57	85.94
263.802	99.94
264.035	94.94
264.267	78.94
264.499	96.94
264.732	85.94
264.964	99.94
265.197	80.94
265.429	80.94
265.661	62.94
265.894	82.94
266.126	85.94
266.358	99.94
266.591	75.94
266.823	83.94
267.055	75.94
267.287	84.94
267.52	96.94
267.752	90.94
267.984	81.94
268.216	75.94
268.448	85.94
268.681	90.94
268.913	88.94
269.145	74.94
269.377	84.94
269.609	87.94
269.841	97.94
270.073	97.94
270.306	95.94
270.538	99.94
270.77	99.94
271.002	95.94
271.234	86.94
271.466	90.94
271.698	100.94
271.93	88.94
272.162	86.94
272.394	94.94
272.626	96.94
272.858	90.94
273.09	87.94
273.322	83.94
273.553	88.94
273.785	100.94
274.017	86.94
274.249	80.94
274.481	75.94
274.713	89.94
274.945	96.94
275.176	97.94
275.408	106.94
275.64	113.94
275.872	121.94
276.104	106.94
276.335	122.94
276.567	123.94
276.799	145.94
277.031	200.94
277.262	220.94
277.494	165.94
277.726	106.94
277.957	89.94
278.189	91.94
278.421	91.94
278.652	91.94
278.884	91.94
279.115	99.94
279.347	92.94
279.579	97.94
279.81	129.94
280.042	214.94
280.273	300.94
280.505	211.94
280.736	109.94
280.968	94.94
281.199	94.94
281.431	85.94
281.662	88.94
281.894	92.94
282.125	117.94
282.356	142.94
282.588	167.94
282.819	133.94
283.051	91.94
283.282	89.94
283.513	88.94
283.745	102.94
283.976	97.94
284.207	96.94
284.439	98.94
284.67	80.94
284.901	104.94
285.132	80.94
285.364	89.94
285.595	78.94
285.826	90.94
286.057	90.94
286.288	86.94
286.52	96.94
286.751	78.94
286.982	89.94
287.213	93.94
287.444	87.94
287.675	97.94
287.906	91.94
288.138	114.94
288.369	104.94
288.6	108.94
288.831	84.94
289.062	85.94
289.293	97.94
289.524	86.94
289.755	94.94
289.986	89.94
290.217	87.94
290.448	93.94
290.679	80.94
290.91	93.94
291.141	91.94
291.371	103.94
291.602	85.94
291.833	83.94
292.064	89.94
292.295	82.94
292.526	83.94
292.757	86.94
292.987	92.94
293.218	74.94
293.449	94.94
293.68	97.94
293.91	100.94
294.141	96.94
294.372	90.94
294.603	99.94
294.833	87.94
295.064	92.94
295.295	97.94
295.525	103.94
295.756	100.94
295.987	132.94
296.217	176.94
296.448	148.94
296.679	99.94
296.909	89.94
297.14	83.94
297.37	92.94
297.601	95.94
297.831	95.94
298.062	91.94
298.292	91.94
298.523	100.94
298.753	86.94
298.984	91.94
299.214	91.94
299.445	93.94
299.675	97.94
299.905	87.94
300.136	103.94
300.366	83.94
300.597	97.94
300.827	80.94
301.057	93.94
301.288	126.94
301.518	104.94
301.748	97.94
301.979	111.94
302.209	112.94
302.439	92.94
302.669	94.94
302.9	93.94
303.13	105.94
303.36	104.94
303.59	147.94
303.82	160.94
304.051	102.94
304.281	93.94
304.511	85.94
304.741	79.94
304.971	97.94
305.201	82.94
305.431	96.94
305.661	101.94
305.891	91.94
306.121	104.94
306.352	120.94
306.582	94.94
306.812	112.94
307.042	139.94
307.272	177.94
307.502	205.94
307.731	185.94
307.961	134.94
308.191	92.94
308.421	97.94
308.651	91.94
308.881	101.94
309.111	94.94
309.341	100.94
309.571	108.94
309.8	112.94
310.03	95.94
310.26	99.94
310.49	115.94
310.72	106.94
310.949	137.94
311.179	126.94
311.409	101.94
311.639	98.94
311.868	114.94
312.098	103.94
312.328	102.94
312.557	116.94
312.787	122.94
313.017	125.94
313.246	112.94
313.476	102.94
313.706	88.94
313.935	108.94
314.165	113.94
314.394	121.94
314.624	105.94
314.853	119.94
315.083	105.94
315.312	104.94
315.542	95.94
315.771	88.94
316.001	101.94
316.23	97.94
316.46	100.94
316.689	93.94
316.919	97.94
317.148	105.94
317.377	113.94
317.607	106.94
317.836	97.94
318.065	80.94
318.295	89.94
318.524	102.94
318.753	92.94
318.983	102.94
319.212	128.94
319.441	130.94
319.67	129.94
319.9	102.94
320.129	102.94
320.358	103.94
320.587	111.94
320.816	103.94
321.046	115.94
321.275	112.94
321.504	100.94
321.733	107.94
321.962	104.94
322.191	112.94
322.42	102.94
322.649	116.94
322.878	125.94
323.108	135.94
323.337	153.94
323.566	174.94
323.795	186.94
324.024	245.94
324.253	513.94
324.482	1161.94
324.71	2371.94
324.939	3081.94
325.168	1139.94
325.397	315.94
325.626	177.94
325.855	137.94
326.084	147.94
326.313	163.94
326.542	193.94
326.77	297.94
326.999	597.94
327.228	1225.94
327.457	2269.94
327.686	1882.94
327.914	639.94
328.143	577.94
328.372	760.94
328.6	429.94
328.829	208.94
329.058	202.94
329.287	209.94
329.515	183.94
329.744	271.94
329.972	525.94
330.201	1087.94
330.43	1698.94
330.658	752.94
330.887	317.94
331.115	210.94
331.344	133.94
331.572	130.94
331.801	131.94
332.03	134.94
332.258	121.94
332.486	115.94
332.715	112.94
332.943	126.94
333.172	138.94
333.4	138.94
333.629	174.94
333.857	250.94
334.085	495.94
334.314	997.94
334.542	2030.94
334.771	1977.94
334.999	494.94
335.227	182.94
335.455	144.94
335.684	111.94
335.912	102.94
336.14	109.94
336.369	117.94
336.597	110.94
336.825	116.94
337.053	96.94
337.281	107.94
337.51	103.94
337.738	109.94
337.966	116.94
338.194	101.94
338.422	119.94
338.65	101.94
338.878	93.94
339.106	96.94
339.334	98.94
339.562	84.94
339.79	102.94
340.018	110.94
340.246	96.94
340.474	96.94
340.702	106.94
340.93	105.94
341.158	107.94
341.386	107.94
341.614	101.94
341.842	89.94
342.07	109.94
342.298	88.94
342.526	97.94
342.754	98.94
342.981	90.94
343.209	93.94
343.437	99.94
343.665	78.94
343.893	84.94
344.12	84.94
344.348	97.94
344.576	88.94
344.804	103.94
345.031	97.94
345.259	105.94
345.487	115.94
345.714	113.94
345.942	106.94
346.17	113.94
346.397	101.94
346.625	108.94
346.853	107.94
347.08	101.94
347.308	98.94
347.535	100.94
347.763	96.94
347.99	118.94
348.218	129.94
348.445	118.94
348.673	115.94
348.9	118.94
349.128	104.94
349.355	97.94
349.583	91.94
349.81	102.94
350.037	105.94
350.265	97.94
350.492	95.94
350.72	88.94
350.947	99.94
351.174	111.94
351.402	131.94
351.629	98.94
351.856	106.94
352.083	104.94
352.311	121.94
352.538	136.94
352.765	138.94
352.992	128.94
353.22	113.94
353.447	99.94
353.674	101.94
353.901	98.94
354.128	88.94
354.355	98.94
354.583	107.94
354.81	110.94
355.037	94.94
355.264	79.94
355.491	90.94
355.718	90.94
355.945	90.94
356.172	99.94
356.399	78.94
356.626	90.94
356.853	90.94
357.08	94.94
357.307	95.94
357.534	91.94
357.761	100.94
357.988	81.94
358.215	101.94
358.441	91.94
358.668	92.94
358.895	97.94
359.122	87.94
359.349	80.94
359.576	110.94
359.802	126.94
360.029	153.94
360.256	145.94
360.483	131.94
360.709	102.94
360.936	120.94
361.163	109.94
361.39	112.94
361.616	117.94
361.843	100.94
362.07	105.94
362.296	114.94
362.523	92.94
362.749	97.94
362.976	98.94
363.203	92.94
363.429	81.94
363.656	101.94
363.882	101.94
364.109	109.94
364.335	94.94
364.562	100.94
364.788	103.94
365.015	101.94
365.241	106.94
365.468	117.94
365.694	114.94
365.92	122.94
366.147	110.94
366.373	92.94
366.599	99.94
366.826	89.94
367.052	85.94
367.278	103.94
367.505	102.94
367.731	95.94
367.957	88.94
368.184	103.94
368.41	104.94
368.636	119.94
368.862	140.94
369.089	115.94
369.315	115.94
369.541	96.94
369.767	100.94
369.993	89.94
370.219	108.94
370.445	94.94
370.672	95.94
370.898	64.94
371.124	75.94
371.35	86.94
371.576	85.94
371.802	89.94
372.028	84.94
372.254	93.94
372.48	92.94
372.706	92.94
372.932	82.94
373.158	95.94
373.384	94.94
373.61	103.94
373.835	103.94
374.061	88.94
374.287	96.94
374.513	92.94
374.739	86.94
374.965	74.94
375.191	86.94
375.416	94.94
375.642	101.94
375.868	104.94
376.094	93.94
376.319	77.94
376.545	85.94
376.771	81.94
376.997	95.94
377.222	103.94
377.448	85.94
377.674	88.94
377.899	107.94
378.125	93.94
378.35	78.94
378.576	85.94
378.802	82.94
379.027	96.94
379.253	90.94
379.478	97.94
379.704	89.94
379.929	90.94
380.155	97.94
380.38	83.94
380.606	82.94
380.831	94.94
381.057	81.94
381.282	94.94
381.507	96.94
381.733	101.94
381.958	93.94
382.184	93.94
382.409	103.94
382.634	91.94
382.86	106.94
383.085	91.94
383.31	96.94
383.535	91.94
383.761	87.94
383.986	93.94
384.211	81.94
384.436	90.94
384.662	88.94
384.887	93.94
385.112	111.94
385.337	106.94
385.562	97.94
385.787	100.94
386.013	119.94
386.238	97.94
386.463	107.94
386.688	102.94
386.913	100.94
387.138	109.94
387.363	91.94
387.588	111.94
387.813	100.94
388.038	99.94
388.263	109.94
388.488	112.94
388.713	93.94
388.938	87.94
389.163	106.94
389.387	95.94
389.612	90.94
389.837	78.94
390.062	102.94
390.287	101.94
390.512	90.94
390.736	80.94
390.961	89.94
391.186	100.94
391.411	101.94
391.636	82.94
391.86	89.94
392.085	81.94
392.31	90.94
392.534	89.94
392.759	99.94
392.984	90.94
393.208	77.94
393.433	79.94
393.658	91.94
393.882	88.94
394.107	97.94
394.331	95.94
394.556	97.94
394.78	87.94
395.005	94.94
395.229	91.94
395.454	94.94
395.678	83.94
395.903	86.94
396.127	99.94
396.352	95.94
396.576	75.94
396.801	91.94
397.025	98.94
397.249	97.94
397.474	95.94
397.698	81.94
397.922	81.94
398.147	102.94
398.371	93.94
398.595	77.94
398.82	91.94
399.044	86.94
399.268	109.94
399.492	91.94
399.717	92.94
399.941	96.94
400.165	95.94
400.389	98.94
400.613	90.94
400.837	99.94
401.062	91.94
401.286	94.94
401.51	95.94
401.734	83.94
401.958	100.94
402.182	159.94
402.406	220.94
402.63	170.94
402.854	101.94
403.078	94.94
403.302	105.94
403.526	92.94
403.75	83.94
403.974	90.94
404.198	95.94
404.422	92.94
404.645	105.94
404.869	120.94
405.093	126.94
405.317	147.94
405.541	150.94
405.765	123.94
405.988	151.94
406.212	230.94
406.436	321.94
406.66	229.94
406.883	137.94
407.107	114.94
407.331	109.94
407.555	114.94
407.778	90.94
408.002	93.94
408.226	100.94
408.449	96.94
408.673	87.94
408.896	100.94
409.12	101.94
409.344	96.94
409.567	99.94
409.791	92.94
410.014	101.94
410.238	95.94
410.461	104.94
410.685	95.94
410.908	92.94
411.132	114.94
411.355	104.94
411.578	94.94
411.802	89.94
412.025	89.94
412.249	97.94
412.472	118.94
412.695	155.94
412.919	115.94
413.142	97.94
413.365	94.94
413.589	88.94
413.812	85.94
414.035	76.94
414.258	100.94
414.482	82.94
414.705	105.94
414.928	96.94
415.151	88.94
415.374	88.94
415.597	72.94
415.821	104.94
416.044	96.94
416.267	103.94
416.49	82.94
416.713	81.94
416.936	74.94
417.159	96.94
417.382	96.94
417.605	107.94
417.828	114.94
418.051	118.94
418.274	99.94
418.497	77.94
418.72	94.94
418.943	91.94
419.166	89.94
419.389	102.94
419.611	101.94
419.834	96.94
420.057	101.94
420.28	85.94
420.503	99.94
420.726	96.94
420.948	92.94
421.171	106.94
421.394	99.94
421.617	97.94
421.839	97.94
422.062	96.94
422.285	101.94
422.507	117.94
422.73	135.94
422.953	99.94
423.175	94.94
423.398	97.94
423.621	98.94
423.843	97.94
424.066	96.94
424.288	86.94
424.511	87.94
424.733	98.94
424.956	139.94
425.178	109.94
425.401	125.94
425.623	121.94
425.846	94.94
426.068	104.94
426.291	105.94
426.513	80.94
426.735	109.94
426.958	94.94
427.18	129.94
427.402	200.94
427.625	271.94
427.847	235.94
428.069	239.94
428.292	143.94
428.514	104.94
428.736	118.94
428.958	97.94
429.181	72.94
429.403	97.94
429.625	93.94
429.847	110.94
430.069	120.94
430.292	99.94
430.514	88.94
430.736	79.94
430.958	83.94
431.18	91.94
431.402	84.94
431.624	88.94
431.846	95.94
432.068	98.94
432.29	87.94
432.512	82.94
432.734	78.94
432.956	90.94
433.178	110.94
433.4	100.94
433.622	103.94
433.844	95.94
434.066	102.94
434.287	90.94
434.509	92.94
434.731	104.94
434.953	97.94
435.175	100.94
435.397	86.94
435.618	93.94
435.84	127.94
436.062	151.94
436.284	152.94
436.505	110.94
436.727	114.94
436.949	99.94
437.17	94.94
437.392	106.94
437.614	104.94
437.835	136.94
438.057	166.94
438.278	147.94
438.5	132.94
438.721	143.94
438.943	106.94
439.165	124.94
439.386	97.94
439.608	101.94
439.829	115.94
440.05	149.94
440.272	213.94
440.493	131.94
440.715	96.94
440.936	109.94
441.158	97.94
441.379	91.94
441.6	100.94
441.822	96.94
442.043	102.94
442.264	143.94
442.486	130.94
442.707	96.94
442.928	132.94
443.149	179.94
443.371	179.94
443.592	136.94
443.813	131.94
444.034	122.94
444.255	105.94
444.476	98.94
444.698	86.94
444.919	100.94
445.14	148.94
445.361	145.94
445.582	150.94
445.803	183.94
446.024	182.94
446.245	178.94
446.466	131.94
446.687	110.94
446.908	95.94
447.129	108.94
447.35	89.94
447.571	98.94
447.792	106.94
448.013	116.94
448.234	144.94
448.455	113.94
448.675	138.94
448.896	125.94
449.117	108.94
449.338	106.94
449.559	147.94
449.779	169.94
450	112.94
450.221	100.94
450.442	99.94
450.662	109.94
450.883	131.94
451.104	132.94
451.324	99.94
451.545	96.94
451.766	84.94
451.986	88.94
452.207	99.94
452.428	91.94
452.648	124.94
452.869	138.94
453.089	146.94
453.31	139.94
453.53	106.94
453.751	102.94
453.971	121.94
454.192	150.94
454.412	101.94
454.633	99.94
454.853	98.94
455.073	93.94
455.294	101.94
455.514	113.94
455.734	103.94
455.955	96.94
456.175	99.94
456.395	82.94
456.616	87.94
456.836	90.94
457.056	75.94
457.276	75.94
457.497	95.94
457.717	83.94
457.937	99.94
458.157	101.94
458.377	83.94
458.598	127.94
458.818	233.94
459.038	234.94
459.258	165.94
459.478	113.94
459.698	95.94
459.918	74.94
460.138	90.94
460.358	80.94
460.578	83.94
460.798	96.94
461.018	97.94
461.238	99.94
461.458	98.94
461.678	90.94
461.898	87.94
462.118	90.94
462.338	74.94
462.558	83.94
462.777	89.94
462.997	97.94
463.217	122.94
463.437	94.94
463.657	85.94
463.876	104.94
464.096	86.94
464.316	104.94
464.536	105.94
464.755	101.94
464.975	133.94
465.195	252.94
465.414	255.94
465.634	111.94
465.854	95.94
466.073	90.94
466.293	90.94
466.512	101.94
466.732	95.94
466.951	107.94
467.171	102.94
467.391	113.94
467.61	151.94
467.829	235.94
468.049	613.94
468.268	1013.94
468.488	266.94
468.707	116.94
468.927	94.94
469.146	103.94
469.365	100.94
469.585	95.94
469.804	135.94
470.023	111.94
470.243	115.94
470.462	123.94
470.681	141.94
470.901	105.94
471.12	114.94
471.339	105.94
471.558	109.94
471.777	169.94
471.997	331.94
472.216	1193.94
472.435	2861.94
472.654	702.94
472.873	185.94
473.092	111.94
473.311	93.94
473.53	92.94
473.749	104.94
473.968	114.94
474.187	131.94
474.406	127.94
474.625	90.94
474.844	107.94
475.063	91.94
475.282	96.94
475.501	83.94
475.72	97.94
475.939	80.94
476.158	96.94
476.377	94.94
476.596	106.94
476.814	104.94
477.033	105.94
477.252	82.94
477.471	93.94
477.69	90.94
477.908	91.94
478.127	97.94
478.346	96.94
478.564	95.94
478.783	122.94
479.002	118.94
479.22	120.94
479.439	133.94
479.658	154.94
479.876	137.94
480.095	116.94
480.313	145.94
480.532	181.94
480.751	303.94
480.969	1108.94
481.188	4693.94
481.406	2973.94
481.624	425.94
481.843	153.94
482.061	106.94
482.28	95.94
482.498	97.94
482.717	91.94
482.935	100.94
483.153	97.94
483.372	105.94
483.59	91.94
483.808	90.94
484.027	103.94
484.245	87.94
484.463	105.94
484.681	89.94
484.9	103.94
485.118	104.94
485.336	95.94
485.554	111.94
485.772	103.94
485.99	126.94
486.209	109.94
486.427	119.94
486.645	133.94
486.863	131.94
487.081	112.94
487.299	115.94
487.517	98.94
487.735	100.94
487.953	81.94
488.171	80.94
488.389	94.94
488.607	105.94
488.825	87.94
489.043	78.94
489.261	106.94
489.479	102.94
489.696	88.94
489.914	105.94
490.132	88.94
490.35	84.94
490.568	81.94
490.786	103.94
491.003	95.94
491.221	104.94
491.439	103.94
491.657	92.94
491.874	88.94
492.092	96.94
492.31	111.94
492.527	107.94
492.745	102.94
492.963	90.94
493.18	85.94
493.398	91.94
493.615	111.94
493.833	109.94
494.05	91.94
494.268	84.94
494.485	89.94
494.703	91.94
494.92	87.94
495.138	93.94
495.355	82.94
495.573	93.94
495.79	94.94
496.008	83.94
496.225	103.94
496.442	89.94
496.66	96.94
496.877	89.94
497.094	86.94
497.312	90.94
497.529	88.94
497.746	105.94
497.963	105.94
498.181	106.94
498.398	107.94
498.615	132.94
498.832	100.94
499.049	93.94
499.267	87.94
499.484	88.94
499.701	81.94
499.918	90.94
500.135	102.94
500.352	109.94
500.569	102.94
500.786	96.94
501.003	92.94
501.22	98.94
501.437	93.94
501.654	102.94
501.871	132.94
502.088	109.94
502.305	103.94
502.522	90.94
502.739	90.94
502.956	91.94
503.172	95.94
503.389	106.94
503.606	145.94
503.823	117.94
504.04	111.94
504.256	88.94
504.473	74.94
504.69	98.94
504.907	105.94
505.123	109.94
505.34	86.94
505.557	80.94
505.773	113.94
505.99	99.94
506.207	100.94
506.423	90.94
506.64	94.94
506.856	105.94
507.073	96.94
507.289	96.94
507.506	111.94
507.722	136.94
507.939	138.94
508.155	106.94
508.372	109.94
508.588	86.94
508.805	95.94
509.021	89.94
509.238	112.94
509.454	110.94
509.67	101.94
509.887	119.94
510.103	151.94
510.319	267.94
510.536	1049.94
510.752	3632.94
510.968	997.94
511.184	196.94
511.401	151.94
511.617	114.94
511.833	120.94
