Data from Circ_2023_H10_HRD10591_00082.txt Node
Date: Wed Jan 03 09:50:47 EST 2024
User: Yrep
Spectrometer: HR+D1059
Trigger mode: 1
Integration Time (sec): 1.000000E-1
Scans to average: 1
Electric dark correction enabled: true
Nonlinearity correction enabled: false
Boxcar width: 0
XAxis mode: Wavelengths
Number of Pixels in Spectrum: 2048
>>>>>Begin Spectral Data<<<<<
223.165	-3.62
223.4	-3.62
223.635	-3.62
223.869	-24.62
224.104	-11.62
224.338	-13.62
224.573	-17.62
224.808	-6.62
225.042	-7.62
225.277	-6.62
225.511	-2.62
225.746	-8.62
225.98	-0.62
226.215	8.38
226.449	22.38
226.683	17.38
226.918	33.38
227.152	22.38
227.387	44.38
227.621	37.38
227.856	44.38
228.09	41.38
228.324	47.38
228.559	65.38
228.793	53.38
229.027	75.38
229.262	57.38
229.496	78.38
229.73	107.38
229.964	94.38
230.199	71.38
230.433	74.38
230.667	87.38
230.901	91.38
231.136	85.38
231.37	79.38
231.604	82.38
231.838	79.38
232.072	86.38
232.306	68.38
232.541	90.38
232.775	70.38
233.009	73.38
233.243	84.38
233.477	81.38
233.711	77.38
233.945	91.38
234.179	87.38
234.413	90.38
234.647	90.38
234.881	73.38
235.115	70.38
235.349	84.38
235.583	89.38
235.817	66.38
236.051	77.38
236.285	78.38
236.519	83.38
236.753	87.38
236.987	79.38
237.221	90.38
237.455	98.38
237.689	72.38
237.922	73.38
238.156	69.38
238.39	76.38
238.624	68.38
238.858	81.38
239.091	77.38
239.325	75.38
239.559	87.38
239.793	91.38
240.027	75.38
240.26	78.38
240.494	91.38
240.728	80.38
240.961	78.38
241.195	83.38
241.429	87.38
241.662	79.38
241.896	64.38
242.13	74.38
242.363	86.38
242.597	75.38
242.83	77.38
243.064	70.38
243.298	76.38
243.531	66.38
243.765	68.38
243.998	72.38
244.232	74.38
244.465	94.38
244.699	94.38
244.932	93.38
245.166	74.38
245.399	72.38
245.633	79.38
245.866	81.38
246.099	80.38
246.333	77.38
246.566	87.38
246.8	84.38
247.033	94.38
247.266	87.38
247.5	85.38
247.733	73.38
247.966	89.38
248.2	86.38
248.433	90.38
248.666	75.38
248.899	85.38
249.133	96.38
249.366	102.38
249.599	115.38
249.832	91.38
250.066	75.38
250.299	90.38
250.532	95.38
250.765	96.38
250.998	74.38
251.231	78.38
251.465	82.38
251.698	79.38
251.931	88.38
252.164	96.38
252.397	94.38
252.63	86.38
252.863	87.38
253.096	93.38
253.329	72.38
253.562	82.38
253.795	99.38
254.028	84.38
254.261	93.38
254.494	81.38
254.727	82.38
254.96	77.38
255.193	87.38
255.426	81.38
255.659	94.38
255.892	103.38
256.124	118.38
256.357	100.38
256.59	95.38
256.823	91.38
257.056	99.38
257.289	87.38
257.521	100.38
257.754	83.38
257.987	97.38
258.22	105.38
258.452	104.38
258.685	103.38
258.918	86.38
259.151	93.38
259.383	76.38
259.616	98.38
259.849	93.38
260.081	104.38
260.314	86.38
260.547	98.38
260.779	107.38
261.012	135.38
261.244	134.38
261.477	110.38
261.71	107.38
261.942	142.38
262.175	169.38
262.407	97.38
262.64	102.38
262.872	88.38
263.105	75.38
263.337	91.38
263.57	75.38
263.802	83.38
264.035	91.38
264.267	81.38
264.499	96.38
264.732	86.38
264.964	94.38
265.197	95.38
265.429	94.38
265.661	91.38
265.894	107.38
266.126	87.38
266.358	101.38
266.591	77.38
266.823	70.38
267.055	79.38
267.287	87.38
267.52	88.38
267.752	90.38
267.984	87.38
268.216	88.38
268.448	89.38
268.681	87.38
268.913	97.38
269.145	88.38
269.377	73.38
269.609	90.38
269.841	88.38
270.073	90.38
270.306	96.38
270.538	73.38
270.77	75.38
271.002	73.38
271.234	94.38
271.466	104.38
271.698	93.38
271.93	87.38
272.162	101.38
272.394	100.38
272.626	92.38
272.858	86.38
273.09	94.38
273.322	84.38
273.553	86.38
273.785	94.38
274.017	80.38
274.249	84.38
274.481	82.38
274.713	98.38
274.945	97.38
275.176	108.38
275.408	107.38
275.64	120.38
275.872	146.38
276.104	132.38
276.335	118.38
276.567	122.38
276.799	176.38
277.031	217.38
277.262	258.38
277.494	180.38
277.726	108.38
277.957	99.38
278.189	121.38
278.421	85.38
278.652	95.38
278.884	89.38
279.115	96.38
279.347	98.38
279.579	110.38
279.81	171.38
280.042	268.38
280.273	358.38
280.505	224.38
280.736	131.38
280.968	96.38
281.199	95.38
281.431	98.38
281.662	103.38
281.894	113.38
282.125	105.38
282.356	153.38
282.588	189.38
282.819	146.38
283.051	104.38
283.282	97.38
283.513	81.38
283.745	86.38
283.976	82.38
284.207	98.38
284.439	93.38
284.67	84.38
284.901	82.38
285.132	90.38
285.364	85.38
285.595	86.38
285.826	83.38
286.057	99.38
286.288	101.38
286.52	90.38
286.751	89.38
286.982	92.38
287.213	91.38
287.444	88.38
287.675	83.38
287.906	98.38
288.138	88.38
288.369	91.38
288.6	94.38
288.831	88.38
289.062	86.38
289.293	100.38
289.524	93.38
289.755	83.38
289.986	94.38
290.217	83.38
290.448	94.38
290.679	76.38
290.91	91.38
291.141	89.38
291.371	88.38
291.602	102.38
291.833	87.38
292.064	91.38
292.295	88.38
292.526	97.38
292.757	103.38
292.987	89.38
293.218	85.38
293.449	87.38
293.68	86.38
293.91	90.38
294.141	106.38
294.372	85.38
294.603	75.38
294.833	96.38
295.064	100.38
295.295	74.38
295.525	91.38
295.756	119.38
295.987	145.38
296.217	171.38
296.448	156.38
296.679	92.38
296.909	89.38
297.14	94.38
297.37	88.38
297.601	86.38
297.831	81.38
298.062	99.38
298.292	100.38
298.523	88.38
298.753	90.38
298.984	102.38
299.214	94.38
299.445	98.38
299.675	96.38
299.905	115.38
300.136	91.38
300.366	96.38
300.597	75.38
300.827	110.38
301.057	118.38
301.288	114.38
301.518	107.38
301.748	103.38
301.979	122.38
302.209	104.38
302.439	89.38
302.669	96.38
302.9	92.38
303.13	115.38
303.36	119.38
303.59	155.38
303.82	169.38
304.051	115.38
304.281	101.38
304.511	91.38
304.741	87.38
304.971	86.38
305.201	103.38
305.431	89.38
305.661	90.38
305.891	93.38
306.121	99.38
306.352	105.38
306.582	126.38
306.812	107.38
307.042	132.38
307.272	195.38
307.502	232.38
307.731	201.38
307.961	145.38
308.191	108.38
308.421	111.38
308.651	97.38
308.881	107.38
309.111	83.38
309.341	109.38
309.571	106.38
309.8	103.38
310.03	103.38
310.26	132.38
310.49	104.38
310.72	110.38
310.949	122.38
311.179	113.38
311.409	107.38
311.639	116.38
311.868	99.38
312.098	116.38
312.328	100.38
312.557	122.38
312.787	128.38
313.017	122.38
313.246	99.38
313.476	97.38
313.706	112.38
313.935	102.38
314.165	122.38
314.394	125.38
314.624	106.38
314.853	98.38
315.083	107.38
315.312	99.38
315.542	105.38
315.771	95.38
316.001	97.38
316.23	97.38
316.46	108.38
316.689	96.38
316.919	86.38
317.148	107.38
317.377	110.38
317.607	99.38
317.836	103.38
318.065	93.38
318.295	99.38
318.524	98.38
318.753	87.38
318.983	104.38
319.212	106.38
319.441	116.38
319.67	122.38
319.9	100.38
320.129	132.38
320.358	96.38
320.587	93.38
320.816	105.38
321.046	101.38
321.275	113.38
321.504	98.38
321.733	108.38
321.962	102.38
322.191	114.38
322.42	121.38
322.649	133.38
322.878	144.38
323.108	136.38
323.337	165.38
323.566	162.38
323.795	193.38
324.024	284.38
324.253	566.38
324.482	1217.38
324.71	2465.38
324.939	3226.38
325.168	1168.38
325.397	328.38
325.626	185.38
325.855	150.38
326.084	139.38
326.313	176.38
326.542	185.38
326.77	307.38
326.999	630.38
327.228	1269.38
327.457	2321.38
327.686	1875.38
327.914	698.38
328.143	704.38
328.372	952.38
328.6	516.38
328.829	244.38
329.058	215.38
329.287	247.38
329.515	215.38
329.744	336.38
329.972	700.38
330.201	1462.38
330.43	2200.38
330.658	936.38
330.887	370.38
331.115	217.38
331.344	141.38
331.572	140.38
331.801	139.38
332.03	149.38
332.258	139.38
332.486	105.38
332.715	114.38
332.943	135.38
333.172	139.38
333.4	155.38
333.629	206.38
333.857	312.38
334.085	609.38
334.314	1384.38
334.542	2715.38
334.771	2558.38
334.999	620.38
335.227	231.38
335.455	153.38
335.684	128.38
335.912	117.38
336.14	114.38
336.369	123.38
336.597	124.38
336.825	131.38
337.053	102.38
337.281	99.38
337.51	97.38
337.738	112.38
337.966	114.38
338.194	109.38
338.422	124.38
338.65	110.38
338.878	101.38
339.106	99.38
339.334	101.38
339.562	101.38
339.79	108.38
340.018	111.38
340.246	94.38
340.474	112.38
340.702	85.38
340.93	106.38
341.158	104.38
341.386	100.38
341.614	123.38
341.842	111.38
342.07	103.38
342.298	88.38
342.526	86.38
342.754	94.38
342.981	79.38
343.209	82.38
343.437	98.38
343.665	83.38
343.893	96.38
344.12	100.38
344.348	97.38
344.576	85.38
344.804	94.38
345.031	95.38
345.259	124.38
345.487	125.38
345.714	105.38
345.942	105.38
346.17	102.38
346.397	85.38
346.625	89.38
346.853	106.38
347.08	97.38
347.308	87.38
347.535	124.38
347.763	115.38
347.99	113.38
348.218	115.38
348.445	122.38
348.673	113.38
348.9	117.38
349.128	95.38
349.355	117.38
349.583	97.38
349.81	98.38
350.037	100.38
350.265	89.38
350.492	101.38
350.72	91.38
350.947	98.38
351.174	115.38
351.402	124.38
351.629	106.38
351.856	103.38
352.083	130.38
352.311	120.38
352.538	139.38
352.765	118.38
352.992	120.38
353.22	111.38
353.447	120.38
353.674	111.38
353.901	110.38
354.128	90.38
354.355	102.38
354.583	103.38
354.81	107.38
355.037	100.38
355.264	92.38
355.491	86.38
355.718	102.38
355.945	98.38
356.172	93.38
356.399	99.38
356.626	100.38
356.853	96.38
357.08	91.38
357.307	87.38
357.534	108.38
357.761	95.38
357.988	95.38
358.215	89.38
358.441	97.38
358.668	79.38
358.895	105.38
359.122	89.38
359.349	90.38
359.576	100.38
359.802	118.38
360.029	139.38
360.256	159.38
360.483	131.38
360.709	102.38
360.936	103.38
361.163	113.38
361.39	114.38
361.616	115.38
361.843	97.38
362.07	101.38
362.296	115.38
362.523	97.38
362.749	109.38
362.976	103.38
363.203	97.38
363.429	95.38
363.656	113.38
363.882	94.38
364.109	100.38
364.335	103.38
364.562	108.38
364.788	113.38
365.015	104.38
365.241	97.38
365.468	126.38
365.694	121.38
365.92	112.38
366.147	102.38
366.373	78.38
366.599	88.38
366.826	90.38
367.052	100.38
367.278	106.38
367.505	106.38
367.731	117.38
367.957	106.38
368.184	106.38
368.41	110.38
368.636	139.38
368.862	145.38
369.089	130.38
369.315	104.38
369.541	106.38
369.767	91.38
369.993	109.38
370.219	106.38
370.445	85.38
370.672	97.38
370.898	86.38
371.124	89.38
371.35	93.38
371.576	94.38
371.802	86.38
372.028	103.38
372.254	93.38
372.48	73.38
372.706	94.38
372.932	95.38
373.158	91.38
373.384	95.38
373.61	91.38
373.835	110.38
374.061	94.38
374.287	112.38
374.513	88.38
374.739	98.38
374.965	88.38
375.191	88.38
375.416	97.38
375.642	81.38
375.868	114.38
376.094	96.38
376.319	87.38
376.545	91.38
376.771	84.38
376.997	89.38
377.222	84.38
377.448	95.38
377.674	87.38
377.899	92.38
378.125	96.38
378.35	94.38
378.576	84.38
378.802	82.38
379.027	99.38
379.253	91.38
379.478	92.38
379.704	87.38
379.929	101.38
380.155	87.38
380.38	84.38
380.606	85.38
380.831	89.38
381.057	106.38
381.282	101.38
381.507	103.38
381.733	97.38
381.958	97.38
382.184	101.38
382.409	95.38
382.634	100.38
382.86	93.38
383.085	89.38
383.31	95.38
383.535	98.38
383.761	79.38
383.986	106.38
384.211	100.38
384.436	106.38
384.662	93.38
384.887	91.38
385.112	89.38
385.337	94.38
385.562	108.38
385.787	110.38
386.013	123.38
386.238	121.38
386.463	108.38
386.688	105.38
386.913	91.38
387.138	104.38
387.363	95.38
387.588	90.38
387.813	94.38
388.038	103.38
388.263	92.38
388.488	99.38
388.713	100.38
388.938	104.38
389.163	105.38
389.387	91.38
389.612	83.38
389.837	98.38
390.062	87.38
390.287	88.38
390.512	102.38
390.736	92.38
390.961	78.38
391.186	84.38
391.411	103.38
391.636	92.38
391.86	91.38
392.085	84.38
392.31	100.38
392.534	92.38
392.759	86.38
392.984	84.38
393.208	92.38
393.433	81.38
393.658	85.38
393.882	98.38
394.107	71.38
394.331	89.38
394.556	98.38
394.78	92.38
395.005	80.38
395.229	99.38
395.454	77.38
395.678	83.38
395.903	101.38
396.127	97.38
396.352	87.38
396.576	90.38
396.801	78.38
397.025	82.38
397.249	93.38
397.474	88.38
397.698	81.38
397.922	95.38
398.147	86.38
398.371	101.38
398.595	95.38
398.82	80.38
399.044	104.38
399.268	84.38
399.492	83.38
399.717	92.38
399.941	92.38
400.165	108.38
400.389	102.38
400.613	83.38
400.837	85.38
401.062	86.38
401.286	95.38
401.51	96.38
401.734	95.38
401.958	113.38
402.182	165.38
402.406	215.38
402.63	179.38
402.854	107.38
403.078	82.38
403.302	94.38
403.526	96.38
403.75	98.38
403.974	84.38
404.198	93.38
404.422	87.38
404.645	91.38
404.869	111.38
405.093	130.38
405.317	162.38
405.541	162.38
405.765	115.38
405.988	140.38
406.212	225.38
406.436	338.38
406.66	225.38
406.883	126.38
407.107	122.38
407.331	116.38
407.555	120.38
407.778	126.38
408.002	103.38
408.226	81.38
408.449	88.38
408.673	83.38
408.896	96.38
409.12	106.38
409.344	91.38
409.567	94.38
409.791	87.38
410.014	111.38
410.238	112.38
410.461	99.38
410.685	87.38
410.908	104.38
411.132	111.38
411.355	114.38
411.578	105.38
411.802	100.38
412.025	87.38
412.249	98.38
412.472	117.38
412.695	156.38
412.919	131.38
413.142	99.38
413.365	88.38
413.589	80.38
413.812	91.38
414.035	104.38
414.258	98.38
414.482	96.38
414.705	94.38
414.928	90.38
415.151	94.38
415.374	82.38
415.597	93.38
415.821	103.38
416.044	92.38
416.267	82.38
416.49	94.38
416.713	74.38
416.936	85.38
417.159	87.38
417.382	100.38
417.605	123.38
417.828	110.38
418.051	102.38
418.274	91.38
418.497	74.38
418.72	100.38
418.943	79.38
419.166	90.38
419.389	78.38
419.611	87.38
419.834	95.38
420.057	102.38
420.28	115.38
420.503	107.38
420.726	84.38
420.948	110.38
421.171	116.38
421.394	111.38
421.617	82.38
421.839	95.38
422.062	94.38
422.285	90.38
422.507	116.38
422.73	124.38
422.953	108.38
423.175	86.38
423.398	87.38
423.621	105.38
423.843	90.38
424.066	89.38
424.288	97.38
424.511	101.38
424.733	129.38
424.956	136.38
425.178	114.38
425.401	128.38
425.623	113.38
425.846	105.38
426.068	112.38
426.291	107.38
426.513	85.38
426.735	89.38
426.958	107.38
427.18	136.38
427.402	218.38
427.625	311.38
427.847	305.38
428.069	276.38
428.292	159.38
428.514	95.38
428.736	97.38
428.958	83.38
429.181	83.38
429.403	78.38
429.625	88.38
429.847	107.38
430.069	135.38
430.292	111.38
430.514	87.38
430.736	75.38
430.958	82.38
431.18	92.38
431.402	90.38
431.624	101.38
431.846	91.38
432.068	84.38
432.29	94.38
432.512	105.38
432.734	94.38
432.956	101.38
433.178	111.38
433.4	106.38
433.622	93.38
433.844	102.38
434.066	90.38
434.287	90.38
434.509	86.38
434.731	105.38
434.953	80.38
435.175	82.38
435.397	96.38
435.618	95.38
435.84	130.38
436.062	148.38
436.284	150.38
436.505	122.38
436.727	104.38
436.949	110.38
437.17	97.38
437.392	102.38
437.614	122.38
437.835	132.38
438.057	158.38
438.278	149.38
438.5	119.38
438.721	156.38
438.943	113.38
439.165	94.38
439.386	106.38
439.608	103.38
439.829	127.38
440.05	183.38
440.272	200.38
440.493	123.38
440.715	97.38
440.936	90.38
441.158	85.38
441.379	97.38
441.6	112.38
441.822	106.38
442.043	105.38
442.264	145.38
442.486	107.38
442.707	117.38
442.928	137.38
443.149	202.38
443.371	191.38
443.592	140.38
443.813	127.38
444.034	132.38
444.255	99.38
444.476	87.38
444.698	97.38
444.919	108.38
445.14	151.38
445.361	138.38
445.582	141.38
445.803	198.38
446.024	208.38
446.245	200.38
446.466	157.38
446.687	95.38
446.908	100.38
447.129	96.38
447.35	95.38
447.571	111.38
447.792	107.38
448.013	115.38
448.234	117.38
448.455	136.38
448.675	137.38
448.896	167.38
449.117	122.38
449.338	115.38
449.559	158.38
449.779	183.38
450	107.38
450.221	91.38
450.442	85.38
450.662	117.38
450.883	116.38
451.104	151.38
451.324	111.38
451.545	92.38
451.766	104.38
451.986	87.38
452.207	94.38
452.428	97.38
452.648	99.38
452.869	130.38
453.089	152.38
453.31	139.38
453.53	99.38
453.751	120.38
453.971	121.38
454.192	145.38
454.412	106.38
454.633	98.38
454.853	92.38
455.073	84.38
455.294	86.38
455.514	116.38
455.734	102.38
455.955	104.38
456.175	90.38
456.395	88.38
456.616	85.38
456.836	78.38
457.056	92.38
457.276	100.38
457.497	101.38
457.717	100.38
457.937	80.38
458.157	102.38
458.377	104.38
458.598	126.38
458.818	229.38
459.038	253.38
459.258	170.38
459.478	110.38
459.698	99.38
459.918	93.38
460.138	89.38
460.358	88.38
460.578	93.38
460.798	113.38
461.018	97.38
461.238	87.38
461.458	86.38
461.678	102.38
461.898	80.38
462.118	94.38
462.338	72.38
462.558	85.38
462.777	78.38
462.997	102.38
463.217	112.38
463.437	113.38
463.657	96.38
463.876	96.38
464.096	102.38
464.316	104.38
464.536	104.38
464.755	112.38
464.975	136.38
465.195	286.38
465.414	277.38
465.634	132.38
465.854	102.38
466.073	91.38
466.293	93.38
466.512	88.38
466.732	99.38
466.951	116.38
467.171	102.38
467.391	125.38
467.61	182.38
467.829	289.38
468.049	784.38
468.268	1298.38
468.488	288.38
468.707	126.38
468.927	103.38
469.146	102.38
469.365	90.38
469.585	103.38
469.804	116.38
470.023	117.38
470.243	107.38
470.462	125.38
470.681	151.38
470.901	103.38
471.12	102.38
471.339	108.38
471.558	136.38
471.777	194.38
471.997	418.38
472.216	1644.38
472.435	3844.38
472.654	864.38
472.873	210.38
473.092	118.38
473.311	111.38
473.53	101.38
473.749	88.38
473.968	98.38
474.187	133.38
474.406	114.38
474.625	94.38
474.844	99.38
475.063	94.38
475.282	99.38
475.501	87.38
475.72	89.38
475.939	90.38
476.158	82.38
476.377	99.38
476.596	102.38
476.814	98.38
477.033	107.38
477.252	107.38
477.471	96.38
477.69	93.38
477.908	99.38
478.127	104.38
478.346	110.38
478.564	104.38
478.783	107.38
479.002	118.38
479.22	111.38
479.439	138.38
479.658	144.38
479.876	143.38
480.095	126.38
480.313	158.38
480.532	203.38
480.751	379.38
480.969	1447.38
481.188	6304.38
481.406	3811.38
481.624	513.38
481.843	185.38
482.061	130.38
482.28	121.38
482.498	107.38
482.717	108.38
482.935	100.38
483.153	92.38
483.372	98.38
483.59	95.38
483.808	96.38
484.027	94.38
484.245	79.38
484.463	106.38
484.681	91.38
484.9	91.38
485.118	112.38
485.336	105.38
485.554	105.38
485.772	111.38
485.99	112.38
486.209	119.38
486.427	108.38
486.645	137.38
486.863	134.38
487.081	126.38
487.299	108.38
487.517	112.38
487.735	95.38
487.953	78.38
488.171	102.38
488.389	103.38
488.607	110.38
488.825	87.38
489.043	100.38
489.261	93.38
489.479	100.38
489.696	90.38
489.914	99.38
490.132	99.38
490.35	81.38
490.568	82.38
490.786	85.38
491.003	95.38
491.221	105.38
491.439	99.38
491.657	85.38
491.874	96.38
492.092	98.38
492.31	98.38
492.527	94.38
492.745	100.38
492.963	97.38
493.18	95.38
493.398	96.38
493.615	97.38
493.833	105.38
494.05	79.38
494.268	90.38
494.485	96.38
494.703	90.38
494.92	90.38
495.138	92.38
495.355	101.38
495.573	102.38
495.79	90.38
496.008	93.38
496.225	100.38
496.442	94.38
496.66	99.38
496.877	97.38
497.094	119.38
497.312	96.38
497.529	98.38
497.746	96.38
497.963	101.38
498.181	111.38
498.398	117.38
498.615	131.38
498.832	116.38
499.049	108.38
499.267	95.38
499.484	103.38
499.701	95.38
499.918	102.38
500.135	91.38
500.352	105.38
500.569	97.38
500.786	111.38
501.003	116.38
501.22	116.38
501.437	100.38
501.654	111.38
501.871	144.38
502.088	102.38
502.305	90.38
502.522	95.38
502.739	105.38
502.956	86.38
503.172	107.38
503.389	119.38
503.606	131.38
503.823	109.38
504.04	112.38
504.256	103.38
504.473	106.38
504.69	98.38
504.907	103.38
505.123	98.38
505.34	89.38
505.557	94.38
505.773	95.38
505.99	96.38
506.207	87.38
506.423	90.38
506.64	95.38
506.856	89.38
507.073	93.38
507.289	87.38
507.506	92.38
507.722	134.38
507.939	134.38
508.155	104.38
508.372	97.38
508.588	100.38
508.805	110.38
509.021	98.38
509.238	98.38
509.454	102.38
509.67	113.38
509.887	115.38
510.103	147.38
510.319	264.38
510.536	1076.38
510.752	3778.38
510.968	1042.38
511.184	219.38
