Data from Circ_2023_H10_HRD10591_00018.txt Node
Date: Wed Jan 03 09:50:34 EST 2024
User: Yrep
Spectrometer: HR+D1059
Trigger mode: 1
Integration Time (sec): 1.000000E-1
Scans to average: 1
Electric dark correction enabled: true
Nonlinearity correction enabled: false
Boxcar width: 0
XAxis mode: Wavelengths
Number of Pixels in Spectrum: 2048
>>>>>Begin Spectral Data<<<<<
223.165	-22.69
223.4	-22.69
223.635	-22.69
223.869	-19.69
224.104	-15.69
224.338	-13.69
224.573	-6.69
224.808	-14.69
225.042	-3.69
225.277	10.31
225.511	-6.69
225.746	1.31
225.98	14.31
226.215	11.31
226.449	20.31
226.683	6.31
226.918	18.31
227.152	21.31
227.387	44.31
227.621	50.31
227.856	45.31
228.09	30.31
228.324	54.31
228.559	58.31
228.793	57.31
229.027	67.31
229.262	56.31
229.496	84.31
229.73	123.31
229.964	101.31
230.199	81.31
230.433	80.31
230.667	80.31
230.901	72.31
231.136	86.31
231.37	74.31
231.604	91.31
231.838	90.31
232.072	85.31
232.306	81.31
232.541	84.31
232.775	93.31
233.009	81.31
233.243	84.31
233.477	82.31
233.711	81.31
233.945	82.31
234.179	69.31
234.413	78.31
234.647	85.31
234.881	86.31
235.115	88.31
235.349	79.31
235.583	88.31
235.817	83.31
236.051	89.31
236.285	83.31
236.519	82.31
236.753	75.31
236.987	89.31
237.221	105.31
237.455	99.31
237.689	89.31
237.922	83.31
238.156	88.31
238.39	73.31
238.624	70.31
238.858	74.31
239.091	81.31
239.325	70.31
239.559	100.31
239.793	80.31
240.027	89.31
240.26	87.31
240.494	86.31
240.728	82.31
240.961	89.31
241.195	81.31
241.429	70.31
241.662	82.31
241.896	77.31
242.13	82.31
242.363	74.31
242.597	74.31
242.83	83.31
243.064	82.31
243.298	87.31
243.531	99.31
243.765	90.31
243.998	84.31
244.232	82.31
244.465	89.31
244.699	90.31
244.932	75.31
245.166	98.31
245.399	81.31
245.633	85.31
245.866	89.31
246.099	78.31
246.333	97.31
246.566	78.31
246.8	83.31
247.033	76.31
247.266	99.31
247.5	69.31
247.733	84.31
247.966	79.31
248.2	94.31
248.433	65.31
248.666	104.31
248.899	84.31
249.133	113.31
249.366	117.31
249.599	109.31
249.832	93.31
250.066	82.31
250.299	88.31
250.532	101.31
250.765	82.31
250.998	92.31
251.231	85.31
251.465	86.31
251.698	84.31
251.931	98.31
252.164	73.31
252.397	74.31
252.63	78.31
252.863	92.31
253.096	81.31
253.329	94.31
253.562	96.31
253.795	85.31
254.028	80.31
254.261	86.31
254.494	92.31
254.727	108.31
254.96	81.31
255.193	78.31
255.426	89.31
255.659	99.31
255.892	90.31
256.124	109.31
256.357	86.31
256.59	78.31
256.823	90.31
257.056	99.31
257.289	90.31
257.521	92.31
257.754	88.31
257.987	66.31
258.22	86.31
258.452	75.31
258.685	91.31
258.918	96.31
259.151	75.31
259.383	75.31
259.616	99.31
259.849	80.31
260.081	86.31
260.314	91.31
260.547	97.31
260.779	97.31
261.012	116.31
261.244	108.31
261.477	96.31
261.71	107.31
261.942	139.31
262.175	132.31
262.407	102.31
262.64	106.31
262.872	82.31
263.105	92.31
263.337	77.31
263.57	99.31
263.802	94.31
264.035	81.31
264.267	86.31
264.499	80.31
264.732	84.31
264.964	89.31
265.197	87.31
265.429	78.31
265.661	103.31
265.894	83.31
266.126	82.31
266.358	95.31
266.591	78.31
266.823	99.31
267.055	88.31
267.287	99.31
267.52	88.31
267.752	86.31
267.984	84.31
268.216	86.31
268.448	85.31
268.681	98.31
268.913	75.31
269.145	85.31
269.377	86.31
269.609	80.31
269.841	84.31
270.073	83.31
270.306	90.31
270.538	91.31
270.77	89.31
271.002	85.31
271.234	83.31
271.466	82.31
271.698	77.31
271.93	96.31
272.162	61.31
272.394	102.31
272.626	94.31
272.858	78.31
273.09	100.31
273.322	98.31
273.553	82.31
273.785	107.31
274.017	84.31
274.249	81.31
274.481	83.31
274.713	82.31
274.945	86.31
275.176	94.31
275.408	103.31
275.64	105.31
275.872	109.31
276.104	106.31
276.335	115.31
276.567	132.31
276.799	149.31
277.031	160.31
277.262	192.31
277.494	142.31
277.726	100.31
277.957	90.31
278.189	102.31
278.421	97.31
278.652	94.31
278.884	86.31
279.115	93.31
279.347	86.31
279.579	105.31
279.81	138.31
280.042	177.31
280.273	239.31
280.505	173.31
280.736	121.31
280.968	87.31
281.199	93.31
281.431	110.31
281.662	90.31
281.894	103.31
282.125	114.31
282.356	150.31
282.588	187.31
282.819	142.31
283.051	92.31
283.282	90.31
283.513	88.31
283.745	88.31
283.976	79.31
284.207	90.31
284.439	86.31
284.67	94.31
284.901	96.31
285.132	91.31
285.364	88.31
285.595	94.31
285.826	91.31
286.057	91.31
286.288	94.31
286.52	93.31
286.751	78.31
286.982	82.31
287.213	97.31
287.444	87.31
287.675	95.31
287.906	101.31
288.138	99.31
288.369	99.31
288.6	99.31
288.831	98.31
289.062	80.31
289.293	96.31
289.524	88.31
289.755	89.31
289.986	87.31
290.217	85.31
290.448	97.31
290.679	96.31
290.91	92.31
291.141	92.31
291.371	81.31
291.602	75.31
291.833	87.31
292.064	94.31
292.295	82.31
292.526	90.31
292.757	96.31
292.987	100.31
293.218	103.31
293.449	88.31
293.68	88.31
293.91	90.31
294.141	95.31
294.372	85.31
294.603	88.31
294.833	90.31
295.064	91.31
295.295	82.31
295.525	104.31
295.756	112.31
295.987	142.31
296.217	186.31
296.448	153.31
296.679	92.31
296.909	93.31
297.14	82.31
297.37	106.31
297.601	99.31
297.831	96.31
298.062	82.31
298.292	109.31
298.523	98.31
298.753	94.31
298.984	98.31
299.214	101.31
299.445	97.31
299.675	101.31
299.905	97.31
300.136	103.31
300.366	97.31
300.597	101.31
300.827	106.31
301.057	114.31
301.288	112.31
301.518	113.31
301.748	115.31
301.979	101.31
302.209	97.31
302.439	90.31
302.669	89.31
302.9	95.31
303.13	94.31
303.36	109.31
303.59	125.31
303.82	156.31
304.051	118.31
304.281	94.31
304.511	93.31
304.741	101.31
304.971	85.31
305.201	92.31
305.431	92.31
305.661	94.31
305.891	99.31
306.121	98.31
306.352	130.31
306.582	118.31
306.812	111.31
307.042	120.31
307.272	157.31
307.502	168.31
307.731	150.31
307.961	129.31
308.191	97.31
308.421	99.31
308.651	108.31
308.881	102.31
309.111	97.31
309.341	88.31
309.571	102.31
309.8	91.31
310.03	106.31
310.26	105.31
310.49	113.31
310.72	107.31
310.949	126.31
311.179	110.31
311.409	103.31
311.639	94.31
311.868	107.31
312.098	120.31
312.328	118.31
312.557	122.31
312.787	143.31
313.017	117.31
313.246	101.31
313.476	104.31
313.706	96.31
313.935	101.31
314.165	115.31
314.394	118.31
314.624	109.31
314.853	116.31
315.083	101.31
315.312	105.31
315.542	88.31
315.771	108.31
316.001	94.31
316.23	100.31
316.46	92.31
316.689	97.31
316.919	111.31
317.148	100.31
317.377	105.31
317.607	105.31
317.836	106.31
318.065	88.31
318.295	96.31
318.524	114.31
318.753	98.31
318.983	99.31
319.212	107.31
319.441	120.31
319.67	128.31
319.9	108.31
320.129	100.31
320.358	98.31
320.587	101.31
320.816	110.31
321.046	130.31
321.275	107.31
321.504	99.31
321.733	108.31
321.962	118.31
322.191	106.31
322.42	115.31
322.649	136.31
322.878	132.31
323.108	138.31
323.337	162.31
323.566	173.31
323.795	201.31
324.024	269.31
324.253	550.31
324.482	1163.31
324.71	2437.31
324.939	3234.31
325.168	1172.31
325.397	336.31
325.626	190.31
325.855	159.31
326.084	161.31
326.313	162.31
326.542	217.31
326.77	316.31
326.999	616.31
327.228	1287.31
327.457	2349.31
327.686	1932.31
327.914	640.31
328.143	541.31
328.372	634.31
328.6	378.31
328.829	188.31
329.058	220.31
329.287	222.31
329.515	190.31
329.744	250.31
329.972	448.31
330.201	963.31
330.43	1365.31
330.658	621.31
330.887	302.31
331.115	201.31
331.344	142.31
331.572	125.31
331.801	132.31
332.03	129.31
332.258	126.31
332.486	104.31
332.715	110.31
332.943	115.31
333.172	120.31
333.4	149.31
333.629	181.31
333.857	239.31
334.085	434.31
334.314	865.31
334.542	1695.31
334.771	1620.31
334.999	412.31
335.227	175.31
335.455	131.31
335.684	124.31
335.912	116.31
336.14	113.31
336.369	108.31
336.597	118.31
336.825	121.31
337.053	115.31
337.281	102.31
337.51	103.31
337.738	116.31
337.966	97.31
338.194	117.31
338.422	112.31
338.65	100.31
338.878	96.31
339.106	99.31
339.334	107.31
339.562	98.31
339.79	91.31
340.018	96.31
340.246	100.31
340.474	102.31
340.702	111.31
340.93	92.31
341.158	83.31
341.386	113.31
341.614	117.31
341.842	91.31
342.07	85.31
342.298	105.31
342.526	115.31
342.754	92.31
342.981	108.31
343.209	84.31
343.437	108.31
343.665	94.31
343.893	106.31
344.12	106.31
344.348	102.31
344.576	94.31
344.804	108.31
345.031	114.31
345.259	116.31
345.487	103.31
345.714	101.31
345.942	89.31
346.17	99.31
346.397	98.31
346.625	102.31
346.853	84.31
347.08	109.31
347.308	108.31
347.535	117.31
347.763	105.31
347.99	117.31
348.218	128.31
348.445	138.31
348.673	132.31
348.9	118.31
349.128	105.31
349.355	112.31
349.583	97.31
349.81	98.31
350.037	105.31
350.265	117.31
350.492	97.31
350.72	107.31
350.947	101.31
351.174	125.31
351.402	128.31
351.629	117.31
351.856	118.31
352.083	138.31
352.311	114.31
352.538	116.31
352.765	139.31
352.992	121.31
353.22	133.31
353.447	119.31
353.674	99.31
353.901	89.31
354.128	106.31
354.355	98.31
354.583	105.31
354.81	98.31
355.037	96.31
355.264	100.31
355.491	103.31
355.718	93.31
355.945	95.31
356.172	82.31
356.399	84.31
356.626	96.31
356.853	94.31
357.08	96.31
357.307	93.31
357.534	96.31
357.761	102.31
357.988	90.31
358.215	99.31
358.441	97.31
358.668	96.31
358.895	95.31
359.122	101.31
359.349	102.31
359.576	101.31
359.802	139.31
360.029	145.31
360.256	152.31
360.483	117.31
360.709	113.31
360.936	117.31
361.163	112.31
361.39	110.31
361.616	104.31
361.843	108.31
362.07	115.31
362.296	108.31
362.523	88.31
362.749	113.31
362.976	108.31
363.203	98.31
363.429	93.31
363.656	97.31
363.882	101.31
364.109	94.31
364.335	93.31
364.562	102.31
364.788	100.31
365.015	102.31
365.241	118.31
365.468	142.31
365.694	122.31
365.92	120.31
366.147	109.31
366.373	94.31
366.599	92.31
366.826	93.31
367.052	88.31
367.278	117.31
367.505	97.31
367.731	103.31
367.957	117.31
368.184	121.31
368.41	116.31
368.636	129.31
368.862	149.31
369.089	128.31
369.315	103.31
369.541	96.31
369.767	100.31
369.993	90.31
370.219	112.31
370.445	89.31
370.672	90.31
370.898	94.31
371.124	100.31
371.35	85.31
371.576	91.31
371.802	72.31
372.028	78.31
372.254	81.31
372.48	99.31
372.706	79.31
372.932	80.31
373.158	82.31
373.384	100.31
373.61	86.31
373.835	88.31
374.061	97.31
374.287	112.31
374.513	93.31
374.739	97.31
374.965	94.31
375.191	99.31
375.416	90.31
375.642	91.31
375.868	100.31
376.094	91.31
376.319	93.31
376.545	99.31
376.771	95.31
376.997	93.31
377.222	102.31
377.448	98.31
377.674	92.31
377.899	96.31
378.125	96.31
378.35	99.31
378.576	94.31
378.802	92.31
379.027	97.31
379.253	104.31
379.478	86.31
379.704	103.31
379.929	100.31
380.155	109.31
380.38	91.31
380.606	94.31
380.831	77.31
381.057	100.31
381.282	96.31
381.507	93.31
381.733	95.31
381.958	111.31
382.184	105.31
382.409	94.31
382.634	93.31
382.86	102.31
383.085	106.31
383.31	102.31
383.535	97.31
383.761	107.31
383.986	105.31
384.211	96.31
384.436	100.31
384.662	85.31
384.887	93.31
385.112	90.31
385.337	110.31
385.562	90.31
385.787	107.31
386.013	108.31
386.238	121.31
386.463	113.31
386.688	106.31
386.913	113.31
387.138	99.31
387.363	97.31
387.588	107.31
387.813	112.31
388.038	99.31
388.263	108.31
388.488	120.31
388.713	96.31
388.938	90.31
389.163	91.31
389.387	111.31
389.612	103.31
389.837	104.31
390.062	105.31
390.287	101.31
390.512	113.31
390.736	95.31
390.961	81.31
391.186	89.31
391.411	90.31
391.636	91.31
391.86	102.31
392.085	80.31
392.31	82.31
392.534	89.31
392.759	96.31
392.984	96.31
393.208	80.31
393.433	84.31
393.658	75.31
393.882	69.31
394.107	102.31
394.331	81.31
394.556	86.31
394.78	91.31
395.005	88.31
395.229	87.31
395.454	97.31
395.678	82.31
395.903	112.31
396.127	104.31
396.352	92.31
396.576	98.31
396.801	83.31
397.025	99.31
397.249	103.31
397.474	87.31
397.698	92.31
397.922	99.31
398.147	91.31
398.371	92.31
398.595	107.31
398.82	83.31
399.044	88.31
399.268	90.31
399.492	104.31
399.717	100.31
399.941	104.31
400.165	96.31
400.389	95.31
400.613	93.31
400.837	106.31
401.062	96.31
401.286	104.31
401.51	109.31
401.734	112.31
401.958	128.31
402.182	162.31
402.406	200.31
402.63	150.31
402.854	114.31
403.078	98.31
403.302	88.31
403.526	91.31
403.75	108.31
403.974	96.31
404.198	99.31
404.422	85.31
404.645	88.31
404.869	109.31
405.093	123.31
405.317	162.31
405.541	145.31
405.765	113.31
405.988	137.31
406.212	233.31
406.436	352.31
406.66	216.31
406.883	135.31
407.107	112.31
407.331	110.31
407.555	120.31
407.778	117.31
408.002	91.31
408.226	101.31
408.449	111.31
408.673	100.31
408.896	108.31
409.12	105.31
409.344	102.31
409.567	94.31
409.791	113.31
410.014	85.31
410.238	96.31
410.461	99.31
410.685	93.31
410.908	108.31
411.132	113.31
411.355	114.31
411.578	92.31
411.802	94.31
412.025	117.31
412.249	106.31
412.472	126.31
412.695	151.31
412.919	106.31
413.142	104.31
413.365	97.31
413.589	102.31
413.812	83.31
414.035	82.31
414.258	94.31
414.482	104.31
414.705	92.31
414.928	90.31
415.151	93.31
415.374	84.31
415.597	100.31
415.821	98.31
416.044	90.31
416.267	97.31
416.49	90.31
416.713	91.31
416.936	93.31
417.159	95.31
417.382	102.31
417.605	105.31
417.828	104.31
418.051	102.31
418.274	103.31
418.497	93.31
418.72	89.31
418.943	78.31
419.166	93.31
419.389	104.31
419.611	88.31
419.834	108.31
420.057	91.31
420.28	100.31
420.503	111.31
420.726	100.31
420.948	101.31
421.171	102.31
421.394	99.31
421.617	93.31
421.839	70.31
422.062	89.31
422.285	98.31
422.507	105.31
422.73	109.31
422.953	102.31
423.175	96.31
423.398	93.31
423.621	104.31
423.843	97.31
424.066	111.31
424.288	93.31
424.511	101.31
424.733	113.31
424.956	145.31
425.178	101.31
425.401	105.31
425.623	114.31
425.846	98.31
426.068	109.31
426.291	96.31
426.513	107.31
426.735	96.31
426.958	99.31
427.18	140.31
427.402	206.31
427.625	290.31
427.847	274.31
428.069	232.31
428.292	148.31
428.514	120.31
428.736	97.31
428.958	102.31
429.181	97.31
429.403	90.31
429.625	81.31
429.847	110.31
430.069	116.31
430.292	113.31
430.514	93.31
430.736	90.31
430.958	98.31
431.18	87.31
431.402	99.31
431.624	93.31
431.846	102.31
432.068	103.31
432.29	96.31
432.512	97.31
432.734	98.31
432.956	80.31
433.178	122.31
433.4	109.31
433.622	91.31
433.844	99.31
434.066	85.31
434.287	98.31
434.509	91.31
434.731	85.31
434.953	95.31
435.175	100.31
435.397	90.31
435.618	109.31
435.84	114.31
436.062	155.31
436.284	152.31
436.505	117.31
436.727	115.31
436.949	101.31
437.17	108.31
437.392	104.31
437.614	81.31
437.835	125.31
438.057	177.31
438.278	154.31
438.5	124.31
438.721	141.31
438.943	126.31
439.165	109.31
439.386	107.31
439.608	108.31
439.829	128.31
440.05	154.31
440.272	214.31
440.493	109.31
440.715	104.31
440.936	83.31
441.158	93.31
441.379	105.31
441.6	120.31
441.822	94.31
442.043	115.31
442.264	130.31
442.486	126.31
442.707	114.31
442.928	134.31
443.149	196.31
443.371	180.31
443.592	140.31
443.813	143.31
444.034	120.31
444.255	93.31
444.476	89.31
444.698	96.31
444.919	88.31
445.14	136.31
445.361	156.31
445.582	136.31
445.803	199.31
446.024	191.31
446.245	186.31
446.466	140.31
446.687	108.31
446.908	104.31
447.129	94.31
447.35	115.31
447.571	94.31
447.792	80.31
448.013	108.31
448.234	127.31
448.455	135.31
448.675	138.31
448.896	156.31
449.117	126.31
449.338	121.31
449.559	161.31
449.779	163.31
450	109.31
450.221	96.31
450.442	85.31
450.662	107.31
450.883	141.31
451.104	150.31
451.324	136.31
451.545	98.31
451.766	99.31
451.986	102.31
452.207	98.31
452.428	104.31
452.648	107.31
452.869	151.31
453.089	145.31
453.31	143.31
453.53	93.31
453.751	100.31
453.971	112.31
454.192	143.31
454.412	106.31
454.633	95.31
454.853	93.31
455.073	104.31
455.294	98.31
455.514	121.31
455.734	105.31
455.955	100.31
456.175	87.31
456.395	94.31
456.616	84.31
456.836	73.31
457.056	103.31
457.276	84.31
457.497	95.31
457.717	92.31
457.937	88.31
458.157	103.31
458.377	117.31
458.598	146.31
458.818	245.31
459.038	268.31
459.258	188.31
459.478	109.31
459.698	96.31
459.918	89.31
460.138	97.31
460.358	100.31
460.578	102.31
460.798	86.31
461.018	103.31
461.238	77.31
461.458	100.31
461.678	92.31
461.898	84.31
462.118	83.31
462.338	80.31
462.558	89.31
462.777	88.31
462.997	102.31
463.217	110.31
463.437	97.31
463.657	92.31
463.876	98.31
464.096	106.31
464.316	102.31
464.536	108.31
464.755	120.31
464.975	154.31
465.195	262.31
465.414	276.31
465.634	115.31
465.854	102.31
466.073	88.31
466.293	90.31
466.512	105.31
466.732	108.31
466.951	111.31
467.171	95.31
467.391	118.31
467.61	133.31
467.829	202.31
468.049	514.31
468.268	766.31
468.488	226.31
468.707	117.31
468.927	96.31
469.146	94.31
469.365	110.31
469.585	107.31
469.804	110.31
470.023	131.31
470.243	105.31
470.462	114.31
470.681	143.31
470.901	124.31
471.12	91.31
471.339	108.31
471.558	121.31
471.777	159.31
471.997	279.31
472.216	995.31
472.435	2222.31
472.654	568.31
472.873	168.31
473.092	108.31
473.311	114.31
473.53	97.31
473.749	92.31
473.968	106.31
474.187	138.31
474.406	115.31
474.625	105.31
474.844	110.31
475.063	117.31
475.282	89.31
475.501	93.31
475.72	92.31
475.939	82.31
476.158	98.31
476.377	96.31
476.596	97.31
476.814	102.31
477.033	108.31
477.252	105.31
477.471	74.31
477.69	96.31
477.908	109.31
478.127	87.31
478.346	93.31
478.564	97.31
478.783	112.31
479.002	100.31
479.22	118.31
479.439	124.31
479.658	129.31
479.876	129.31
480.095	128.31
480.313	142.31
480.532	170.31
480.751	269.31
480.969	874.31
481.188	3693.31
481.406	2365.31
481.624	360.31
481.843	132.31
482.061	114.31
482.28	101.31
482.498	108.31
482.717	96.31
482.935	96.31
483.153	86.31
483.372	85.31
483.59	89.31
483.808	100.31
484.027	96.31
484.245	103.31
484.463	97.31
484.681	106.31
484.9	87.31
485.118	109.31
485.336	104.31
485.554	101.31
485.772	122.31
485.99	109.31
486.209	113.31
486.427	112.31
486.645	129.31
486.863	131.31
487.081	112.31
487.299	90.31
487.517	105.31
487.735	88.31
487.953	101.31
488.171	92.31
488.389	102.31
488.607	117.31
488.825	96.31
489.043	84.31
489.261	98.31
489.479	85.31
489.696	88.31
489.914	91.31
490.132	95.31
490.35	89.31
490.568	100.31
490.786	91.31
491.003	96.31
491.221	97.31
491.439	90.31
491.657	105.31
491.874	88.31
492.092	92.31
492.31	99.31
492.527	109.31
492.745	108.31
492.963	100.31
493.18	99.31
493.398	94.31
493.615	82.31
493.833	92.31
494.05	99.31
494.268	98.31
494.485	88.31
494.703	92.31
494.92	93.31
495.138	102.31
495.355	74.31
495.573	88.31
495.79	88.31
496.008	94.31
496.225	98.31
496.442	91.31
496.66	104.31
496.877	111.31
497.094	91.31
497.312	96.31
497.529	95.31
497.746	90.31
497.963	91.31
498.181	116.31
498.398	86.31
498.615	115.31
498.832	115.31
499.049	94.31
499.267	98.31
499.484	95.31
499.701	96.31
499.918	87.31
500.135	103.31
500.352	98.31
500.569	97.31
500.786	105.31
501.003	98.31
501.22	92.31
501.437	112.31
501.654	116.31
501.871	139.31
502.088	106.31
502.305	88.31
502.522	105.31
502.739	95.31
502.956	98.31
503.172	106.31
503.389	109.31
503.606	134.31
503.823	90.31
504.04	92.31
504.256	98.31
504.473	92.31
504.69	93.31
504.907	106.31
505.123	98.31
505.34	92.31
505.557	102.31
505.773	110.31
505.99	89.31
506.207	81.31
506.423	95.31
506.64	88.31
506.856	98.31
507.073	95.31
507.289	98.31
507.506	114.31
507.722	136.31
507.939	140.31
508.155	106.31
508.372	96.31
508.588	114.31
508.805	114.31
509.021	105.31
509.238	109.31
509.454	108.31
509.67	114.31
509.887	123.31
510.103	154.31
510.319	263.31
510.536	1051.31
510.752	3658.31
510.968	1030.31
