Data from Circ_2023_H10_HRD10591_00072.txt Node
Date: Wed Jan 03 09:50:45 EST 2024
User: Yrep
Spectrometer: HR+D1059
Trigger mode: 1
Integration Time (sec): 1.000000E-1
Scans to average: 1
Electric dark correction enabled: true
Nonlinearity correction enabled: false
Boxcar width: 0
XAxis mode: Wavelengths
Number of Pixels in Spectrum: 2048
>>>>>Begin Spectral Data<<<<<
223.165	-8.12
223.4	-8.12
223.635	-8.12
223.869	-24.12
224.104	-12.12
224.338	-10.12
224.573	-11.12
224.808	-1.12
225.042	-5.12
225.277	-4.12
225.511	-10.12
225.746	2.88
225.98	4.88
226.215	-3.12
226.449	16.88
226.683	19.88
226.918	16.88
227.152	27.88
227.387	24.88
227.621	35.88
227.856	48.88
228.09	44.88
228.324	59.88
228.559	58.88
228.793	48.88
229.027	63.88
229.262	67.88
229.496	78.88
229.73	111.88
229.964	101.88
230.199	72.88
230.433	78.88
230.667	100.88
230.901	88.88
231.136	92.88
231.37	71.88
231.604	70.88
231.838	67.88
232.072	69.88
232.306	84.88
232.541	81.88
232.775	75.88
233.009	82.88
233.243	91.88
233.477	82.88
233.711	90.88
233.945	79.88
234.179	82.88
234.413	80.88
234.647	78.88
234.881	63.88
235.115	72.88
235.349	80.88
235.583	70.88
235.817	84.88
236.051	91.88
236.285	71.88
236.519	79.88
236.753	85.88
236.987	89.88
237.221	102.88
237.455	112.88
237.689	77.88
237.922	72.88
238.156	72.88
238.39	69.88
238.624	76.88
238.858	69.88
239.091	65.88
239.325	88.88
239.559	77.88
239.793	75.88
240.027	83.88
240.26	86.88
240.494	94.88
240.728	81.88
240.961	71.88
241.195	75.88
241.429	75.88
241.662	90.88
241.896	66.88
242.13	74.88
242.363	80.88
242.597	85.88
242.83	82.88
243.064	77.88
243.298	70.88
243.531	79.88
243.765	81.88
243.998	85.88
244.232	99.88
244.465	83.88
244.699	98.88
244.932	77.88
245.166	79.88
245.399	82.88
245.633	82.88
245.866	92.88
246.099	86.88
246.333	75.88
246.566	78.88
246.8	78.88
247.033	78.88
247.266	72.88
247.5	89.88
247.733	78.88
247.966	85.88
248.2	84.88
248.433	82.88
248.666	75.88
248.899	83.88
249.133	94.88
249.366	111.88
249.599	123.88
249.832	86.88
250.066	86.88
250.299	79.88
250.532	92.88
250.765	73.88
250.998	81.88
251.231	79.88
251.465	84.88
251.698	95.88
251.931	86.88
252.164	85.88
252.397	82.88
252.63	69.88
252.863	71.88
253.096	80.88
253.329	82.88
253.562	82.88
253.795	72.88
254.028	80.88
254.261	80.88
254.494	75.88
254.727	81.88
254.96	95.88
255.193	87.88
255.426	84.88
255.659	87.88
255.892	101.88
256.124	108.88
256.357	90.88
256.59	83.88
256.823	87.88
257.056	84.88
257.289	89.88
257.521	91.88
257.754	75.88
257.987	96.88
258.22	109.88
258.452	110.88
258.685	111.88
258.918	94.88
259.151	77.88
259.383	82.88
259.616	86.88
259.849	85.88
260.081	79.88
260.314	81.88
260.547	103.88
260.779	93.88
261.012	138.88
261.244	126.88
261.477	106.88
261.71	114.88
261.942	155.88
262.175	159.88
262.407	101.88
262.64	87.88
262.872	91.88
263.105	88.88
263.337	88.88
263.57	70.88
263.802	84.88
264.035	83.88
264.267	82.88
264.499	82.88
264.732	84.88
264.964	78.88
265.197	72.88
265.429	77.88
265.661	90.88
265.894	89.88
266.126	86.88
266.358	72.88
266.591	93.88
266.823	90.88
267.055	75.88
267.287	92.88
267.52	84.88
267.752	82.88
267.984	76.88
268.216	84.88
268.448	87.88
268.681	97.88
268.913	90.88
269.145	79.88
269.377	72.88
269.609	99.88
269.841	77.88
270.073	87.88
270.306	85.88
270.538	76.88
270.77	75.88
271.002	95.88
271.234	78.88
271.466	98.88
271.698	89.88
271.93	77.88
272.162	92.88
272.394	92.88
272.626	78.88
272.858	75.88
273.09	99.88
273.322	92.88
273.553	81.88
273.785	95.88
274.017	87.88
274.249	91.88
274.481	91.88
274.713	87.88
274.945	106.88
275.176	87.88
275.408	110.88
275.64	144.88
275.872	150.88
276.104	134.88
276.335	106.88
276.567	136.88
276.799	173.88
277.031	219.88
277.262	268.88
277.494	211.88
277.726	117.88
277.957	100.88
278.189	97.88
278.421	79.88
278.652	90.88
278.884	86.88
279.115	99.88
279.347	103.88
279.579	113.88
279.81	176.88
280.042	287.88
280.273	407.88
280.505	258.88
280.736	132.88
280.968	111.88
281.199	94.88
281.431	86.88
281.662	89.88
281.894	101.88
282.125	125.88
282.356	144.88
282.588	200.88
282.819	142.88
283.051	110.88
283.282	95.88
283.513	87.88
283.745	90.88
283.976	84.88
284.207	85.88
284.439	73.88
284.67	85.88
284.901	89.88
285.132	71.88
285.364	86.88
285.595	91.88
285.826	93.88
286.057	90.88
286.288	80.88
286.52	70.88
286.751	90.88
286.982	82.88
287.213	78.88
287.444	91.88
287.675	88.88
287.906	87.88
288.138	83.88
288.369	84.88
288.6	100.88
288.831	100.88
289.062	95.88
289.293	91.88
289.524	91.88
289.755	87.88
289.986	89.88
290.217	80.88
290.448	82.88
290.679	86.88
290.91	97.88
291.141	96.88
291.371	92.88
291.602	80.88
291.833	85.88
292.064	99.88
292.295	94.88
292.526	86.88
292.757	90.88
292.987	92.88
293.218	101.88
293.449	87.88
293.68	99.88
293.91	90.88
294.141	71.88
294.372	78.88
294.603	83.88
294.833	84.88
295.064	98.88
295.295	84.88
295.525	100.88
295.756	117.88
295.987	131.88
296.217	180.88
296.448	162.88
296.679	101.88
296.909	81.88
297.14	93.88
297.37	100.88
297.601	98.88
297.831	90.88
298.062	94.88
298.292	99.88
298.523	92.88
298.753	95.88
298.984	99.88
299.214	96.88
299.445	94.88
299.675	112.88
299.905	116.88
300.136	98.88
300.366	91.88
300.597	100.88
300.827	101.88
301.057	106.88
301.288	142.88
301.518	100.88
301.748	111.88
301.979	126.88
302.209	111.88
302.439	91.88
302.669	88.88
302.9	93.88
303.13	90.88
303.36	114.88
303.59	149.88
303.82	184.88
304.051	128.88
304.281	94.88
304.511	91.88
304.741	89.88
304.971	83.88
305.201	87.88
305.431	90.88
305.661	91.88
305.891	86.88
306.121	95.88
306.352	122.88
306.582	128.88
306.812	113.88
307.042	133.88
307.272	202.88
307.502	242.88
307.731	203.88
307.961	138.88
308.191	108.88
308.421	89.88
308.651	87.88
308.881	104.88
309.111	109.88
309.341	107.88
309.571	108.88
309.8	111.88
310.03	112.88
310.26	107.88
310.49	106.88
310.72	118.88
310.949	130.88
311.179	122.88
311.409	109.88
311.639	110.88
311.868	98.88
312.098	91.88
312.328	101.88
312.557	115.88
312.787	141.88
313.017	136.88
313.246	111.88
313.476	97.88
313.706	87.88
313.935	99.88
314.165	135.88
314.394	128.88
314.624	112.88
314.853	111.88
315.083	103.88
315.312	93.88
315.542	101.88
315.771	101.88
316.001	102.88
316.23	83.88
316.46	75.88
316.689	110.88
316.919	103.88
317.148	100.88
317.377	100.88
317.607	99.88
317.836	105.88
318.065	102.88
318.295	93.88
318.524	94.88
318.753	95.88
318.983	101.88
319.212	109.88
319.441	128.88
319.67	127.88
319.9	89.88
320.129	90.88
320.358	98.88
320.587	84.88
320.816	100.88
321.046	116.88
321.275	114.88
321.504	110.88
321.733	108.88
321.962	111.88
322.191	106.88
322.42	125.88
322.649	142.88
322.878	137.88
323.108	147.88
323.337	158.88
323.566	175.88
323.795	206.88
324.024	311.88
324.253	620.88
324.482	1386.88
324.71	2895.88
324.939	3912.88
325.168	1379.88
325.397	394.88
325.626	219.88
325.855	182.88
326.084	161.88
326.313	162.88
326.542	218.88
326.77	358.88
326.999	687.88
327.228	1478.88
327.457	2753.88
327.686	2206.88
327.914	794.88
328.143	818.88
328.372	1108.88
328.6	584.88
328.829	271.88
329.058	238.88
329.287	255.88
329.515	254.88
329.744	348.88
329.972	776.88
330.201	1664.88
330.43	2449.88
330.658	1063.88
330.887	454.88
331.115	254.88
331.344	145.88
331.572	145.88
331.801	156.88
332.03	141.88
332.258	123.88
332.486	122.88
332.715	128.88
332.943	124.88
333.172	136.88
333.4	149.88
333.629	198.88
333.857	312.88
334.085	654.88
334.314	1484.88
334.542	3028.88
334.771	2881.88
334.999	707.88
335.227	235.88
335.455	162.88
335.684	136.88
335.912	107.88
336.14	109.88
336.369	116.88
336.597	140.88
336.825	133.88
337.053	114.88
337.281	110.88
337.51	102.88
337.738	106.88
337.966	110.88
338.194	120.88
338.422	101.88
338.65	109.88
338.878	94.88
339.106	98.88
339.334	103.88
339.562	84.88
339.79	88.88
340.018	101.88
340.246	114.88
340.474	112.88
340.702	93.88
340.93	100.88
341.158	111.88
341.386	99.88
341.614	132.88
341.842	103.88
342.07	106.88
342.298	100.88
342.526	95.88
342.754	72.88
342.981	82.88
343.209	83.88
343.437	112.88
343.665	92.88
343.893	93.88
344.12	93.88
344.348	79.88
344.576	87.88
344.804	107.88
345.031	122.88
345.259	116.88
345.487	109.88
345.714	103.88
345.942	100.88
346.17	93.88
346.397	96.88
346.625	115.88
346.853	99.88
347.08	101.88
347.308	102.88
347.535	122.88
347.763	131.88
347.99	113.88
348.218	101.88
348.445	126.88
348.673	126.88
348.9	100.88
349.128	102.88
349.355	86.88
349.583	96.88
349.81	110.88
350.037	95.88
350.265	108.88
350.492	102.88
350.72	100.88
350.947	101.88
351.174	128.88
351.402	138.88
351.629	112.88
351.856	124.88
352.083	127.88
352.311	131.88
352.538	140.88
352.765	132.88
352.992	130.88
353.22	130.88
353.447	125.88
353.674	91.88
353.901	96.88
354.128	80.88
354.355	89.88
354.583	96.88
354.81	112.88
355.037	103.88
355.264	86.88
355.491	79.88
355.718	81.88
355.945	85.88
356.172	92.88
356.399	94.88
356.626	96.88
356.853	96.88
357.08	94.88
357.307	90.88
357.534	95.88
357.761	108.88
357.988	88.88
358.215	103.88
358.441	84.88
358.668	97.88
358.895	87.88
359.122	92.88
359.349	93.88
359.576	104.88
359.802	140.88
360.029	172.88
360.256	167.88
360.483	140.88
360.709	87.88
360.936	84.88
361.163	99.88
361.39	119.88
361.616	119.88
361.843	99.88
362.07	114.88
362.296	126.88
362.523	98.88
362.749	87.88
362.976	111.88
363.203	91.88
363.429	92.88
363.656	99.88
363.882	93.88
364.109	93.88
364.335	89.88
364.562	104.88
364.788	92.88
365.015	107.88
365.241	101.88
365.468	125.88
365.694	145.88
365.92	117.88
366.147	114.88
366.373	90.88
366.599	102.88
366.826	95.88
367.052	81.88
367.278	87.88
367.505	96.88
367.731	99.88
367.957	111.88
368.184	95.88
368.41	128.88
368.636	144.88
368.862	136.88
369.089	133.88
369.315	117.88
369.541	116.88
369.767	78.88
369.993	109.88
370.219	98.88
370.445	102.88
370.672	90.88
370.898	78.88
371.124	95.88
371.35	107.88
371.576	98.88
371.802	88.88
372.028	76.88
372.254	87.88
372.48	76.88
372.706	87.88
372.932	93.88
373.158	91.88
373.384	96.88
373.61	94.88
373.835	87.88
374.061	87.88
374.287	86.88
374.513	83.88
374.739	90.88
374.965	91.88
375.191	88.88
375.416	96.88
375.642	91.88
375.868	87.88
376.094	97.88
376.319	80.88
376.545	83.88
376.771	94.88
376.997	100.88
377.222	93.88
377.448	102.88
377.674	90.88
377.899	95.88
378.125	82.88
378.35	100.88
378.576	85.88
378.802	93.88
379.027	91.88
379.253	92.88
379.478	96.88
379.704	87.88
379.929	94.88
380.155	99.88
380.38	81.88
380.606	98.88
380.831	89.88
381.057	98.88
381.282	93.88
381.507	98.88
381.733	78.88
381.958	93.88
382.184	106.88
382.409	111.88
382.634	105.88
382.86	99.88
383.085	100.88
383.31	92.88
383.535	83.88
383.761	108.88
383.986	92.88
384.211	99.88
384.436	93.88
384.662	95.88
384.887	87.88
385.112	106.88
385.337	114.88
385.562	102.88
385.787	93.88
386.013	120.88
386.238	119.88
386.463	113.88
386.688	123.88
386.913	95.88
387.138	88.88
387.363	95.88
387.588	88.88
387.813	90.88
388.038	88.88
388.263	85.88
388.488	99.88
388.713	102.88
388.938	80.88
389.163	90.88
389.387	88.88
389.612	77.88
389.837	98.88
390.062	100.88
390.287	81.88
390.512	79.88
390.736	93.88
390.961	79.88
391.186	91.88
391.411	96.88
391.636	81.88
391.86	81.88
392.085	87.88
392.31	79.88
392.534	92.88
392.759	96.88
392.984	93.88
393.208	70.88
393.433	89.88
393.658	83.88
393.882	86.88
394.107	79.88
394.331	94.88
394.556	98.88
394.78	85.88
395.005	88.88
395.229	94.88
395.454	95.88
395.678	93.88
395.903	95.88
396.127	78.88
396.352	84.88
396.576	92.88
396.801	83.88
397.025	86.88
397.249	88.88
397.474	85.88
397.698	87.88
397.922	87.88
398.147	89.88
398.371	76.88
398.595	79.88
398.82	92.88
399.044	77.88
399.268	86.88
399.492	81.88
399.717	93.88
399.941	90.88
400.165	94.88
400.389	99.88
400.613	94.88
400.837	86.88
401.062	90.88
401.286	95.88
401.51	97.88
401.734	105.88
401.958	131.88
402.182	155.88
402.406	225.88
402.63	182.88
402.854	101.88
403.078	92.88
403.302	102.88
403.526	91.88
403.75	103.88
403.974	101.88
404.198	105.88
404.422	106.88
404.645	95.88
404.869	115.88
405.093	150.88
405.317	170.88
405.541	180.88
405.765	125.88
405.988	148.88
406.212	237.88
406.436	384.88
406.66	274.88
406.883	131.88
407.107	120.88
407.331	118.88
407.555	116.88
407.778	95.88
408.002	102.88
408.226	90.88
408.449	101.88
408.673	94.88
408.896	91.88
409.12	116.88
409.344	93.88
409.567	80.88
409.791	89.88
410.014	91.88
410.238	102.88
410.461	96.88
410.685	98.88
410.908	105.88
411.132	111.88
411.355	97.88
411.578	95.88
411.802	90.88
412.025	87.88
412.249	120.88
412.472	142.88
412.695	146.88
412.919	108.88
413.142	102.88
413.365	103.88
413.589	98.88
413.812	92.88
414.035	92.88
414.258	101.88
414.482	99.88
414.705	83.88
414.928	96.88
415.151	100.88
415.374	90.88
415.597	76.88
415.821	93.88
416.044	94.88
416.267	109.88
416.49	92.88
416.713	86.88
416.936	87.88
417.159	92.88
417.382	95.88
417.605	139.88
417.828	140.88
418.051	107.88
418.274	108.88
418.497	96.88
418.72	75.88
418.943	76.88
419.166	95.88
419.389	80.88
419.611	101.88
419.834	101.88
420.057	94.88
420.28	121.88
420.503	96.88
420.726	92.88
420.948	97.88
421.171	115.88
421.394	122.88
421.617	94.88
421.839	100.88
422.062	80.88
422.285	88.88
422.507	97.88
422.73	118.88
422.953	98.88
423.175	97.88
423.398	104.88
423.621	101.88
423.843	90.88
424.066	97.88
424.288	104.88
424.511	91.88
424.733	121.88
424.956	155.88
425.178	118.88
425.401	131.88
425.623	117.88
425.846	107.88
426.068	116.88
426.291	100.88
426.513	86.88
426.735	110.88
426.958	105.88
427.18	158.88
427.402	211.88
427.625	326.88
427.847	304.88
428.069	287.88
428.292	160.88
428.514	97.88
428.736	94.88
428.958	102.88
429.181	92.88
429.403	85.88
429.625	87.88
429.847	100.88
430.069	130.88
430.292	121.88
430.514	91.88
430.736	85.88
430.958	82.88
431.18	82.88
431.402	81.88
431.624	83.88
431.846	71.88
432.068	82.88
432.29	85.88
432.512	87.88
432.734	98.88
432.956	100.88
433.178	106.88
433.4	99.88
433.622	88.88
433.844	99.88
434.066	90.88
434.287	92.88
434.509	91.88
434.731	99.88
434.953	90.88
435.175	100.88
435.397	101.88
435.618	110.88
435.84	128.88
436.062	149.88
436.284	145.88
436.505	125.88
436.727	132.88
436.949	97.88
437.17	94.88
437.392	82.88
437.614	112.88
437.835	140.88
438.057	191.88
438.278	155.88
438.5	135.88
438.721	154.88
438.943	124.88
439.165	99.88
439.386	100.88
439.608	99.88
439.829	127.88
440.05	181.88
440.272	239.88
440.493	136.88
440.715	104.88
440.936	97.88
441.158	91.88
441.379	93.88
441.6	115.88
441.822	115.88
442.043	117.88
442.264	125.88
442.486	148.88
442.707	103.88
442.928	138.88
443.149	199.88
443.371	220.88
443.592	152.88
443.813	151.88
444.034	136.88
444.255	98.88
444.476	110.88
444.698	107.88
444.919	87.88
445.14	136.88
445.361	151.88
445.582	170.88
445.803	242.88
446.024	231.88
446.245	209.88
446.466	148.88
446.687	104.88
446.908	81.88
447.129	91.88
447.35	90.88
447.571	101.88
447.792	84.88
448.013	116.88
448.234	140.88
448.455	124.88
448.675	155.88
448.896	167.88
449.117	131.88
449.338	114.88
449.559	161.88
449.779	190.88
450	106.88
450.221	94.88
450.442	108.88
450.662	133.88
450.883	144.88
451.104	171.88
451.324	123.88
451.545	97.88
451.766	90.88
451.986	97.88
452.207	90.88
452.428	92.88
452.648	104.88
452.869	134.88
453.089	155.88
453.31	169.88
453.53	119.88
453.751	95.88
453.971	134.88
454.192	165.88
454.412	92.88
454.633	93.88
454.853	99.88
455.073	84.88
455.294	100.88
455.514	131.88
455.734	113.88
455.955	96.88
456.175	76.88
456.395	86.88
456.616	89.88
456.836	88.88
457.056	94.88
457.276	92.88
457.497	89.88
457.717	101.88
457.937	99.88
458.157	88.88
458.377	96.88
458.598	145.88
458.818	246.88
459.038	291.88
459.258	187.88
459.478	113.88
459.698	90.88
459.918	81.88
460.138	91.88
460.358	82.88
460.578	99.88
460.798	96.88
461.018	93.88
461.238	87.88
461.458	90.88
461.678	91.88
461.898	78.88
462.118	87.88
462.338	82.88
462.558	78.88
462.777	87.88
462.997	122.88
463.217	116.88
463.437	109.88
463.657	90.88
463.876	78.88
464.096	88.88
464.316	93.88
464.536	92.88
464.755	102.88
464.975	140.88
465.195	308.88
465.414	312.88
465.634	135.88
465.854	90.88
466.073	89.88
466.293	82.88
466.512	92.88
466.732	92.88
466.951	101.88
467.171	114.88
467.391	130.88
467.61	195.88
467.829	291.88
468.049	871.88
468.268	1427.88
468.488	327.88
468.707	126.88
468.927	109.88
469.146	111.88
469.365	85.88
469.585	109.88
469.804	114.88
470.023	125.88
470.243	110.88
470.462	134.88
470.681	171.88
470.901	116.88
471.12	107.88
471.339	103.88
471.558	132.88
471.777	192.88
471.997	417.88
472.216	1682.88
472.435	4135.88
472.654	975.88
472.873	222.88
473.092	122.88
473.311	103.88
473.53	99.88
473.749	103.88
473.968	116.88
474.187	148.88
474.406	131.88
474.625	83.88
474.844	83.88
475.063	79.88
475.282	84.88
475.501	92.88
475.72	125.88
475.939	98.88
476.158	93.88
476.377	88.88
476.596	98.88
476.814	90.88
477.033	111.88
477.252	94.88
477.471	99.88
477.69	102.88
477.908	109.88
478.127	99.88
478.346	91.88
478.564	102.88
478.783	111.88
479.002	118.88
479.22	125.88
479.439	143.88
479.658	162.88
479.876	145.88
480.095	131.88
480.313	184.88
480.532	217.88
480.751	404.88
480.969	1490.88
481.188	6711.88
481.406	4148.88
481.624	544.88
481.843	193.88
482.061	137.88
482.28	102.88
482.498	110.88
482.717	110.88
482.935	102.88
483.153	97.88
483.372	99.88
483.59	106.88
483.808	93.88
484.027	101.88
484.245	102.88
484.463	99.88
484.681	88.88
484.9	82.88
485.118	103.88
485.336	99.88
485.554	94.88
485.772	93.88
485.99	98.88
486.209	101.88
486.427	116.88
486.645	118.88
486.863	143.88
487.081	123.88
487.299	109.88
487.517	86.88
487.735	91.88
487.953	92.88
488.171	102.88
488.389	106.88
488.607	117.88
488.825	88.88
489.043	89.88
489.261	91.88
489.479	98.88
489.696	73.88
489.914	90.88
490.132	88.88
490.35	117.88
490.568	94.88
490.786	86.88
491.003	92.88
491.221	110.88
491.439	116.88
491.657	100.88
491.874	96.88
492.092	95.88
492.31	102.88
492.527	99.88
492.745	103.88
492.963	107.88
493.18	86.88
493.398	90.88
493.615	103.88
493.833	100.88
494.05	99.88
494.268	90.88
494.485	78.88
494.703	92.88
494.92	95.88
495.138	82.88
495.355	86.88
495.573	90.88
495.79	104.88
496.008	113.88
496.225	95.88
496.442	93.88
496.66	101.88
496.877	92.88
497.094	94.88
497.312	84.88
497.529	90.88
497.746	101.88
497.963	93.88
498.181	91.88
498.398	108.88
498.615	122.88
498.832	122.88
499.049	92.88
499.267	83.88
499.484	86.88
499.701	98.88
499.918	84.88
500.135	91.88
500.352	108.88
500.569	100.88
500.786	106.88
501.003	81.88
501.22	85.88
501.437	96.88
501.654	106.88
501.871	153.88
502.088	107.88
502.305	108.88
502.522	111.88
502.739	81.88
502.956	101.88
503.172	104.88
503.389	123.88
503.606	140.88
503.823	115.88
504.04	107.88
504.256	98.88
504.473	93.88
504.69	102.88
504.907	101.88
505.123	94.88
505.34	87.88
505.557	62.88
505.773	83.88
505.99	91.88
506.207	93.88
506.423	88.88
506.64	100.88
506.856	110.88
507.073	112.88
507.289	106.88
507.506	99.88
507.722	140.88
507.939	149.88
508.155	116.88
508.372	94.88
508.588	109.88
508.805	101.88
509.021	117.88
509.238	98.88
509.454	113.88
509.67	101.88
509.887	111.88
510.103	142.88
510.319	272.88
510.536	1103.88
510.752	3963.88
510.968	1116.88
511.184	227.88
511.401	145.88
511.617	112.88
