Data from Circ_2023_H10_HRD10591_00076.txt Node
Date: Wed Jan 03 09:50:46 EST 2024
User: Yrep
Spectrometer: HR+D1059
Trigger mode: 1
Integration Time (sec): 1.000000E-1
Scans to average: 1
Electric dark correction enabled: true
Nonlinearity correction enabled: false
Boxcar width: 0
XAxis mode: Wavelengths
Number of Pixels in Spectrum: 2048
>>>>>Begin Spectral Data<<<<<
223.165	-17
223.4	-17
223.635	-17
223.869	-25
224.104	-29
224.338	-4
224.573	-15
224.808	-15
225.042	-10
225.277	-3
225.511	-7
225.746	-13
225.98	24
226.215	21
226.449	21
226.683	19
226.918	14
227.152	39
227.387	30
227.621	44
227.856	50
228.09	46
228.324	45
228.559	58
228.793	63
229.027	78
229.262	74
229.496	88
229.73	105
229.964	111
230.199	90
230.433	76
230.667	84
230.901	105
231.136	84
231.37	90
231.604	87
231.838	89
232.072	79
232.306	71
232.541	81
232.775	72
233.009	75
233.243	91
233.477	87
233.711	86
233.945	81
234.179	93
234.413	91
234.647	91
234.881	83
235.115	103
235.349	87
235.583	80
235.817	77
236.051	91
236.285	89
236.519	75
236.753	91
236.987	94
237.221	79
237.455	95
237.689	81
237.922	86
238.156	88
238.39	87
238.624	69
238.858	85
239.091	79
239.325	87
239.559	94
239.793	87
240.027	77
240.26	71
240.494	83
240.728	84
240.961	104
241.195	101
241.429	92
241.662	87
241.896	90
242.13	86
242.363	85
242.597	87
242.83	78
243.064	77
243.298	84
243.531	87
243.765	90
243.998	90
244.232	72
244.465	92
244.699	72
244.932	94
245.166	91
245.399	86
245.633	80
245.866	100
246.099	83
246.333	87
246.566	88
246.8	77
247.033	73
247.266	76
247.5	88
247.733	76
247.966	85
248.2	84
248.433	88
248.666	91
248.899	90
249.133	95
249.366	105
249.599	125
249.832	92
250.066	104
250.299	104
250.532	99
250.765	84
250.998	98
251.231	98
251.465	79
251.698	85
251.931	99
252.164	85
252.397	79
252.63	89
252.863	87
253.096	94
253.329	85
253.562	88
253.795	82
254.028	83
254.261	88
254.494	81
254.727	97
254.96	86
255.193	87
255.426	89
255.659	81
255.892	99
256.124	130
256.357	85
256.59	88
256.823	97
257.056	98
257.289	103
257.521	89
257.754	104
257.987	76
258.22	100
258.452	104
258.685	109
258.918	89
259.151	76
259.383	71
259.616	66
259.849	83
260.081	95
260.314	91
260.547	94
260.779	103
261.012	129
261.244	135
261.477	114
261.71	100
261.942	147
262.175	159
262.407	90
262.64	97
262.872	101
263.105	81
263.337	97
263.57	93
263.802	90
264.035	96
264.267	98
264.499	100
264.732	97
264.964	94
265.197	88
265.429	114
265.661	93
265.894	87
266.126	95
266.358	88
266.591	82
266.823	91
267.055	87
267.287	96
267.52	100
267.752	106
267.984	99
268.216	108
268.448	101
268.681	97
268.913	90
269.145	79
269.377	81
269.609	81
269.841	95
270.073	88
270.306	72
270.538	96
270.77	85
271.002	102
271.234	94
271.466	114
271.698	102
271.93	83
272.162	94
272.394	99
272.626	99
272.858	99
273.09	87
273.322	91
273.553	95
273.785	85
274.017	89
274.249	101
274.481	102
274.713	102
274.945	99
275.176	107
275.408	125
275.64	131
275.872	146
276.104	126
276.335	118
276.567	134
276.799	170
277.031	219
277.262	252
277.494	181
277.726	96
277.957	94
278.189	97
278.421	100
278.652	89
278.884	104
279.115	103
279.347	121
279.579	116
279.81	169
280.042	270
280.273	349
280.505	253
280.736	123
280.968	120
281.199	96
281.431	103
281.662	95
281.894	108
282.125	126
282.356	155
282.588	203
282.819	142
283.051	100
283.282	95
283.513	86
283.745	89
283.976	99
284.207	96
284.439	88
284.67	82
284.901	101
285.132	95
285.364	95
285.595	98
285.826	95
286.057	91
286.288	91
286.52	88
286.751	91
286.982	102
287.213	85
287.444	100
287.675	92
287.906	92
288.138	96
288.369	89
288.6	111
288.831	105
289.062	105
289.293	85
289.524	92
289.755	100
289.986	99
290.217	94
290.448	94
290.679	100
290.91	95
291.141	105
291.371	93
291.602	71
291.833	89
292.064	94
292.295	105
292.526	108
292.757	94
292.987	89
293.218	90
293.449	84
293.68	71
293.91	100
294.141	115
294.372	88
294.603	90
294.833	91
295.064	106
295.295	102
295.525	91
295.756	111
295.987	149
296.217	200
296.448	173
296.679	102
296.909	103
297.14	83
297.37	91
297.601	92
297.831	79
298.062	117
298.292	107
298.523	114
298.753	98
298.984	95
299.214	108
299.445	98
299.675	110
299.905	102
300.136	88
300.366	108
300.597	109
300.827	95
301.057	117
301.288	140
301.518	113
301.748	118
301.979	119
302.209	107
302.439	114
302.669	94
302.9	95
303.13	107
303.36	126
303.59	140
303.82	174
304.051	126
304.281	96
304.511	87
304.741	97
304.971	92
305.201	92
305.431	92
305.661	98
305.891	91
306.121	106
306.352	121
306.582	137
306.812	122
307.042	152
307.272	198
307.502	214
307.731	201
307.961	151
308.191	117
308.421	95
308.651	105
308.881	121
309.111	94
309.341	95
309.571	100
309.8	108
310.03	110
310.26	115
310.49	108
310.72	117
310.949	140
311.179	109
311.409	110
311.639	138
311.868	105
312.098	118
312.328	114
312.557	131
312.787	143
313.017	135
313.246	120
313.476	102
313.706	108
313.935	106
314.165	134
314.394	118
314.624	133
314.853	119
315.083	107
315.312	104
315.542	109
315.771	92
316.001	103
316.23	104
316.46	109
316.689	103
316.919	101
317.148	104
317.377	116
317.607	114
317.836	94
318.065	109
318.295	95
318.524	103
318.753	109
318.983	101
319.212	110
319.441	125
319.67	137
319.9	128
320.129	103
320.358	99
320.587	107
320.816	115
321.046	110
321.275	108
321.504	102
321.733	103
321.962	121
322.191	122
322.42	144
322.649	141
322.878	138
323.108	158
323.337	155
323.566	157
323.795	205
324.024	284
324.253	595
324.482	1298
324.71	2696
324.939	3604
325.168	1313
325.397	358
325.626	201
325.855	181
326.084	175
326.313	178
326.542	207
326.77	325
326.999	678
327.228	1388
327.457	2539
327.686	2092
327.914	744
328.143	723
328.372	954
328.6	530
328.829	261
329.058	233
329.287	238
329.515	243
329.744	375
329.972	690
330.201	1439
330.43	2145
330.658	930
330.887	405
331.115	243
331.344	141
331.572	143
331.801	145
332.03	155
332.258	141
332.486	116
332.715	114
332.943	154
333.172	126
333.4	157
333.629	216
333.857	305
334.085	591
334.314	1275
334.542	2615
334.771	2524
334.999	646
335.227	228
335.455	161
335.684	124
335.912	113
336.14	119
336.369	118
336.597	143
336.825	133
337.053	107
337.281	98
337.51	110
337.738	120
337.966	116
338.194	129
338.422	114
338.65	107
338.878	106
339.106	93
339.334	109
339.562	93
339.79	101
340.018	97
340.246	101
340.474	114
340.702	112
340.93	93
341.158	89
341.386	111
341.614	119
341.842	117
342.07	108
342.298	97
342.526	84
342.754	94
342.981	86
343.209	91
343.437	102
343.665	95
343.893	94
344.12	97
344.348	93
344.576	93
344.804	102
345.031	130
345.259	123
345.487	100
345.714	111
345.942	107
346.17	101
346.397	113
346.625	101
346.853	104
347.08	108
347.308	117
347.535	129
347.763	128
347.99	132
348.218	129
348.445	117
348.673	107
348.9	109
349.128	112
349.355	93
349.583	102
349.81	105
350.037	116
350.265	98
350.492	99
350.72	105
350.947	116
351.174	121
351.402	142
351.629	112
351.856	112
352.083	130
352.311	142
352.538	136
352.765	155
352.992	135
353.22	138
353.447	127
353.674	115
353.901	92
354.128	100
354.355	90
354.583	94
354.81	92
355.037	97
355.264	102
355.491	100
355.718	102
355.945	94
356.172	102
356.399	97
356.626	107
356.853	105
357.08	99
357.307	106
357.534	103
357.761	116
357.988	97
358.215	103
358.441	109
358.668	90
358.895	86
359.122	99
359.349	97
359.576	103
359.802	127
360.029	174
360.256	156
360.483	107
360.709	98
360.936	116
361.163	105
361.39	108
361.616	122
361.843	126
362.07	126
362.296	105
362.523	108
362.749	101
362.976	119
363.203	106
363.429	98
363.656	97
363.882	90
364.109	87
364.335	102
364.562	108
364.788	86
365.015	107
365.241	123
365.468	133
365.694	134
365.92	120
366.147	113
366.373	91
366.599	100
366.826	114
367.052	83
367.278	99
367.505	109
367.731	106
367.957	116
368.184	113
368.41	106
368.636	155
368.862	164
369.089	132
369.315	112
369.541	100
369.767	99
369.993	111
370.219	85
370.445	92
370.672	90
370.898	95
371.124	89
371.35	98
371.576	78
371.802	88
372.028	94
372.254	81
372.48	99
372.706	98
372.932	96
373.158	93
373.384	95
373.61	97
373.835	99
374.061	92
374.287	113
374.513	106
374.739	97
374.965	100
375.191	95
375.416	88
375.642	86
375.868	109
376.094	96
376.319	94
376.545	101
376.771	93
376.997	83
377.222	97
377.448	94
377.674	102
377.899	103
378.125	111
378.35	92
378.576	100
378.802	78
379.027	100
379.253	102
379.478	91
379.704	96
379.929	107
380.155	94
380.38	96
380.606	114
380.831	100
381.057	107
381.282	89
381.507	94
381.733	97
381.958	107
382.184	109
382.409	102
382.634	111
382.86	102
383.085	105
383.31	124
383.535	87
383.761	92
383.986	91
384.211	106
384.436	91
384.662	97
384.887	97
385.112	110
385.337	90
385.562	96
385.787	110
386.013	129
386.238	129
386.463	124
386.688	99
386.913	102
387.138	106
387.363	92
387.588	97
387.813	96
388.038	104
388.263	127
388.488	106
388.713	99
388.938	100
389.163	103
389.387	95
389.612	83
389.837	90
390.062	95
390.287	114
390.512	104
390.736	89
390.961	102
391.186	102
391.411	88
391.636	108
391.86	103
392.085	106
392.31	91
392.534	96
392.759	85
392.984	97
393.208	100
393.433	98
393.658	104
393.882	91
394.107	73
394.331	92
394.556	94
394.78	91
395.005	98
395.229	88
395.454	89
395.678	90
395.903	105
396.127	87
396.352	105
396.576	96
396.801	106
397.025	94
397.249	84
397.474	91
397.698	99
397.922	92
398.147	95
398.371	84
398.595	104
398.82	71
399.044	90
399.268	93
399.492	82
399.717	95
399.941	89
400.165	101
400.389	105
400.613	98
400.837	105
401.062	110
401.286	100
401.51	123
401.734	101
401.958	132
402.182	171
402.406	234
402.63	178
402.854	124
403.078	101
403.302	109
403.526	104
403.75	94
403.974	82
404.198	83
404.422	99
404.645	106
404.869	117
405.093	141
405.317	174
405.541	178
405.765	151
405.988	153
406.212	266
406.436	369
406.66	254
406.883	137
407.107	118
407.331	123
407.555	124
407.778	118
408.002	106
408.226	90
408.449	104
408.673	113
408.896	103
409.12	106
409.344	96
409.567	89
409.791	111
410.014	117
410.238	97
410.461	88
410.685	98
410.908	101
411.132	126
411.355	118
411.578	109
411.802	104
412.025	98
412.249	130
412.472	139
412.695	172
412.919	131
413.142	100
413.365	90
413.589	93
413.812	98
414.035	98
414.258	98
414.482	93
414.705	105
414.928	99
415.151	89
415.374	96
415.597	102
415.821	105
416.044	101
416.267	99
416.49	89
416.713	98
416.936	98
417.159	107
417.382	102
417.605	110
417.828	125
418.051	107
418.274	107
418.497	94
418.72	92
418.943	76
419.166	87
419.389	101
419.611	94
419.834	97
420.057	103
420.28	114
420.503	96
420.726	97
420.948	104
421.171	109
421.394	115
421.617	90
421.839	96
422.062	97
422.285	102
422.507	110
422.73	143
422.953	105
423.175	96
423.398	100
423.621	85
423.843	90
424.066	86
424.288	109
424.511	115
424.733	106
424.956	136
425.178	133
425.401	119
425.623	122
425.846	110
426.068	111
426.291	103
426.513	105
426.735	104
426.958	132
427.18	120
427.402	203
427.625	320
427.847	305
428.069	270
428.292	167
428.514	104
428.736	95
428.958	90
429.181	87
429.403	97
429.625	110
429.847	106
430.069	128
430.292	96
430.514	85
430.736	86
430.958	100
431.18	89
431.402	100
431.624	114
431.846	105
432.068	96
432.29	83
432.512	110
432.734	84
432.956	91
433.178	109
433.4	115
433.622	101
433.844	101
434.066	116
434.287	110
434.509	97
434.731	99
434.953	93
435.175	97
435.397	100
435.618	93
435.84	131
436.062	173
436.284	166
436.505	116
436.727	133
436.949	101
437.17	109
437.392	92
437.614	107
437.835	140
438.057	172
438.278	160
438.5	126
438.721	164
438.943	126
439.165	95
439.386	86
439.608	102
439.829	130
440.05	186
440.272	230
440.493	142
440.715	100
440.936	116
441.158	106
441.379	102
441.6	113
441.822	98
442.043	131
442.264	123
442.486	132
442.707	107
442.928	134
443.149	194
443.371	205
443.592	158
443.813	150
444.034	133
444.255	109
444.476	98
444.698	91
444.919	86
445.14	149
445.361	146
445.582	166
445.803	225
446.024	207
446.245	211
446.466	138
446.687	107
446.908	105
447.129	107
447.35	106
447.571	106
447.792	87
448.013	124
448.234	132
448.455	126
448.675	139
448.896	173
449.117	126
449.338	135
449.559	172
449.779	181
450	105
450.221	82
450.442	93
450.662	103
450.883	145
451.104	164
451.324	119
451.545	100
451.766	90
451.986	107
452.207	108
452.428	102
452.648	113
452.869	151
453.089	154
453.31	164
453.53	118
453.751	107
453.971	134
454.192	165
454.412	115
454.633	101
454.853	88
455.073	100
455.294	110
455.514	129
455.734	108
455.955	102
456.175	103
456.395	94
456.616	100
456.836	102
457.056	85
457.276	84
457.497	101
457.717	107
457.937	93
458.157	88
458.377	125
458.598	157
458.818	260
459.038	283
459.258	179
459.478	119
459.698	91
459.918	97
460.138	102
460.358	109
460.578	103
460.798	110
461.018	109
461.238	97
461.458	101
461.678	93
461.898	93
462.118	97
462.338	98
462.558	90
462.777	90
462.997	104
463.217	126
463.437	102
463.657	106
463.876	99
464.096	100
464.316	118
464.536	131
464.755	127
464.975	160
465.195	282
465.414	313
465.634	130
465.854	108
466.073	93
466.293	103
466.512	96
466.732	80
466.951	110
467.171	103
467.391	128
467.61	180
467.829	271
468.049	782
468.268	1304
468.488	313
468.707	126
468.927	101
469.146	103
469.365	109
469.585	123
469.804	135
470.023	129
470.243	115
470.462	137
470.681	161
470.901	118
471.12	114
471.339	126
471.558	148
471.777	202
471.997	396
472.216	1528
472.435	3707
472.654	868
472.873	217
473.092	122
473.311	112
473.53	108
473.749	111
473.968	123
474.187	136
474.406	135
474.625	117
474.844	101
475.063	75
475.282	88
475.501	99
475.72	92
475.939	103
476.158	85
476.377	97
476.596	101
476.814	112
477.033	113
477.252	107
477.471	108
477.69	98
477.908	126
478.127	92
478.346	106
478.564	108
478.783	118
479.002	117
479.22	122
479.439	153
479.658	152
479.876	132
480.095	145
480.313	166
480.532	198
480.751	362
480.969	1366
481.188	6084
481.406	3802
481.624	513
481.843	165
482.061	122
482.28	107
482.498	97
482.717	102
482.935	105
483.153	101
483.372	93
483.59	103
483.808	99
484.027	107
484.245	101
484.463	96
484.681	94
484.9	115
485.118	104
485.336	97
485.554	111
485.772	111
485.99	107
486.209	118
486.427	102
486.645	128
486.863	153
487.081	126
487.299	109
487.517	110
487.735	94
487.953	96
488.171	110
488.389	109
488.607	113
488.825	108
489.043	116
489.261	98
489.479	111
489.696	94
489.914	76
490.132	85
490.35	103
490.568	105
490.786	97
491.003	86
491.221	107
491.439	108
491.657	94
491.874	101
492.092	99
492.31	90
492.527	130
492.745	108
492.963	93
493.18	90
493.398	93
493.615	111
493.833	105
494.05	95
494.268	79
494.485	103
494.703	84
494.92	103
495.138	84
495.355	98
495.573	93
495.79	103
496.008	105
496.225	100
496.442	92
496.66	97
496.877	102
497.094	108
497.312	108
497.529	92
497.746	94
497.963	100
498.181	96
498.398	113
498.615	129
498.832	114
499.049	100
499.267	101
499.484	97
499.701	98
499.918	107
500.135	101
500.352	104
500.569	100
500.786	105
501.003	108
501.22	99
501.437	97
501.654	105
501.871	140
502.088	113
502.305	100
502.522	106
502.739	101
502.956	91
503.172	107
503.389	125
503.606	146
503.823	129
504.04	108
504.256	118
504.473	97
504.69	103
504.907	96
505.123	104
505.34	117
505.557	108
505.773	99
505.99	89
506.207	104
506.423	102
506.64	99
506.856	117
507.073	109
507.289	105
507.506	116
507.722	155
507.939	162
508.155	120
508.372	114
508.588	98
508.805	94
509.021	109
509.238	108
509.454	131
509.67	99
509.887	125
510.103	157
510.319	284
510.536	1150
510.752	4099
510.968	1122
511.184	222
511.401	145
511.617	141
511.833	135
512.049	122
512.265	110
512.481	95
512.698	108
512.914	96
513.13	121
513.346	105
513.562	105
513.778	113
513.994	122
514.21	133
514.426	173
514.642	220
514.858	188
515.074	274
515.29	915
515.506	3404
515.721	1242
515.937	265
516.153	160
516.369	131
516.585	117
516.801	127
517.016	115
517.232	114
517.448	98
517.664	118
517.879	98
518.095	105
518.311	125
518.527	132
518.742	118
518.958	89
519.173	106
519.389	113
519.605	117
519.82	108
520.036	133
520.251	168
520.467	155
520.682	140
520.898	150
521.113	161
521.329	210
521.544	360
521.76	1163
521.975	5569
522.19	3475
522.406	675
522.621	208
522.836	132
523.052	128
523.267	110
523.482	111
523.698	120
523.913	169
524.128	144
524.343	118
524.559	117
524.774	107
524.989	135
525.204	136
525.419	135
525.634	107
525.849	89
526.064	100
526.28	90
526.495	91
526.71	100
526.925	92
527.14	88
527.355	108
527.57	114
527.785	90
527.999	101
528.214	104
528.429	117
528.644	122
528.859	102
529.074	115
529.289	175
529.503	344
529.718	141
529.933	107
530.148	106
530.363	86
530.577	101
530.792	103
531.007	88
531.221	100
531.436	102
531.651	98
531.865	94
532.08	97
532.295	88
532.509	93
532.724	99
532.938	88
533.153	108
533.367	95
533.582	103
533.796	114
534.011	94
534.225	91
534.44	99
534.654	102
534.868	98
535.083	103
535.297	110
535.511	102
535.726	109
535.94	110
536.154	91
536.369	94
536.583	93
536.797	100
537.011	101
537.225	103
537.44	93
537.654	93
537.868	100
538.082	98
538.296	102
538.51	95
538.724	99
538.938	98
539.153	86
539.367	132
539.581	108
539.795	91
540.009	100
540.222	74
540.436	105
540.65	90
540.864	90
541.078	120
541.292	109
541.506	87
541.72	100
541.934	97
542.147	92
542.361	94
542.575	95
542.789	99
543.002	96
543.216	115
543.43	116
543.644	113
543.857	85
544.071	98
544.285	99
544.498	89
544.712	88
544.925	97
545.139	85
545.352	97
545.566	82
545.779	77
545.993	98
546.206	79
546.42	93
546.633	93
546.847	103
547.06	90
547.274	102
547.487	101
547.7	91
547.914	92
548.127	90
548.34	87
548.554	86
548.767	88
548.98	94
549.193	83
549.407	84
549.62	106
549.833	108
550.046	103
550.259	92
550.473	106
550.686	94
550.899	97
551.112	98
551.325	98
551.538	103
551.751	97
551.964	105
552.177	91
552.39	94
552.603	102
552.816	91
553.029	99
553.242	95
553.455	98
553.667	148
553.88	129
554.093	106
554.306	131
554.519	150
554.732	120
554.944	102
555.157	92
555.37	106
555.583	105
555.795	117
556.008	87
556.221	95
556.433	99
556.646	109
556.859	98
557.071	95
557.284	91
557.496	98
557.709	93
557.921	97
558.134	108
558.346	86
558.559	105
558.771	95
558.984	89
559.196	88
559.409	95
559.621	101
559.833	86
560.046	94
560.258	139
560.47	175
560.683	123
560.895	101
561.107	102
561.32	99
561.532	101
561.744	102
561.956	109
562.168	94
562.381	101
562.593	93
562.805	100
563.017	106
563.229	92
563.441	108
563.653	104
563.865	87
564.077	86
564.289	80
564.501	90
564.713	102
564.925	114
565.137	123
565.349	101
565.561	103
565.773	103
565.985	88
566.197	85
566.408	87
566.62	86
566.832	78
567.044	87
567.255	83
567.467	98
567.679	91
567.891	81
568.102	100
568.314	94
568.526	104
568.737	99
568.949	108
569.161	102
569.372	91
569.584	101
569.795	92
570.007	142
570.218	364
570.43	179
570.641	93
570.853	105
571.064	105
571.276	93
571.487	99
571.698	109
571.91	86
572.121	100
572.333	95
572.544	98
572.755	95
572.966	97
573.178	105
573.389	94
573.6	91
573.811	112
574.023	100
574.234	91
