Data from Circ_2023_H10_HRD10591_00025.txt Node
Date: Wed Jan 03 09:50:36 EST 2024
User: Yrep
Spectrometer: HR+D1059
Trigger mode: 1
Integration Time (sec): 1.000000E-1
Scans to average: 1
Electric dark correction enabled: true
Nonlinearity correction enabled: false
Boxcar width: 0
XAxis mode: Wavelengths
Number of Pixels in Spectrum: 2048
>>>>>Begin Spectral Data<<<<<
223.165	-13.31
223.4	-13.31
223.635	-13.31
223.869	-22.31
224.104	-20.31
224.338	-6.31
224.573	-13.31
224.808	-11.31
225.042	-10.31
225.277	-12.31
225.511	-4.31
225.746	-2.31
225.98	12.69
226.215	6.69
226.449	16.69
226.683	24.69
226.918	17.69
227.152	37.69
227.387	38.69
227.621	46.69
227.856	32.69
228.09	51.69
228.324	43.69
228.559	39.69
228.793	53.69
229.027	62.69
229.262	60.69
229.496	72.69
229.73	95.69
229.964	78.69
230.199	84.69
230.433	75.69
230.667	80.69
230.901	87.69
231.136	78.69
231.37	74.69
231.604	75.69
231.838	71.69
232.072	72.69
232.306	95.69
232.541	80.69
232.775	67.69
233.009	84.69
233.243	80.69
233.477	72.69
233.711	67.69
233.945	65.69
234.179	81.69
234.413	77.69
234.647	84.69
234.881	78.69
235.115	74.69
235.349	77.69
235.583	88.69
235.817	84.69
236.051	72.69
236.285	68.69
236.519	82.69
236.753	66.69
236.987	75.69
237.221	75.69
237.455	97.69
237.689	72.69
237.922	81.69
238.156	80.69
238.39	66.69
238.624	62.69
238.858	64.69
239.091	82.69
239.325	81.69
239.559	85.69
239.793	65.69
240.027	77.69
240.26	76.69
240.494	91.69
240.728	87.69
240.961	77.69
241.195	85.69
241.429	57.69
241.662	81.69
241.896	72.69
242.13	89.69
242.363	83.69
242.597	86.69
242.83	73.69
243.064	83.69
243.298	75.69
243.531	76.69
243.765	72.69
243.998	92.69
244.232	66.69
244.465	82.69
244.699	76.69
244.932	86.69
245.166	78.69
245.399	79.69
245.633	70.69
245.866	72.69
246.099	81.69
246.333	83.69
246.566	87.69
246.8	76.69
247.033	85.69
247.266	68.69
247.5	79.69
247.733	77.69
247.966	81.69
248.2	81.69
248.433	80.69
248.666	75.69
248.899	78.69
249.133	77.69
249.366	126.69
249.599	106.69
249.832	79.69
250.066	75.69
250.299	76.69
250.532	99.69
250.765	92.69
250.998	82.69
251.231	77.69
251.465	77.69
251.698	76.69
251.931	85.69
252.164	80.69
252.397	73.69
252.63	83.69
252.863	72.69
253.096	73.69
253.329	87.69
253.562	80.69
253.795	84.69
254.028	83.69
254.261	91.69
254.494	74.69
254.727	84.69
254.96	71.69
255.193	81.69
255.426	83.69
255.659	81.69
255.892	99.69
256.124	86.69
256.357	82.69
256.59	75.69
256.823	83.69
257.056	76.69
257.289	79.69
257.521	90.69
257.754	78.69
257.987	83.69
258.22	93.69
258.452	106.69
258.685	84.69
258.918	82.69
259.151	74.69
259.383	71.69
259.616	91.69
259.849	95.69
260.081	83.69
260.314	87.69
260.547	79.69
260.779	89.69
261.012	113.69
261.244	107.69
261.477	75.69
261.71	106.69
261.942	125.69
262.175	125.69
262.407	103.69
262.64	104.69
262.872	88.69
263.105	73.69
263.337	83.69
263.57	89.69
263.802	86.69
264.035	82.69
264.267	70.69
264.499	66.69
264.732	84.69
264.964	93.69
265.197	75.69
265.429	86.69
265.661	80.69
265.894	86.69
266.126	96.69
266.358	87.69
266.591	97.69
266.823	85.69
267.055	85.69
267.287	77.69
267.52	90.69
267.752	94.69
267.984	85.69
268.216	86.69
268.448	91.69
268.681	98.69
268.913	95.69
269.145	86.69
269.377	106.69
269.609	76.69
269.841	86.69
270.073	68.69
270.306	76.69
270.538	65.69
270.77	71.69
271.002	91.69
271.234	75.69
271.466	81.69
271.698	83.69
271.93	87.69
272.162	92.69
272.394	107.69
272.626	97.69
272.858	94.69
273.09	100.69
273.322	82.69
273.553	90.69
273.785	83.69
274.017	79.69
274.249	92.69
274.481	77.69
274.713	88.69
274.945	80.69
275.176	93.69
275.408	104.69
275.64	126.69
275.872	129.69
276.104	105.69
276.335	107.69
276.567	117.69
276.799	147.69
277.031	162.69
277.262	180.69
277.494	161.69
277.726	110.69
277.957	81.69
278.189	78.69
278.421	96.69
278.652	84.69
278.884	84.69
279.115	93.69
279.347	83.69
279.579	101.69
279.81	136.69
280.042	211.69
280.273	273.69
280.505	182.69
280.736	109.69
280.968	94.69
281.199	85.69
281.431	85.69
281.662	84.69
281.894	91.69
282.125	109.69
282.356	122.69
282.588	150.69
282.819	134.69
283.051	77.69
283.282	85.69
283.513	98.69
283.745	91.69
283.976	90.69
284.207	95.69
284.439	79.69
284.67	100.69
284.901	91.69
285.132	76.69
285.364	71.69
285.595	86.69
285.826	81.69
286.057	100.69
286.288	80.69
286.52	83.69
286.751	85.69
286.982	95.69
287.213	82.69
287.444	90.69
287.675	72.69
287.906	89.69
288.138	79.69
288.369	83.69
288.6	72.69
288.831	81.69
289.062	90.69
289.293	86.69
289.524	64.69
289.755	97.69
289.986	74.69
290.217	81.69
290.448	85.69
290.679	88.69
290.91	93.69
291.141	75.69
291.371	80.69
291.602	87.69
291.833	88.69
292.064	75.69
292.295	86.69
292.526	91.69
292.757	76.69
292.987	74.69
293.218	101.69
293.449	93.69
293.68	92.69
293.91	85.69
294.141	80.69
294.372	93.69
294.603	98.69
294.833	99.69
295.064	96.69
295.295	89.69
295.525	101.69
295.756	102.69
295.987	117.69
296.217	150.69
296.448	139.69
296.679	98.69
296.909	92.69
297.14	96.69
297.37	87.69
297.601	97.69
297.831	81.69
298.062	97.69
298.292	92.69
298.523	97.69
298.753	83.69
298.984	79.69
299.214	98.69
299.445	92.69
299.675	90.69
299.905	95.69
300.136	93.69
300.366	73.69
300.597	76.69
300.827	91.69
301.057	95.69
301.288	104.69
301.518	88.69
301.748	116.69
301.979	110.69
302.209	95.69
302.439	90.69
302.669	100.69
302.9	88.69
303.13	86.69
303.36	100.69
303.59	133.69
303.82	142.69
304.051	105.69
304.281	101.69
304.511	81.69
304.741	78.69
304.971	103.69
305.201	87.69
305.431	82.69
305.661	82.69
305.891	94.69
306.121	108.69
306.352	106.69
306.582	111.69
306.812	108.69
307.042	107.69
307.272	147.69
307.502	181.69
307.731	163.69
307.961	120.69
308.191	83.69
308.421	76.69
308.651	86.69
308.881	86.69
309.111	102.69
309.341	100.69
309.571	112.69
309.8	99.69
310.03	116.69
310.26	97.69
310.49	90.69
310.72	99.69
310.949	103.69
311.179	106.69
311.409	96.69
311.639	101.69
311.868	87.69
312.098	91.69
312.328	98.69
312.557	113.69
312.787	108.69
313.017	117.69
313.246	90.69
313.476	101.69
313.706	96.69
313.935	86.69
314.165	102.69
314.394	103.69
314.624	106.69
314.853	96.69
315.083	79.69
315.312	96.69
315.542	84.69
315.771	85.69
316.001	104.69
316.23	92.69
316.46	82.69
316.689	86.69
316.919	95.69
317.148	110.69
317.377	96.69
317.607	90.69
317.836	89.69
318.065	100.69
318.295	86.69
318.524	85.69
318.753	93.69
318.983	96.69
319.212	93.69
319.441	113.69
319.67	116.69
319.9	101.69
320.129	79.69
320.358	100.69
320.587	109.69
320.816	102.69
321.046	102.69
321.275	83.69
321.504	78.69
321.733	107.69
321.962	103.69
322.191	111.69
322.42	98.69
322.649	116.69
322.878	118.69
323.108	142.69
323.337	146.69
323.566	147.69
323.795	173.69
324.024	242.69
324.253	483.69
324.482	1046.69
324.71	2118.69
324.939	2812.69
325.168	1032.69
325.397	298.69
325.626	179.69
325.855	144.69
326.084	136.69
326.313	143.69
326.542	180.69
326.77	270.69
326.999	531.69
327.228	1121.69
327.457	2031.69
327.686	1672.69
327.914	552.69
328.143	539.69
328.372	692.69
328.6	362.69
328.829	182.69
329.058	186.69
329.287	188.69
329.515	180.69
329.744	257.69
329.972	502.69
330.201	1014.69
330.43	1514.69
330.658	695.69
330.887	302.69
331.115	182.69
331.344	126.69
331.572	112.69
331.801	136.69
332.03	131.69
332.258	98.69
332.486	94.69
332.715	111.69
332.943	125.69
333.172	128.69
333.4	139.69
333.629	172.69
333.857	223.69
334.085	447.69
334.314	962.69
334.542	1922.69
334.771	1762.69
334.999	482.69
335.227	184.69
335.455	120.69
335.684	115.69
335.912	107.69
336.14	96.69
336.369	104.69
336.597	115.69
336.825	107.69
337.053	103.69
337.281	100.69
337.51	109.69
337.738	109.69
337.966	88.69
338.194	101.69
338.422	117.69
338.65	96.69
338.878	95.69
339.106	94.69
339.334	98.69
339.562	91.69
339.79	85.69
340.018	91.69
340.246	87.69
340.474	98.69
340.702	100.69
340.93	91.69
341.158	92.69
341.386	88.69
341.614	101.69
341.842	84.69
342.07	82.69
342.298	114.69
342.526	97.69
342.754	86.69
342.981	84.69
343.209	83.69
343.437	88.69
343.665	94.69
343.893	83.69
344.12	87.69
344.348	87.69
344.576	90.69
344.804	99.69
345.031	110.69
345.259	101.69
345.487	103.69
345.714	94.69
345.942	79.69
346.17	92.69
346.397	108.69
346.625	89.69
346.853	89.69
347.08	96.69
347.308	94.69
347.535	89.69
347.763	117.69
347.99	97.69
348.218	105.69
348.445	110.69
348.673	109.69
348.9	108.69
349.128	87.69
349.355	84.69
349.583	95.69
349.81	102.69
350.037	96.69
350.265	118.69
350.492	107.69
350.72	101.69
350.947	108.69
351.174	122.69
351.402	133.69
351.629	114.69
351.856	105.69
352.083	110.69
352.311	124.69
352.538	120.69
352.765	108.69
352.992	106.69
353.22	117.69
353.447	108.69
353.674	99.69
353.901	103.69
354.128	113.69
354.355	106.69
354.583	103.69
354.81	101.69
355.037	101.69
355.264	95.69
355.491	98.69
355.718	80.69
355.945	93.69
356.172	80.69
356.399	91.69
356.626	87.69
356.853	91.69
357.08	77.69
357.307	100.69
357.534	91.69
357.761	93.69
357.988	98.69
358.215	98.69
358.441	93.69
358.668	98.69
358.895	102.69
359.122	86.69
359.349	86.69
359.576	86.69
359.802	101.69
360.029	135.69
360.256	134.69
360.483	134.69
360.709	83.69
360.936	95.69
361.163	102.69
361.39	108.69
361.616	101.69
361.843	79.69
362.07	88.69
362.296	96.69
362.523	110.69
362.749	104.69
362.976	98.69
363.203	92.69
363.429	82.69
363.656	87.69
363.882	71.69
364.109	91.69
364.335	101.69
364.562	103.69
364.788	84.69
365.015	99.69
365.241	90.69
365.468	122.69
365.694	126.69
365.92	118.69
366.147	106.69
366.373	91.69
366.599	82.69
366.826	87.69
367.052	85.69
367.278	83.69
367.505	101.69
367.731	80.69
367.957	76.69
368.184	95.69
368.41	109.69
368.636	123.69
368.862	123.69
369.089	106.69
369.315	96.69
369.541	93.69
369.767	101.69
369.993	97.69
370.219	95.69
370.445	88.69
370.672	76.69
370.898	94.69
371.124	82.69
371.35	82.69
371.576	68.69
371.802	89.69
372.028	81.69
372.254	95.69
372.48	82.69
372.706	87.69
372.932	77.69
373.158	85.69
373.384	87.69
373.61	81.69
373.835	87.69
374.061	91.69
374.287	82.69
374.513	94.69
374.739	88.69
374.965	78.69
375.191	83.69
375.416	97.69
375.642	82.69
375.868	85.69
376.094	85.69
376.319	73.69
376.545	78.69
376.771	92.69
376.997	90.69
377.222	88.69
377.448	87.69
377.674	84.69
377.899	102.69
378.125	90.69
378.35	68.69
378.576	71.69
378.802	97.69
379.027	90.69
379.253	75.69
379.478	84.69
379.704	81.69
379.929	97.69
380.155	80.69
380.38	90.69
380.606	86.69
380.831	85.69
381.057	103.69
381.282	88.69
381.507	103.69
381.733	94.69
381.958	83.69
382.184	87.69
382.409	103.69
382.634	92.69
382.86	100.69
383.085	89.69
383.31	101.69
383.535	89.69
383.761	91.69
383.986	87.69
384.211	79.69
384.436	93.69
384.662	93.69
384.887	109.69
385.112	93.69
385.337	103.69
385.562	100.69
385.787	87.69
386.013	97.69
386.238	104.69
386.463	83.69
386.688	93.69
386.913	100.69
387.138	101.69
387.363	86.69
387.588	81.69
387.813	94.69
388.038	95.69
388.263	94.69
388.488	99.69
388.713	97.69
388.938	96.69
389.163	101.69
389.387	103.69
389.612	99.69
389.837	78.69
390.062	81.69
390.287	73.69
390.512	76.69
390.736	95.69
390.961	87.69
391.186	82.69
391.411	82.69
391.636	82.69
391.86	89.69
392.085	84.69
392.31	83.69
392.534	98.69
392.759	92.69
392.984	77.69
393.208	95.69
393.433	94.69
393.658	86.69
393.882	77.69
394.107	68.69
394.331	73.69
394.556	86.69
394.78	88.69
395.005	79.69
395.229	70.69
395.454	81.69
395.678	102.69
395.903	88.69
396.127	92.69
396.352	83.69
396.576	82.69
396.801	79.69
397.025	83.69
397.249	95.69
397.474	83.69
397.698	80.69
397.922	88.69
398.147	77.69
398.371	91.69
398.595	87.69
398.82	82.69
399.044	93.69
399.268	89.69
399.492	82.69
399.717	72.69
399.941	91.69
400.165	85.69
400.389	82.69
400.613	78.69
400.837	90.69
401.062	87.69
401.286	100.69
401.51	100.69
401.734	91.69
401.958	111.69
402.182	145.69
402.406	198.69
402.63	146.69
402.854	99.69
403.078	91.69
403.302	86.69
403.526	90.69
403.75	79.69
403.974	82.69
404.198	94.69
404.422	84.69
404.645	101.69
404.869	99.69
405.093	124.69
405.317	142.69
405.541	143.69
405.765	125.69
405.988	145.69
406.212	215.69
406.436	300.69
406.66	197.69
406.883	122.69
407.107	112.69
407.331	106.69
407.555	116.69
407.778	118.69
408.002	89.69
408.226	94.69
408.449	99.69
408.673	93.69
408.896	97.69
409.12	100.69
409.344	83.69
409.567	85.69
409.791	80.69
410.014	90.69
410.238	70.69
410.461	98.69
410.685	92.69
410.908	94.69
411.132	94.69
411.355	103.69
411.578	95.69
411.802	79.69
412.025	80.69
412.249	103.69
412.472	124.69
412.695	145.69
412.919	114.69
413.142	93.69
413.365	74.69
413.589	89.69
413.812	83.69
414.035	88.69
414.258	100.69
414.482	97.69
414.705	69.69
414.928	90.69
415.151	70.69
415.374	77.69
415.597	95.69
415.821	78.69
416.044	93.69
416.267	94.69
416.49	88.69
416.713	87.69
416.936	94.69
417.159	87.69
417.382	113.69
417.605	110.69
417.828	112.69
418.051	93.69
418.274	101.69
418.497	92.69
418.72	90.69
418.943	76.69
419.166	94.69
419.389	95.69
419.611	94.69
419.834	92.69
420.057	100.69
420.28	94.69
420.503	97.69
420.726	94.69
420.948	95.69
421.171	112.69
421.394	97.69
421.617	88.69
421.839	93.69
422.062	96.69
422.285	97.69
422.507	97.69
422.73	96.69
422.953	89.69
423.175	91.69
423.398	100.69
423.621	69.69
423.843	82.69
424.066	91.69
424.288	95.69
424.511	95.69
424.733	103.69
424.956	129.69
425.178	115.69
425.401	115.69
425.623	110.69
425.846	106.69
426.068	94.69
426.291	102.69
426.513	80.69
426.735	97.69
426.958	107.69
427.18	129.69
427.402	171.69
427.625	273.69
427.847	258.69
428.069	239.69
428.292	135.69
428.514	93.69
428.736	92.69
428.958	83.69
429.181	87.69
429.403	91.69
429.625	86.69
429.847	103.69
430.069	107.69
430.292	94.69
430.514	85.69
430.736	94.69
430.958	95.69
431.18	87.69
431.402	84.69
431.624	87.69
431.846	87.69
432.068	88.69
432.29	78.69
432.512	98.69
432.734	95.69
432.956	106.69
433.178	119.69
433.4	106.69
433.622	98.69
433.844	90.69
434.066	85.69
434.287	107.69
434.509	78.69
434.731	84.69
434.953	95.69
435.175	92.69
435.397	103.69
435.618	103.69
435.84	124.69
436.062	151.69
436.284	135.69
436.505	116.69
436.727	98.69
436.949	90.69
437.17	90.69
437.392	85.69
437.614	95.69
437.835	112.69
438.057	147.69
438.278	130.69
438.5	112.69
438.721	154.69
438.943	124.69
439.165	109.69
439.386	90.69
439.608	78.69
439.829	121.69
440.05	161.69
440.272	188.69
440.493	124.69
440.715	100.69
440.936	72.69
441.158	95.69
441.379	78.69
441.6	103.69
441.822	102.69
442.043	113.69
442.264	130.69
442.486	125.69
442.707	91.69
442.928	115.69
443.149	168.69
443.371	193.69
443.592	130.69
443.813	129.69
444.034	133.69
444.255	98.69
444.476	91.69
444.698	91.69
444.919	87.69
445.14	142.69
445.361	131.69
445.582	146.69
445.803	202.69
446.024	188.69
446.245	165.69
446.466	128.69
446.687	92.69
446.908	85.69
447.129	71.69
447.35	102.69
447.571	86.69
447.792	102.69
448.013	114.69
448.234	110.69
448.455	110.69
448.675	141.69
448.896	154.69
449.117	93.69
449.338	102.69
449.559	136.69
449.779	166.69
450	114.69
450.221	95.69
450.442	74.69
450.662	84.69
450.883	112.69
451.104	137.69
451.324	111.69
451.545	101.69
451.766	79.69
451.986	82.69
452.207	97.69
452.428	82.69
452.648	98.69
452.869	118.69
453.089	133.69
453.31	131.69
453.53	111.69
453.751	92.69
453.971	121.69
454.192	137.69
454.412	110.69
454.633	88.69
454.853	84.69
455.073	81.69
455.294	102.69
455.514	117.69
455.734	95.69
455.955	76.69
456.175	77.69
456.395	83.69
456.616	85.69
456.836	79.69
457.056	91.69
457.276	97.69
457.497	83.69
457.717	87.69
457.937	102.69
458.157	87.69
458.377	92.69
458.598	116.69
458.818	207.69
459.038	240.69
459.258	154.69
459.478	97.69
459.698	90.69
459.918	85.69
460.138	78.69
460.358	95.69
460.578	79.69
460.798	92.69
461.018	90.69
461.238	92.69
461.458	93.69
461.678	95.69
461.898	82.69
462.118	76.69
462.338	70.69
462.558	90.69
462.777	83.69
462.997	92.69
463.217	119.69
463.437	109.69
463.657	82.69
463.876	85.69
464.096	85.69
464.316	85.69
464.536	97.69
464.755	94.69
464.975	118.69
465.195	227.69
465.414	230.69
465.634	110.69
465.854	91.69
466.073	88.69
466.293	82.69
466.512	80.69
466.732	99.69
466.951	85.69
467.171	95.69
467.391	115.69
467.61	136.69
467.829	209.69
468.049	527.69
468.268	832.69
468.488	222.69
468.707	111.69
468.927	100.69
469.146	87.69
469.365	79.69
469.585	95.69
469.804	96.69
470.023	105.69
470.243	101.69
470.462	102.69
470.681	150.69
470.901	99.69
471.12	106.69
471.339	108.69
471.558	125.69
471.777	138.69
471.997	283.69
472.216	1057.69
472.435	2543.69
472.654	634.69
472.873	166.69
473.092	130.69
473.311	102.69
473.53	89.69
473.749	87.69
473.968	107.69
474.187	119.69
474.406	109.69
474.625	89.69
474.844	78.69
475.063	86.69
475.282	81.69
475.501	95.69
475.72	90.69
475.939	99.69
476.158	83.69
476.377	82.69
476.596	82.69
476.814	84.69
477.033	91.69
477.252	93.69
477.471	86.69
477.69	83.69
477.908	96.69
478.127	87.69
478.346	94.69
478.564	107.69
478.783	111.69
479.002	99.69
479.22	107.69
479.439	126.69
479.658	125.69
479.876	116.69
480.095	119.69
480.313	132.69
480.532	161.69
480.751	301.69
480.969	963.69
481.188	4158.69
481.406	2661.69
481.624	378.69
481.843	145.69
482.061	118.69
482.28	93.69
482.498	98.69
482.717	89.69
482.935	77.69
483.153	94.69
483.372	79.69
483.59	97.69
483.808	98.69
484.027	91.69
484.245	99.69
484.463	94.69
484.681	93.69
484.9	99.69
485.118	87.69
485.336	99.69
485.554	106.69
485.772	90.69
485.99	110.69
486.209	92.69
486.427	105.69
486.645	130.69
486.863	110.69
487.081	98.69
487.299	87.69
487.517	93.69
487.735	102.69
487.953	101.69
488.171	95.69
488.389	84.69
488.607	103.69
488.825	97.69
489.043	85.69
489.261	87.69
489.479	78.69
489.696	80.69
489.914	87.69
490.132	87.69
490.35	83.69
490.568	72.69
490.786	69.69
491.003	95.69
491.221	102.69
491.439	96.69
491.657	104.69
491.874	95.69
492.092	90.69
492.31	91.69
492.527	98.69
492.745	98.69
492.963	102.69
493.18	105.69
493.398	93.69
493.615	97.69
493.833	88.69
494.05	67.69
494.268	92.69
494.485	81.69
494.703	92.69
494.92	84.69
495.138	81.69
495.355	93.69
495.573	83.69
495.79	83.69
496.008	90.69
496.225	76.69
496.442	102.69
496.66	103.69
496.877	95.69
497.094	87.69
497.312	79.69
497.529	89.69
497.746	83.69
497.963	92.69
498.181	87.69
498.398	104.69
498.615	119.69
498.832	116.69
499.049	84.69
499.267	86.69
499.484	96.69
499.701	86.69
499.918	88.69
500.135	83.69
500.352	103.69
500.569	96.69
500.786	98.69
501.003	72.69
501.22	97.69
501.437	82.69
501.654	90.69
501.871	115.69
502.088	95.69
502.305	90.69
502.522	85.69
502.739	90.69
502.956	103.69
503.172	92.69
503.389	109.69
503.606	122.69
503.823	97.69
504.04	92.69
504.256	89.69
504.473	88.69
504.69	85.69
504.907	72.69
505.123	99.69
505.34	83.69
505.557	85.69
505.773	77.69
505.99	82.69
506.207	85.69
506.423	79.69
506.64	86.69
506.856	84.69
507.073	80.69
507.289	107.69
507.506	101.69
507.722	129.69
507.939	136.69
508.155	94.69
508.372	90.69
508.588	95.69
508.805	85.69
509.021	96.69
509.238	104.69
509.454	111.69
509.67	91.69
509.887	117.69
510.103	140.69
510.319	242.69
510.536	863.69
510.752	3024.69
510.968	893.69
511.184	201.69
511.401	142.69
511.617	102.69
511.833	115.69
512.049	103.69
512.265	97.69
512.481	85.69
512.698	90.69
512.914	96.69
513.13	103.69
513.346	108.69
513.562	115.69
