Data from Circ_2023_H10_HRD10591_00049.txt Node
Date: Wed Jan 03 09:50:40 EST 2024
User: Yrep
Spectrometer: HR+D1059
Trigger mode: 1
Integration Time (sec): 1.000000E-1
Scans to average: 1
Electric dark correction enabled: true
Nonlinearity correction enabled: false
Boxcar width: 0
XAxis mode: Wavelengths
Number of Pixels in Spectrum: 2048
>>>>>Begin Spectral Data<<<<<
223.165	-8.06
223.4	-8.06
223.635	-8.06
223.869	-18.06
224.104	-25.06
224.338	-4.06
224.573	-10.06
224.808	-17.06
225.042	-3.06
225.277	7.94
225.511	-5.06
225.746	-8.06
225.98	6.94
226.215	8.94
226.449	23.94
226.683	7.94
226.918	14.94
227.152	27.94
227.387	31.94
227.621	32.94
227.856	55.94
228.09	45.94
228.324	54.94
228.559	64.94
228.793	63.94
229.027	67.94
229.262	77.94
229.496	82.94
229.73	110.94
229.964	96.94
230.199	86.94
230.433	81.94
230.667	77.94
230.901	86.94
231.136	63.94
231.37	79.94
231.604	86.94
231.838	76.94
232.072	83.94
232.306	70.94
232.541	88.94
232.775	82.94
233.009	91.94
233.243	78.94
233.477	82.94
233.711	64.94
233.945	71.94
234.179	73.94
234.413	72.94
234.647	80.94
234.881	80.94
235.115	80.94
235.349	75.94
235.583	86.94
235.817	80.94
236.051	84.94
236.285	85.94
236.519	90.94
236.753	77.94
236.987	81.94
237.221	114.94
237.455	86.94
237.689	75.94
237.922	79.94
238.156	59.94
238.39	73.94
238.624	60.94
238.858	72.94
239.091	65.94
239.325	69.94
239.559	80.94
239.793	84.94
240.027	81.94
240.26	96.94
240.494	72.94
240.728	69.94
240.961	77.94
241.195	79.94
241.429	67.94
241.662	76.94
241.896	73.94
242.13	75.94
242.363	80.94
242.597	73.94
242.83	64.94
243.064	104.94
243.298	78.94
243.531	73.94
243.765	78.94
243.998	70.94
244.232	87.94
244.465	91.94
244.699	80.94
244.932	76.94
245.166	74.94
245.399	72.94
245.633	84.94
245.866	80.94
246.099	86.94
246.333	94.94
246.566	86.94
246.8	70.94
247.033	78.94
247.266	82.94
247.5	94.94
247.733	84.94
247.966	76.94
248.2	90.94
248.433	84.94
248.666	86.94
248.899	87.94
249.133	77.94
249.366	104.94
249.599	107.94
249.832	103.94
250.066	79.94
250.299	91.94
250.532	88.94
250.765	92.94
250.998	83.94
251.231	99.94
251.465	89.94
251.698	86.94
251.931	80.94
252.164	76.94
252.397	80.94
252.63	82.94
252.863	78.94
253.096	65.94
253.329	84.94
253.562	81.94
253.795	80.94
254.028	84.94
254.261	85.94
254.494	95.94
254.727	93.94
254.96	92.94
255.193	80.94
255.426	86.94
255.659	79.94
255.892	121.94
256.124	102.94
256.357	90.94
256.59	93.94
256.823	83.94
257.056	84.94
257.289	93.94
257.521	96.94
257.754	91.94
257.987	79.94
258.22	94.94
258.452	99.94
258.685	120.94
258.918	93.94
259.151	72.94
259.383	87.94
259.616	79.94
259.849	91.94
260.081	91.94
260.314	98.94
260.547	106.94
260.779	101.94
261.012	107.94
261.244	122.94
261.477	108.94
261.71	107.94
261.942	147.94
262.175	163.94
262.407	99.94
262.64	88.94
262.872	90.94
263.105	85.94
263.337	85.94
263.57	91.94
263.802	100.94
264.035	93.94
264.267	84.94
264.499	85.94
264.732	83.94
264.964	85.94
265.197	75.94
265.429	101.94
265.661	81.94
265.894	87.94
266.126	88.94
266.358	79.94
266.591	83.94
266.823	91.94
267.055	87.94
267.287	92.94
267.52	102.94
267.752	79.94
267.984	84.94
268.216	87.94
268.448	94.94
268.681	86.94
268.913	87.94
269.145	89.94
269.377	79.94
269.609	88.94
269.841	89.94
270.073	94.94
270.306	85.94
270.538	85.94
270.77	69.94
271.002	90.94
271.234	91.94
271.466	96.94
271.698	97.94
271.93	83.94
272.162	87.94
272.394	90.94
272.626	94.94
272.858	94.94
273.09	81.94
273.322	91.94
273.553	79.94
273.785	73.94
274.017	86.94
274.249	81.94
274.481	94.94
274.713	84.94
274.945	72.94
275.176	91.94
275.408	99.94
275.64	120.94
275.872	140.94
276.104	127.94
276.335	116.94
276.567	134.94
276.799	179.94
277.031	219.94
277.262	246.94
277.494	195.94
277.726	110.94
277.957	97.94
278.189	81.94
278.421	83.94
278.652	89.94
278.884	88.94
279.115	90.94
279.347	94.94
279.579	106.94
279.81	148.94
280.042	239.94
280.273	335.94
280.505	210.94
280.736	128.94
280.968	105.94
281.199	91.94
281.431	86.94
281.662	105.94
281.894	93.94
282.125	109.94
282.356	147.94
282.588	200.94
282.819	150.94
283.051	100.94
283.282	110.94
283.513	94.94
283.745	92.94
283.976	103.94
284.207	73.94
284.439	88.94
284.67	89.94
284.901	84.94
285.132	82.94
285.364	70.94
285.595	102.94
285.826	79.94
286.057	88.94
286.288	99.94
286.52	78.94
286.751	92.94
286.982	94.94
287.213	84.94
287.444	81.94
287.675	87.94
287.906	95.94
288.138	102.94
288.369	104.94
288.6	108.94
288.831	81.94
289.062	91.94
289.293	82.94
289.524	93.94
289.755	79.94
289.986	95.94
290.217	93.94
290.448	97.94
290.679	85.94
290.91	96.94
291.141	99.94
291.371	85.94
291.602	98.94
291.833	86.94
292.064	78.94
292.295	95.94
292.526	89.94
292.757	69.94
292.987	82.94
293.218	72.94
293.449	91.94
293.68	94.94
293.91	85.94
294.141	87.94
294.372	84.94
294.603	101.94
294.833	94.94
295.064	94.94
295.295	94.94
295.525	108.94
295.756	123.94
295.987	144.94
296.217	170.94
296.448	162.94
296.679	100.94
296.909	115.94
297.14	97.94
297.37	86.94
297.601	100.94
297.831	95.94
298.062	90.94
298.292	92.94
298.523	91.94
298.753	93.94
298.984	89.94
299.214	92.94
299.445	89.94
299.675	88.94
299.905	102.94
300.136	111.94
300.366	92.94
300.597	97.94
300.827	103.94
301.057	119.94
301.288	121.94
301.518	107.94
301.748	108.94
301.979	114.94
302.209	105.94
302.439	102.94
302.669	87.94
302.9	95.94
303.13	96.94
303.36	90.94
303.59	134.94
303.82	177.94
304.051	104.94
304.281	101.94
304.511	98.94
304.741	93.94
304.971	96.94
305.201	80.94
305.431	92.94
305.661	89.94
305.891	99.94
306.121	106.94
306.352	123.94
306.582	120.94
306.812	115.94
307.042	130.94
307.272	192.94
307.502	202.94
307.731	187.94
307.961	134.94
308.191	99.94
308.421	102.94
308.651	99.94
308.881	95.94
309.111	89.94
309.341	98.94
309.571	107.94
309.8	105.94
310.03	104.94
310.26	107.94
310.49	104.94
310.72	113.94
310.949	129.94
311.179	135.94
311.409	117.94
311.639	101.94
311.868	102.94
312.098	102.94
312.328	91.94
312.557	134.94
312.787	133.94
313.017	128.94
313.246	102.94
313.476	95.94
313.706	107.94
313.935	114.94
314.165	124.94
314.394	134.94
314.624	121.94
314.853	110.94
315.083	94.94
315.312	104.94
315.542	99.94
315.771	97.94
316.001	92.94
316.23	91.94
316.46	93.94
316.689	93.94
316.919	100.94
317.148	101.94
317.377	114.94
317.607	96.94
317.836	104.94
318.065	93.94
318.295	90.94
318.524	97.94
318.753	87.94
318.983	117.94
319.212	93.94
319.441	136.94
319.67	139.94
319.9	110.94
320.129	98.94
320.358	89.94
320.587	113.94
320.816	108.94
321.046	112.94
321.275	110.94
321.504	104.94
321.733	100.94
321.962	108.94
322.191	108.94
322.42	121.94
322.649	129.94
322.878	126.94
323.108	127.94
323.337	145.94
323.566	155.94
323.795	202.94
324.024	262.94
324.253	565.94
324.482	1185.94
324.71	2429.94
324.939	3152.94
325.168	1171.94
325.397	320.94
325.626	181.94
325.855	148.94
326.084	171.94
326.313	168.94
326.542	183.94
326.77	297.94
326.999	599.94
327.228	1226.94
327.457	2255.94
327.686	1862.94
327.914	651.94
328.143	677.94
328.372	869.94
328.6	499.94
328.829	232.94
329.058	225.94
329.287	222.94
329.515	195.94
329.744	320.94
329.972	604.94
330.201	1315.94
330.43	1972.94
330.658	862.94
330.887	382.94
331.115	243.94
331.344	139.94
331.572	116.94
331.801	149.94
332.03	135.94
332.258	121.94
332.486	108.94
332.715	124.94
332.943	123.94
333.172	130.94
333.4	165.94
333.629	198.94
333.857	274.94
334.085	570.94
334.314	1177.94
334.542	2341.94
334.771	2261.94
334.999	578.94
335.227	213.94
335.455	151.94
335.684	128.94
335.912	119.94
336.14	120.94
336.369	114.94
336.597	121.94
336.825	117.94
337.053	98.94
337.281	104.94
337.51	101.94
337.738	114.94
337.966	98.94
338.194	119.94
338.422	107.94
338.65	113.94
338.878	90.94
339.106	104.94
339.334	92.94
339.562	89.94
339.79	98.94
340.018	85.94
340.246	108.94
340.474	96.94
340.702	116.94
340.93	92.94
341.158	96.94
341.386	103.94
341.614	96.94
341.842	93.94
342.07	105.94
342.298	96.94
342.526	95.94
342.754	100.94
342.981	92.94
343.209	94.94
343.437	102.94
343.665	81.94
343.893	96.94
344.12	95.94
344.348	89.94
344.576	93.94
344.804	112.94
345.031	119.94
345.259	115.94
345.487	122.94
345.714	96.94
345.942	96.94
346.17	91.94
346.397	101.94
346.625	101.94
346.853	106.94
347.08	97.94
347.308	105.94
347.535	117.94
347.763	117.94
347.99	95.94
348.218	101.94
348.445	120.94
348.673	120.94
348.9	123.94
349.128	101.94
349.355	89.94
349.583	98.94
349.81	86.94
350.037	110.94
350.265	100.94
350.492	96.94
350.72	97.94
350.947	121.94
351.174	113.94
351.402	140.94
351.629	119.94
351.856	103.94
352.083	113.94
352.311	138.94
352.538	131.94
352.765	130.94
352.992	134.94
353.22	127.94
353.447	126.94
353.674	126.94
353.901	102.94
354.128	91.94
354.355	99.94
354.583	89.94
354.81	95.94
355.037	96.94
355.264	88.94
355.491	84.94
355.718	75.94
355.945	97.94
356.172	86.94
356.399	94.94
356.626	80.94
356.853	104.94
357.08	100.94
357.307	82.94
357.534	97.94
357.761	100.94
357.988	92.94
358.215	84.94
358.441	87.94
358.668	76.94
358.895	88.94
359.122	93.94
359.349	96.94
359.576	101.94
359.802	137.94
360.029	161.94
360.256	155.94
360.483	141.94
360.709	92.94
360.936	96.94
361.163	91.94
361.39	106.94
361.616	97.94
361.843	98.94
362.07	97.94
362.296	117.94
362.523	86.94
362.749	107.94
362.976	105.94
363.203	100.94
363.429	94.94
363.656	109.94
363.882	93.94
364.109	97.94
364.335	102.94
364.562	118.94
364.788	107.94
365.015	101.94
365.241	109.94
365.468	141.94
365.694	132.94
365.92	109.94
366.147	107.94
366.373	106.94
366.599	111.94
366.826	94.94
367.052	95.94
367.278	88.94
367.505	83.94
367.731	99.94
367.957	98.94
368.184	101.94
368.41	118.94
368.636	142.94
368.862	128.94
369.089	136.94
369.315	110.94
369.541	99.94
369.767	81.94
369.993	92.94
370.219	105.94
370.445	88.94
370.672	102.94
370.898	83.94
371.124	97.94
371.35	94.94
371.576	91.94
371.802	96.94
372.028	91.94
372.254	82.94
372.48	91.94
372.706	86.94
372.932	86.94
373.158	86.94
373.384	108.94
373.61	81.94
373.835	88.94
374.061	104.94
374.287	93.94
374.513	99.94
374.739	92.94
374.965	81.94
375.191	85.94
375.416	96.94
375.642	91.94
375.868	96.94
376.094	97.94
376.319	91.94
376.545	100.94
376.771	81.94
376.997	105.94
377.222	99.94
377.448	99.94
377.674	99.94
377.899	87.94
378.125	85.94
378.35	96.94
378.576	95.94
378.802	93.94
379.027	91.94
379.253	85.94
379.478	94.94
379.704	86.94
379.929	85.94
380.155	84.94
380.38	108.94
380.606	97.94
380.831	90.94
381.057	80.94
381.282	96.94
381.507	99.94
381.733	93.94
381.958	92.94
382.184	98.94
382.409	110.94
382.634	105.94
382.86	107.94
383.085	98.94
383.31	101.94
383.535	78.94
383.761	88.94
383.986	92.94
384.211	103.94
384.436	103.94
384.662	93.94
384.887	102.94
385.112	108.94
385.337	99.94
385.562	93.94
385.787	109.94
386.013	122.94
386.238	140.94
386.463	117.94
386.688	102.94
386.913	97.94
387.138	101.94
387.363	90.94
387.588	87.94
387.813	97.94
388.038	98.94
388.263	97.94
388.488	104.94
388.713	95.94
388.938	93.94
389.163	111.94
389.387	91.94
389.612	88.94
389.837	87.94
390.062	92.94
390.287	94.94
390.512	89.94
390.736	86.94
390.961	93.94
391.186	104.94
391.411	100.94
391.636	90.94
391.86	91.94
392.085	85.94
392.31	83.94
392.534	84.94
392.759	93.94
392.984	109.94
393.208	91.94
393.433	76.94
393.658	102.94
393.882	97.94
394.107	96.94
394.331	74.94
394.556	84.94
394.78	87.94
395.005	94.94
395.229	88.94
395.454	94.94
395.678	100.94
395.903	73.94
396.127	84.94
396.352	102.94
396.576	91.94
396.801	83.94
397.025	78.94
397.249	85.94
397.474	78.94
397.698	87.94
397.922	85.94
398.147	86.94
398.371	75.94
398.595	81.94
398.82	82.94
399.044	91.94
399.268	94.94
399.492	91.94
399.717	81.94
399.941	87.94
400.165	100.94
400.389	97.94
400.613	86.94
400.837	99.94
401.062	94.94
401.286	94.94
401.51	91.94
401.734	92.94
401.958	99.94
402.182	180.94
402.406	224.94
402.63	175.94
402.854	121.94
403.078	99.94
403.302	96.94
403.526	101.94
403.75	96.94
403.974	109.94
404.198	91.94
404.422	94.94
404.645	95.94
404.869	105.94
405.093	125.94
405.317	161.94
405.541	158.94
405.765	128.94
405.988	157.94
406.212	259.94
406.436	364.94
406.66	247.94
406.883	153.94
407.107	129.94
407.331	116.94
407.555	110.94
407.778	118.94
408.002	90.94
408.226	87.94
408.449	91.94
408.673	87.94
408.896	111.94
409.12	107.94
409.344	100.94
409.567	101.94
409.791	98.94
410.014	95.94
410.238	82.94
410.461	91.94
410.685	113.94
410.908	113.94
411.132	102.94
411.355	102.94
411.578	95.94
411.802	105.94
412.025	87.94
412.249	98.94
412.472	122.94
412.695	141.94
412.919	111.94
413.142	98.94
413.365	100.94
413.589	89.94
413.812	82.94
414.035	88.94
414.258	94.94
414.482	97.94
414.705	84.94
414.928	102.94
415.151	91.94
415.374	95.94
415.597	93.94
415.821	94.94
416.044	99.94
416.267	91.94
416.49	100.94
416.713	87.94
416.936	108.94
417.159	97.94
417.382	101.94
417.605	104.94
417.828	114.94
418.051	114.94
418.274	87.94
418.497	82.94
418.72	93.94
418.943	70.94
419.166	76.94
419.389	96.94
419.611	92.94
419.834	91.94
420.057	95.94
420.28	120.94
420.503	101.94
420.726	81.94
420.948	103.94
421.171	115.94
421.394	101.94
421.617	106.94
421.839	100.94
422.062	97.94
422.285	96.94
422.507	115.94
422.73	116.94
422.953	103.94
423.175	93.94
423.398	81.94
423.621	97.94
423.843	89.94
424.066	99.94
424.288	94.94
424.511	92.94
424.733	105.94
424.956	129.94
425.178	113.94
425.401	121.94
425.623	119.94
425.846	92.94
426.068	97.94
426.291	108.94
426.513	110.94
426.735	96.94
426.958	108.94
427.18	137.94
427.402	188.94
427.625	299.94
427.847	279.94
428.069	242.94
428.292	147.94
428.514	94.94
428.736	94.94
428.958	88.94
429.181	92.94
429.403	95.94
429.625	83.94
429.847	98.94
430.069	112.94
430.292	113.94
430.514	87.94
430.736	92.94
430.958	109.94
431.18	110.94
431.402	91.94
431.624	77.94
431.846	88.94
432.068	85.94
432.29	87.94
432.512	94.94
432.734	95.94
432.956	101.94
433.178	93.94
433.4	96.94
433.622	96.94
433.844	101.94
434.066	80.94
434.287	102.94
434.509	102.94
434.731	100.94
434.953	96.94
435.175	87.94
435.397	94.94
435.618	97.94
435.84	105.94
436.062	132.94
436.284	135.94
436.505	111.94
436.727	113.94
436.949	100.94
437.17	94.94
437.392	94.94
437.614	102.94
437.835	145.94
438.057	188.94
438.278	144.94
438.5	119.94
438.721	137.94
438.943	113.94
439.165	88.94
439.386	77.94
439.608	90.94
439.829	128.94
440.05	171.94
440.272	194.94
440.493	108.94
440.715	98.94
440.936	86.94
441.158	88.94
441.379	100.94
441.6	111.94
441.822	115.94
442.043	104.94
442.264	123.94
442.486	136.94
442.707	98.94
442.928	136.94
443.149	210.94
443.371	181.94
443.592	155.94
443.813	137.94
444.034	134.94
444.255	100.94
444.476	101.94
444.698	102.94
444.919	101.94
445.14	143.94
445.361	137.94
445.582	160.94
445.803	201.94
446.024	216.94
446.245	178.94
446.466	143.94
446.687	84.94
446.908	89.94
447.129	93.94
447.35	92.94
447.571	101.94
447.792	97.94
448.013	108.94
448.234	130.94
448.455	144.94
448.675	140.94
448.896	156.94
449.117	111.94
449.338	105.94
449.559	166.94
449.779	157.94
450	96.94
450.221	96.94
450.442	93.94
450.662	120.94
450.883	150.94
451.104	168.94
451.324	111.94
451.545	92.94
451.766	86.94
451.986	96.94
452.207	105.94
452.428	103.94
452.648	116.94
452.869	139.94
453.089	157.94
453.31	158.94
453.53	92.94
453.751	97.94
453.971	142.94
454.192	159.94
454.412	104.94
454.633	101.94
454.853	81.94
455.073	85.94
455.294	95.94
455.514	137.94
455.734	101.94
455.955	100.94
456.175	88.94
456.395	86.94
456.616	85.94
456.836	73.94
457.056	84.94
457.276	98.94
457.497	82.94
457.717	80.94
457.937	95.94
458.157	84.94
458.377	116.94
458.598	139.94
458.818	241.94
459.038	288.94
459.258	193.94
459.478	100.94
459.698	88.94
459.918	94.94
460.138	77.94
460.358	76.94
460.578	91.94
460.798	94.94
461.018	107.94
461.238	93.94
461.458	90.94
461.678	91.94
461.898	79.94
462.118	96.94
462.338	92.94
462.558	94.94
462.777	99.94
462.997	111.94
463.217	130.94
463.437	103.94
463.657	94.94
463.876	92.94
464.096	95.94
464.316	113.94
464.536	105.94
464.755	100.94
464.975	144.94
465.195	287.94
465.414	295.94
465.634	107.94
465.854	85.94
466.073	91.94
466.293	94.94
466.512	88.94
466.732	102.94
466.951	116.94
467.171	108.94
467.391	124.94
467.61	192.94
467.829	251.94
468.049	726.94
468.268	1179.94
468.488	284.94
468.707	114.94
468.927	99.94
469.146	78.94
469.365	96.94
469.585	97.94
469.804	124.94
470.023	133.94
470.243	111.94
470.462	137.94
470.681	156.94
470.901	126.94
471.12	114.94
471.339	115.94
471.558	112.94
471.777	171.94
471.997	381.94
472.216	1417.94
472.435	3395.94
472.654	779.94
472.873	201.94
473.092	111.94
473.311	92.94
473.53	95.94
473.749	96.94
473.968	109.94
474.187	137.94
474.406	127.94
474.625	103.94
474.844	91.94
475.063	82.94
475.282	93.94
475.501	97.94
475.72	99.94
475.939	95.94
476.158	90.94
476.377	100.94
476.596	89.94
476.814	113.94
477.033	107.94
477.252	103.94
477.471	98.94
477.69	99.94
477.908	94.94
478.127	112.94
478.346	107.94
478.564	87.94
478.783	125.94
479.002	98.94
479.22	100.94
479.439	124.94
479.658	158.94
479.876	141.94
480.095	128.94
480.313	153.94
480.532	181.94
480.751	348.94
480.969	1259.94
481.188	5434.94
481.406	3439.94
481.624	463.94
481.843	161.94
482.061	125.94
482.28	116.94
482.498	108.94
482.717	112.94
482.935	114.94
483.153	80.94
483.372	86.94
483.59	83.94
483.808	95.94
484.027	96.94
484.245	106.94
484.463	92.94
484.681	100.94
484.9	89.94
485.118	99.94
485.336	108.94
485.554	99.94
485.772	105.94
485.99	114.94
486.209	120.94
486.427	118.94
486.645	138.94
486.863	149.94
487.081	119.94
487.299	125.94
487.517	97.94
487.735	93.94
487.953	84.94
488.171	100.94
488.389	96.94
488.607	97.94
488.825	82.94
489.043	95.94
489.261	105.94
489.479	87.94
489.696	100.94
489.914	97.94
490.132	94.94
490.35	110.94
490.568	95.94
490.786	91.94
491.003	106.94
491.221	90.94
491.439	122.94
491.657	100.94
491.874	111.94
492.092	97.94
492.31	99.94
492.527	98.94
492.745	103.94
492.963	108.94
493.18	87.94
493.398	105.94
493.615	99.94
493.833	102.94
494.05	83.94
494.268	95.94
494.485	100.94
494.703	85.94
494.92	92.94
495.138	102.94
495.355	87.94
495.573	102.94
495.79	96.94
496.008	92.94
496.225	96.94
496.442	98.94
496.66	95.94
496.877	81.94
497.094	81.94
497.312	94.94
497.529	86.94
497.746	84.94
497.963	101.94
498.181	101.94
498.398	97.94
498.615	130.94
498.832	119.94
499.049	100.94
499.267	87.94
499.484	97.94
499.701	87.94
499.918	94.94
500.135	92.94
500.352	97.94
500.569	119.94
500.786	102.94
501.003	104.94
501.22	89.94
501.437	80.94
501.654	81.94
501.871	148.94
502.088	105.94
502.305	105.94
502.522	96.94
502.739	90.94
502.956	85.94
503.172	87.94
503.389	76.94
503.606	128.94
503.823	114.94
504.04	109.94
504.256	98.94
504.473	84.94
504.69	88.94
504.907	105.94
505.123	91.94
505.34	102.94
505.557	95.94
505.773	105.94
505.99	102.94
506.207	96.94
506.423	97.94
506.64	103.94
506.856	100.94
507.073	91.94
507.289	106.94
507.506	104.94
507.722	150.94
507.939	150.94
508.155	114.94
508.372	117.94
508.588	100.94
508.805	102.94
509.021	99.94
509.238	107.94
509.454	94.94
509.67	101.94
509.887	126.94
510.103	163.94
510.319	260.94
510.536	1089.94
510.752	3906.94
510.968	1086.94
511.184	216.94
511.401	148.94
511.617	125.94
511.833	131.94
