Data from Circ_2023_H10_HRD10591_00026.txt Node
Date: Wed Jan 03 09:50:36 EST 2024
User: Yrep
Spectrometer: HR+D1059
Trigger mode: 1
Integration Time (sec): 1.000000E-1
Scans to average: 1
Electric dark correction enabled: true
Nonlinearity correction enabled: false
Boxcar width: 0
XAxis mode: Wavelengths
Number of Pixels in Spectrum: 2048
>>>>>Begin Spectral Data<<<<<
223.165	-25.56
223.4	-25.56
223.635	-25.56
223.869	-14.56
224.104	-10.56
224.338	-8.56
224.573	-12.56
224.808	-7.56
225.042	-10.56
225.277	2.44
225.511	-12.56
225.746	-10.56
225.98	3.44
226.215	12.44
226.449	16.44
226.683	16.44
226.918	25.44
227.152	36.44
227.387	29.44
227.621	40.44
227.856	40.44
228.09	27.44
228.324	53.44
228.559	66.44
228.793	64.44
229.027	65.44
229.262	66.44
229.496	74.44
229.73	77.44
229.964	102.44
230.199	62.44
230.433	69.44
230.667	79.44
230.901	80.44
231.136	69.44
231.37	77.44
231.604	90.44
231.838	93.44
232.072	73.44
232.306	72.44
232.541	78.44
232.775	91.44
233.009	75.44
233.243	76.44
233.477	80.44
233.711	79.44
233.945	72.44
234.179	82.44
234.413	88.44
234.647	72.44
234.881	73.44
235.115	86.44
235.349	78.44
235.583	76.44
235.817	64.44
236.051	63.44
236.285	79.44
236.519	83.44
236.753	75.44
236.987	84.44
237.221	88.44
237.455	87.44
237.689	69.44
237.922	66.44
238.156	72.44
238.39	74.44
238.624	62.44
238.858	76.44
239.091	70.44
239.325	91.44
239.559	89.44
239.793	67.44
240.027	70.44
240.26	76.44
240.494	71.44
240.728	76.44
240.961	72.44
241.195	54.44
241.429	76.44
241.662	76.44
241.896	64.44
242.13	81.44
242.363	73.44
242.597	83.44
242.83	90.44
243.064	80.44
243.298	71.44
243.531	72.44
243.765	78.44
243.998	73.44
244.232	93.44
244.465	89.44
244.699	83.44
244.932	79.44
245.166	69.44
245.399	78.44
245.633	82.44
245.866	83.44
246.099	75.44
246.333	69.44
246.566	66.44
246.8	85.44
247.033	79.44
247.266	88.44
247.5	76.44
247.733	77.44
247.966	73.44
248.2	74.44
248.433	82.44
248.666	84.44
248.899	86.44
249.133	81.44
249.366	95.44
249.599	114.44
249.832	82.44
250.066	88.44
250.299	78.44
250.532	79.44
250.765	81.44
250.998	86.44
251.231	97.44
251.465	87.44
251.698	84.44
251.931	70.44
252.164	62.44
252.397	72.44
252.63	82.44
252.863	80.44
253.096	84.44
253.329	75.44
253.562	62.44
253.795	85.44
254.028	84.44
254.261	82.44
254.494	84.44
254.727	83.44
254.96	77.44
255.193	80.44
255.426	88.44
255.659	76.44
255.892	97.44
256.124	82.44
256.357	77.44
256.59	80.44
256.823	81.44
257.056	86.44
257.289	88.44
257.521	89.44
257.754	81.44
257.987	88.44
258.22	99.44
258.452	80.44
258.685	92.44
258.918	86.44
259.151	77.44
259.383	79.44
259.616	78.44
259.849	70.44
260.081	80.44
260.314	79.44
260.547	86.44
260.779	80.44
261.012	112.44
261.244	109.44
261.477	96.44
261.71	100.44
261.942	129.44
262.175	134.44
262.407	94.44
262.64	89.44
262.872	74.44
263.105	89.44
263.337	83.44
263.57	82.44
263.802	88.44
264.035	91.44
264.267	69.44
264.499	68.44
264.732	91.44
264.964	82.44
265.197	83.44
265.429	96.44
265.661	69.44
265.894	81.44
266.126	87.44
266.358	83.44
266.591	80.44
266.823	90.44
267.055	87.44
267.287	74.44
267.52	77.44
267.752	83.44
267.984	84.44
268.216	84.44
268.448	88.44
268.681	78.44
268.913	87.44
269.145	73.44
269.377	85.44
269.609	75.44
269.841	85.44
270.073	80.44
270.306	86.44
270.538	79.44
270.77	87.44
271.002	87.44
271.234	93.44
271.466	89.44
271.698	102.44
271.93	72.44
272.162	84.44
272.394	85.44
272.626	67.44
272.858	72.44
273.09	85.44
273.322	71.44
273.553	95.44
273.785	81.44
274.017	84.44
274.249	71.44
274.481	88.44
274.713	88.44
274.945	97.44
275.176	89.44
275.408	94.44
275.64	111.44
275.872	105.44
276.104	94.44
276.335	97.44
276.567	120.44
276.799	131.44
277.031	157.44
277.262	160.44
277.494	141.44
277.726	93.44
277.957	83.44
278.189	94.44
278.421	82.44
278.652	96.44
278.884	85.44
279.115	79.44
279.347	85.44
279.579	97.44
279.81	124.44
280.042	173.44
280.273	236.44
280.505	173.44
280.736	110.44
280.968	95.44
281.199	72.44
281.431	79.44
281.662	79.44
281.894	106.44
282.125	97.44
282.356	138.44
282.588	157.44
282.819	122.44
283.051	96.44
283.282	76.44
283.513	95.44
283.745	78.44
283.976	90.44
284.207	89.44
284.439	92.44
284.67	83.44
284.901	80.44
285.132	97.44
285.364	88.44
285.595	88.44
285.826	95.44
286.057	100.44
286.288	83.44
286.52	77.44
286.751	78.44
286.982	85.44
287.213	87.44
287.444	83.44
287.675	84.44
287.906	98.44
288.138	102.44
288.369	103.44
288.6	98.44
288.831	95.44
289.062	82.44
289.293	98.44
289.524	75.44
289.755	83.44
289.986	89.44
290.217	72.44
290.448	89.44
290.679	85.44
290.91	88.44
291.141	86.44
291.371	95.44
291.602	89.44
291.833	86.44
292.064	98.44
292.295	83.44
292.526	104.44
292.757	96.44
292.987	73.44
293.218	88.44
293.449	86.44
293.68	89.44
293.91	89.44
294.141	94.44
294.372	76.44
294.603	83.44
294.833	83.44
295.064	96.44
295.295	95.44
295.525	86.44
295.756	107.44
295.987	128.44
296.217	161.44
296.448	168.44
296.679	92.44
296.909	79.44
297.14	92.44
297.37	88.44
297.601	97.44
297.831	85.44
298.062	91.44
298.292	111.44
298.523	92.44
298.753	78.44
298.984	88.44
299.214	90.44
299.445	110.44
299.675	104.44
299.905	95.44
300.136	84.44
300.366	83.44
300.597	82.44
300.827	94.44
301.057	88.44
301.288	118.44
301.518	89.44
301.748	97.44
301.979	112.44
302.209	89.44
302.439	91.44
302.669	98.44
302.9	80.44
303.13	99.44
303.36	99.44
303.59	120.44
303.82	152.44
304.051	97.44
304.281	70.44
304.511	88.44
304.741	83.44
304.971	100.44
305.201	96.44
305.431	84.44
305.661	107.44
305.891	103.44
306.121	99.44
306.352	99.44
306.582	116.44
306.812	92.44
307.042	97.44
307.272	136.44
307.502	151.44
307.731	157.44
307.961	121.44
308.191	107.44
308.421	96.44
308.651	87.44
308.881	98.44
309.111	109.44
309.341	111.44
309.571	87.44
309.8	100.44
310.03	96.44
310.26	110.44
310.49	91.44
310.72	96.44
310.949	110.44
311.179	105.44
311.409	92.44
311.639	93.44
311.868	100.44
312.098	94.44
312.328	102.44
312.557	97.44
312.787	113.44
313.017	118.44
313.246	104.44
313.476	93.44
313.706	103.44
313.935	104.44
314.165	111.44
314.394	120.44
314.624	100.44
314.853	108.44
315.083	87.44
315.312	87.44
315.542	87.44
315.771	93.44
316.001	89.44
316.23	91.44
316.46	91.44
316.689	93.44
316.919	85.44
317.148	100.44
317.377	103.44
317.607	97.44
317.836	91.44
318.065	75.44
318.295	82.44
318.524	103.44
318.753	94.44
318.983	97.44
319.212	115.44
319.441	131.44
319.67	100.44
319.9	100.44
320.129	107.44
320.358	100.44
320.587	99.44
320.816	93.44
321.046	116.44
321.275	115.44
321.504	97.44
321.733	113.44
321.962	94.44
322.191	123.44
322.42	93.44
322.649	113.44
322.878	123.44
323.108	140.44
323.337	133.44
323.566	157.44
323.795	172.44
324.024	226.44
324.253	523.44
324.482	1124.44
324.71	2320.44
324.939	3056.44
325.168	1111.44
325.397	311.44
325.626	192.44
325.855	149.44
326.084	135.44
326.313	155.44
326.542	177.44
326.77	283.44
326.999	558.44
327.228	1216.44
327.457	2245.44
327.686	1801.44
327.914	565.44
328.143	463.44
328.372	569.44
328.6	335.44
328.829	187.44
329.058	177.44
329.287	201.44
329.515	158.44
329.744	231.44
329.972	405.44
330.201	785.44
330.43	1249.44
330.658	573.44
330.887	268.44
331.115	183.44
331.344	123.44
331.572	104.44
331.801	113.44
332.03	128.44
332.258	118.44
332.486	86.44
332.715	107.44
332.943	108.44
333.172	110.44
333.4	110.44
333.629	129.44
333.857	207.44
334.085	361.44
334.314	742.44
334.542	1456.44
334.771	1482.44
334.999	384.44
335.227	159.44
335.455	134.44
335.684	111.44
335.912	97.44
336.14	96.44
336.369	109.44
336.597	101.44
336.825	115.44
337.053	92.44
337.281	95.44
337.51	92.44
337.738	102.44
337.966	108.44
338.194	120.44
338.422	103.44
338.65	89.44
338.878	99.44
339.106	109.44
339.334	96.44
339.562	91.44
339.79	89.44
340.018	99.44
340.246	78.44
340.474	102.44
340.702	108.44
340.93	95.44
341.158	98.44
341.386	95.44
341.614	109.44
341.842	92.44
342.07	99.44
342.298	94.44
342.526	89.44
342.754	77.44
342.981	101.44
343.209	85.44
343.437	101.44
343.665	82.44
343.893	91.44
344.12	91.44
344.348	83.44
344.576	99.44
344.804	96.44
345.031	104.44
345.259	99.44
345.487	97.44
345.714	101.44
345.942	103.44
346.17	86.44
346.397	102.44
346.625	96.44
346.853	91.44
347.08	102.44
347.308	93.44
347.535	104.44
347.763	108.44
347.99	96.44
348.218	97.44
348.445	100.44
348.673	107.44
348.9	110.44
349.128	90.44
349.355	88.44
349.583	87.44
349.81	84.44
350.037	92.44
350.265	112.44
350.492	100.44
350.72	90.44
350.947	73.44
351.174	116.44
351.402	141.44
351.629	109.44
351.856	98.44
352.083	99.44
352.311	119.44
352.538	111.44
352.765	103.44
352.992	109.44
353.22	123.44
353.447	112.44
353.674	112.44
353.901	95.44
354.128	100.44
354.355	101.44
354.583	92.44
354.81	97.44
355.037	76.44
355.264	95.44
355.491	95.44
355.718	102.44
355.945	100.44
356.172	92.44
356.399	87.44
356.626	103.44
356.853	102.44
357.08	85.44
357.307	103.44
357.534	96.44
357.761	78.44
357.988	80.44
358.215	76.44
358.441	100.44
358.668	100.44
358.895	86.44
359.122	86.44
359.349	89.44
359.576	91.44
359.802	118.44
360.029	136.44
360.256	137.44
360.483	103.44
360.709	84.44
360.936	91.44
361.163	96.44
361.39	100.44
361.616	95.44
361.843	100.44
362.07	102.44
362.296	96.44
362.523	109.44
362.749	98.44
362.976	80.44
363.203	92.44
363.429	92.44
363.656	95.44
363.882	88.44
364.109	80.44
364.335	108.44
364.562	92.44
364.788	102.44
365.015	102.44
365.241	111.44
365.468	107.44
365.694	107.44
365.92	97.44
366.147	98.44
366.373	72.44
366.599	92.44
366.826	87.44
367.052	81.44
367.278	88.44
367.505	96.44
367.731	90.44
367.957	83.44
368.184	101.44
368.41	94.44
368.636	104.44
368.862	125.44
369.089	133.44
369.315	97.44
369.541	99.44
369.767	94.44
369.993	88.44
370.219	95.44
370.445	88.44
370.672	99.44
370.898	83.44
371.124	80.44
371.35	80.44
371.576	89.44
371.802	98.44
372.028	83.44
372.254	100.44
372.48	91.44
372.706	93.44
372.932	81.44
373.158	83.44
373.384	84.44
373.61	92.44
373.835	94.44
374.061	104.44
374.287	89.44
374.513	81.44
374.739	83.44
374.965	79.44
375.191	90.44
375.416	88.44
375.642	87.44
375.868	83.44
376.094	85.44
376.319	93.44
376.545	93.44
376.771	102.44
376.997	96.44
377.222	79.44
377.448	82.44
377.674	78.44
377.899	77.44
378.125	94.44
378.35	85.44
378.576	86.44
378.802	99.44
379.027	93.44
379.253	84.44
379.478	79.44
379.704	100.44
379.929	108.44
380.155	97.44
380.38	99.44
380.606	86.44
380.831	102.44
381.057	103.44
381.282	88.44
381.507	107.44
381.733	84.44
381.958	90.44
382.184	97.44
382.409	103.44
382.634	100.44
382.86	98.44
383.085	88.44
383.31	80.44
383.535	93.44
383.761	107.44
383.986	88.44
384.211	90.44
384.436	94.44
384.662	111.44
384.887	92.44
385.112	94.44
385.337	99.44
385.562	97.44
385.787	112.44
386.013	110.44
386.238	117.44
386.463	107.44
386.688	101.44
386.913	101.44
387.138	85.44
387.363	86.44
387.588	91.44
387.813	102.44
388.038	94.44
388.263	102.44
388.488	95.44
388.713	100.44
388.938	88.44
389.163	100.44
389.387	84.44
389.612	86.44
389.837	71.44
390.062	84.44
390.287	87.44
390.512	91.44
390.736	81.44
390.961	86.44
391.186	94.44
391.411	109.44
391.636	95.44
391.86	95.44
392.085	89.44
392.31	86.44
392.534	86.44
392.759	88.44
392.984	81.44
393.208	92.44
393.433	88.44
393.658	80.44
393.882	75.44
394.107	82.44
394.331	101.44
394.556	84.44
394.78	92.44
395.005	101.44
395.229	83.44
395.454	95.44
395.678	85.44
395.903	87.44
396.127	83.44
396.352	91.44
396.576	81.44
396.801	95.44
397.025	88.44
397.249	77.44
397.474	94.44
397.698	79.44
397.922	81.44
398.147	75.44
398.371	85.44
398.595	82.44
398.82	82.44
399.044	81.44
399.268	98.44
399.492	72.44
399.717	85.44
399.941	90.44
400.165	93.44
400.389	89.44
400.613	97.44
400.837	83.44
401.062	91.44
401.286	96.44
401.51	99.44
401.734	105.44
401.958	98.44
402.182	142.44
402.406	182.44
402.63	151.44
402.854	107.44
403.078	91.44
403.302	95.44
403.526	87.44
403.75	95.44
403.974	80.44
404.198	90.44
404.422	100.44
404.645	91.44
404.869	95.44
405.093	98.44
405.317	133.44
405.541	141.44
405.765	114.44
405.988	128.44
406.212	196.44
406.436	291.44
406.66	188.44
406.883	127.44
407.107	93.44
407.331	114.44
407.555	104.44
407.778	97.44
408.002	83.44
408.226	86.44
408.449	86.44
408.673	84.44
408.896	86.44
409.12	101.44
409.344	86.44
409.567	92.44
409.791	91.44
410.014	93.44
410.238	99.44
410.461	84.44
410.685	103.44
410.908	96.44
411.132	101.44
411.355	115.44
411.578	96.44
411.802	79.44
412.025	80.44
412.249	108.44
412.472	117.44
412.695	146.44
412.919	127.44
413.142	96.44
413.365	99.44
413.589	90.44
413.812	79.44
414.035	70.44
414.258	93.44
414.482	89.44
414.705	80.44
414.928	101.44
415.151	93.44
415.374	87.44
415.597	87.44
415.821	81.44
416.044	89.44
416.267	99.44
416.49	104.44
416.713	90.44
416.936	82.44
417.159	99.44
417.382	81.44
417.605	96.44
417.828	104.44
418.051	88.44
418.274	112.44
418.497	95.44
418.72	73.44
418.943	80.44
419.166	92.44
419.389	83.44
419.611	91.44
419.834	93.44
420.057	91.44
420.28	92.44
420.503	101.44
420.726	86.44
420.948	106.44
421.171	115.44
421.394	95.44
421.617	92.44
421.839	85.44
422.062	92.44
422.285	93.44
422.507	104.44
422.73	107.44
422.953	83.44
423.175	87.44
423.398	76.44
423.621	97.44
423.843	80.44
424.066	68.44
424.288	76.44
424.511	92.44
424.733	102.44
424.956	121.44
425.178	100.44
425.401	115.44
425.623	106.44
425.846	89.44
426.068	96.44
426.291	115.44
426.513	87.44
426.735	86.44
426.958	76.44
427.18	113.44
427.402	160.44
427.625	243.44
427.847	243.44
428.069	225.44
428.292	120.44
428.514	100.44
428.736	80.44
428.958	75.44
429.181	87.44
429.403	85.44
429.625	94.44
429.847	102.44
430.069	117.44
430.292	90.44
430.514	91.44
430.736	78.44
430.958	88.44
431.18	93.44
431.402	83.44
431.624	79.44
431.846	86.44
432.068	93.44
432.29	65.44
432.512	96.44
432.734	93.44
432.956	92.44
433.178	112.44
433.4	120.44
433.622	89.44
433.844	92.44
434.066	107.44
434.287	96.44
434.509	91.44
434.731	80.44
434.953	84.44
435.175	92.44
435.397	89.44
435.618	91.44
435.84	102.44
436.062	145.44
436.284	135.44
436.505	115.44
436.727	102.44
436.949	89.44
437.17	95.44
437.392	88.44
437.614	102.44
437.835	117.44
438.057	171.44
438.278	132.44
438.5	115.44
438.721	128.44
438.943	103.44
439.165	91.44
439.386	78.44
439.608	98.44
439.829	111.44
440.05	171.44
440.272	201.44
440.493	111.44
440.715	73.44
440.936	104.44
441.158	96.44
441.379	88.44
441.6	102.44
441.822	97.44
442.043	103.44
442.264	124.44
442.486	115.44
442.707	102.44
442.928	107.44
443.149	179.44
443.371	157.44
443.592	131.44
443.813	118.44
444.034	106.44
444.255	97.44
444.476	100.44
444.698	91.44
444.919	92.44
445.14	111.44
445.361	138.44
445.582	137.44
445.803	196.44
446.024	167.44
446.245	171.44
446.466	130.44
446.687	95.44
446.908	84.44
447.129	94.44
447.35	85.44
447.571	93.44
447.792	89.44
448.013	86.44
448.234	134.44
448.455	101.44
448.675	117.44
448.896	140.44
449.117	104.44
449.338	129.44
449.559	157.44
449.779	148.44
450	111.44
450.221	83.44
450.442	91.44
450.662	100.44
450.883	116.44
451.104	124.44
451.324	101.44
451.545	79.44
451.766	83.44
451.986	84.44
452.207	103.44
452.428	111.44
452.648	112.44
452.869	127.44
453.089	130.44
453.31	144.44
453.53	102.44
453.751	95.44
453.971	114.44
454.192	143.44
454.412	96.44
454.633	84.44
454.853	72.44
455.073	85.44
455.294	102.44
455.514	108.44
455.734	97.44
455.955	88.44
456.175	84.44
456.395	87.44
456.616	107.44
456.836	88.44
457.056	80.44
457.276	73.44
457.497	79.44
457.717	91.44
457.937	84.44
458.157	97.44
458.377	95.44
458.598	117.44
458.818	191.44
459.038	212.44
459.258	136.44
459.478	87.44
459.698	83.44
459.918	85.44
460.138	98.44
460.358	82.44
460.578	88.44
460.798	95.44
461.018	99.44
461.238	82.44
461.458	91.44
461.678	80.44
461.898	80.44
462.118	91.44
462.338	92.44
462.558	83.44
462.777	73.44
462.997	88.44
463.217	109.44
463.437	91.44
463.657	97.44
463.876	93.44
464.096	86.44
464.316	92.44
464.536	90.44
464.755	102.44
464.975	115.44
465.195	221.44
465.414	242.44
465.634	115.44
465.854	87.44
466.073	94.44
466.293	87.44
466.512	98.44
466.732	82.44
466.951	78.44
467.171	103.44
467.391	111.44
467.61	132.44
467.829	192.44
468.049	454.44
468.268	733.44
468.488	212.44
468.707	113.44
468.927	98.44
469.146	88.44
469.365	96.44
469.585	100.44
469.804	101.44
470.023	103.44
470.243	109.44
470.462	104.44
470.681	139.44
470.901	96.44
471.12	90.44
471.339	100.44
471.558	117.44
471.777	124.44
471.997	254.44
472.216	913.44
472.435	2104.44
472.654	555.44
472.873	151.44
473.092	94.44
473.311	88.44
473.53	94.44
473.749	111.44
473.968	92.44
474.187	126.44
474.406	104.44
474.625	73.44
474.844	90.44
475.063	87.44
475.282	85.44
475.501	86.44
475.72	101.44
475.939	71.44
476.158	100.44
476.377	96.44
476.596	85.44
476.814	95.44
477.033	103.44
477.252	86.44
477.471	100.44
477.69	95.44
477.908	86.44
478.127	93.44
478.346	84.44
478.564	96.44
478.783	94.44
479.002	91.44
479.22	94.44
479.439	123.44
479.658	127.44
479.876	118.44
480.095	115.44
480.313	134.44
480.532	140.44
480.751	229.44
480.969	809.44
481.188	3509.44
481.406	2241.44
481.624	328.44
481.843	130.44
482.061	107.44
482.28	94.44
482.498	94.44
482.717	72.44
482.935	79.44
483.153	92.44
483.372	89.44
483.59	77.44
483.808	91.44
484.027	89.44
484.245	94.44
484.463	93.44
484.681	91.44
484.9	85.44
485.118	94.44
485.336	86.44
485.554	88.44
485.772	90.44
485.99	97.44
486.209	101.44
486.427	88.44
486.645	111.44
486.863	112.44
487.081	114.44
487.299	85.44
487.517	90.44
487.735	95.44
487.953	92.44
488.171	104.44
488.389	86.44
488.607	95.44
488.825	101.44
489.043	99.44
489.261	89.44
489.479	86.44
489.696	81.44
489.914	87.44
490.132	80.44
490.35	98.44
490.568	84.44
490.786	73.44
491.003	100.44
491.221	97.44
491.439	92.44
491.657	81.44
491.874	108.44
492.092	85.44
492.31	87.44
492.527	97.44
492.745	85.44
492.963	84.44
493.18	83.44
493.398	94.44
493.615	78.44
493.833	105.44
494.05	85.44
494.268	89.44
494.485	97.44
494.703	94.44
494.92	86.44
495.138	93.44
495.355	89.44
495.573	86.44
495.79	82.44
496.008	95.44
496.225	82.44
496.442	100.44
496.66	91.44
496.877	84.44
497.094	89.44
497.312	88.44
497.529	87.44
497.746	91.44
497.963	84.44
498.181	95.44
498.398	100.44
498.615	122.44
498.832	97.44
499.049	99.44
499.267	95.44
499.484	84.44
499.701	99.44
499.918	80.44
500.135	73.44
500.352	90.44
500.569	81.44
500.786	98.44
501.003	99.44
501.22	84.44
501.437	103.44
501.654	103.44
501.871	127.44
502.088	94.44
502.305	91.44
502.522	88.44
502.739	65.44
502.956	89.44
503.172	105.44
503.389	91.44
503.606	132.44
503.823	123.44
504.04	86.44
504.256	88.44
504.473	88.44
504.69	93.44
504.907	83.44
505.123	95.44
505.34	91.44
505.557	84.44
505.773	92.44
505.99	103.44
506.207	89.44
506.423	88.44
506.64	90.44
506.856	89.44
507.073	107.44
507.289	109.44
507.506	88.44
507.722	129.44
507.939	129.44
508.155	96.44
508.372	99.44
508.588	105.44
508.805	93.44
509.021	94.44
509.238	92.44
509.454	85.44
509.67	105.44
509.887	133.44
510.103	140.44
510.319	240.44
510.536	893.44
510.752	3081.44
510.968	875.44
511.184	187.44
511.401	132.44
511.617	112.44
511.833	102.44
512.049	90.44
512.265	78.44
512.481	86.44
512.698	85.44
512.914	87.44
513.13	90.44
513.346	88.44
513.562	104.44
513.778	100.44
