Data from Circ_2023_H10_HRD10591_00044.txt Node
Date: Wed Jan 03 09:50:39 EST 2024
User: Yrep
Spectrometer: HR+D1059
Trigger mode: 1
Integration Time (sec): 1.000000E-1
Scans to average: 1
Electric dark correction enabled: true
Nonlinearity correction enabled: false
Boxcar width: 0
XAxis mode: Wavelengths
Number of Pixels in Spectrum: 2048
>>>>>Begin Spectral Data<<<<<
223.165	-13.69
223.4	-13.69
223.635	-13.69
223.869	-8.69
224.104	-25.69
224.338	-6.69
224.573	-17.69
224.808	-33.69
225.042	1.31
225.277	-14.69
225.511	-5.69
225.746	8.31
225.98	7.31
226.215	15.31
226.449	10.31
226.683	21.31
226.918	21.31
227.152	41.31
227.387	20.31
227.621	34.31
227.856	48.31
228.09	47.31
228.324	47.31
228.559	56.31
228.793	76.31
229.027	72.31
229.262	76.31
229.496	74.31
229.73	102.31
229.964	84.31
230.199	78.31
230.433	79.31
230.667	80.31
230.901	72.31
231.136	87.31
231.37	82.31
231.604	71.31
231.838	80.31
232.072	87.31
232.306	80.31
232.541	81.31
232.775	86.31
233.009	84.31
233.243	78.31
233.477	86.31
233.711	86.31
233.945	73.31
234.179	83.31
234.413	80.31
234.647	74.31
234.881	93.31
235.115	70.31
235.349	71.31
235.583	81.31
235.817	85.31
236.051	74.31
236.285	81.31
236.519	81.31
236.753	85.31
236.987	83.31
237.221	95.31
237.455	86.31
237.689	78.31
237.922	65.31
238.156	82.31
238.39	84.31
238.624	81.31
238.858	76.31
239.091	83.31
239.325	83.31
239.559	81.31
239.793	70.31
240.027	71.31
240.26	94.31
240.494	91.31
240.728	67.31
240.961	83.31
241.195	75.31
241.429	69.31
241.662	69.31
241.896	71.31
242.13	67.31
242.363	75.31
242.597	65.31
242.83	72.31
243.064	80.31
243.298	77.31
243.531	84.31
243.765	82.31
243.998	74.31
244.232	92.31
244.465	85.31
244.699	101.31
244.932	79.31
245.166	74.31
245.399	65.31
245.633	78.31
245.866	78.31
246.099	77.31
246.333	82.31
246.566	94.31
246.8	78.31
247.033	68.31
247.266	82.31
247.5	79.31
247.733	88.31
247.966	71.31
248.2	73.31
248.433	80.31
248.666	81.31
248.899	77.31
249.133	95.31
249.366	114.31
249.599	109.31
249.832	72.31
250.066	101.31
250.299	92.31
250.532	97.31
250.765	91.31
250.998	76.31
251.231	93.31
251.465	80.31
251.698	88.31
251.931	77.31
252.164	89.31
252.397	83.31
252.63	87.31
252.863	75.31
253.096	90.31
253.329	69.31
253.562	89.31
253.795	74.31
254.028	85.31
254.261	74.31
254.494	84.31
254.727	91.31
254.96	69.31
255.193	62.31
255.426	67.31
255.659	86.31
255.892	107.31
256.124	104.31
256.357	87.31
256.59	92.31
256.823	103.31
257.056	93.31
257.289	86.31
257.521	98.31
257.754	84.31
257.987	113.31
258.22	97.31
258.452	114.31
258.685	95.31
258.918	96.31
259.151	75.31
259.383	97.31
259.616	88.31
259.849	88.31
260.081	98.31
260.314	96.31
260.547	86.31
260.779	94.31
261.012	106.31
261.244	111.31
261.477	90.31
261.71	99.31
261.942	122.31
262.175	151.31
262.407	100.31
262.64	75.31
262.872	95.31
263.105	85.31
263.337	99.31
263.57	88.31
263.802	87.31
264.035	84.31
264.267	77.31
264.499	86.31
264.732	94.31
264.964	88.31
265.197	75.31
265.429	86.31
265.661	76.31
265.894	70.31
266.126	81.31
266.358	90.31
266.591	81.31
266.823	70.31
267.055	81.31
267.287	96.31
267.52	93.31
267.752	91.31
267.984	81.31
268.216	87.31
268.448	83.31
268.681	97.31
268.913	84.31
269.145	73.31
269.377	82.31
269.609	81.31
269.841	91.31
270.073	77.31
270.306	94.31
270.538	72.31
270.77	61.31
271.002	75.31
271.234	94.31
271.466	102.31
271.698	98.31
271.93	85.31
272.162	84.31
272.394	79.31
272.626	82.31
272.858	89.31
273.09	81.31
273.322	99.31
273.553	83.31
273.785	85.31
274.017	92.31
274.249	89.31
274.481	101.31
274.713	100.31
274.945	85.31
275.176	95.31
275.408	90.31
275.64	99.31
275.872	139.31
276.104	107.31
276.335	107.31
276.567	127.31
276.799	147.31
277.031	176.31
277.262	211.31
277.494	168.31
277.726	103.31
277.957	90.31
278.189	95.31
278.421	96.31
278.652	96.31
278.884	87.31
279.115	91.31
279.347	97.31
279.579	102.31
279.81	151.31
280.042	222.31
280.273	303.31
280.505	191.31
280.736	105.31
280.968	91.31
281.199	95.31
281.431	71.31
281.662	85.31
281.894	82.31
282.125	110.31
282.356	129.31
282.588	173.31
282.819	158.31
283.051	89.31
283.282	95.31
283.513	85.31
283.745	75.31
283.976	96.31
284.207	84.31
284.439	80.31
284.67	92.31
284.901	94.31
285.132	92.31
285.364	79.31
285.595	91.31
285.826	82.31
286.057	99.31
286.288	91.31
286.52	88.31
286.751	97.31
286.982	94.31
287.213	87.31
287.444	87.31
287.675	80.31
287.906	100.31
288.138	94.31
288.369	102.31
288.6	103.31
288.831	101.31
289.062	93.31
289.293	106.31
289.524	88.31
289.755	89.31
289.986	88.31
290.217	80.31
290.448	99.31
290.679	81.31
290.91	92.31
291.141	82.31
291.371	105.31
291.602	83.31
291.833	84.31
292.064	87.31
292.295	92.31
292.526	100.31
292.757	83.31
292.987	86.31
293.218	85.31
293.449	82.31
293.68	99.31
293.91	95.31
294.141	106.31
294.372	97.31
294.603	87.31
294.833	79.31
295.064	93.31
295.295	94.31
295.525	98.31
295.756	102.31
295.987	133.31
296.217	164.31
296.448	153.31
296.679	94.31
296.909	84.31
297.14	94.31
297.37	84.31
297.601	87.31
297.831	102.31
298.062	89.31
298.292	77.31
298.523	102.31
298.753	94.31
298.984	99.31
299.214	91.31
299.445	95.31
299.675	96.31
299.905	103.31
300.136	98.31
300.366	86.31
300.597	89.31
300.827	102.31
301.057	107.31
301.288	113.31
301.518	109.31
301.748	102.31
301.979	118.31
302.209	110.31
302.439	98.31
302.669	94.31
302.9	93.31
303.13	98.31
303.36	112.31
303.59	138.31
303.82	146.31
304.051	98.31
304.281	96.31
304.511	87.31
304.741	72.31
304.971	89.31
305.201	96.31
305.431	77.31
305.661	95.31
305.891	97.31
306.121	109.31
306.352	127.31
306.582	124.31
306.812	116.31
307.042	125.31
307.272	177.31
307.502	182.31
307.731	168.31
307.961	131.31
308.191	108.31
308.421	90.31
308.651	88.31
308.881	102.31
309.111	93.31
309.341	103.31
309.571	103.31
309.8	109.31
310.03	113.31
310.26	112.31
310.49	109.31
310.72	117.31
310.949	133.31
311.179	102.31
311.409	102.31
311.639	101.31
311.868	106.31
312.098	113.31
312.328	102.31
312.557	116.31
312.787	144.31
313.017	109.31
313.246	98.31
313.476	102.31
313.706	95.31
313.935	96.31
314.165	115.31
314.394	109.31
314.624	102.31
314.853	104.31
315.083	90.31
315.312	95.31
315.542	87.31
315.771	99.31
316.001	82.31
316.23	83.31
316.46	98.31
316.689	84.31
316.919	90.31
317.148	99.31
317.377	99.31
317.607	94.31
317.836	102.31
318.065	92.31
318.295	90.31
318.524	95.31
318.753	111.31
318.983	104.31
319.212	118.31
319.441	111.31
319.67	137.31
319.9	96.31
320.129	97.31
320.358	80.31
320.587	105.31
320.816	111.31
321.046	115.31
321.275	99.31
321.504	107.31
321.733	105.31
321.962	102.31
322.191	101.31
322.42	120.31
322.649	117.31
322.878	133.31
323.108	144.31
323.337	157.31
323.566	166.31
323.795	191.31
324.024	258.31
324.253	555.31
324.482	1172.31
324.71	2466.31
324.939	3257.31
325.168	1194.31
325.397	337.31
325.626	169.31
325.855	145.31
326.084	144.31
326.313	146.31
326.542	197.31
326.77	302.31
326.999	618.31
327.228	1255.31
327.457	2357.31
327.686	1880.31
327.914	646.31
328.143	634.31
328.372	832.31
328.6	453.31
328.829	219.31
329.058	205.31
329.287	229.31
329.515	210.31
329.744	309.31
329.972	611.31
330.201	1243.31
330.43	1901.31
330.658	832.31
330.887	345.31
331.115	221.31
331.344	141.31
331.572	127.31
331.801	151.31
332.03	135.31
332.258	133.31
332.486	112.31
332.715	101.31
332.943	123.31
333.172	138.31
333.4	149.31
333.629	185.31
333.857	263.31
334.085	541.31
334.314	1170.31
334.542	2314.31
334.771	2163.31
334.999	551.31
335.227	207.31
335.455	123.31
335.684	118.31
335.912	122.31
336.14	115.31
336.369	117.31
336.597	120.31
336.825	126.31
337.053	113.31
337.281	99.31
337.51	104.31
337.738	107.31
337.966	95.31
338.194	104.31
338.422	123.31
338.65	103.31
338.878	101.31
339.106	99.31
339.334	102.31
339.562	99.31
339.79	91.31
340.018	90.31
340.246	117.31
340.474	118.31
340.702	105.31
340.93	92.31
341.158	99.31
341.386	111.31
341.614	113.31
341.842	115.31
342.07	98.31
342.298	83.31
342.526	88.31
342.754	111.31
342.981	95.31
343.209	87.31
343.437	80.31
343.665	98.31
343.893	84.31
344.12	96.31
344.348	93.31
344.576	94.31
344.804	102.31
345.031	106.31
345.259	121.31
345.487	103.31
345.714	102.31
345.942	93.31
346.17	101.31
346.397	95.31
346.625	89.31
346.853	101.31
347.08	90.31
347.308	100.31
347.535	108.31
347.763	119.31
347.99	117.31
348.218	105.31
348.445	140.31
348.673	93.31
348.9	109.31
349.128	110.31
349.355	103.31
349.583	100.31
349.81	92.31
350.037	95.31
350.265	114.31
350.492	93.31
350.72	99.31
350.947	112.31
351.174	124.31
351.402	117.31
351.629	113.31
351.856	107.31
352.083	111.31
352.311	111.31
352.538	133.31
352.765	133.31
352.992	132.31
353.22	121.31
353.447	107.31
353.674	108.31
353.901	97.31
354.128	84.31
354.355	96.31
354.583	103.31
354.81	101.31
355.037	102.31
355.264	96.31
355.491	102.31
355.718	90.31
355.945	90.31
356.172	97.31
356.399	103.31
356.626	103.31
356.853	99.31
357.08	110.31
357.307	100.31
357.534	85.31
357.761	108.31
357.988	94.31
358.215	98.31
358.441	87.31
358.668	88.31
358.895	84.31
359.122	87.31
359.349	95.31
359.576	95.31
359.802	119.31
360.029	166.31
360.256	157.31
360.483	133.31
360.709	95.31
360.936	90.31
361.163	100.31
361.39	119.31
361.616	101.31
361.843	122.31
362.07	114.31
362.296	110.31
362.523	103.31
362.749	102.31
362.976	101.31
363.203	105.31
363.429	94.31
363.656	94.31
363.882	85.31
364.109	103.31
364.335	85.31
364.562	101.31
364.788	90.31
365.015	110.31
365.241	101.31
365.468	135.31
365.694	125.31
365.92	99.31
366.147	99.31
366.373	90.31
366.599	78.31
366.826	87.31
367.052	91.31
367.278	102.31
367.505	86.31
367.731	112.31
367.957	91.31
368.184	97.31
368.41	113.31
368.636	126.31
368.862	145.31
369.089	128.31
369.315	109.31
369.541	94.31
369.767	100.31
369.993	96.31
370.219	100.31
370.445	94.31
370.672	93.31
370.898	84.31
371.124	94.31
371.35	83.31
371.576	99.31
371.802	85.31
372.028	81.31
372.254	89.31
372.48	81.31
372.706	87.31
372.932	95.31
373.158	84.31
373.384	92.31
373.61	81.31
373.835	78.31
374.061	89.31
374.287	89.31
374.513	91.31
374.739	87.31
374.965	93.31
375.191	101.31
375.416	87.31
375.642	90.31
375.868	95.31
376.094	80.31
376.319	85.31
376.545	84.31
376.771	113.31
376.997	87.31
377.222	92.31
377.448	88.31
377.674	80.31
377.899	104.31
378.125	80.31
378.35	93.31
378.576	81.31
378.802	101.31
379.027	84.31
379.253	96.31
379.478	88.31
379.704	90.31
379.929	109.31
380.155	96.31
380.38	91.31
380.606	89.31
380.831	92.31
381.057	90.31
381.282	85.31
381.507	86.31
381.733	110.31
381.958	90.31
382.184	98.31
382.409	109.31
382.634	82.31
382.86	91.31
383.085	93.31
383.31	107.31
383.535	94.31
383.761	101.31
383.986	95.31
384.211	89.31
384.436	97.31
384.662	89.31
384.887	90.31
385.112	91.31
385.337	98.31
385.562	108.31
385.787	105.31
386.013	93.31
386.238	113.31
386.463	106.31
386.688	117.31
386.913	92.31
387.138	96.31
387.363	96.31
387.588	110.31
387.813	89.31
388.038	103.31
388.263	97.31
388.488	107.31
388.713	82.31
388.938	98.31
389.163	94.31
389.387	93.31
389.612	94.31
389.837	82.31
390.062	87.31
390.287	69.31
390.512	87.31
390.736	87.31
390.961	90.31
391.186	86.31
391.411	95.31
391.636	66.31
391.86	82.31
392.085	71.31
392.31	89.31
392.534	80.31
392.759	85.31
392.984	86.31
393.208	87.31
393.433	88.31
393.658	83.31
393.882	75.31
394.107	83.31
394.331	88.31
394.556	94.31
394.78	112.31
395.005	91.31
395.229	100.31
395.454	110.31
395.678	88.31
395.903	85.31
396.127	106.31
396.352	80.31
396.576	83.31
396.801	84.31
397.025	79.31
397.249	73.31
397.474	76.31
397.698	98.31
397.922	88.31
398.147	97.31
398.371	98.31
398.595	89.31
398.82	92.31
399.044	87.31
399.268	89.31
399.492	88.31
399.717	94.31
399.941	98.31
400.165	100.31
400.389	104.31
400.613	87.31
400.837	98.31
401.062	98.31
401.286	95.31
401.51	90.31
401.734	86.31
401.958	102.31
402.182	153.31
402.406	200.31
402.63	162.31
402.854	105.31
403.078	97.31
403.302	94.31
403.526	89.31
403.75	92.31
403.974	91.31
404.198	92.31
404.422	100.31
404.645	96.31
404.869	104.31
405.093	118.31
405.317	152.31
405.541	156.31
405.765	129.31
405.988	148.31
406.212	222.31
406.436	338.31
406.66	218.31
406.883	125.31
407.107	126.31
407.331	96.31
407.555	108.31
407.778	109.31
408.002	99.31
408.226	97.31
408.449	102.31
408.673	97.31
408.896	96.31
409.12	85.31
409.344	77.31
409.567	75.31
409.791	98.31
410.014	98.31
410.238	97.31
410.461	88.31
410.685	91.31
410.908	93.31
411.132	101.31
411.355	123.31
411.578	90.31
411.802	95.31
412.025	99.31
412.249	123.31
412.472	123.31
412.695	185.31
412.919	131.31
413.142	99.31
413.365	96.31
413.589	78.31
413.812	89.31
414.035	95.31
414.258	82.31
414.482	102.31
414.705	98.31
414.928	110.31
415.151	88.31
415.374	98.31
415.597	89.31
415.821	105.31
416.044	89.31
416.267	94.31
416.49	90.31
416.713	90.31
416.936	99.31
417.159	104.31
417.382	109.31
417.605	102.31
417.828	115.31
418.051	108.31
418.274	89.31
418.497	96.31
418.72	95.31
418.943	99.31
419.166	78.31
419.389	90.31
419.611	103.31
419.834	99.31
420.057	111.31
420.28	110.31
420.503	98.31
420.726	96.31
420.948	92.31
421.171	118.31
421.394	105.31
421.617	97.31
421.839	102.31
422.062	83.31
422.285	112.31
422.507	113.31
422.73	100.31
422.953	98.31
423.175	83.31
423.398	90.31
423.621	88.31
423.843	84.31
424.066	98.31
424.288	87.31
424.511	113.31
424.733	113.31
424.956	132.31
425.178	106.31
425.401	123.31
425.623	114.31
425.846	91.31
426.068	112.31
426.291	87.31
426.513	95.31
426.735	97.31
426.958	111.31
427.18	119.31
427.402	211.31
427.625	303.31
427.847	286.31
428.069	256.31
428.292	138.31
428.514	88.31
428.736	102.31
428.958	89.31
429.181	99.31
429.403	100.31
429.625	86.31
429.847	112.31
430.069	117.31
430.292	113.31
430.514	101.31
430.736	93.31
430.958	86.31
431.18	105.31
431.402	85.31
431.624	89.31
431.846	98.31
432.068	97.31
432.29	85.31
432.512	79.31
432.734	87.31
432.956	103.31
433.178	98.31
433.4	99.31
433.622	109.31
433.844	98.31
434.066	85.31
434.287	85.31
434.509	91.31
434.731	94.31
434.953	107.31
435.175	105.31
435.397	96.31
435.618	99.31
435.84	134.31
436.062	165.31
436.284	136.31
436.505	115.31
436.727	125.31
436.949	94.31
437.17	92.31
437.392	93.31
437.614	110.31
437.835	140.31
438.057	157.31
438.278	150.31
438.5	125.31
438.721	153.31
438.943	130.31
439.165	103.31
439.386	104.31
439.608	114.31
439.829	115.31
440.05	161.31
440.272	206.31
440.493	130.31
440.715	102.31
440.936	94.31
441.158	70.31
441.379	94.31
441.6	112.31
441.822	103.31
442.043	107.31
442.264	140.31
442.486	125.31
442.707	113.31
442.928	132.31
443.149	197.31
443.371	186.31
443.592	148.31
443.813	145.31
444.034	140.31
444.255	115.31
444.476	106.31
444.698	81.31
444.919	97.31
445.14	145.31
445.361	149.31
445.582	141.31
445.803	208.31
446.024	223.31
446.245	201.31
446.466	144.31
446.687	86.31
446.908	91.31
447.129	84.31
447.35	85.31
447.571	112.31
447.792	103.31
448.013	97.31
448.234	119.31
448.455	109.31
448.675	145.31
448.896	143.31
449.117	125.31
449.338	129.31
449.559	180.31
449.779	175.31
450	101.31
450.221	101.31
450.442	88.31
450.662	112.31
450.883	121.31
451.104	164.31
451.324	110.31
451.545	104.31
451.766	100.31
451.986	80.31
452.207	83.31
452.428	88.31
452.648	123.31
452.869	152.31
453.089	137.31
453.31	136.31
453.53	98.31
453.751	106.31
453.971	116.31
454.192	147.31
454.412	97.31
454.633	100.31
454.853	61.31
455.073	94.31
455.294	105.31
455.514	119.31
455.734	109.31
455.955	90.31
456.175	92.31
456.395	85.31
456.616	88.31
456.836	95.31
457.056	85.31
457.276	92.31
457.497	86.31
457.717	88.31
457.937	90.31
458.157	88.31
458.377	102.31
458.598	148.31
458.818	223.31
459.038	248.31
459.258	156.31
459.478	101.31
459.698	91.31
459.918	89.31
460.138	85.31
460.358	78.31
460.578	97.31
460.798	94.31
461.018	84.31
461.238	86.31
461.458	104.31
461.678	91.31
461.898	94.31
462.118	86.31
462.338	96.31
462.558	80.31
462.777	91.31
462.997	104.31
463.217	125.31
463.437	110.31
463.657	106.31
463.876	90.31
464.096	91.31
464.316	96.31
464.536	104.31
464.755	99.31
464.975	131.31
465.195	273.31
465.414	281.31
465.634	115.31
465.854	91.31
466.073	98.31
466.293	75.31
466.512	90.31
466.732	92.31
466.951	91.31
467.171	107.31
467.391	119.31
467.61	173.31
467.829	235.31
468.049	640.31
468.268	984.31
468.488	251.31
468.707	107.31
468.927	85.31
469.146	83.31
469.365	95.31
469.585	88.31
469.804	109.31
470.023	121.31
470.243	105.31
470.462	122.31
470.681	152.31
470.901	109.31
471.12	119.31
471.339	117.31
471.558	135.31
471.777	176.31
471.997	349.31
472.216	1285.31
472.435	3057.31
472.654	734.31
472.873	190.31
473.092	124.31
473.311	115.31
473.53	105.31
473.749	91.31
473.968	107.31
474.187	133.31
474.406	144.31
474.625	101.31
474.844	89.31
475.063	86.31
475.282	95.31
475.501	83.31
475.72	90.31
475.939	83.31
476.158	90.31
476.377	97.31
476.596	104.31
476.814	120.31
477.033	110.31
477.252	94.31
477.471	98.31
477.69	97.31
477.908	91.31
478.127	99.31
478.346	94.31
478.564	95.31
478.783	116.31
479.002	107.31
479.22	116.31
479.439	126.31
479.658	136.31
479.876	133.31
480.095	131.31
480.313	150.31
480.532	161.31
480.751	315.31
480.969	1189.31
481.188	5154.31
481.406	3135.31
481.624	438.31
481.843	154.31
482.061	109.31
482.28	92.31
482.498	115.31
482.717	98.31
482.935	95.31
483.153	94.31
483.372	85.31
483.59	103.31
483.808	81.31
484.027	112.31
484.245	109.31
484.463	103.31
484.681	89.31
484.9	86.31
485.118	80.31
485.336	87.31
485.554	105.31
485.772	100.31
485.99	103.31
486.209	105.31
486.427	110.31
486.645	137.31
486.863	157.31
487.081	125.31
487.299	90.31
487.517	98.31
487.735	102.31
487.953	92.31
488.171	114.31
488.389	105.31
488.607	114.31
488.825	89.31
489.043	93.31
489.261	100.31
489.479	85.31
489.696	91.31
489.914	88.31
490.132	91.31
490.35	96.31
490.568	100.31
490.786	99.31
491.003	94.31
491.221	105.31
491.439	93.31
491.657	97.31
491.874	89.31
492.092	100.31
492.31	109.31
492.527	106.31
492.745	98.31
492.963	82.31
493.18	88.31
493.398	99.31
493.615	100.31
493.833	101.31
494.05	93.31
494.268	89.31
494.485	100.31
494.703	102.31
494.92	85.31
495.138	95.31
495.355	96.31
495.573	101.31
495.79	94.31
496.008	80.31
496.225	99.31
496.442	81.31
496.66	89.31
496.877	99.31
497.094	97.31
497.312	109.31
497.529	98.31
497.746	91.31
497.963	95.31
498.181	110.31
498.398	99.31
498.615	133.31
498.832	124.31
499.049	96.31
499.267	81.31
499.484	91.31
499.701	86.31
499.918	96.31
500.135	91.31
500.352	101.31
500.569	91.31
500.786	103.31
501.003	109.31
501.22	96.31
501.437	96.31
501.654	102.31
501.871	138.31
502.088	87.31
502.305	85.31
502.522	102.31
502.739	103.31
502.956	96.31
503.172	96.31
503.389	102.31
503.606	116.31
503.823	102.31
504.04	85.31
504.256	104.31
504.473	101.31
504.69	86.31
504.907	89.31
505.123	111.31
505.34	96.31
505.557	97.31
505.773	95.31
505.99	94.31
506.207	101.31
506.423	103.31
506.64	103.31
506.856	91.31
507.073	93.31
507.289	83.31
507.506	115.31
507.722	123.31
507.939	146.31
508.155	92.31
508.372	116.31
508.588	101.31
508.805	107.31
509.021	99.31
509.238	104.31
509.454	103.31
509.67	112.31
509.887	123.31
510.103	137.31
510.319	239.31
510.536	967.31
510.752	3351.31
510.968	974.31
511.184	191.31
511.401	138.31
511.617	114.31
511.833	131.31
512.049	108.31
