Data from Circ_2023_H10_HRD10591_00065.txt Node
Date: Wed Jan 03 09:50:44 EST 2024
User: Yrep
Spectrometer: HR+D1059
Trigger mode: 1
Integration Time (sec): 1.000000E-1
Scans to average: 1
Electric dark correction enabled: true
Nonlinearity correction enabled: false
Boxcar width: 0
XAxis mode: Wavelengths
Number of Pixels in Spectrum: 2048
>>>>>Begin Spectral Data<<<<<
223.165	-16.5
223.4	-16.5
223.635	-16.5
223.869	-15.5
224.104	-4.5
224.338	-4.5
224.573	-15.5
224.808	-5.5
225.042	-16.5
225.277	-9.5
225.511	1.5
225.746	8.5
225.98	6.5
226.215	-3.5
226.449	21.5
226.683	26.5
226.918	13.5
227.152	13.5
227.387	24.5
227.621	41.5
227.856	37.5
228.09	48.5
228.324	47.5
228.559	70.5
228.793	52.5
229.027	62.5
229.262	67.5
229.496	79.5
229.73	99.5
229.964	102.5
230.199	83.5
230.433	52.5
230.667	83.5
230.901	94.5
231.136	85.5
231.37	88.5
231.604	80.5
231.838	82.5
232.072	95.5
232.306	94.5
232.541	72.5
232.775	85.5
233.009	81.5
233.243	80.5
233.477	79.5
233.711	73.5
233.945	68.5
234.179	69.5
234.413	73.5
234.647	91.5
234.881	84.5
235.115	88.5
235.349	75.5
235.583	81.5
235.817	95.5
236.051	83.5
236.285	74.5
236.519	81.5
236.753	67.5
236.987	79.5
237.221	95.5
237.455	106.5
237.689	78.5
237.922	80.5
238.156	79.5
238.39	76.5
238.624	94.5
238.858	95.5
239.091	86.5
239.325	84.5
239.559	88.5
239.793	77.5
240.027	81.5
240.26	77.5
240.494	75.5
240.728	84.5
240.961	79.5
241.195	89.5
241.429	77.5
241.662	86.5
241.896	69.5
242.13	85.5
242.363	86.5
242.597	76.5
242.83	77.5
243.064	86.5
243.298	83.5
243.531	80.5
243.765	72.5
243.998	89.5
244.232	84.5
244.465	97.5
244.699	92.5
244.932	83.5
245.166	69.5
245.399	67.5
245.633	88.5
245.866	79.5
246.099	90.5
246.333	68.5
246.566	86.5
246.8	84.5
247.033	76.5
247.266	86.5
247.5	93.5
247.733	81.5
247.966	77.5
248.2	66.5
248.433	84.5
248.666	99.5
248.899	83.5
249.133	102.5
249.366	100.5
249.599	106.5
249.832	86.5
250.066	96.5
250.299	104.5
250.532	105.5
250.765	87.5
250.998	107.5
251.231	74.5
251.465	84.5
251.698	84.5
251.931	117.5
252.164	98.5
252.397	98.5
252.63	76.5
252.863	90.5
253.096	77.5
253.329	80.5
253.562	76.5
253.795	79.5
254.028	75.5
254.261	80.5
254.494	89.5
254.727	81.5
254.96	81.5
255.193	73.5
255.426	77.5
255.659	103.5
255.892	98.5
256.124	104.5
256.357	104.5
256.59	101.5
256.823	82.5
257.056	99.5
257.289	89.5
257.521	81.5
257.754	93.5
257.987	91.5
258.22	101.5
258.452	88.5
258.685	88.5
258.918	101.5
259.151	104.5
259.383	87.5
259.616	99.5
259.849	86.5
260.081	82.5
260.314	95.5
260.547	92.5
260.779	95.5
261.012	109.5
261.244	113.5
261.477	99.5
261.71	103.5
261.942	136.5
262.175	154.5
262.407	104.5
262.64	79.5
262.872	74.5
263.105	90.5
263.337	98.5
263.57	100.5
263.802	101.5
264.035	81.5
264.267	87.5
264.499	89.5
264.732	93.5
264.964	88.5
265.197	91.5
265.429	90.5
265.661	86.5
265.894	85.5
266.126	92.5
266.358	91.5
266.591	84.5
266.823	100.5
267.055	63.5
267.287	80.5
267.52	95.5
267.752	81.5
267.984	86.5
268.216	77.5
268.448	101.5
268.681	98.5
268.913	98.5
269.145	87.5
269.377	72.5
269.609	75.5
269.841	77.5
270.073	93.5
270.306	86.5
270.538	76.5
270.77	74.5
271.002	89.5
271.234	86.5
271.466	101.5
271.698	115.5
271.93	85.5
272.162	97.5
272.394	98.5
272.626	93.5
272.858	89.5
273.09	93.5
273.322	91.5
273.553	98.5
273.785	103.5
274.017	76.5
274.249	87.5
274.481	95.5
274.713	107.5
274.945	102.5
275.176	92.5
275.408	114.5
275.64	116.5
275.872	140.5
276.104	103.5
276.335	102.5
276.567	114.5
276.799	164.5
277.031	169.5
277.262	216.5
277.494	174.5
277.726	107.5
277.957	115.5
278.189	84.5
278.421	94.5
278.652	88.5
278.884	87.5
279.115	90.5
279.347	96.5
279.579	98.5
279.81	127.5
280.042	203.5
280.273	306.5
280.505	201.5
280.736	121.5
280.968	87.5
281.199	101.5
281.431	96.5
281.662	90.5
281.894	90.5
282.125	104.5
282.356	155.5
282.588	198.5
282.819	138.5
283.051	84.5
283.282	103.5
283.513	91.5
283.745	94.5
283.976	89.5
284.207	99.5
284.439	101.5
284.67	84.5
284.901	91.5
285.132	84.5
285.364	95.5
285.595	85.5
285.826	105.5
286.057	101.5
286.288	87.5
286.52	92.5
286.751	83.5
286.982	76.5
287.213	90.5
287.444	84.5
287.675	88.5
287.906	96.5
288.138	104.5
288.369	103.5
288.6	97.5
288.831	87.5
289.062	90.5
289.293	88.5
289.524	96.5
289.755	105.5
289.986	92.5
290.217	100.5
290.448	104.5
290.679	95.5
290.91	108.5
291.141	88.5
291.371	99.5
291.602	115.5
291.833	91.5
292.064	89.5
292.295	97.5
292.526	90.5
292.757	85.5
292.987	81.5
293.218	104.5
293.449	87.5
293.68	85.5
293.91	96.5
294.141	96.5
294.372	97.5
294.603	102.5
294.833	92.5
295.064	99.5
295.295	87.5
295.525	103.5
295.756	113.5
295.987	132.5
296.217	171.5
296.448	151.5
296.679	90.5
296.909	97.5
297.14	82.5
297.37	84.5
297.601	86.5
297.831	97.5
298.062	112.5
298.292	94.5
298.523	87.5
298.753	106.5
298.984	74.5
299.214	88.5
299.445	97.5
299.675	101.5
299.905	110.5
300.136	102.5
300.366	88.5
300.597	80.5
300.827	98.5
301.057	103.5
301.288	116.5
301.518	115.5
301.748	99.5
301.979	105.5
302.209	120.5
302.439	111.5
302.669	93.5
302.9	93.5
303.13	104.5
303.36	126.5
303.59	148.5
303.82	167.5
304.051	114.5
304.281	100.5
304.511	111.5
304.741	75.5
304.971	87.5
305.201	104.5
305.431	100.5
305.661	98.5
305.891	110.5
306.121	111.5
306.352	111.5
306.582	130.5
306.812	106.5
307.042	137.5
307.272	151.5
307.502	197.5
307.731	173.5
307.961	138.5
308.191	95.5
308.421	88.5
308.651	95.5
308.881	103.5
309.111	95.5
309.341	102.5
309.571	116.5
309.8	108.5
310.03	107.5
310.26	104.5
310.49	113.5
310.72	120.5
310.949	116.5
311.179	109.5
311.409	105.5
311.639	105.5
311.868	99.5
312.098	93.5
312.328	112.5
312.557	98.5
312.787	125.5
313.017	116.5
313.246	111.5
313.476	99.5
313.706	107.5
313.935	108.5
314.165	108.5
314.394	109.5
314.624	113.5
314.853	110.5
315.083	103.5
315.312	90.5
315.542	94.5
315.771	88.5
316.001	85.5
316.23	91.5
316.46	103.5
316.689	93.5
316.919	103.5
317.148	104.5
317.377	116.5
317.607	109.5
317.836	101.5
318.065	106.5
318.295	91.5
318.524	91.5
318.753	97.5
318.983	106.5
319.212	107.5
319.441	126.5
319.67	121.5
319.9	102.5
320.129	97.5
320.358	85.5
320.587	106.5
320.816	115.5
321.046	122.5
321.275	109.5
321.504	97.5
321.733	117.5
321.962	107.5
322.191	111.5
322.42	105.5
322.649	116.5
322.878	117.5
323.108	137.5
323.337	146.5
323.566	185.5
323.795	203.5
324.024	250.5
324.253	508.5
324.482	1061.5
324.71	2221.5
324.939	2948.5
325.168	1095.5
325.397	303.5
325.626	168.5
325.855	137.5
326.084	142.5
326.313	167.5
326.542	179.5
326.77	283.5
326.999	571.5
327.228	1135.5
327.457	2156.5
327.686	1776.5
327.914	608.5
328.143	584.5
328.372	770.5
328.6	455.5
328.829	217.5
329.058	208.5
329.287	222.5
329.515	195.5
329.744	272.5
329.972	535.5
330.201	1099.5
330.43	1715.5
330.658	768.5
330.887	321.5
331.115	208.5
331.344	137.5
331.572	143.5
331.801	120.5
332.03	139.5
332.258	107.5
332.486	118.5
332.715	101.5
332.943	133.5
333.172	121.5
333.4	129.5
333.629	172.5
333.857	253.5
334.085	504.5
334.314	1029.5
334.542	2004.5
334.771	1942.5
334.999	528.5
335.227	208.5
335.455	133.5
335.684	115.5
335.912	96.5
336.14	105.5
336.369	124.5
336.597	117.5
336.825	112.5
337.053	100.5
337.281	97.5
337.51	100.5
337.738	98.5
337.966	121.5
338.194	125.5
338.422	104.5
338.65	97.5
338.878	95.5
339.106	101.5
339.334	92.5
339.562	113.5
339.79	92.5
340.018	97.5
340.246	97.5
340.474	108.5
340.702	110.5
340.93	102.5
341.158	119.5
341.386	119.5
341.614	106.5
341.842	100.5
342.07	90.5
342.298	96.5
342.526	99.5
342.754	101.5
342.981	92.5
343.209	84.5
343.437	88.5
343.665	81.5
343.893	91.5
344.12	108.5
344.348	96.5
344.576	103.5
344.804	95.5
345.031	103.5
345.259	113.5
345.487	108.5
345.714	112.5
345.942	89.5
346.17	87.5
346.397	102.5
346.625	100.5
346.853	115.5
347.08	114.5
347.308	108.5
347.535	103.5
347.763	121.5
347.99	103.5
348.218	109.5
348.445	127.5
348.673	115.5
348.9	120.5
349.128	111.5
349.355	96.5
349.583	95.5
349.81	88.5
350.037	95.5
350.265	109.5
350.492	94.5
350.72	93.5
350.947	98.5
351.174	124.5
351.402	129.5
351.629	126.5
351.856	108.5
352.083	103.5
352.311	138.5
352.538	132.5
352.765	133.5
352.992	138.5
353.22	120.5
353.447	108.5
353.674	105.5
353.901	90.5
354.128	85.5
354.355	106.5
354.583	96.5
354.81	92.5
355.037	104.5
355.264	96.5
355.491	92.5
355.718	87.5
355.945	107.5
356.172	104.5
356.399	96.5
356.626	95.5
356.853	118.5
357.08	89.5
357.307	88.5
357.534	92.5
357.761	95.5
357.988	95.5
358.215	107.5
358.441	106.5
358.668	98.5
358.895	92.5
359.122	95.5
359.349	86.5
359.576	95.5
359.802	121.5
360.029	163.5
360.256	143.5
360.483	119.5
360.709	100.5
360.936	100.5
361.163	94.5
361.39	106.5
361.616	121.5
361.843	111.5
362.07	113.5
362.296	115.5
362.523	95.5
362.749	109.5
362.976	110.5
363.203	73.5
363.429	95.5
363.656	104.5
363.882	91.5
364.109	103.5
364.335	96.5
364.562	94.5
364.788	98.5
365.015	107.5
365.241	121.5
365.468	127.5
365.694	113.5
365.92	130.5
366.147	96.5
366.373	98.5
366.599	87.5
366.826	109.5
367.052	90.5
367.278	94.5
367.505	92.5
367.731	94.5
367.957	96.5
368.184	103.5
368.41	117.5
368.636	135.5
368.862	141.5
369.089	119.5
369.315	104.5
369.541	95.5
369.767	108.5
369.993	87.5
370.219	113.5
370.445	97.5
370.672	104.5
370.898	113.5
371.124	100.5
371.35	95.5
371.576	95.5
371.802	86.5
372.028	87.5
372.254	104.5
372.48	99.5
372.706	97.5
372.932	91.5
373.158	75.5
373.384	99.5
373.61	104.5
373.835	81.5
374.061	86.5
374.287	111.5
374.513	85.5
374.739	99.5
374.965	71.5
375.191	84.5
375.416	79.5
375.642	88.5
375.868	102.5
376.094	99.5
376.319	92.5
376.545	102.5
376.771	103.5
376.997	104.5
377.222	95.5
377.448	84.5
377.674	101.5
377.899	101.5
378.125	100.5
378.35	112.5
378.576	93.5
378.802	92.5
379.027	89.5
379.253	96.5
379.478	93.5
379.704	89.5
379.929	91.5
380.155	92.5
380.38	115.5
380.606	101.5
380.831	102.5
381.057	115.5
381.282	87.5
381.507	89.5
381.733	91.5
381.958	98.5
382.184	103.5
382.409	99.5
382.634	106.5
382.86	100.5
383.085	95.5
383.31	104.5
383.535	116.5
383.761	107.5
383.986	99.5
384.211	96.5
384.436	107.5
384.662	113.5
384.887	111.5
385.112	103.5
385.337	110.5
385.562	111.5
385.787	92.5
386.013	108.5
386.238	131.5
386.463	114.5
386.688	99.5
386.913	96.5
387.138	110.5
387.363	100.5
387.588	95.5
387.813	125.5
388.038	111.5
388.263	92.5
388.488	99.5
388.713	93.5
388.938	108.5
389.163	89.5
389.387	104.5
389.612	93.5
389.837	86.5
390.062	108.5
390.287	94.5
390.512	98.5
390.736	105.5
390.961	104.5
391.186	117.5
391.411	101.5
391.636	89.5
391.86	79.5
392.085	88.5
392.31	86.5
392.534	88.5
392.759	97.5
392.984	89.5
393.208	79.5
393.433	80.5
393.658	83.5
393.882	78.5
394.107	81.5
394.331	82.5
394.556	86.5
394.78	97.5
395.005	99.5
395.229	77.5
395.454	98.5
395.678	96.5
395.903	89.5
396.127	100.5
396.352	97.5
396.576	91.5
396.801	93.5
397.025	84.5
397.249	92.5
397.474	92.5
397.698	92.5
397.922	80.5
398.147	84.5
398.371	90.5
398.595	96.5
398.82	88.5
399.044	99.5
399.268	83.5
399.492	94.5
399.717	92.5
399.941	82.5
400.165	96.5
400.389	98.5
400.613	90.5
400.837	93.5
401.062	92.5
401.286	92.5
401.51	96.5
401.734	105.5
401.958	105.5
402.182	154.5
402.406	211.5
402.63	167.5
402.854	107.5
403.078	91.5
403.302	99.5
403.526	97.5
403.75	96.5
403.974	91.5
404.198	86.5
404.422	97.5
404.645	105.5
404.869	116.5
405.093	122.5
405.317	161.5
405.541	128.5
405.765	127.5
405.988	140.5
406.212	220.5
406.436	297.5
406.66	220.5
406.883	133.5
407.107	123.5
407.331	107.5
407.555	111.5
407.778	114.5
408.002	90.5
408.226	100.5
408.449	86.5
408.673	105.5
408.896	98.5
409.12	117.5
409.344	96.5
409.567	102.5
409.791	103.5
410.014	113.5
410.238	97.5
410.461	105.5
410.685	96.5
410.908	95.5
411.132	101.5
411.355	100.5
411.578	88.5
411.802	86.5
412.025	106.5
412.249	99.5
412.472	138.5
412.695	140.5
412.919	123.5
413.142	95.5
413.365	114.5
413.589	89.5
413.812	106.5
414.035	110.5
414.258	100.5
414.482	85.5
414.705	89.5
414.928	88.5
415.151	92.5
415.374	113.5
415.597	100.5
415.821	103.5
416.044	98.5
416.267	104.5
416.49	96.5
416.713	103.5
416.936	98.5
417.159	82.5
417.382	104.5
417.605	110.5
417.828	132.5
418.051	109.5
418.274	111.5
418.497	87.5
418.72	83.5
418.943	105.5
419.166	89.5
419.389	87.5
419.611	99.5
419.834	99.5
420.057	101.5
420.28	105.5
420.503	99.5
420.726	105.5
420.948	101.5
421.171	116.5
421.394	106.5
421.617	99.5
421.839	102.5
422.062	119.5
422.285	90.5
422.507	116.5
422.73	116.5
422.953	103.5
423.175	95.5
423.398	96.5
423.621	103.5
423.843	94.5
424.066	95.5
424.288	101.5
424.511	106.5
424.733	104.5
424.956	134.5
425.178	121.5
425.401	109.5
425.623	112.5
425.846	95.5
426.068	115.5
426.291	94.5
426.513	119.5
426.735	104.5
426.958	97.5
427.18	142.5
427.402	176.5
427.625	288.5
427.847	267.5
428.069	241.5
428.292	136.5
428.514	107.5
428.736	89.5
428.958	90.5
429.181	94.5
429.403	90.5
429.625	91.5
429.847	97.5
430.069	129.5
430.292	109.5
430.514	100.5
430.736	106.5
430.958	70.5
431.18	83.5
431.402	94.5
431.624	92.5
431.846	90.5
432.068	98.5
432.29	88.5
432.512	84.5
432.734	90.5
432.956	94.5
433.178	102.5
433.4	109.5
433.622	93.5
433.844	102.5
434.066	93.5
434.287	105.5
434.509	89.5
434.731	91.5
434.953	92.5
435.175	80.5
435.397	104.5
435.618	98.5
435.84	117.5
436.062	139.5
436.284	133.5
436.505	113.5
436.727	116.5
436.949	105.5
437.17	102.5
437.392	92.5
437.614	99.5
437.835	135.5
438.057	162.5
438.278	139.5
438.5	139.5
438.721	148.5
438.943	119.5
439.165	100.5
439.386	101.5
439.608	107.5
439.829	123.5
440.05	161.5
440.272	203.5
440.493	102.5
440.715	104.5
440.936	90.5
441.158	89.5
441.379	96.5
441.6	102.5
441.822	108.5
442.043	107.5
442.264	138.5
442.486	135.5
442.707	115.5
442.928	132.5
443.149	170.5
443.371	183.5
443.592	136.5
443.813	140.5
444.034	150.5
444.255	102.5
444.476	96.5
444.698	96.5
444.919	107.5
445.14	151.5
445.361	135.5
445.582	162.5
445.803	203.5
446.024	186.5
446.245	189.5
446.466	144.5
446.687	103.5
446.908	101.5
447.129	91.5
447.35	101.5
447.571	104.5
447.792	127.5
448.013	115.5
448.234	127.5
448.455	131.5
448.675	135.5
448.896	161.5
449.117	124.5
449.338	133.5
449.559	153.5
449.779	166.5
450	111.5
450.221	94.5
450.442	94.5
450.662	88.5
450.883	136.5
451.104	156.5
451.324	129.5
451.545	102.5
451.766	85.5
451.986	93.5
452.207	106.5
452.428	94.5
452.648	95.5
452.869	119.5
453.089	132.5
453.31	149.5
453.53	121.5
453.751	93.5
453.971	117.5
454.192	133.5
454.412	108.5
454.633	81.5
454.853	103.5
455.073	92.5
455.294	93.5
455.514	130.5
455.734	95.5
455.955	83.5
456.175	98.5
456.395	93.5
456.616	81.5
456.836	75.5
457.056	88.5
457.276	103.5
457.497	93.5
457.717	96.5
457.937	99.5
458.157	87.5
458.377	106.5
458.598	132.5
458.818	217.5
459.038	240.5
459.258	159.5
459.478	103.5
459.698	86.5
459.918	102.5
460.138	97.5
460.358	67.5
460.578	94.5
460.798	89.5
461.018	81.5
461.238	82.5
461.458	98.5
461.678	93.5
461.898	86.5
462.118	88.5
462.338	85.5
462.558	93.5
462.777	104.5
462.997	125.5
463.217	122.5
463.437	104.5
463.657	95.5
463.876	101.5
464.096	102.5
464.316	103.5
464.536	112.5
464.755	101.5
464.975	137.5
465.195	241.5
465.414	260.5
465.634	103.5
465.854	100.5
466.073	93.5
466.293	96.5
466.512	87.5
466.732	87.5
466.951	115.5
467.171	115.5
467.391	136.5
467.61	165.5
467.829	241.5
468.049	639.5
468.268	1011.5
468.488	266.5
468.707	126.5
468.927	95.5
469.146	95.5
469.365	106.5
469.585	94.5
469.804	118.5
470.023	104.5
470.243	119.5
470.462	119.5
470.681	158.5
470.901	113.5
471.12	107.5
471.339	113.5
471.558	123.5
471.777	151.5
471.997	316.5
472.216	1213.5
472.435	2956.5
472.654	704.5
472.873	180.5
473.092	113.5
473.311	101.5
473.53	102.5
473.749	103.5
473.968	117.5
474.187	137.5
474.406	120.5
474.625	80.5
474.844	89.5
475.063	96.5
475.282	95.5
475.501	87.5
475.72	87.5
475.939	84.5
476.158	95.5
476.377	91.5
476.596	103.5
476.814	99.5
477.033	98.5
477.252	99.5
477.471	103.5
477.69	84.5
477.908	103.5
478.127	99.5
478.346	100.5
478.564	105.5
478.783	118.5
479.002	108.5
479.22	116.5
479.439	143.5
479.658	161.5
479.876	138.5
480.095	123.5
480.313	148.5
480.532	182.5
480.751	304.5
480.969	1060.5
481.188	4763.5
481.406	3021.5
481.624	434.5
481.843	150.5
482.061	127.5
482.28	112.5
482.498	101.5
482.717	104.5
482.935	89.5
483.153	102.5
483.372	97.5
483.59	96.5
483.808	95.5
484.027	105.5
484.245	96.5
484.463	103.5
484.681	101.5
484.9	83.5
485.118	87.5
485.336	93.5
485.554	111.5
485.772	107.5
485.99	112.5
486.209	131.5
486.427	109.5
486.645	125.5
486.863	132.5
487.081	109.5
487.299	109.5
487.517	108.5
487.735	103.5
487.953	91.5
488.171	114.5
488.389	117.5
488.607	112.5
488.825	85.5
489.043	102.5
489.261	93.5
489.479	100.5
489.696	103.5
489.914	89.5
490.132	91.5
490.35	96.5
490.568	83.5
490.786	92.5
491.003	98.5
491.221	108.5
491.439	113.5
491.657	108.5
491.874	103.5
492.092	98.5
492.31	97.5
492.527	102.5
492.745	114.5
492.963	97.5
493.18	104.5
493.398	96.5
493.615	100.5
493.833	88.5
494.05	85.5
494.268	89.5
494.485	69.5
494.703	83.5
494.92	95.5
495.138	96.5
495.355	105.5
495.573	114.5
495.79	100.5
496.008	86.5
496.225	98.5
496.442	111.5
496.66	104.5
496.877	87.5
497.094	95.5
497.312	81.5
497.529	103.5
497.746	104.5
497.963	104.5
498.181	94.5
498.398	98.5
498.615	118.5
498.832	108.5
499.049	94.5
499.267	104.5
499.484	86.5
499.701	95.5
499.918	100.5
500.135	92.5
500.352	83.5
500.569	109.5
500.786	99.5
501.003	104.5
501.22	104.5
501.437	95.5
501.654	102.5
501.871	133.5
502.088	108.5
502.305	116.5
502.522	96.5
502.739	96.5
502.956	88.5
503.172	103.5
503.389	90.5
503.606	138.5
503.823	128.5
504.04	96.5
504.256	93.5
504.473	98.5
504.69	102.5
504.907	112.5
505.123	106.5
505.34	91.5
505.557	95.5
505.773	85.5
505.99	91.5
506.207	92.5
506.423	107.5
506.64	99.5
506.856	91.5
507.073	93.5
507.289	88.5
507.506	114.5
507.722	141.5
507.939	151.5
508.155	115.5
508.372	95.5
508.588	106.5
508.805	93.5
509.021	99.5
509.238	112.5
509.454	108.5
509.67	112.5
509.887	126.5
510.103	148.5
510.319	252.5
510.536	954.5
510.752	3383.5
510.968	971.5
511.184	205.5
511.401	155.5
511.617	119.5
511.833	117.5
512.049	109.5
512.265	91.5
512.481	107.5
512.698	107.5
512.914	96.5
513.13	119.5
513.346	108.5
513.562	96.5
513.778	107.5
513.994	111.5
514.21	116.5
514.426	140.5
514.642	176.5
514.858	173.5
515.074	229.5
515.29	708.5
515.506	2665.5
515.721	1007.5
515.937	226.5
516.153	143.5
516.369	127.5
516.585	106.5
516.801	110.5
517.016	100.5
517.232	109.5
517.448	106.5
517.664	108.5
517.879	108.5
518.095	90.5
518.311	113.5
518.527	120.5
518.742	100.5
518.958	96.5
519.173	109.5
519.389	107.5
519.605	115.5
519.82	100.5
520.036	131.5
520.251	164.5
520.467	148.5
520.682	138.5
520.898	132.5
521.113	137.5
521.329	192.5
521.544	296.5
521.76	957.5
521.975	4474.5
522.19	2755.5
522.406	543.5
522.621	173.5
522.836	116.5
523.052	102.5
523.267	119.5
523.482	105.5
523.698	127.5
523.913	165.5
524.128	129.5
524.343	102.5
524.559	109.5
524.774	90.5
524.989	101.5
525.204	128.5
525.419	122.5
525.634	101.5
525.849	92.5
526.064	89.5
526.28	105.5
526.495	99.5
526.71	96.5
526.925	90.5
527.14	97.5
527.355	99.5
527.57	92.5
527.785	91.5
527.999	108.5
528.214	96.5
528.429	80.5
528.644	101.5
528.859	101.5
529.074	103.5
529.289	161.5
