Data from Circ_2023_H10_HRD10591_00017.txt Node
Date: Wed Jan 03 09:50:34 EST 2024
User: Yrep
Spectrometer: HR+D1059
Trigger mode: 1
Integration Time (sec): 1.000000E-1
Scans to average: 1
Electric dark correction enabled: true
Nonlinearity correction enabled: false
Boxcar width: 0
XAxis mode: Wavelengths
Number of Pixels in Spectrum: 2048
>>>>>Begin Spectral Data<<<<<
223.165	-13.56
223.4	-13.56
223.635	-13.56
223.869	-18.56
224.104	-8.56
224.338	-15.56
224.573	-14.56
224.808	-12.56
225.042	-13.56
225.277	-2.56
225.511	-5.56
225.746	0.44
225.98	12.44
226.215	19.44
226.449	17.44
226.683	6.44
226.918	14.44
227.152	34.44
227.387	40.44
227.621	34.44
227.856	44.44
228.09	49.44
228.324	66.44
228.559	53.44
228.793	52.44
229.027	54.44
229.262	70.44
229.496	81.44
229.73	78.44
229.964	70.44
230.199	77.44
230.433	85.44
230.667	80.44
230.901	85.44
231.136	83.44
231.37	82.44
231.604	64.44
231.838	83.44
232.072	76.44
232.306	90.44
232.541	73.44
232.775	103.44
233.009	87.44
233.243	81.44
233.477	69.44
233.711	76.44
233.945	76.44
234.179	77.44
234.413	79.44
234.647	86.44
234.881	85.44
235.115	82.44
235.349	73.44
235.583	75.44
235.817	63.44
236.051	84.44
236.285	76.44
236.519	79.44
236.753	71.44
236.987	86.44
237.221	85.44
237.455	102.44
237.689	78.44
237.922	71.44
238.156	78.44
238.39	72.44
238.624	75.44
238.858	70.44
239.091	85.44
239.325	85.44
239.559	79.44
239.793	74.44
240.027	62.44
240.26	74.44
240.494	75.44
240.728	69.44
240.961	70.44
241.195	72.44
241.429	90.44
241.662	71.44
241.896	71.44
242.13	83.44
242.363	70.44
242.597	73.44
242.83	83.44
243.064	73.44
243.298	81.44
243.531	68.44
243.765	73.44
243.998	72.44
244.232	69.44
244.465	89.44
244.699	79.44
244.932	72.44
245.166	64.44
245.399	85.44
245.633	99.44
245.866	86.44
246.099	80.44
246.333	64.44
246.566	76.44
246.8	84.44
247.033	93.44
247.266	83.44
247.5	82.44
247.733	81.44
247.966	65.44
248.2	77.44
248.433	67.44
248.666	85.44
248.899	73.44
249.133	77.44
249.366	89.44
249.599	101.44
249.832	89.44
250.066	95.44
250.299	82.44
250.532	80.44
250.765	79.44
250.998	79.44
251.231	77.44
251.465	76.44
251.698	80.44
251.931	83.44
252.164	76.44
252.397	86.44
252.63	85.44
252.863	69.44
253.096	81.44
253.329	85.44
253.562	80.44
253.795	89.44
254.028	76.44
254.261	94.44
254.494	83.44
254.727	84.44
254.96	78.44
255.193	76.44
255.426	79.44
255.659	91.44
255.892	77.44
256.124	84.44
256.357	104.44
256.59	113.44
256.823	83.44
257.056	72.44
257.289	78.44
257.521	85.44
257.754	73.44
257.987	93.44
258.22	86.44
258.452	88.44
258.685	87.44
258.918	78.44
259.151	77.44
259.383	93.44
259.616	90.44
259.849	83.44
260.081	89.44
260.314	78.44
260.547	78.44
260.779	93.44
261.012	103.44
261.244	96.44
261.477	98.44
261.71	105.44
261.942	113.44
262.175	134.44
262.407	109.44
262.64	81.44
262.872	66.44
263.105	74.44
263.337	77.44
263.57	93.44
263.802	80.44
264.035	65.44
264.267	69.44
264.499	85.44
264.732	64.44
264.964	78.44
265.197	84.44
265.429	69.44
265.661	92.44
265.894	67.44
266.126	73.44
266.358	74.44
266.591	88.44
266.823	95.44
267.055	81.44
267.287	74.44
267.52	78.44
267.752	87.44
267.984	97.44
268.216	89.44
268.448	104.44
268.681	84.44
268.913	86.44
269.145	77.44
269.377	84.44
269.609	81.44
269.841	87.44
270.073	103.44
270.306	94.44
270.538	84.44
270.77	81.44
271.002	93.44
271.234	76.44
271.466	96.44
271.698	82.44
271.93	85.44
272.162	95.44
272.394	100.44
272.626	100.44
272.858	82.44
273.09	88.44
273.322	90.44
273.553	80.44
273.785	94.44
274.017	90.44
274.249	78.44
274.481	101.44
274.713	78.44
274.945	84.44
275.176	95.44
275.408	88.44
275.64	93.44
275.872	112.44
276.104	98.44
276.335	101.44
276.567	115.44
276.799	145.44
277.031	148.44
277.262	166.44
277.494	127.44
277.726	93.44
277.957	87.44
278.189	84.44
278.421	80.44
278.652	78.44
278.884	94.44
279.115	86.44
279.347	98.44
279.579	93.44
279.81	105.44
280.042	153.44
280.273	188.44
280.505	157.44
280.736	97.44
280.968	97.44
281.199	72.44
281.431	84.44
281.662	86.44
281.894	85.44
282.125	101.44
282.356	127.44
282.588	167.44
282.819	136.44
283.051	93.44
283.282	67.44
283.513	99.44
283.745	105.44
283.976	85.44
284.207	98.44
284.439	97.44
284.67	81.44
284.901	76.44
285.132	95.44
285.364	75.44
285.595	76.44
285.826	81.44
286.057	97.44
286.288	93.44
286.52	90.44
286.751	93.44
286.982	74.44
287.213	77.44
287.444	93.44
287.675	86.44
287.906	86.44
288.138	95.44
288.369	81.44
288.6	100.44
288.831	103.44
289.062	87.44
289.293	86.44
289.524	97.44
289.755	93.44
289.986	78.44
290.217	99.44
290.448	97.44
290.679	99.44
290.91	80.44
291.141	86.44
291.371	83.44
291.602	87.44
291.833	81.44
292.064	105.44
292.295	92.44
292.526	86.44
292.757	91.44
292.987	90.44
293.218	77.44
293.449	96.44
293.68	87.44
293.91	91.44
294.141	97.44
294.372	79.44
294.603	89.44
294.833	93.44
295.064	97.44
295.295	77.44
295.525	81.44
295.756	100.44
295.987	119.44
296.217	143.44
296.448	135.44
296.679	103.44
296.909	93.44
297.14	82.44
297.37	80.44
297.601	99.44
297.831	92.44
298.062	96.44
298.292	99.44
298.523	100.44
298.753	98.44
298.984	92.44
299.214	84.44
299.445	92.44
299.675	92.44
299.905	102.44
300.136	100.44
300.366	86.44
300.597	94.44
300.827	93.44
301.057	112.44
301.288	113.44
301.518	97.44
301.748	85.44
301.979	115.44
302.209	107.44
302.439	94.44
302.669	78.44
302.9	93.44
303.13	99.44
303.36	115.44
303.59	123.44
303.82	146.44
304.051	111.44
304.281	95.44
304.511	90.44
304.741	106.44
304.971	98.44
305.201	92.44
305.431	92.44
305.661	90.44
305.891	95.44
306.121	92.44
306.352	103.44
306.582	124.44
306.812	110.44
307.042	110.44
307.272	147.44
307.502	161.44
307.731	160.44
307.961	130.44
308.191	99.44
308.421	101.44
308.651	97.44
308.881	92.44
309.111	88.44
309.341	95.44
309.571	118.44
309.8	100.44
310.03	124.44
310.26	115.44
310.49	105.44
310.72	117.44
310.949	122.44
311.179	121.44
311.409	111.44
311.639	105.44
311.868	88.44
312.098	99.44
312.328	83.44
312.557	95.44
312.787	111.44
313.017	113.44
313.246	98.44
313.476	103.44
313.706	99.44
313.935	99.44
314.165	120.44
314.394	97.44
314.624	89.44
314.853	96.44
315.083	97.44
315.312	92.44
315.542	102.44
315.771	98.44
316.001	97.44
316.23	100.44
316.46	85.44
316.689	93.44
316.919	90.44
317.148	113.44
317.377	100.44
317.607	105.44
317.836	95.44
318.065	90.44
318.295	96.44
318.524	92.44
318.753	88.44
318.983	106.44
319.212	113.44
319.441	108.44
319.67	108.44
319.9	109.44
320.129	90.44
320.358	88.44
320.587	109.44
320.816	104.44
321.046	95.44
321.275	103.44
321.504	93.44
321.733	112.44
321.962	105.44
322.191	110.44
322.42	118.44
322.649	102.44
322.878	116.44
323.108	128.44
323.337	147.44
323.566	147.44
323.795	175.44
324.024	228.44
324.253	477.44
324.482	1004.44
324.71	2134.44
324.939	2844.44
325.168	1038.44
325.397	289.44
325.626	174.44
325.855	150.44
326.084	146.44
326.313	158.44
326.542	145.44
326.77	270.44
326.999	560.44
327.228	1155.44
327.457	2078.44
327.686	1682.44
327.914	511.44
328.143	408.44
328.372	505.44
328.6	307.44
328.829	166.44
329.058	172.44
329.287	180.44
329.515	156.44
329.744	205.44
329.972	362.44
330.201	702.44
330.43	1035.44
330.658	505.44
330.887	260.44
331.115	174.44
331.344	106.44
331.572	114.44
331.801	130.44
332.03	128.44
332.258	110.44
332.486	112.44
332.715	100.44
332.943	93.44
333.172	104.44
333.4	112.44
333.629	146.44
333.857	190.44
334.085	336.44
334.314	644.44
334.542	1278.44
334.771	1274.44
334.999	336.44
335.227	134.44
335.455	138.44
335.684	122.44
335.912	103.44
336.14	119.44
336.369	108.44
336.597	111.44
336.825	101.44
337.053	95.44
337.281	90.44
337.51	92.44
337.738	96.44
337.966	110.44
338.194	101.44
338.422	101.44
338.65	99.44
338.878	97.44
339.106	95.44
339.334	106.44
339.562	102.44
339.79	94.44
340.018	99.44
340.246	112.44
340.474	93.44
340.702	97.44
340.93	94.44
341.158	89.44
341.386	91.44
341.614	105.44
341.842	100.44
342.07	97.44
342.298	110.44
342.526	101.44
342.754	89.44
342.981	93.44
343.209	84.44
343.437	108.44
343.665	90.44
343.893	92.44
344.12	99.44
344.348	83.44
344.576	91.44
344.804	93.44
345.031	97.44
345.259	112.44
345.487	96.44
345.714	104.44
345.942	97.44
346.17	92.44
346.397	97.44
346.625	91.44
346.853	93.44
347.08	84.44
347.308	104.44
347.535	95.44
347.763	106.44
347.99	93.44
348.218	104.44
348.445	101.44
348.673	103.44
348.9	105.44
349.128	90.44
349.355	102.44
349.583	98.44
349.81	80.44
350.037	108.44
350.265	81.44
350.492	88.44
350.72	91.44
350.947	107.44
351.174	113.44
351.402	126.44
351.629	117.44
351.856	109.44
352.083	118.44
352.311	111.44
352.538	127.44
352.765	113.44
352.992	124.44
353.22	97.44
353.447	105.44
353.674	87.44
353.901	85.44
354.128	103.44
354.355	91.44
354.583	108.44
354.81	95.44
355.037	102.44
355.264	87.44
355.491	85.44
355.718	96.44
355.945	94.44
356.172	84.44
356.399	100.44
356.626	88.44
356.853	97.44
357.08	91.44
357.307	94.44
357.534	88.44
357.761	77.44
357.988	92.44
358.215	95.44
358.441	95.44
358.668	90.44
358.895	105.44
359.122	83.44
359.349	92.44
359.576	97.44
359.802	115.44
360.029	132.44
360.256	115.44
360.483	123.44
360.709	88.44
360.936	90.44
361.163	92.44
361.39	96.44
361.616	85.44
361.843	93.44
362.07	107.44
362.296	93.44
362.523	89.44
362.749	93.44
362.976	84.44
363.203	93.44
363.429	96.44
363.656	97.44
363.882	94.44
364.109	81.44
364.335	85.44
364.562	84.44
364.788	102.44
365.015	98.44
365.241	87.44
365.468	115.44
365.694	122.44
365.92	110.44
366.147	105.44
366.373	100.44
366.599	87.44
366.826	81.44
367.052	78.44
367.278	86.44
367.505	97.44
367.731	92.44
367.957	80.44
368.184	92.44
368.41	109.44
368.636	110.44
368.862	134.44
369.089	122.44
369.315	86.44
369.541	99.44
369.767	86.44
369.993	88.44
370.219	123.44
370.445	91.44
370.672	80.44
370.898	88.44
371.124	101.44
371.35	89.44
371.576	91.44
371.802	84.44
372.028	98.44
372.254	105.44
372.48	97.44
372.706	101.44
372.932	80.44
373.158	89.44
373.384	81.44
373.61	99.44
373.835	96.44
374.061	76.44
374.287	97.44
374.513	94.44
374.739	91.44
374.965	74.44
375.191	87.44
375.416	81.44
375.642	88.44
375.868	103.44
376.094	99.44
376.319	79.44
376.545	87.44
376.771	81.44
376.997	81.44
377.222	101.44
377.448	93.44
377.674	87.44
377.899	89.44
378.125	103.44
378.35	96.44
378.576	72.44
378.802	83.44
379.027	84.44
379.253	94.44
379.478	81.44
379.704	82.44
379.929	77.44
380.155	73.44
380.38	93.44
380.606	92.44
380.831	91.44
381.057	97.44
381.282	92.44
381.507	106.44
381.733	102.44
381.958	82.44
382.184	86.44
382.409	99.44
382.634	113.44
382.86	95.44
383.085	98.44
383.31	99.44
383.535	104.44
383.761	103.44
383.986	90.44
384.211	104.44
384.436	88.44
384.662	82.44
384.887	102.44
385.112	92.44
385.337	83.44
385.562	90.44
385.787	113.44
386.013	100.44
386.238	111.44
386.463	90.44
386.688	104.44
386.913	89.44
387.138	91.44
387.363	103.44
387.588	89.44
387.813	91.44
388.038	112.44
388.263	109.44
388.488	103.44
388.713	98.44
388.938	93.44
389.163	97.44
389.387	98.44
389.612	98.44
389.837	84.44
390.062	89.44
390.287	92.44
390.512	97.44
390.736	88.44
390.961	87.44
391.186	88.44
391.411	110.44
391.636	118.44
391.86	87.44
392.085	84.44
392.31	93.44
392.534	103.44
392.759	87.44
392.984	103.44
393.208	75.44
393.433	90.44
393.658	96.44
393.882	100.44
394.107	83.44
394.331	72.44
394.556	99.44
394.78	103.44
395.005	93.44
395.229	93.44
395.454	79.44
395.678	73.44
395.903	88.44
396.127	90.44
396.352	82.44
396.576	72.44
396.801	91.44
397.025	92.44
397.249	71.44
397.474	80.44
397.698	83.44
397.922	88.44
398.147	87.44
398.371	92.44
398.595	85.44
398.82	91.44
399.044	100.44
399.268	86.44
399.492	78.44
399.717	86.44
399.941	85.44
400.165	101.44
400.389	94.44
400.613	87.44
400.837	95.44
401.062	87.44
401.286	90.44
401.51	83.44
401.734	96.44
401.958	93.44
402.182	152.44
402.406	202.44
402.63	130.44
402.854	98.44
403.078	81.44
403.302	103.44
403.526	95.44
403.75	93.44
403.974	90.44
404.198	81.44
404.422	81.44
404.645	82.44
404.869	102.44
405.093	127.44
405.317	150.44
405.541	140.44
405.765	102.44
405.988	132.44
406.212	208.44
406.436	295.44
406.66	184.44
406.883	108.44
407.107	109.44
407.331	104.44
407.555	114.44
407.778	97.44
408.002	96.44
408.226	84.44
408.449	83.44
408.673	82.44
408.896	96.44
409.12	109.44
409.344	92.44
409.567	87.44
409.791	81.44
410.014	97.44
410.238	104.44
410.461	88.44
410.685	99.44
410.908	94.44
411.132	112.44
411.355	96.44
411.578	104.44
411.802	93.44
412.025	88.44
412.249	91.44
412.472	104.44
412.695	121.44
412.919	103.44
413.142	96.44
413.365	88.44
413.589	82.44
413.812	73.44
414.035	86.44
414.258	95.44
414.482	66.44
414.705	81.44
414.928	85.44
415.151	102.44
415.374	110.44
415.597	102.44
415.821	94.44
416.044	80.44
416.267	76.44
416.49	94.44
416.713	87.44
416.936	94.44
417.159	108.44
417.382	82.44
417.605	116.44
417.828	105.44
418.051	105.44
418.274	91.44
418.497	78.44
418.72	83.44
418.943	86.44
419.166	69.44
419.389	78.44
419.611	84.44
419.834	92.44
420.057	89.44
420.28	93.44
420.503	93.44
420.726	84.44
420.948	84.44
421.171	106.44
421.394	90.44
421.617	79.44
421.839	92.44
422.062	92.44
422.285	93.44
422.507	112.44
422.73	104.44
422.953	104.44
423.175	95.44
423.398	92.44
423.621	81.44
423.843	86.44
424.066	90.44
424.288	92.44
424.511	85.44
424.733	104.44
424.956	122.44
425.178	125.44
425.401	101.44
425.623	95.44
425.846	95.44
426.068	109.44
426.291	94.44
426.513	97.44
426.735	93.44
426.958	81.44
427.18	112.44
427.402	154.44
427.625	227.44
427.847	229.44
428.069	230.44
428.292	121.44
428.514	93.44
428.736	91.44
428.958	83.44
429.181	87.44
429.403	89.44
429.625	99.44
429.847	89.44
430.069	102.44
430.292	94.44
430.514	79.44
430.736	94.44
430.958	87.44
431.18	74.44
431.402	76.44
431.624	82.44
431.846	88.44
432.068	82.44
432.29	91.44
432.512	76.44
432.734	83.44
432.956	88.44
433.178	112.44
433.4	117.44
433.622	96.44
433.844	84.44
434.066	95.44
434.287	84.44
434.509	91.44
434.731	93.44
434.953	86.44
435.175	80.44
435.397	100.44
435.618	91.44
435.84	107.44
436.062	139.44
436.284	116.44
436.505	102.44
436.727	108.44
436.949	94.44
437.17	85.44
437.392	97.44
437.614	99.44
437.835	122.44
438.057	143.44
438.278	112.44
438.5	124.44
438.721	144.44
438.943	107.44
439.165	94.44
439.386	83.44
439.608	93.44
439.829	111.44
440.05	136.44
440.272	178.44
440.493	122.44
440.715	91.44
440.936	106.44
441.158	81.44
441.379	77.44
441.6	109.44
441.822	100.44
442.043	95.44
442.264	108.44
442.486	104.44
442.707	89.44
442.928	113.44
443.149	169.44
443.371	143.44
443.592	128.44
443.813	130.44
444.034	115.44
444.255	91.44
444.476	100.44
444.698	94.44
444.919	105.44
445.14	125.44
445.361	128.44
445.582	142.44
445.803	169.44
446.024	149.44
446.245	162.44
446.466	135.44
446.687	83.44
446.908	79.44
447.129	85.44
447.35	95.44
447.571	100.44
447.792	91.44
448.013	114.44
448.234	117.44
448.455	105.44
448.675	124.44
448.896	149.44
449.117	97.44
449.338	106.44
449.559	141.44
449.779	164.44
450	101.44
450.221	101.44
450.442	105.44
450.662	115.44
450.883	125.44
451.104	145.44
451.324	94.44
451.545	92.44
451.766	94.44
451.986	74.44
452.207	101.44
452.428	108.44
452.648	106.44
452.869	118.44
453.089	129.44
453.31	133.44
453.53	94.44
453.751	104.44
453.971	105.44
454.192	121.44
454.412	103.44
454.633	86.44
454.853	83.44
455.073	88.44
455.294	84.44
455.514	112.44
455.734	87.44
455.955	82.44
456.175	84.44
456.395	88.44
456.616	90.44
456.836	90.44
457.056	93.44
457.276	80.44
457.497	75.44
457.717	85.44
457.937	96.44
458.157	89.44
458.377	81.44
458.598	118.44
458.818	169.44
459.038	226.44
459.258	148.44
459.478	103.44
459.698	83.44
459.918	86.44
460.138	85.44
460.358	89.44
460.578	89.44
460.798	83.44
461.018	88.44
461.238	88.44
461.458	83.44
461.678	85.44
461.898	102.44
462.118	94.44
462.338	80.44
462.558	78.44
462.777	86.44
462.997	89.44
463.217	96.44
463.437	87.44
463.657	82.44
463.876	98.44
464.096	91.44
464.316	89.44
464.536	103.44
464.755	99.44
464.975	116.44
465.195	202.44
465.414	216.44
465.634	110.44
465.854	108.44
466.073	86.44
466.293	92.44
466.512	90.44
466.732	90.44
466.951	80.44
467.171	97.44
467.391	103.44
467.61	133.44
467.829	172.44
468.049	416.44
468.268	636.44
468.488	174.44
468.707	94.44
468.927	80.44
469.146	88.44
469.365	96.44
469.585	94.44
469.804	94.44
470.023	95.44
470.243	93.44
470.462	113.44
470.681	139.44
470.901	92.44
471.12	81.44
471.339	105.44
471.558	119.44
471.777	132.44
471.997	240.44
472.216	787.44
472.435	1840.44
472.654	479.44
472.873	141.44
473.092	95.44
473.311	111.44
473.53	83.44
473.749	76.44
473.968	82.44
474.187	127.44
474.406	109.44
474.625	99.44
474.844	91.44
475.063	86.44
475.282	81.44
475.501	92.44
475.72	89.44
475.939	92.44
476.158	103.44
476.377	93.44
476.596	76.44
476.814	113.44
477.033	95.44
477.252	90.44
477.471	92.44
477.69	94.44
477.908	112.44
478.127	97.44
478.346	85.44
478.564	86.44
478.783	105.44
479.002	101.44
479.22	100.44
479.439	96.44
479.658	130.44
479.876	132.44
480.095	125.44
480.313	129.44
480.532	142.44
480.751	215.44
480.969	721.44
481.188	3041.44
481.406	1972.44
481.624	309.44
481.843	125.44
482.061	106.44
482.28	103.44
482.498	99.44
482.717	98.44
482.935	97.44
483.153	88.44
483.372	79.44
483.59	77.44
483.808	96.44
484.027	85.44
484.245	92.44
484.463	92.44
484.681	94.44
484.9	110.44
485.118	104.44
485.336	92.44
485.554	95.44
485.772	90.44
485.99	101.44
486.209	106.44
486.427	101.44
486.645	116.44
486.863	114.44
487.081	98.44
487.299	105.44
487.517	92.44
487.735	91.44
487.953	81.44
488.171	96.44
488.389	104.44
488.607	102.44
488.825	98.44
489.043	90.44
489.261	93.44
489.479	101.44
489.696	102.44
489.914	78.44
490.132	79.44
490.35	101.44
490.568	87.44
490.786	92.44
491.003	97.44
491.221	94.44
491.439	102.44
491.657	92.44
491.874	94.44
492.092	99.44
492.31	93.44
492.527	100.44
492.745	95.44
492.963	100.44
493.18	86.44
493.398	92.44
493.615	91.44
493.833	99.44
494.05	95.44
494.268	81.44
494.485	84.44
494.703	84.44
494.92	86.44
495.138	85.44
495.355	95.44
495.573	94.44
495.79	93.44
496.008	88.44
496.225	95.44
496.442	98.44
496.66	97.44
496.877	100.44
497.094	102.44
497.312	84.44
497.529	80.44
497.746	85.44
497.963	84.44
498.181	97.44
498.398	97.44
498.615	124.44
498.832	122.44
499.049	83.44
499.267	97.44
499.484	88.44
499.701	82.44
499.918	94.44
500.135	96.44
500.352	90.44
500.569	91.44
500.786	85.44
501.003	100.44
501.22	85.44
501.437	81.44
501.654	96.44
501.871	110.44
502.088	120.44
502.305	82.44
502.522	82.44
502.739	105.44
502.956	93.44
503.172	89.44
503.389	97.44
503.606	126.44
503.823	107.44
504.04	90.44
504.256	76.44
504.473	92.44
504.69	87.44
504.907	97.44
505.123	90.44
505.34	89.44
505.557	82.44
505.773	97.44
505.99	79.44
506.207	85.44
506.423	92.44
506.64	98.44
506.856	96.44
507.073	82.44
507.289	96.44
507.506	89.44
507.722	126.44
507.939	135.44
508.155	86.44
508.372	97.44
508.588	100.44
508.805	104.44
509.021	99.44
509.238	88.44
509.454	107.44
509.67	94.44
509.887	110.44
510.103	150.44
510.319	226.44
510.536	951.44
510.752	3299.44
510.968	949.44
511.184	188.44
511.401	133.44
511.617	109.44
511.833	101.44
512.049	116.44
512.265	112.44
512.481	101.44
512.698	86.44
512.914	97.44
513.13	82.44
513.346	88.44
513.562	97.44
