Data from Circ_2023_H10_HRD10591_00028.txt Node
Date: Wed Jan 03 09:50:36 EST 2024
User: Yrep
Spectrometer: HR+D1059
Trigger mode: 1
Integration Time (sec): 1.000000E-1
Scans to average: 1
Electric dark correction enabled: true
Nonlinearity correction enabled: false
Boxcar width: 0
XAxis mode: Wavelengths
Number of Pixels in Spectrum: 2048
>>>>>Begin Spectral Data<<<<<
223.165	-18.56
223.4	-18.56
223.635	-18.56
223.869	-25.56
224.104	-20.56
224.338	-24.56
224.573	-16.56
224.808	-18.56
225.042	-10.56
225.277	7.44
225.511	8.44
225.746	4.44
225.98	15.44
226.215	5.44
226.449	14.44
226.683	3.44
226.918	35.44
227.152	40.44
227.387	31.44
227.621	40.44
227.856	38.44
228.09	42.44
228.324	47.44
228.559	65.44
228.793	60.44
229.027	68.44
229.262	71.44
229.496	68.44
229.73	101.44
229.964	90.44
230.199	88.44
230.433	68.44
230.667	72.44
230.901	91.44
231.136	91.44
231.37	82.44
231.604	69.44
231.838	80.44
232.072	84.44
232.306	83.44
232.541	78.44
232.775	82.44
233.009	86.44
233.243	94.44
233.477	85.44
233.711	88.44
233.945	81.44
234.179	73.44
234.413	73.44
234.647	78.44
234.881	84.44
235.115	87.44
235.349	82.44
235.583	81.44
235.817	66.44
236.051	85.44
236.285	74.44
236.519	72.44
236.753	77.44
236.987	79.44
237.221	103.44
237.455	113.44
237.689	78.44
237.922	84.44
238.156	80.44
238.39	79.44
238.624	74.44
238.858	77.44
239.091	79.44
239.325	62.44
239.559	90.44
239.793	92.44
240.027	83.44
240.26	83.44
240.494	80.44
240.728	84.44
240.961	85.44
241.195	74.44
241.429	99.44
241.662	82.44
241.896	62.44
242.13	73.44
242.363	79.44
242.597	70.44
242.83	85.44
243.064	70.44
243.298	64.44
243.531	80.44
243.765	73.44
243.998	68.44
244.232	70.44
244.465	85.44
244.699	84.44
244.932	84.44
245.166	81.44
245.399	82.44
245.633	85.44
245.866	98.44
246.099	101.44
246.333	67.44
246.566	90.44
246.8	81.44
247.033	75.44
247.266	84.44
247.5	81.44
247.733	77.44
247.966	88.44
248.2	89.44
248.433	88.44
248.666	69.44
248.899	81.44
249.133	77.44
249.366	99.44
249.599	103.44
249.832	101.44
250.066	87.44
250.299	83.44
250.532	82.44
250.765	87.44
250.998	91.44
251.231	89.44
251.465	85.44
251.698	86.44
251.931	86.44
252.164	87.44
252.397	71.44
252.63	75.44
252.863	83.44
253.096	87.44
253.329	70.44
253.562	75.44
253.795	82.44
254.028	83.44
254.261	62.44
254.494	86.44
254.727	86.44
254.96	80.44
255.193	77.44
255.426	80.44
255.659	80.44
255.892	94.44
256.124	97.44
256.357	75.44
256.59	82.44
256.823	93.44
257.056	87.44
257.289	90.44
257.521	79.44
257.754	69.44
257.987	79.44
258.22	87.44
258.452	112.44
258.685	94.44
258.918	88.44
259.151	87.44
259.383	88.44
259.616	67.44
259.849	87.44
260.081	87.44
260.314	99.44
260.547	89.44
260.779	91.44
261.012	96.44
261.244	125.44
261.477	97.44
261.71	108.44
261.942	140.44
262.175	155.44
262.407	113.44
262.64	87.44
262.872	96.44
263.105	89.44
263.337	80.44
263.57	86.44
263.802	86.44
264.035	90.44
264.267	78.44
264.499	91.44
264.732	81.44
264.964	82.44
265.197	79.44
265.429	75.44
265.661	75.44
265.894	95.44
266.126	85.44
266.358	85.44
266.591	91.44
266.823	91.44
267.055	82.44
267.287	71.44
267.52	94.44
267.752	76.44
267.984	70.44
268.216	86.44
268.448	91.44
268.681	91.44
268.913	93.44
269.145	83.44
269.377	83.44
269.609	93.44
269.841	93.44
270.073	75.44
270.306	90.44
270.538	89.44
270.77	90.44
271.002	80.44
271.234	95.44
271.466	91.44
271.698	101.44
271.93	67.44
272.162	83.44
272.394	93.44
272.626	97.44
272.858	93.44
273.09	95.44
273.322	91.44
273.553	85.44
273.785	89.44
274.017	90.44
274.249	89.44
274.481	99.44
274.713	79.44
274.945	103.44
275.176	92.44
275.408	104.44
275.64	126.44
275.872	135.44
276.104	118.44
276.335	103.44
276.567	112.44
276.799	158.44
277.031	192.44
277.262	211.44
277.494	163.44
277.726	99.44
277.957	94.44
278.189	82.44
278.421	94.44
278.652	89.44
278.884	106.44
279.115	86.44
279.347	112.44
279.579	119.44
279.81	128.44
280.042	206.44
280.273	287.44
280.505	209.44
280.736	114.44
280.968	102.44
281.199	100.44
281.431	94.44
281.662	97.44
281.894	99.44
282.125	96.44
282.356	151.44
282.588	189.44
282.819	146.44
283.051	86.44
283.282	85.44
283.513	87.44
283.745	90.44
283.976	93.44
284.207	82.44
284.439	104.44
284.67	93.44
284.901	95.44
285.132	79.44
285.364	92.44
285.595	81.44
285.826	101.44
286.057	113.44
286.288	81.44
286.52	90.44
286.751	98.44
286.982	83.44
287.213	95.44
287.444	91.44
287.675	103.44
287.906	95.44
288.138	97.44
288.369	94.44
288.6	94.44
288.831	109.44
289.062	83.44
289.293	71.44
289.524	89.44
289.755	80.44
289.986	87.44
290.217	83.44
290.448	84.44
290.679	87.44
290.91	90.44
291.141	87.44
291.371	92.44
291.602	86.44
291.833	87.44
292.064	88.44
292.295	94.44
292.526	89.44
292.757	106.44
292.987	97.44
293.218	97.44
293.449	82.44
293.68	85.44
293.91	89.44
294.141	81.44
294.372	80.44
294.603	82.44
294.833	85.44
295.064	101.44
295.295	88.44
295.525	88.44
295.756	106.44
295.987	132.44
296.217	181.44
296.448	159.44
296.679	110.44
296.909	104.44
297.14	90.44
297.37	98.44
297.601	97.44
297.831	91.44
298.062	97.44
298.292	96.44
298.523	100.44
298.753	90.44
298.984	87.44
299.214	88.44
299.445	97.44
299.675	102.44
299.905	91.44
300.136	101.44
300.366	89.44
300.597	80.44
300.827	90.44
301.057	123.44
301.288	133.44
301.518	93.44
301.748	97.44
301.979	116.44
302.209	90.44
302.439	90.44
302.669	94.44
302.9	102.44
303.13	105.44
303.36	103.44
303.59	135.44
303.82	152.44
304.051	111.44
304.281	101.44
304.511	84.44
304.741	102.44
304.971	90.44
305.201	91.44
305.431	95.44
305.661	101.44
305.891	90.44
306.121	111.44
306.352	121.44
306.582	128.44
306.812	108.44
307.042	140.44
307.272	177.44
307.502	201.44
307.731	170.44
307.961	142.44
308.191	94.44
308.421	93.44
308.651	86.44
308.881	94.44
309.111	95.44
309.341	103.44
309.571	120.44
309.8	81.44
310.03	95.44
310.26	112.44
310.49	102.44
310.72	119.44
310.949	131.44
311.179	118.44
311.409	99.44
311.639	110.44
311.868	96.44
312.098	97.44
312.328	92.44
312.557	131.44
312.787	151.44
313.017	114.44
313.246	104.44
313.476	96.44
313.706	93.44
313.935	100.44
314.165	112.44
314.394	125.44
314.624	99.44
314.853	109.44
315.083	112.44
315.312	98.44
315.542	101.44
315.771	95.44
316.001	103.44
316.23	91.44
316.46	96.44
316.689	103.44
316.919	90.44
317.148	121.44
317.377	106.44
317.607	98.44
317.836	109.44
318.065	89.44
318.295	102.44
318.524	91.44
318.753	100.44
318.983	94.44
319.212	113.44
319.441	129.44
319.67	136.44
319.9	93.44
320.129	83.44
320.358	85.44
320.587	96.44
320.816	117.44
321.046	95.44
321.275	110.44
321.504	100.44
321.733	93.44
321.962	116.44
322.191	116.44
322.42	126.44
322.649	129.44
322.878	135.44
323.108	138.44
323.337	147.44
323.566	177.44
323.795	178.44
324.024	259.44
324.253	537.44
324.482	1155.44
324.71	2351.44
324.939	3143.44
325.168	1171.44
325.397	323.44
325.626	187.44
325.855	149.44
326.084	147.44
326.313	154.44
326.542	200.44
326.77	333.44
326.999	583.44
327.228	1265.44
327.457	2287.44
327.686	1828.44
327.914	629.44
328.143	602.44
328.372	784.44
328.6	435.44
328.829	216.44
329.058	215.44
329.287	218.44
329.515	208.44
329.744	277.44
329.972	534.44
330.201	1127.44
330.43	1711.44
330.658	768.44
330.887	327.44
331.115	226.44
331.344	139.44
331.572	135.44
331.801	138.44
332.03	142.44
332.258	121.44
332.486	127.44
332.715	111.44
332.943	123.44
333.172	112.44
333.4	143.44
333.629	178.44
333.857	277.44
334.085	491.44
334.314	1039.44
334.542	2063.44
334.771	2020.44
334.999	495.44
335.227	195.44
335.455	145.44
335.684	127.44
335.912	124.44
336.14	111.44
336.369	127.44
336.597	118.44
336.825	98.44
337.053	100.44
337.281	113.44
337.51	106.44
337.738	92.44
337.966	100.44
338.194	112.44
338.422	104.44
338.65	90.44
338.878	83.44
339.106	100.44
339.334	91.44
339.562	86.44
339.79	90.44
340.018	108.44
340.246	101.44
340.474	118.44
340.702	92.44
340.93	93.44
341.158	98.44
341.386	115.44
341.614	110.44
341.842	94.44
342.07	86.44
342.298	90.44
342.526	84.44
342.754	94.44
342.981	109.44
343.209	88.44
343.437	101.44
343.665	100.44
343.893	88.44
344.12	96.44
344.348	98.44
344.576	95.44
344.804	112.44
345.031	112.44
345.259	127.44
345.487	101.44
345.714	116.44
345.942	84.44
346.17	95.44
346.397	104.44
346.625	94.44
346.853	98.44
347.08	99.44
347.308	122.44
347.535	131.44
347.763	115.44
347.99	109.44
348.218	121.44
348.445	122.44
348.673	106.44
348.9	112.44
349.128	98.44
349.355	88.44
349.583	108.44
349.81	97.44
350.037	100.44
350.265	100.44
350.492	88.44
350.72	96.44
350.947	101.44
351.174	115.44
351.402	114.44
351.629	106.44
351.856	114.44
352.083	123.44
352.311	127.44
352.538	129.44
352.765	114.44
352.992	124.44
353.22	126.44
353.447	116.44
353.674	117.44
353.901	96.44
354.128	84.44
354.355	84.44
354.583	87.44
354.81	107.44
355.037	91.44
355.264	103.44
355.491	99.44
355.718	109.44
355.945	93.44
356.172	84.44
356.399	88.44
356.626	91.44
356.853	93.44
357.08	96.44
357.307	74.44
357.534	92.44
357.761	101.44
357.988	92.44
358.215	105.44
358.441	81.44
358.668	80.44
358.895	81.44
359.122	89.44
359.349	105.44
359.576	102.44
359.802	120.44
360.029	166.44
360.256	154.44
360.483	123.44
360.709	109.44
360.936	97.44
361.163	105.44
361.39	115.44
361.616	105.44
361.843	94.44
362.07	96.44
362.296	113.44
362.523	95.44
362.749	100.44
362.976	99.44
363.203	106.44
363.429	95.44
363.656	110.44
363.882	93.44
364.109	85.44
364.335	103.44
364.562	94.44
364.788	88.44
365.015	103.44
365.241	99.44
365.468	111.44
365.694	118.44
365.92	111.44
366.147	96.44
366.373	102.44
366.599	104.44
366.826	99.44
367.052	82.44
367.278	99.44
367.505	93.44
367.731	106.44
367.957	109.44
368.184	88.44
368.41	114.44
368.636	148.44
368.862	139.44
369.089	136.44
369.315	113.44
369.541	110.44
369.767	94.44
369.993	98.44
370.219	105.44
370.445	93.44
370.672	89.44
370.898	100.44
371.124	97.44
371.35	87.44
371.576	91.44
371.802	88.44
372.028	97.44
372.254	83.44
372.48	73.44
372.706	97.44
372.932	92.44
373.158	94.44
373.384	98.44
373.61	99.44
373.835	82.44
374.061	91.44
374.287	95.44
374.513	84.44
374.739	88.44
374.965	95.44
375.191	85.44
375.416	84.44
375.642	100.44
375.868	82.44
376.094	88.44
376.319	90.44
376.545	68.44
376.771	82.44
376.997	88.44
377.222	91.44
377.448	83.44
377.674	78.44
377.899	86.44
378.125	85.44
378.35	86.44
378.576	75.44
378.802	85.44
379.027	68.44
379.253	77.44
379.478	99.44
379.704	93.44
379.929	94.44
380.155	93.44
380.38	99.44
380.606	109.44
380.831	99.44
381.057	95.44
381.282	106.44
381.507	99.44
381.733	103.44
381.958	105.44
382.184	94.44
382.409	88.44
382.634	102.44
382.86	106.44
383.085	83.44
383.31	103.44
383.535	93.44
383.761	101.44
383.986	93.44
384.211	74.44
384.436	105.44
384.662	89.44
384.887	91.44
385.112	84.44
385.337	97.44
385.562	96.44
385.787	102.44
386.013	128.44
386.238	119.44
386.463	101.44
386.688	99.44
386.913	98.44
387.138	106.44
387.363	93.44
387.588	98.44
387.813	99.44
388.038	95.44
388.263	98.44
388.488	109.44
388.713	111.44
388.938	89.44
389.163	87.44
389.387	89.44
389.612	89.44
389.837	91.44
390.062	91.44
390.287	86.44
390.512	86.44
390.736	83.44
390.961	87.44
391.186	88.44
391.411	83.44
391.636	91.44
391.86	93.44
392.085	82.44
392.31	85.44
392.534	87.44
392.759	98.44
392.984	74.44
393.208	77.44
393.433	96.44
393.658	93.44
393.882	93.44
394.107	78.44
394.331	89.44
394.556	87.44
394.78	92.44
395.005	87.44
395.229	88.44
395.454	100.44
395.678	103.44
395.903	91.44
396.127	105.44
396.352	107.44
396.576	91.44
396.801	88.44
397.025	82.44
397.249	90.44
397.474	93.44
397.698	102.44
397.922	87.44
398.147	87.44
398.371	77.44
398.595	85.44
398.82	77.44
399.044	86.44
399.268	93.44
399.492	81.44
399.717	95.44
399.941	93.44
400.165	104.44
400.389	100.44
400.613	82.44
400.837	92.44
401.062	81.44
401.286	85.44
401.51	110.44
401.734	102.44
401.958	125.44
402.182	170.44
402.406	241.44
402.63	150.44
402.854	123.44
403.078	91.44
403.302	73.44
403.526	87.44
403.75	90.44
403.974	98.44
404.198	96.44
404.422	91.44
404.645	90.44
404.869	119.44
405.093	131.44
405.317	159.44
405.541	165.44
405.765	126.44
405.988	155.44
406.212	241.44
406.436	367.44
406.66	235.44
406.883	124.44
407.107	106.44
407.331	103.44
407.555	115.44
407.778	123.44
408.002	98.44
408.226	98.44
408.449	82.44
408.673	104.44
408.896	84.44
409.12	97.44
409.344	92.44
409.567	87.44
409.791	93.44
410.014	98.44
410.238	110.44
410.461	96.44
410.685	109.44
410.908	87.44
411.132	97.44
411.355	108.44
411.578	97.44
411.802	95.44
412.025	96.44
412.249	89.44
412.472	114.44
412.695	152.44
412.919	106.44
413.142	96.44
413.365	100.44
413.589	90.44
413.812	87.44
414.035	102.44
414.258	105.44
414.482	83.44
414.705	91.44
414.928	101.44
415.151	97.44
415.374	105.44
415.597	83.44
415.821	93.44
416.044	81.44
416.267	97.44
416.49	101.44
416.713	90.44
416.936	91.44
417.159	98.44
417.382	104.44
417.605	115.44
417.828	118.44
418.051	88.44
418.274	83.44
418.497	69.44
418.72	83.44
418.943	98.44
419.166	96.44
419.389	96.44
419.611	96.44
419.834	95.44
420.057	98.44
420.28	100.44
420.503	99.44
420.726	103.44
420.948	90.44
421.171	100.44
421.394	97.44
421.617	75.44
421.839	85.44
422.062	93.44
422.285	96.44
422.507	117.44
422.73	125.44
422.953	100.44
423.175	96.44
423.398	88.44
423.621	99.44
423.843	89.44
424.066	75.44
424.288	87.44
424.511	114.44
424.733	116.44
424.956	134.44
425.178	126.44
425.401	120.44
425.623	115.44
425.846	109.44
426.068	93.44
426.291	98.44
426.513	102.44
426.735	99.44
426.958	113.44
427.18	131.44
427.402	201.44
427.625	295.44
427.847	289.44
428.069	242.44
428.292	157.44
428.514	103.44
428.736	82.44
428.958	87.44
429.181	98.44
429.403	88.44
429.625	95.44
429.847	99.44
430.069	116.44
430.292	91.44
430.514	87.44
430.736	82.44
430.958	82.44
431.18	93.44
431.402	89.44
431.624	82.44
431.846	106.44
432.068	92.44
432.29	81.44
432.512	97.44
432.734	100.44
432.956	100.44
433.178	100.44
433.4	110.44
433.622	87.44
433.844	94.44
434.066	76.44
434.287	96.44
434.509	82.44
434.731	93.44
434.953	97.44
435.175	89.44
435.397	90.44
435.618	97.44
435.84	120.44
436.062	140.44
436.284	159.44
436.505	121.44
436.727	105.44
436.949	102.44
437.17	81.44
437.392	101.44
437.614	111.44
437.835	144.44
438.057	180.44
438.278	157.44
438.5	125.44
438.721	158.44
438.943	127.44
439.165	95.44
439.386	91.44
439.608	93.44
439.829	130.44
440.05	162.44
440.272	207.44
440.493	129.44
440.715	101.44
440.936	107.44
441.158	103.44
441.379	102.44
441.6	94.44
441.822	123.44
442.043	117.44
442.264	116.44
442.486	123.44
442.707	92.44
442.928	131.44
443.149	189.44
443.371	187.44
443.592	133.44
443.813	135.44
444.034	133.44
444.255	100.44
444.476	85.44
444.698	86.44
444.919	102.44
445.14	106.44
445.361	132.44
445.582	157.44
445.803	203.44
446.024	211.44
446.245	185.44
446.466	129.44
446.687	113.44
446.908	87.44
447.129	87.44
447.35	99.44
447.571	118.44
447.792	97.44
448.013	114.44
448.234	122.44
448.455	121.44
448.675	143.44
448.896	161.44
449.117	104.44
449.338	120.44
449.559	178.44
449.779	167.44
450	104.44
450.221	100.44
450.442	92.44
450.662	115.44
450.883	144.44
451.104	135.44
451.324	119.44
451.545	104.44
451.766	86.44
451.986	95.44
452.207	77.44
452.428	105.44
452.648	114.44
452.869	131.44
453.089	150.44
453.31	159.44
453.53	118.44
453.751	106.44
453.971	132.44
454.192	147.44
454.412	113.44
454.633	100.44
454.853	95.44
455.073	96.44
455.294	118.44
455.514	117.44
455.734	94.44
455.955	91.44
456.175	87.44
456.395	83.44
456.616	87.44
456.836	92.44
457.056	87.44
457.276	85.44
457.497	104.44
457.717	91.44
457.937	106.44
458.157	93.44
458.377	99.44
458.598	143.44
458.818	240.44
459.038	279.44
459.258	173.44
459.478	101.44
459.698	98.44
459.918	83.44
460.138	84.44
460.358	93.44
460.578	86.44
460.798	85.44
461.018	92.44
461.238	96.44
461.458	86.44
461.678	97.44
461.898	97.44
462.118	78.44
462.338	81.44
462.558	89.44
462.777	93.44
462.997	102.44
463.217	120.44
463.437	113.44
463.657	94.44
463.876	96.44
464.096	112.44
464.316	103.44
464.536	109.44
464.755	104.44
464.975	139.44
465.195	266.44
465.414	265.44
465.634	110.44
465.854	95.44
466.073	90.44
466.293	89.44
466.512	105.44
466.732	83.44
466.951	89.44
467.171	103.44
467.391	132.44
467.61	157.44
467.829	230.44
468.049	624.44
468.268	971.44
468.488	262.44
468.707	127.44
468.927	97.44
469.146	103.44
469.365	96.44
469.585	106.44
469.804	116.44
470.023	128.44
470.243	112.44
470.462	115.44
470.681	160.44
470.901	106.44
471.12	118.44
471.339	109.44
471.558	136.44
471.777	170.44
471.997	345.44
472.216	1171.44
472.435	2869.44
472.654	691.44
472.873	185.44
473.092	111.44
473.311	113.44
473.53	91.44
473.749	107.44
473.968	109.44
474.187	147.44
474.406	115.44
474.625	107.44
474.844	84.44
475.063	86.44
475.282	96.44
475.501	90.44
475.72	90.44
475.939	103.44
476.158	79.44
476.377	101.44
476.596	97.44
476.814	117.44
477.033	119.44
477.252	104.44
477.471	103.44
477.69	95.44
477.908	90.44
478.127	101.44
478.346	109.44
478.564	103.44
478.783	104.44
479.002	106.44
479.22	116.44
479.439	135.44
479.658	160.44
479.876	133.44
480.095	138.44
480.313	150.44
480.532	161.44
480.751	306.44
480.969	1066.44
481.188	4696.44
481.406	2925.44
481.624	404.44
481.843	154.44
482.061	110.44
482.28	106.44
482.498	106.44
482.717	110.44
482.935	96.44
483.153	91.44
483.372	92.44
483.59	83.44
483.808	109.44
484.027	96.44
484.245	91.44
484.463	92.44
484.681	80.44
484.9	98.44
485.118	97.44
485.336	114.44
485.554	87.44
485.772	94.44
485.99	108.44
486.209	111.44
486.427	115.44
486.645	143.44
486.863	133.44
487.081	125.44
487.299	107.44
487.517	105.44
487.735	94.44
487.953	89.44
488.171	93.44
488.389	96.44
488.607	109.44
488.825	88.44
489.043	108.44
489.261	83.44
489.479	79.44
489.696	91.44
489.914	83.44
490.132	76.44
490.35	87.44
490.568	98.44
490.786	93.44
491.003	90.44
491.221	94.44
491.439	92.44
491.657	109.44
491.874	86.44
492.092	79.44
492.31	103.44
492.527	109.44
492.745	116.44
492.963	81.44
493.18	94.44
493.398	93.44
493.615	94.44
493.833	104.44
494.05	96.44
494.268	73.44
494.485	90.44
494.703	80.44
494.92	90.44
495.138	84.44
495.355	109.44
495.573	96.44
495.79	99.44
496.008	98.44
496.225	105.44
496.442	94.44
496.66	91.44
496.877	100.44
497.094	93.44
497.312	98.44
497.529	80.44
497.746	110.44
497.963	97.44
498.181	95.44
498.398	109.44
498.615	117.44
498.832	123.44
499.049	81.44
499.267	88.44
499.484	81.44
499.701	105.44
499.918	90.44
500.135	89.44
500.352	105.44
500.569	102.44
500.786	97.44
501.003	109.44
501.22	96.44
501.437	100.44
501.654	94.44
501.871	143.44
502.088	104.44
502.305	92.44
502.522	95.44
502.739	96.44
502.956	82.44
503.172	102.44
503.389	115.44
503.606	135.44
503.823	117.44
504.04	109.44
504.256	93.44
504.473	94.44
504.69	97.44
504.907	95.44
505.123	93.44
505.34	93.44
505.557	90.44
505.773	97.44
505.99	97.44
506.207	79.44
506.423	85.44
506.64	95.44
506.856	90.44
507.073	91.44
507.289	102.44
507.506	103.44
507.722	145.44
507.939	149.44
508.155	104.44
508.372	103.44
508.588	95.44
508.805	97.44
509.021	101.44
509.238	125.44
509.454	107.44
509.67	121.44
509.887	122.44
510.103	135.44
510.319	253.44
510.536	1059.44
510.752	3798.44
510.968	1074.44
511.184	205.44
511.401	130.44
511.617	116.44
511.833	129.44
512.049	111.44
