Data from Circ_2023_H10_HRD10591_00005.txt Node
Date: Wed Jan 03 09:50:32 EST 2024
User: Yrep
Spectrometer: HR+D1059
Trigger mode: 1
Integration Time (sec): 1.000000E-1
Scans to average: 1
Electric dark correction enabled: true
Nonlinearity correction enabled: false
Boxcar width: 0
XAxis mode: Wavelengths
Number of Pixels in Spectrum: 2048
>>>>>Begin Spectral Data<<<<<
223.165	-18.62
223.4	-18.62
223.635	-18.62
223.869	-18.62
224.104	-19.62
224.338	-30.62
224.573	-16.62
224.808	-14.62
225.042	9.38
225.277	-10.62
225.511	-0.62
225.746	9.38
225.98	16.38
226.215	17.38
226.449	7.38
226.683	22.38
226.918	21.38
227.152	26.38
227.387	23.38
227.621	26.38
227.856	24.38
228.09	38.38
228.324	50.38
228.559	53.38
228.793	76.38
229.027	61.38
229.262	68.38
229.496	61.38
229.73	85.38
229.964	81.38
230.199	74.38
230.433	72.38
230.667	73.38
230.901	83.38
231.136	61.38
231.37	78.38
231.604	76.38
231.838	62.38
232.072	83.38
232.306	96.38
232.541	92.38
232.775	78.38
233.009	84.38
233.243	69.38
233.477	74.38
233.711	88.38
233.945	70.38
234.179	83.38
234.413	78.38
234.647	80.38
234.881	91.38
235.115	78.38
235.349	68.38
235.583	81.38
235.817	82.38
236.051	83.38
236.285	63.38
236.519	75.38
236.753	80.38
236.987	80.38
237.221	92.38
237.455	82.38
237.689	65.38
237.922	72.38
238.156	87.38
238.39	79.38
238.624	76.38
238.858	71.38
239.091	73.38
239.325	68.38
239.559	94.38
239.793	97.38
240.027	66.38
240.26	80.38
240.494	77.38
240.728	80.38
240.961	79.38
241.195	70.38
241.429	71.38
241.662	69.38
241.896	60.38
242.13	77.38
242.363	70.38
242.597	92.38
242.83	85.38
243.064	67.38
243.298	79.38
243.531	67.38
243.765	73.38
243.998	71.38
244.232	84.38
244.465	81.38
244.699	79.38
244.932	87.38
245.166	85.38
245.399	82.38
245.633	81.38
245.866	81.38
246.099	83.38
246.333	72.38
246.566	84.38
246.8	68.38
247.033	73.38
247.266	70.38
247.5	82.38
247.733	91.38
247.966	77.38
248.2	73.38
248.433	90.38
248.666	93.38
248.899	85.38
249.133	85.38
249.366	113.38
249.599	89.38
249.832	82.38
250.066	71.38
250.299	85.38
250.532	86.38
250.765	94.38
250.998	86.38
251.231	63.38
251.465	86.38
251.698	85.38
251.931	81.38
252.164	87.38
252.397	84.38
252.63	74.38
252.863	77.38
253.096	83.38
253.329	71.38
253.562	79.38
253.795	80.38
254.028	82.38
254.261	84.38
254.494	77.38
254.727	71.38
254.96	78.38
255.193	92.38
255.426	76.38
255.659	72.38
255.892	82.38
256.124	77.38
256.357	94.38
256.59	84.38
256.823	97.38
257.056	77.38
257.289	86.38
257.521	78.38
257.754	79.38
257.987	90.38
258.22	82.38
258.452	89.38
258.685	86.38
258.918	75.38
259.151	88.38
259.383	74.38
259.616	72.38
259.849	80.38
260.081	73.38
260.314	86.38
260.547	69.38
260.779	84.38
261.012	110.38
261.244	100.38
261.477	95.38
261.71	108.38
261.942	119.38
262.175	131.38
262.407	101.38
262.64	75.38
262.872	71.38
263.105	97.38
263.337	85.38
263.57	91.38
263.802	95.38
264.035	89.38
264.267	79.38
264.499	84.38
264.732	86.38
264.964	87.38
265.197	84.38
265.429	77.38
265.661	89.38
265.894	88.38
266.126	96.38
266.358	89.38
266.591	80.38
266.823	73.38
267.055	72.38
267.287	81.38
267.52	74.38
267.752	87.38
267.984	86.38
268.216	94.38
268.448	90.38
268.681	85.38
268.913	80.38
269.145	69.38
269.377	77.38
269.609	76.38
269.841	72.38
270.073	75.38
270.306	85.38
270.538	81.38
270.77	74.38
271.002	87.38
271.234	88.38
271.466	71.38
271.698	78.38
271.93	85.38
272.162	89.38
272.394	90.38
272.626	85.38
272.858	86.38
273.09	77.38
273.322	86.38
273.553	82.38
273.785	89.38
274.017	76.38
274.249	93.38
274.481	89.38
274.713	92.38
274.945	94.38
275.176	90.38
275.408	94.38
275.64	104.38
275.872	105.38
276.104	92.38
276.335	92.38
276.567	112.38
276.799	126.38
277.031	136.38
277.262	149.38
277.494	125.38
277.726	80.38
277.957	80.38
278.189	81.38
278.421	84.38
278.652	89.38
278.884	110.38
279.115	83.38
279.347	102.38
279.579	96.38
279.81	113.38
280.042	129.38
280.273	180.38
280.505	148.38
280.736	95.38
280.968	93.38
281.199	89.38
281.431	92.38
281.662	93.38
281.894	88.38
282.125	91.38
282.356	132.38
282.588	151.38
282.819	108.38
283.051	98.38
283.282	86.38
283.513	92.38
283.745	76.38
283.976	84.38
284.207	87.38
284.439	87.38
284.67	91.38
284.901	77.38
285.132	96.38
285.364	83.38
285.595	88.38
285.826	100.38
286.057	87.38
286.288	76.38
286.52	95.38
286.751	93.38
286.982	84.38
287.213	84.38
287.444	95.38
287.675	88.38
287.906	86.38
288.138	81.38
288.369	92.38
288.6	92.38
288.831	99.38
289.062	90.38
289.293	76.38
289.524	97.38
289.755	92.38
289.986	84.38
290.217	74.38
290.448	76.38
290.679	74.38
290.91	89.38
291.141	103.38
291.371	90.38
291.602	91.38
291.833	86.38
292.064	93.38
292.295	81.38
292.526	85.38
292.757	92.38
292.987	86.38
293.218	82.38
293.449	74.38
293.68	98.38
293.91	97.38
294.141	90.38
294.372	77.38
294.603	91.38
294.833	68.38
295.064	89.38
295.295	93.38
295.525	97.38
295.756	86.38
295.987	124.38
296.217	144.38
296.448	129.38
296.679	108.38
296.909	85.38
297.14	92.38
297.37	77.38
297.601	94.38
297.831	80.38
298.062	89.38
298.292	110.38
298.523	101.38
298.753	82.38
298.984	82.38
299.214	99.38
299.445	80.38
299.675	81.38
299.905	96.38
300.136	98.38
300.366	94.38
300.597	92.38
300.827	98.38
301.057	105.38
301.288	114.38
301.518	103.38
301.748	78.38
301.979	108.38
302.209	105.38
302.439	94.38
302.669	97.38
302.9	86.38
303.13	82.38
303.36	108.38
303.59	115.38
303.82	115.38
304.051	103.38
304.281	89.38
304.511	98.38
304.741	90.38
304.971	86.38
305.201	81.38
305.431	102.38
305.661	82.38
305.891	80.38
306.121	112.38
306.352	110.38
306.582	104.38
306.812	95.38
307.042	98.38
307.272	132.38
307.502	158.38
307.731	130.38
307.961	111.38
308.191	103.38
308.421	84.38
308.651	90.38
308.881	97.38
309.111	91.38
309.341	101.38
309.571	103.38
309.8	101.38
310.03	103.38
310.26	99.38
310.49	84.38
310.72	95.38
310.949	108.38
311.179	110.38
311.409	85.38
311.639	95.38
311.868	95.38
312.098	96.38
312.328	89.38
312.557	110.38
312.787	108.38
313.017	93.38
313.246	97.38
313.476	84.38
313.706	90.38
313.935	92.38
314.165	96.38
314.394	106.38
314.624	98.38
314.853	105.38
315.083	92.38
315.312	102.38
315.542	103.38
315.771	107.38
316.001	89.38
316.23	87.38
316.46	85.38
316.689	93.38
316.919	96.38
317.148	105.38
317.377	101.38
317.607	95.38
317.836	93.38
318.065	92.38
318.295	90.38
318.524	93.38
318.753	103.38
318.983	95.38
319.212	102.38
319.441	107.38
319.67	108.38
319.9	110.38
320.129	103.38
320.358	80.38
320.587	102.38
320.816	108.38
321.046	113.38
321.275	103.38
321.504	102.38
321.733	97.38
321.962	95.38
322.191	105.38
322.42	109.38
322.649	116.38
322.878	122.38
323.108	129.38
323.337	126.38
323.566	136.38
323.795	176.38
324.024	254.38
324.253	487.38
324.482	1038.38
324.71	2137.38
324.939	2892.38
325.168	1049.38
325.397	306.38
325.626	147.38
325.855	138.38
326.084	141.38
326.313	159.38
326.542	166.38
326.77	266.38
326.999	561.38
327.228	1155.38
327.457	2164.38
327.686	1786.38
327.914	538.38
328.143	398.38
328.372	439.38
328.6	284.38
328.829	177.38
329.058	175.38
329.287	159.38
329.515	150.38
329.744	199.38
329.972	327.38
330.201	623.38
330.43	904.38
330.658	428.38
330.887	226.38
331.115	156.38
331.344	128.38
331.572	115.38
331.801	126.38
332.03	112.38
332.258	102.38
332.486	106.38
332.715	103.38
332.943	96.38
333.172	112.38
333.4	111.38
333.629	136.38
333.857	186.38
334.085	300.38
334.314	568.38
334.542	1130.38
334.771	1084.38
334.999	312.38
335.227	136.38
335.455	128.38
335.684	111.38
335.912	105.38
336.14	98.38
336.369	94.38
336.597	102.38
336.825	110.38
337.053	100.38
337.281	92.38
337.51	107.38
337.738	99.38
337.966	87.38
338.194	111.38
338.422	93.38
338.65	97.38
338.878	99.38
339.106	104.38
339.334	94.38
339.562	101.38
339.79	95.38
340.018	92.38
340.246	99.38
340.474	98.38
340.702	94.38
340.93	96.38
341.158	92.38
341.386	97.38
341.614	97.38
341.842	105.38
342.07	99.38
342.298	81.38
342.526	85.38
342.754	90.38
342.981	91.38
343.209	92.38
343.437	89.38
343.665	77.38
343.893	86.38
344.12	92.38
344.348	111.38
344.576	96.38
344.804	84.38
345.031	99.38
345.259	117.38
345.487	94.38
345.714	81.38
345.942	108.38
346.17	81.38
346.397	92.38
346.625	94.38
346.853	103.38
347.08	84.38
347.308	90.38
347.535	113.38
347.763	104.38
347.99	111.38
348.218	116.38
348.445	121.38
348.673	106.38
348.9	113.38
349.128	97.38
349.355	90.38
349.583	104.38
349.81	92.38
350.037	90.38
350.265	99.38
350.492	94.38
350.72	94.38
350.947	97.38
351.174	123.38
351.402	124.38
351.629	106.38
351.856	93.38
352.083	109.38
352.311	116.38
352.538	118.38
352.765	127.38
352.992	120.38
353.22	110.38
353.447	110.38
353.674	105.38
353.901	100.38
354.128	107.38
354.355	94.38
354.583	102.38
354.81	84.38
355.037	92.38
355.264	84.38
355.491	73.38
355.718	89.38
355.945	100.38
356.172	94.38
356.399	102.38
356.626	103.38
356.853	94.38
357.08	89.38
357.307	93.38
357.534	91.38
357.761	93.38
357.988	92.38
358.215	94.38
358.441	93.38
358.668	93.38
358.895	89.38
359.122	91.38
359.349	91.38
359.576	110.38
359.802	112.38
360.029	129.38
360.256	135.38
360.483	114.38
360.709	84.38
360.936	90.38
361.163	99.38
361.39	99.38
361.616	97.38
361.843	86.38
362.07	107.38
362.296	101.38
362.523	91.38
362.749	101.38
362.976	90.38
363.203	108.38
363.429	96.38
363.656	114.38
363.882	104.38
364.109	76.38
364.335	88.38
364.562	94.38
364.788	91.38
365.015	88.38
365.241	89.38
365.468	99.38
365.694	99.38
365.92	81.38
366.147	90.38
366.373	94.38
366.599	102.38
366.826	93.38
367.052	89.38
367.278	100.38
367.505	94.38
367.731	103.38
367.957	88.38
368.184	76.38
368.41	102.38
368.636	118.38
368.862	110.38
369.089	124.38
369.315	98.38
369.541	95.38
369.767	102.38
369.993	102.38
370.219	104.38
370.445	101.38
370.672	81.38
370.898	94.38
371.124	85.38
371.35	78.38
371.576	90.38
371.802	83.38
372.028	86.38
372.254	102.38
372.48	83.38
372.706	82.38
372.932	83.38
373.158	78.38
373.384	91.38
373.61	80.38
373.835	81.38
374.061	87.38
374.287	85.38
374.513	82.38
374.739	80.38
374.965	81.38
375.191	76.38
375.416	90.38
375.642	89.38
375.868	103.38
376.094	103.38
376.319	83.38
376.545	89.38
376.771	100.38
376.997	92.38
377.222	77.38
377.448	93.38
377.674	95.38
377.899	81.38
378.125	81.38
378.35	84.38
378.576	80.38
378.802	92.38
379.027	94.38
379.253	76.38
379.478	98.38
379.704	94.38
379.929	98.38
380.155	99.38
380.38	97.38
380.606	78.38
380.831	91.38
381.057	96.38
381.282	102.38
381.507	93.38
381.733	99.38
381.958	109.38
382.184	103.38
382.409	97.38
382.634	98.38
382.86	89.38
383.085	97.38
383.31	104.38
383.535	95.38
383.761	90.38
383.986	104.38
384.211	88.38
384.436	96.38
384.662	86.38
384.887	94.38
385.112	88.38
385.337	92.38
385.562	93.38
385.787	101.38
386.013	101.38
386.238	103.38
386.463	98.38
386.688	97.38
386.913	95.38
387.138	91.38
387.363	101.38
387.588	99.38
387.813	104.38
388.038	111.38
388.263	113.38
388.488	112.38
388.713	74.38
388.938	84.38
389.163	98.38
389.387	102.38
389.612	86.38
389.837	80.38
390.062	75.38
390.287	90.38
390.512	87.38
390.736	83.38
390.961	84.38
391.186	80.38
391.411	91.38
391.636	82.38
391.86	88.38
392.085	79.38
392.31	84.38
392.534	72.38
392.759	91.38
392.984	82.38
393.208	84.38
393.433	82.38
393.658	87.38
393.882	102.38
394.107	96.38
394.331	94.38
394.556	92.38
394.78	98.38
395.005	99.38
395.229	89.38
395.454	85.38
395.678	89.38
395.903	72.38
396.127	95.38
396.352	101.38
396.576	93.38
396.801	84.38
397.025	97.38
397.249	91.38
397.474	78.38
397.698	96.38
397.922	80.38
398.147	86.38
398.371	76.38
398.595	80.38
398.82	95.38
399.044	84.38
399.268	93.38
399.492	82.38
399.717	83.38
399.941	89.38
400.165	102.38
400.389	101.38
400.613	89.38
400.837	100.38
401.062	90.38
401.286	90.38
401.51	78.38
401.734	84.38
401.958	92.38
402.182	134.38
402.406	188.38
402.63	129.38
402.854	99.38
403.078	97.38
403.302	95.38
403.526	82.38
403.75	87.38
403.974	94.38
404.198	90.38
404.422	79.38
404.645	85.38
404.869	111.38
405.093	122.38
405.317	148.38
405.541	137.38
405.765	119.38
405.988	124.38
406.212	183.38
406.436	286.38
406.66	188.38
406.883	108.38
407.107	109.38
407.331	93.38
407.555	109.38
407.778	97.38
408.002	97.38
408.226	95.38
408.449	88.38
408.673	95.38
408.896	101.38
409.12	108.38
409.344	98.38
409.567	88.38
409.791	85.38
410.014	91.38
410.238	102.38
410.461	97.38
410.685	103.38
410.908	100.38
411.132	103.38
411.355	94.38
411.578	89.38
411.802	103.38
412.025	92.38
412.249	84.38
412.472	101.38
412.695	130.38
412.919	96.38
413.142	89.38
413.365	93.38
413.589	78.38
413.812	95.38
414.035	92.38
414.258	82.38
414.482	73.38
414.705	90.38
414.928	91.38
415.151	96.38
415.374	82.38
415.597	87.38
415.821	86.38
416.044	97.38
416.267	93.38
416.49	85.38
416.713	104.38
416.936	97.38
417.159	76.38
417.382	73.38
417.605	102.38
417.828	116.38
418.051	105.38
418.274	90.38
418.497	81.38
418.72	98.38
418.943	93.38
419.166	96.38
419.389	80.38
419.611	94.38
419.834	92.38
420.057	101.38
420.28	99.38
420.503	87.38
420.726	109.38
420.948	100.38
421.171	100.38
421.394	100.38
421.617	83.38
421.839	84.38
422.062	83.38
422.285	100.38
422.507	100.38
422.73	122.38
422.953	90.38
423.175	103.38
423.398	93.38
423.621	89.38
423.843	96.38
424.066	88.38
424.288	94.38
424.511	102.38
424.733	99.38
424.956	119.38
425.178	102.38
425.401	119.38
425.623	111.38
425.846	103.38
426.068	103.38
426.291	96.38
426.513	80.38
426.735	91.38
426.958	93.38
427.18	108.38
427.402	174.38
427.625	225.38
427.847	208.38
428.069	215.38
428.292	118.38
428.514	85.38
428.736	103.38
428.958	88.38
429.181	86.38
429.403	92.38
429.625	89.38
429.847	97.38
430.069	111.38
430.292	92.38
430.514	101.38
430.736	96.38
430.958	102.38
431.18	93.38
431.402	83.38
431.624	73.38
431.846	77.38
432.068	93.38
432.29	92.38
432.512	85.38
432.734	81.38
432.956	89.38
433.178	116.38
433.4	115.38
433.622	88.38
433.844	96.38
434.066	94.38
434.287	86.38
434.509	85.38
434.731	95.38
434.953	93.38
435.175	90.38
435.397	100.38
435.618	89.38
435.84	109.38
436.062	136.38
436.284	129.38
436.505	106.38
436.727	116.38
436.949	97.38
437.17	79.38
437.392	104.38
437.614	99.38
437.835	114.38
438.057	137.38
438.278	126.38
438.5	116.38
438.721	144.38
438.943	106.38
439.165	78.38
439.386	92.38
439.608	95.38
439.829	107.38
440.05	148.38
440.272	193.38
440.493	127.38
440.715	100.38
440.936	91.38
441.158	85.38
441.379	91.38
441.6	95.38
441.822	90.38
442.043	104.38
442.264	120.38
442.486	111.38
442.707	103.38
442.928	112.38
443.149	157.38
443.371	157.38
443.592	130.38
443.813	136.38
444.034	131.38
444.255	102.38
444.476	98.38
444.698	101.38
444.919	97.38
445.14	136.38
445.361	138.38
445.582	142.38
445.803	183.38
446.024	166.38
446.245	164.38
446.466	130.38
446.687	87.38
446.908	91.38
447.129	80.38
447.35	119.38
447.571	79.38
447.792	104.38
448.013	104.38
448.234	111.38
448.455	110.38
448.675	110.38
448.896	149.38
449.117	105.38
449.338	106.38
449.559	148.38
449.779	151.38
450	97.38
450.221	93.38
450.442	98.38
450.662	102.38
450.883	127.38
451.104	124.38
451.324	93.38
451.545	80.38
451.766	88.38
451.986	79.38
452.207	95.38
452.428	95.38
452.648	105.38
452.869	113.38
453.089	136.38
453.31	124.38
453.53	97.38
453.751	84.38
453.971	103.38
454.192	124.38
454.412	97.38
454.633	92.38
454.853	70.38
455.073	95.38
455.294	89.38
455.514	98.38
455.734	95.38
455.955	87.38
456.175	81.38
456.395	97.38
456.616	75.38
456.836	93.38
457.056	83.38
457.276	87.38
457.497	76.38
457.717	87.38
457.937	96.38
458.157	84.38
458.377	101.38
458.598	123.38
458.818	180.38
459.038	197.38
459.258	144.38
459.478	98.38
459.698	101.38
459.918	96.38
460.138	82.38
460.358	76.38
460.578	82.38
460.798	93.38
461.018	80.38
461.238	92.38
461.458	94.38
461.678	94.38
461.898	99.38
462.118	83.38
462.338	89.38
462.558	89.38
462.777	92.38
462.997	108.38
463.217	98.38
463.437	88.38
463.657	94.38
463.876	93.38
464.096	92.38
464.316	98.38
464.536	108.38
464.755	112.38
464.975	110.38
465.195	202.38
465.414	215.38
465.634	124.38
465.854	89.38
466.073	81.38
466.293	92.38
466.512	81.38
466.732	86.38
466.951	85.38
467.171	105.38
467.391	104.38
467.61	124.38
467.829	162.38
468.049	361.38
468.268	518.38
468.488	165.38
468.707	113.38
468.927	94.38
469.146	89.38
469.365	101.38
469.585	77.38
469.804	98.38
470.023	96.38
470.243	117.38
470.462	110.38
470.681	114.38
470.901	101.38
471.12	93.38
471.339	93.38
471.558	127.38
471.777	112.38
471.997	199.38
472.216	650.38
472.435	1478.38
472.654	414.38
472.873	138.38
473.092	97.38
473.311	87.38
473.53	81.38
473.749	98.38
473.968	103.38
474.187	109.38
474.406	99.38
474.625	85.38
474.844	84.38
475.063	86.38
475.282	79.38
475.501	94.38
475.72	99.38
475.939	91.38
476.158	98.38
476.377	85.38
476.596	97.38
476.814	94.38
477.033	92.38
477.252	98.38
477.471	103.38
477.69	84.38
477.908	100.38
478.127	95.38
478.346	89.38
478.564	78.38
478.783	89.38
479.002	101.38
479.22	97.38
479.439	113.38
479.658	110.38
479.876	112.38
480.095	111.38
480.313	119.38
480.532	145.38
480.751	198.38
480.969	622.38
481.188	2460.38
481.406	1600.38
481.624	272.38
481.843	120.38
482.061	100.38
482.28	107.38
482.498	97.38
482.717	88.38
482.935	104.38
483.153	81.38
483.372	86.38
483.59	95.38
483.808	88.38
484.027	103.38
484.245	101.38
484.463	93.38
484.681	94.38
484.9	96.38
485.118	83.38
485.336	100.38
485.554	96.38
485.772	98.38
485.99	116.38
486.209	119.38
486.427	98.38
486.645	112.38
486.863	134.38
487.081	108.38
487.299	103.38
487.517	106.38
487.735	88.38
487.953	84.38
488.171	97.38
488.389	117.38
488.607	94.38
488.825	93.38
489.043	95.38
489.261	91.38
489.479	87.38
489.696	108.38
489.914	105.38
490.132	86.38
490.35	96.38
490.568	81.38
490.786	82.38
491.003	91.38
491.221	101.38
491.439	97.38
491.657	98.38
491.874	100.38
492.092	96.38
492.31	92.38
492.527	104.38
492.745	91.38
492.963	99.38
493.18	92.38
493.398	99.38
493.615	97.38
493.833	98.38
494.05	85.38
494.268	79.38
494.485	103.38
494.703	94.38
494.92	97.38
495.138	100.38
495.355	96.38
495.573	82.38
495.79	86.38
496.008	92.38
496.225	82.38
496.442	95.38
496.66	81.38
496.877	96.38
497.094	90.38
497.312	91.38
497.529	84.38
497.746	97.38
497.963	100.38
498.181	90.38
498.398	109.38
498.615	101.38
498.832	95.38
499.049	97.38
499.267	91.38
499.484	73.38
499.701	88.38
499.918	95.38
500.135	91.38
500.352	98.38
500.569	92.38
500.786	81.38
501.003	93.38
501.22	99.38
501.437	93.38
501.654	86.38
501.871	124.38
502.088	99.38
502.305	92.38
502.522	95.38
502.739	103.38
502.956	89.38
503.172	86.38
503.389	119.38
503.606	120.38
503.823	107.38
504.04	95.38
504.256	111.38
504.473	94.38
504.69	81.38
504.907	87.38
505.123	87.38
505.34	99.38
505.557	95.38
505.773	98.38
505.99	86.38
506.207	84.38
506.423	98.38
506.64	99.38
506.856	87.38
507.073	87.38
507.289	90.38
507.506	94.38
507.722	124.38
507.939	120.38
508.155	106.38
508.372	81.38
508.588	83.38
508.805	82.38
509.021	108.38
509.238	112.38
509.454	100.38
509.67	101.38
509.887	109.38
510.103	136.38
510.319	227.38
510.536	822.38
510.752	2841.38
510.968	823.38
511.184	171.38
511.401	119.38
511.617	117.38
511.833	106.38
512.049	103.38
512.265	91.38
512.481	100.38
512.698	90.38
512.914	94.38
513.13	90.38
513.346	111.38
513.562	103.38
513.778	92.38
