Data from Circ_2023_H10_HRD10591_00034.txt Node
Date: Wed Jan 03 09:50:37 EST 2024
User: Yrep
Spectrometer: HR+D1059
Trigger mode: 1
Integration Time (sec): 1.000000E-1
Scans to average: 1
Electric dark correction enabled: true
Nonlinearity correction enabled: false
Boxcar width: 0
XAxis mode: Wavelengths
Number of Pixels in Spectrum: 2048
>>>>>Begin Spectral Data<<<<<
223.165	-13
223.4	-13
223.635	-13
223.869	-17
224.104	-16
224.338	-19
224.573	-8
224.808	-16
225.042	-11
225.277	3
225.511	0
225.746	0
225.98	9
226.215	18
226.449	8
226.683	5
226.918	20
227.152	37
227.387	36
227.621	38
227.856	46
228.09	52
228.324	52
228.559	64
228.793	65
229.027	58
229.262	66
229.496	86
229.73	98
229.964	103
230.199	75
230.433	85
230.667	89
230.901	81
231.136	67
231.37	71
231.604	86
231.838	72
232.072	81
232.306	77
232.541	70
232.775	67
233.009	72
233.243	85
233.477	80
233.711	86
233.945	81
234.179	78
234.413	81
234.647	92
234.881	81
235.115	81
235.349	80
235.583	78
235.817	83
236.051	74
236.285	74
236.519	88
236.753	86
236.987	83
237.221	93
237.455	101
237.689	82
237.922	80
238.156	74
238.39	79
238.624	68
238.858	76
239.091	82
239.325	84
239.559	84
239.793	89
240.027	60
240.26	90
240.494	67
240.728	62
240.961	77
241.195	78
241.429	85
241.662	67
241.896	87
242.13	75
242.363	78
242.597	82
242.83	76
243.064	81
243.298	84
243.531	81
243.765	90
243.998	90
244.232	79
244.465	93
244.699	95
244.932	82
245.166	82
245.399	79
245.633	90
245.866	87
246.099	67
246.333	79
246.566	73
246.8	98
247.033	62
247.266	86
247.5	86
247.733	95
247.966	95
248.2	85
248.433	80
248.666	88
248.899	67
249.133	91
249.366	120
249.599	131
249.832	84
250.066	94
250.299	89
250.532	89
250.765	82
250.998	87
251.231	79
251.465	90
251.698	70
251.931	90
252.164	75
252.397	70
252.63	87
252.863	81
253.096	86
253.329	78
253.562	81
253.795	76
254.028	84
254.261	96
254.494	73
254.727	77
254.96	83
255.193	74
255.426	88
255.659	86
255.892	88
256.124	107
256.357	100
256.59	103
256.823	82
257.056	72
257.289	92
257.521	77
257.754	83
257.987	86
258.22	92
258.452	106
258.685	87
258.918	91
259.151	81
259.383	89
259.616	77
259.849	90
260.081	82
260.314	86
260.547	105
260.779	87
261.012	114
261.244	112
261.477	105
261.71	126
261.942	149
262.175	159
262.407	102
262.64	74
262.872	74
263.105	95
263.337	85
263.57	87
263.802	81
264.035	95
264.267	79
264.499	82
264.732	106
264.964	71
265.197	76
265.429	75
265.661	79
265.894	84
266.126	82
266.358	88
266.591	81
266.823	75
267.055	100
267.287	93
267.52	84
267.752	89
267.984	85
268.216	78
268.448	93
268.681	81
268.913	92
269.145	88
269.377	96
269.609	91
269.841	87
270.073	76
270.306	107
270.538	97
270.77	93
271.002	94
271.234	87
271.466	101
271.698	86
271.93	89
272.162	90
272.394	95
272.626	93
272.858	84
273.09	95
273.322	89
273.553	84
273.785	99
274.017	106
274.249	88
274.481	73
274.713	85
274.945	103
275.176	81
275.408	107
275.64	117
275.872	123
276.104	116
276.335	106
276.567	133
276.799	165
277.031	178
277.262	185
277.494	165
277.726	98
277.957	71
278.189	92
278.421	101
278.652	75
278.884	98
279.115	84
279.347	88
279.579	92
279.81	118
280.042	205
280.273	272
280.505	191
280.736	125
280.968	86
281.199	93
281.431	97
281.662	100
281.894	98
282.125	106
282.356	132
282.588	172
282.819	148
283.051	94
283.282	99
283.513	78
283.745	91
283.976	91
284.207	96
284.439	80
284.67	88
284.901	100
285.132	85
285.364	88
285.595	74
285.826	98
286.057	88
286.288	95
286.52	98
286.751	91
286.982	96
287.213	84
287.444	83
287.675	85
287.906	93
288.138	89
288.369	103
288.6	95
288.831	89
289.062	97
289.293	89
289.524	87
289.755	95
289.986	81
290.217	78
290.448	88
290.679	90
290.91	100
291.141	83
291.371	84
291.602	72
291.833	83
292.064	102
292.295	93
292.526	98
292.757	94
292.987	81
293.218	97
293.449	82
293.68	86
293.91	85
294.141	93
294.372	81
294.603	97
294.833	90
295.064	93
295.295	81
295.525	89
295.756	117
295.987	131
296.217	175
296.448	153
296.679	97
296.909	94
297.14	96
297.37	103
297.601	70
297.831	83
298.062	86
298.292	105
298.523	87
298.753	85
298.984	86
299.214	93
299.445	85
299.675	113
299.905	103
300.136	90
300.366	95
300.597	80
300.827	89
301.057	112
301.288	117
301.518	106
301.748	106
301.979	123
302.209	111
302.439	103
302.669	92
302.9	101
303.13	84
303.36	109
303.59	139
303.82	147
304.051	92
304.281	86
304.511	87
304.741	99
304.971	92
305.201	97
305.431	86
305.661	102
305.891	92
306.121	101
306.352	113
306.582	115
306.812	102
307.042	136
307.272	152
307.502	189
307.731	162
307.961	128
308.191	107
308.421	93
308.651	94
308.881	102
309.111	100
309.341	99
309.571	114
309.8	101
310.03	117
310.26	106
310.49	102
310.72	110
310.949	117
311.179	115
311.409	100
311.639	102
311.868	116
312.098	102
312.328	111
312.557	134
312.787	140
313.017	123
313.246	95
313.476	97
313.706	95
313.935	119
314.165	116
314.394	114
314.624	130
314.853	100
315.083	105
315.312	98
315.542	82
315.771	95
316.001	97
316.23	94
316.46	97
316.689	90
316.919	94
317.148	99
317.377	103
317.607	105
317.836	99
318.065	102
318.295	102
318.524	94
318.753	95
318.983	102
319.212	114
319.441	116
319.67	137
319.9	104
320.129	98
320.358	104
320.587	105
320.816	91
321.046	98
321.275	117
321.504	104
321.733	106
321.962	110
322.191	102
322.42	112
322.649	131
322.878	131
323.108	119
323.337	149
323.566	155
323.795	191
324.024	257
324.253	543
324.482	1185
324.71	2417
324.939	3237
325.168	1222
325.397	345
325.626	181
325.855	149
326.084	144
326.313	158
326.542	193
326.77	288
326.999	616
327.228	1251
327.457	2326
327.686	1918
327.914	649
328.143	586
328.372	716
328.6	417
328.829	205
329.058	210
329.287	202
329.515	195
329.744	267
329.972	509
330.201	1018
330.43	1547
330.658	724
330.887	335
331.115	229
331.344	151
331.572	144
331.801	133
332.03	129
332.258	134
332.486	95
332.715	106
332.943	120
333.172	134
333.4	148
333.629	169
333.857	242
334.085	469
334.314	962
334.542	1885
334.771	1882
334.999	482
335.227	204
335.455	121
335.684	129
335.912	109
336.14	96
336.369	119
336.597	111
336.825	121
337.053	95
337.281	102
337.51	104
337.738	99
337.966	99
338.194	95
338.422	103
338.65	93
338.878	95
339.106	105
339.334	116
339.562	95
339.79	92
340.018	88
340.246	96
340.474	109
340.702	96
340.93	101
341.158	103
341.386	106
341.614	102
341.842	101
342.07	105
342.298	95
342.526	89
342.754	95
342.981	88
343.209	106
343.437	106
343.665	81
343.893	89
344.12	95
344.348	86
344.576	101
344.804	96
345.031	106
345.259	130
345.487	102
345.714	97
345.942	105
346.17	87
346.397	89
346.625	92
346.853	99
347.08	89
347.308	104
347.535	111
347.763	118
347.99	97
348.218	129
348.445	135
348.673	121
348.9	101
349.128	82
349.355	96
349.583	82
349.81	103
350.037	96
350.265	101
350.492	110
350.72	87
350.947	106
351.174	111
351.402	117
351.629	113
351.856	105
352.083	119
352.311	124
352.538	125
352.765	145
352.992	136
353.22	129
353.447	96
353.674	106
353.901	100
354.128	91
354.355	104
354.583	107
354.81	93
355.037	83
355.264	85
355.491	91
355.718	92
355.945	106
356.172	83
356.399	110
356.626	86
356.853	102
357.08	92
357.307	99
357.534	99
357.761	106
357.988	92
358.215	93
358.441	114
358.668	110
358.895	88
359.122	88
359.349	87
359.576	105
359.802	124
360.029	146
360.256	151
360.483	126
360.709	83
360.936	88
361.163	90
361.39	114
361.616	104
361.843	90
362.07	112
362.296	119
362.523	118
362.749	97
362.976	89
363.203	84
363.429	72
363.656	80
363.882	103
364.109	89
364.335	104
364.562	94
364.788	88
365.015	104
365.241	111
365.468	135
365.694	121
365.92	125
366.147	108
366.373	94
366.599	95
366.826	86
367.052	113
367.278	109
367.505	98
367.731	103
367.957	109
368.184	98
368.41	111
368.636	134
368.862	135
369.089	135
369.315	105
369.541	101
369.767	104
369.993	88
370.219	90
370.445	87
370.672	89
370.898	99
371.124	111
371.35	92
371.576	99
371.802	89
372.028	96
372.254	86
372.48	90
372.706	88
372.932	88
373.158	94
373.384	84
373.61	86
373.835	95
374.061	111
374.287	102
374.513	95
374.739	104
374.965	89
375.191	88
375.416	74
375.642	102
375.868	89
376.094	95
376.319	85
376.545	76
376.771	91
376.997	84
377.222	96
377.448	94
377.674	96
377.899	100
378.125	85
378.35	94
378.576	97
378.802	90
379.027	93
379.253	89
379.478	67
379.704	91
379.929	85
380.155	102
380.38	94
380.606	98
380.831	97
381.057	111
381.282	90
381.507	95
381.733	88
381.958	87
382.184	94
382.409	105
382.634	120
382.86	102
383.085	86
383.31	86
383.535	99
383.761	81
383.986	94
384.211	88
384.436	86
384.662	93
384.887	91
385.112	100
385.337	91
385.562	97
385.787	104
386.013	115
386.238	129
386.463	114
386.688	106
386.913	109
387.138	102
387.363	97
387.588	94
387.813	92
388.038	106
388.263	102
388.488	109
388.713	86
388.938	80
389.163	96
389.387	91
389.612	98
389.837	97
390.062	96
390.287	103
390.512	87
390.736	93
390.961	97
391.186	89
391.411	93
391.636	90
391.86	83
392.085	90
392.31	89
392.534	81
392.759	88
392.984	83
393.208	84
393.433	95
393.658	82
393.882	96
394.107	85
394.331	74
394.556	84
394.78	70
395.005	97
395.229	91
395.454	92
395.678	86
395.903	82
396.127	105
396.352	101
396.576	80
396.801	87
397.025	78
397.249	94
397.474	104
397.698	83
397.922	94
398.147	73
398.371	87
398.595	93
398.82	78
399.044	84
399.268	94
399.492	90
399.717	87
399.941	86
400.165	83
400.389	111
400.613	95
400.837	91
401.062	82
401.286	98
401.51	106
401.734	105
401.958	112
402.182	148
402.406	209
402.63	162
402.854	99
403.078	106
403.302	96
403.526	90
403.75	87
403.974	106
404.198	90
404.422	86
404.645	85
404.869	104
405.093	118
405.317	155
405.541	153
405.765	131
405.988	147
406.212	225
406.436	336
406.66	225
406.883	127
407.107	108
407.331	109
407.555	111
407.778	107
408.002	97
408.226	88
408.449	100
408.673	97
408.896	95
409.12	105
409.344	103
409.567	93
409.791	77
410.014	85
410.238	90
410.461	112
410.685	97
410.908	100
411.132	119
411.355	108
411.578	97
411.802	99
412.025	99
412.249	97
412.472	116
412.695	139
412.919	111
413.142	97
413.365	90
413.589	97
413.812	102
414.035	97
414.258	92
414.482	98
414.705	97
414.928	100
415.151	92
415.374	94
415.597	103
415.821	99
416.044	87
416.267	81
416.49	88
416.713	85
416.936	96
417.159	89
417.382	103
417.605	111
417.828	110
418.051	109
418.274	94
418.497	77
418.72	76
418.943	88
419.166	83
419.389	87
419.611	90
419.834	102
420.057	96
420.28	96
420.503	82
420.726	87
420.948	86
421.171	111
421.394	112
421.617	103
421.839	93
422.062	96
422.285	79
422.507	110
422.73	114
422.953	101
423.175	88
423.398	98
423.621	87
423.843	98
424.066	103
424.288	99
424.511	93
424.733	106
424.956	117
425.178	117
425.401	127
425.623	127
425.846	117
426.068	113
426.291	88
426.513	94
426.735	106
426.958	100
427.18	130
427.402	205
427.625	279
427.847	273
428.069	242
428.292	145
428.514	98
428.736	90
428.958	102
429.181	92
429.403	85
429.625	91
429.847	95
430.069	121
430.292	105
430.514	101
430.736	110
430.958	79
431.18	75
431.402	93
431.624	85
431.846	85
432.068	77
432.29	78
432.512	90
432.734	94
432.956	91
433.178	100
433.4	113
433.622	99
433.844	87
434.066	108
434.287	111
434.509	93
434.731	94
434.953	94
435.175	106
435.397	95
435.618	96
435.84	109
436.062	154
436.284	142
436.505	122
436.727	109
436.949	98
437.17	93
437.392	91
437.614	112
437.835	136
438.057	157
438.278	144
438.5	114
438.721	154
438.943	130
439.165	85
439.386	96
439.608	97
439.829	114
440.05	162
440.272	216
440.493	116
440.715	94
440.936	103
441.158	88
441.379	98
441.6	114
441.822	109
442.043	111
442.264	117
442.486	118
442.707	95
442.928	144
443.149	182
443.371	189
443.592	145
443.813	139
444.034	125
444.255	83
444.476	101
444.698	93
444.919	80
445.14	133
445.361	136
445.582	158
445.803	199
446.024	199
446.245	190
446.466	145
446.687	110
446.908	106
447.129	90
447.35	81
447.571	111
447.792	97
448.013	91
448.234	114
448.455	132
448.675	125
448.896	138
449.117	111
449.338	110
449.559	137
449.779	181
450	105
450.221	88
450.442	87
450.662	126
450.883	136
451.104	143
451.324	104
451.545	92
451.766	87
451.986	81
452.207	92
452.428	110
452.648	129
452.869	149
453.089	142
453.31	152
453.53	113
453.751	105
453.971	140
454.192	137
454.412	115
454.633	96
454.853	88
455.073	83
455.294	114
455.514	125
455.734	105
455.955	85
456.175	90
456.395	77
456.616	94
456.836	85
457.056	78
457.276	78
457.497	87
457.717	104
457.937	96
458.157	97
458.377	98
458.598	127
458.818	232
459.038	250
459.258	163
459.478	107
459.698	95
459.918	88
460.138	83
460.358	98
460.578	93
460.798	103
461.018	104
461.238	79
461.458	81
461.678	93
461.898	87
462.118	74
462.338	90
462.558	101
462.777	94
462.997	89
463.217	96
463.437	102
463.657	94
463.876	103
464.096	87
464.316	107
464.536	115
464.755	105
464.975	119
465.195	261
465.414	251
465.634	103
465.854	94
466.073	94
466.293	79
466.512	96
466.732	95
466.951	100
467.171	98
467.391	113
467.61	158
467.829	214
468.049	593
468.268	943
468.488	233
468.707	131
468.927	116
469.146	83
469.365	97
469.585	91
469.804	115
470.023	125
470.243	109
470.462	124
470.681	167
470.901	109
471.12	107
471.339	110
471.558	115
471.777	161
471.997	298
472.216	1129
472.435	2693
472.654	696
472.873	191
473.092	112
473.311	95
473.53	88
473.749	87
473.968	106
474.187	129
474.406	117
474.625	90
474.844	79
475.063	99
475.282	96
475.501	86
475.72	106
475.939	86
476.158	87
476.377	95
476.596	79
476.814	109
477.033	104
477.252	94
477.471	86
477.69	95
477.908	90
478.127	97
478.346	95
478.564	95
478.783	106
479.002	94
479.22	86
479.439	133
479.658	160
479.876	120
480.095	126
480.313	134
480.532	166
480.751	285
480.969	1017
481.188	4461
481.406	2802
481.624	404
481.843	135
482.061	115
482.28	122
482.498	101
482.717	98
482.935	104
483.153	114
483.372	83
483.59	101
483.808	89
484.027	88
484.245	91
484.463	90
484.681	105
484.9	86
485.118	122
485.336	95
485.554	99
485.772	103
485.99	105
486.209	113
486.427	111
486.645	118
486.863	142
487.081	121
487.299	90
487.517	107
487.735	96
487.953	90
488.171	101
488.389	94
488.607	83
488.825	103
489.043	96
489.261	89
489.479	101
489.696	100
489.914	104
490.132	91
490.35	99
490.568	78
490.786	91
491.003	79
491.221	99
491.439	110
491.657	97
491.874	95
492.092	90
492.31	104
492.527	115
492.745	103
492.963	92
493.18	94
493.398	83
493.615	95
493.833	107
494.05	87
494.268	102
494.485	95
494.703	94
494.92	88
495.138	85
495.355	90
495.573	88
495.79	92
496.008	99
496.225	93
496.442	93
496.66	103
496.877	97
497.094	114
497.312	92
497.529	87
497.746	88
497.963	90
498.181	91
498.398	88
498.615	132
498.832	110
499.049	94
499.267	103
499.484	92
499.701	88
499.918	102
500.135	106
500.352	96
500.569	97
500.786	107
501.003	101
501.22	88
501.437	100
501.654	121
501.871	136
502.088	97
502.305	111
502.522	90
502.739	104
502.956	97
503.172	92
503.389	99
503.606	134
503.823	109
504.04	104
504.256	98
504.473	98
504.69	87
504.907	94
505.123	95
505.34	89
505.557	70
505.773	97
505.99	89
506.207	94
506.423	91
506.64	104
506.856	94
507.073	104
507.289	106
507.506	106
507.722	141
507.939	139
508.155	96
508.372	104
508.588	101
508.805	98
509.021	120
509.238	80
509.454	88
509.67	110
509.887	102
510.103	165
510.319	248
510.536	1035
510.752	3645
510.968	989
511.184	193
511.401	135
511.617	111
511.833	98
512.049	107
512.265	93
512.481	95
512.698	111
512.914	99
513.13	99
513.346	98
513.562	97
513.778	114
513.994	103
514.21	129
514.426	151
514.642	192
514.858	163
515.074	247
515.29	781
515.506	2958
515.721	1063
515.937	252
516.153	152
516.369	129
516.585	101
516.801	102
517.016	98
517.232	93
517.448	100
517.664	94
517.879	99
518.095	94
518.311	108
518.527	125
518.742	90
518.958	99
519.173	99
519.389	97
519.605	105
519.82	96
520.036	121
520.251	161
520.467	138
520.682	118
520.898	126
521.113	136
521.329	181
521.544	329
521.76	1007
521.975	4922
522.19	3071
522.406	589
522.621	183
522.836	121
523.052	106
523.267	109
523.482	100
523.698	117
523.913	156
524.128	128
524.343	93
524.559	89
524.774	98
524.989	115
525.204	127
525.419	115
525.634	93
525.849	90
526.064	91
526.28	106
526.495	80
526.71	87
526.925	101
527.14	82
527.355	94
527.57	84
527.785	86
527.999	85
528.214	93
528.429	123
528.644	98
528.859	98
529.074	98
529.289	161
529.503	320
529.718	138
529.933	91
530.148	100
530.363	99
530.577	93
530.792	96
531.007	107
531.221	101
531.436	90
531.651	104
531.865	88
532.08	94
532.295	86
532.509	95
532.724	87
532.938	88
533.153	94
533.367	92
533.582	94
533.796	96
534.011	90
534.225	98
534.44	105
534.654	83
534.868	97
535.083	63
535.297	95
535.511	118
535.726	110
535.94	113
536.154	92
536.369	88
536.583	81
536.797	86
537.011	80
537.225	85
537.44	86
537.654	84
537.868	94
538.082	92
538.296	92
538.51	85
538.724	81
538.938	80
539.153	92
539.367	120
539.581	110
539.795	92
540.009	96
540.222	100
540.436	84
540.65	84
540.864	98
541.078	93
541.292	97
541.506	89
541.72	100
541.934	95
542.147	88
542.361	89
542.575	83
542.789	76
543.002	93
543.216	105
543.43	115
543.644	105
543.857	84
544.071	105
544.285	91
544.498	87
544.712	99
544.925	92
545.139	89
545.352	83
545.566	92
545.779	96
545.993	93
546.206	95
546.42	88
546.633	79
546.847	93
547.06	85
547.274	74
547.487	81
547.7	88
547.914	86
548.127	91
548.34	100
548.554	75
548.767	82
548.98	95
549.193	77
549.407	100
549.62	92
549.833	96
550.046	90
550.259	86
550.473	92
550.686	86
550.899	100
551.112	82
551.325	98
551.538	118
551.751	96
551.964	88
552.177	122
552.39	76
552.603	82
552.816	115
553.029	107
553.242	88
553.455	113
553.667	120
553.88	115
554.093	103
554.306	115
554.519	138
554.732	96
554.944	93
555.157	97
555.37	96
555.583	99
555.795	101
556.008	83
556.221	87
556.433	86
556.646	74
556.859	92
557.071	84
557.284	89
557.496	80
557.709	89
557.921	101
558.134	82
558.346	93
558.559	80
558.771	79
558.984	86
559.196	105
559.409	91
559.621	102
559.833	89
560.046	97
560.258	101
560.47	143
560.683	115
560.895	106
561.107	86
561.32	97
561.532	95
561.744	101
561.956	106
562.168	91
562.381	93
562.593	100
562.805	95
563.017	88
563.229	98
563.441	98
563.653	89
563.865	80
564.077	90
564.289	86
564.501	74
564.713	86
564.925	113
565.137	122
565.349	103
565.561	95
565.773	90
565.985	93
566.197	97
566.408	95
566.62	75
566.832	83
567.044	75
567.255	89
567.467	92
567.679	85
567.891	91
568.102	94
568.314	81
568.526	97
568.737	91
568.949	84
569.161	82
569.372	90
569.584	101
569.795	106
570.007	131
570.218	326
570.43	154
570.641	103
570.853	92
571.064	82
571.276	95
571.487	98
571.698	98
571.91	90
572.121	87
572.333	86
572.544	98
572.755	96
572.966	84
573.178	93
573.389	90
573.6	96
573.811	84
574.023	96
574.234	83
574.445	94
574.656	84
574.867	91
575.078	88
575.289	77
575.501	78
575.712	96
575.923	97
576.134	88
576.345	94
576.556	107
576.767	94
576.978	98
577.188	83
577.399	88
577.61	103
577.821	112
578.032	130
578.243	344
578.454	1147
578.665	279
578.875	105
579.086	101
