Data from Circ_2023_H10_HRD10591_00047.txt Node
Date: Wed Jan 03 09:50:40 EST 2024
User: Yrep
Spectrometer: HR+D1059
Trigger mode: 1
Integration Time (sec): 1.000000E-1
Scans to average: 1
Electric dark correction enabled: true
Nonlinearity correction enabled: false
Boxcar width: 0
XAxis mode: Wavelengths
Number of Pixels in Spectrum: 2048
>>>>>Begin Spectral Data<<<<<
223.165	-20
223.4	-20
223.635	-20
223.869	-22
224.104	-22
224.338	-19
224.573	-3
224.808	-10
225.042	-10
225.277	-1
225.511	9
225.746	8
225.98	14
226.215	6
226.449	-4
226.683	20
226.918	18
227.152	36
227.387	36
227.621	36
227.856	41
228.09	61
228.324	41
228.559	63
228.793	47
229.027	64
229.262	81
229.496	85
229.73	109
229.964	95
230.199	64
230.433	76
230.667	76
230.901	73
231.136	87
231.37	76
231.604	80
231.838	76
232.072	90
232.306	91
232.541	73
232.775	83
233.009	69
233.243	76
233.477	80
233.711	81
233.945	77
234.179	89
234.413	82
234.647	86
234.881	64
235.115	70
235.349	69
235.583	80
235.817	69
236.051	77
236.285	72
236.519	69
236.753	65
236.987	77
237.221	88
237.455	92
237.689	76
237.922	90
238.156	61
238.39	74
238.624	69
238.858	86
239.091	61
239.325	83
239.559	76
239.793	85
240.027	80
240.26	80
240.494	67
240.728	85
240.961	59
241.195	74
241.429	81
241.662	61
241.896	65
242.13	82
242.363	79
242.597	69
242.83	79
243.064	64
243.298	84
243.531	70
243.765	74
243.998	69
244.232	81
244.465	89
244.699	95
244.932	84
245.166	84
245.399	83
245.633	69
245.866	73
246.099	81
246.333	76
246.566	78
246.8	70
247.033	74
247.266	70
247.5	83
247.733	80
247.966	73
248.2	76
248.433	91
248.666	85
248.899	78
249.133	83
249.366	108
249.599	100
249.832	70
250.066	72
250.299	89
250.532	88
250.765	97
250.998	73
251.231	86
251.465	70
251.698	77
251.931	84
252.164	89
252.397	80
252.63	93
252.863	70
253.096	88
253.329	93
253.562	78
253.795	88
254.028	86
254.261	74
254.494	89
254.727	70
254.96	86
255.193	76
255.426	86
255.659	80
255.892	91
256.124	81
256.357	76
256.59	89
256.823	69
257.056	73
257.289	95
257.521	77
257.754	83
257.987	77
258.22	87
258.452	98
258.685	88
258.918	86
259.151	72
259.383	93
259.616	88
259.849	80
260.081	85
260.314	69
260.547	82
260.779	100
261.012	116
261.244	116
261.477	98
261.71	105
261.942	109
262.175	130
262.407	94
262.64	89
262.872	80
263.105	80
263.337	94
263.57	74
263.802	80
264.035	84
264.267	72
264.499	86
264.732	72
264.964	92
265.197	84
265.429	76
265.661	88
265.894	74
266.126	72
266.358	67
266.591	69
266.823	75
267.055	77
267.287	84
267.52	85
267.752	77
267.984	82
268.216	72
268.448	84
268.681	92
268.913	80
269.145	83
269.377	78
269.609	87
269.841	75
270.073	81
270.306	80
270.538	91
270.77	88
271.002	75
271.234	92
271.466	86
271.698	69
271.93	87
272.162	91
272.394	80
272.626	91
272.858	80
273.09	82
273.322	85
273.553	86
273.785	91
274.017	77
274.249	90
274.481	97
274.713	75
274.945	91
275.176	75
275.408	101
275.64	110
275.872	111
276.104	104
276.335	101
276.567	112
276.799	146
277.031	176
277.262	204
277.494	152
277.726	100
277.957	86
278.189	89
278.421	81
278.652	78
278.884	83
279.115	85
279.347	92
279.579	110
279.81	114
280.042	207
280.273	249
280.505	180
280.736	106
280.968	87
281.199	80
281.431	86
281.662	76
281.894	85
282.125	91
282.356	137
282.588	161
282.819	122
283.051	92
283.282	88
283.513	85
283.745	85
283.976	90
284.207	82
284.439	87
284.67	71
284.901	83
285.132	86
285.364	91
285.595	79
285.826	77
286.057	85
286.288	87
286.52	81
286.751	80
286.982	82
287.213	68
287.444	89
287.675	78
287.906	94
288.138	84
288.369	77
288.6	98
288.831	84
289.062	99
289.293	88
289.524	81
289.755	74
289.986	69
290.217	75
290.448	97
290.679	97
290.91	93
291.141	79
291.371	82
291.602	81
291.833	93
292.064	75
292.295	97
292.526	79
292.757	80
292.987	97
293.218	92
293.449	78
293.68	73
293.91	85
294.141	96
294.372	86
294.603	84
294.833	97
295.064	90
295.295	89
295.525	82
295.756	104
295.987	138
296.217	152
296.448	152
296.679	92
296.909	92
297.14	96
297.37	83
297.601	81
297.831	89
298.062	79
298.292	96
298.523	84
298.753	93
298.984	79
299.214	77
299.445	86
299.675	101
299.905	94
300.136	89
300.366	89
300.597	93
300.827	98
301.057	99
301.288	118
301.518	104
301.748	87
301.979	112
302.209	98
302.439	97
302.669	93
302.9	93
303.13	98
303.36	83
303.59	115
303.82	134
304.051	121
304.281	93
304.511	86
304.741	79
304.971	88
305.201	83
305.431	89
305.661	83
305.891	92
306.121	84
306.352	115
306.582	142
306.812	104
307.042	130
307.272	154
307.502	161
307.731	165
307.961	116
308.191	93
308.421	95
308.651	102
308.881	82
309.111	99
309.341	107
309.571	105
309.8	96
310.03	108
310.26	104
310.49	99
310.72	94
310.949	111
311.179	93
311.409	106
311.639	95
311.868	93
312.098	93
312.328	89
312.557	111
312.787	128
313.017	99
313.246	103
313.476	95
313.706	91
313.935	99
314.165	122
314.394	122
314.624	107
314.853	99
315.083	90
315.312	98
315.542	93
315.771	90
316.001	94
316.23	89
316.46	82
316.689	82
316.919	105
317.148	106
317.377	103
317.607	106
317.836	93
318.065	89
318.295	94
318.524	91
318.753	68
318.983	96
319.212	111
319.441	114
319.67	124
319.9	96
320.129	98
320.358	99
320.587	84
320.816	109
321.046	97
321.275	92
321.504	98
321.733	115
321.962	109
322.191	100
322.42	106
322.649	130
322.878	130
323.108	137
323.337	144
323.566	150
323.795	202
324.024	278
324.253	568
324.482	1256
324.71	2611
324.939	3410
325.168	1227
325.397	318
325.626	180
325.855	144
326.084	149
326.313	185
326.542	187
326.77	313
326.999	651
327.228	1341
327.457	2549
327.686	2072
327.914	633
328.143	579
328.372	732
328.6	427
328.829	207
329.058	192
329.287	215
329.515	208
329.744	277
329.972	493
330.201	1051
330.43	1559
330.658	708
330.887	293
331.115	186
331.344	138
331.572	128
331.801	100
332.03	128
332.258	124
332.486	123
332.715	108
332.943	110
333.172	99
333.4	120
333.629	160
333.857	247
334.085	470
334.314	992
334.542	1984
334.771	1876
334.999	477
335.227	190
335.455	132
335.684	120
335.912	114
336.14	92
336.369	122
336.597	123
336.825	119
337.053	93
337.281	91
337.51	107
337.738	83
337.966	93
338.194	95
338.422	101
338.65	88
338.878	93
339.106	85
339.334	92
339.562	85
339.79	98
340.018	86
340.246	92
340.474	89
340.702	85
340.93	89
341.158	95
341.386	97
341.614	97
341.842	101
342.07	77
342.298	80
342.526	88
342.754	91
342.981	78
343.209	94
343.437	101
343.665	81
343.893	97
344.12	94
344.348	92
344.576	84
344.804	97
345.031	109
345.259	95
345.487	86
345.714	96
345.942	97
346.17	95
346.397	80
346.625	85
346.853	84
347.08	84
347.308	88
347.535	91
347.763	118
347.99	109
348.218	96
348.445	108
348.673	95
348.9	89
349.128	93
349.355	88
349.583	96
349.81	96
350.037	96
350.265	101
350.492	96
350.72	99
350.947	100
351.174	111
351.402	128
351.629	111
351.856	105
352.083	111
352.311	122
352.538	120
352.765	100
352.992	118
353.22	109
353.447	116
353.674	101
353.901	97
354.128	91
354.355	79
354.583	88
354.81	90
355.037	99
355.264	90
355.491	91
355.718	97
355.945	88
356.172	87
356.399	102
356.626	86
356.853	77
357.08	86
357.307	85
357.534	99
357.761	95
357.988	98
358.215	73
358.441	78
358.668	101
358.895	93
359.122	83
359.349	80
359.576	85
359.802	113
360.029	141
360.256	115
360.483	96
360.709	85
360.936	91
361.163	86
361.39	124
361.616	97
361.843	94
362.07	108
362.296	100
362.523	109
362.749	91
362.976	84
363.203	93
363.429	88
363.656	92
363.882	80
364.109	84
364.335	84
364.562	85
364.788	92
365.015	95
365.241	90
365.468	118
365.694	112
365.92	100
366.147	102
366.373	93
366.599	88
366.826	88
367.052	88
367.278	80
367.505	92
367.731	80
367.957	99
368.184	95
368.41	114
368.636	126
368.862	116
369.089	109
369.315	99
369.541	88
369.767	93
369.993	97
370.219	94
370.445	83
370.672	96
370.898	92
371.124	86
371.35	93
371.576	82
371.802	84
372.028	98
372.254	78
372.48	78
372.706	88
372.932	81
373.158	88
373.384	89
373.61	93
373.835	80
374.061	82
374.287	85
374.513	94
374.739	88
374.965	91
375.191	94
375.416	94
375.642	84
375.868	95
376.094	88
376.319	83
376.545	95
376.771	95
376.997	70
377.222	93
377.448	81
377.674	83
377.899	81
378.125	80
378.35	93
378.576	76
378.802	88
379.027	82
379.253	79
379.478	93
379.704	88
379.929	93
380.155	101
380.38	93
380.606	96
380.831	91
381.057	98
381.282	86
381.507	79
381.733	80
381.958	86
382.184	87
382.409	90
382.634	89
382.86	107
383.085	90
383.31	77
383.535	85
383.761	71
383.986	98
384.211	84
384.436	92
384.662	90
384.887	97
385.112	94
385.337	96
385.562	89
385.787	98
386.013	102
386.238	110
386.463	108
386.688	100
386.913	110
387.138	96
387.363	86
387.588	81
387.813	88
388.038	95
388.263	98
388.488	90
388.713	83
388.938	93
389.163	94
389.387	93
389.612	95
389.837	95
390.062	109
390.287	96
390.512	82
390.736	78
390.961	89
391.186	80
391.411	83
391.636	87
391.86	91
392.085	82
392.31	90
392.534	90
392.759	90
392.984	87
393.208	85
393.433	86
393.658	78
393.882	70
394.107	84
394.331	80
394.556	87
394.78	75
395.005	69
395.229	77
395.454	78
395.678	76
395.903	100
396.127	94
396.352	92
396.576	96
396.801	93
397.025	76
397.249	80
397.474	84
397.698	93
397.922	95
398.147	72
398.371	84
398.595	84
398.82	81
399.044	75
399.268	81
399.492	96
399.717	89
399.941	94
400.165	96
400.389	92
400.613	85
400.837	75
401.062	77
401.286	80
401.51	90
401.734	96
401.958	104
402.182	155
402.406	190
402.63	136
402.854	104
403.078	99
403.302	92
403.526	91
403.75	78
403.974	77
404.198	86
404.422	82
404.645	90
404.869	114
405.093	124
405.317	161
405.541	153
405.765	128
405.988	132
406.212	209
406.436	285
406.66	196
406.883	121
407.107	101
407.331	106
407.555	129
407.778	96
408.002	101
408.226	81
408.449	97
408.673	97
408.896	102
409.12	105
409.344	101
409.567	78
409.791	89
410.014	92
410.238	91
410.461	80
410.685	92
410.908	102
411.132	100
411.355	114
411.578	97
411.802	84
412.025	83
412.249	96
412.472	121
412.695	151
412.919	118
413.142	82
413.365	107
413.589	98
413.812	91
414.035	83
414.258	96
414.482	94
414.705	92
414.928	83
415.151	95
415.374	79
415.597	89
415.821	91
416.044	88
416.267	92
416.49	100
416.713	82
416.936	91
417.159	91
417.382	101
417.605	106
417.828	95
418.051	100
418.274	90
418.497	88
418.72	90
418.943	82
419.166	78
419.389	85
419.611	81
419.834	82
420.057	90
420.28	92
420.503	90
420.726	85
420.948	99
421.171	104
421.394	94
421.617	83
421.839	86
422.062	91
422.285	95
422.507	110
422.73	106
422.953	96
423.175	82
423.398	85
423.621	83
423.843	86
424.066	89
424.288	94
424.511	103
424.733	111
424.956	131
425.178	113
425.401	96
425.623	100
425.846	101
426.068	93
426.291	105
426.513	93
426.735	97
426.958	86
427.18	122
427.402	189
427.625	266
427.847	262
428.069	256
428.292	135
428.514	108
428.736	76
428.958	82
429.181	88
429.403	82
429.625	84
429.847	94
430.069	125
430.292	98
430.514	97
430.736	83
430.958	78
431.18	84
431.402	83
431.624	84
431.846	77
432.068	75
432.29	89
432.512	90
432.734	77
432.956	81
433.178	101
433.4	105
433.622	91
433.844	97
434.066	85
434.287	78
434.509	92
434.731	96
434.953	88
435.175	87
435.397	92
435.618	102
435.84	131
436.062	174
436.284	139
436.505	121
436.727	104
436.949	73
437.17	79
437.392	84
437.614	105
437.835	132
438.057	158
438.278	132
438.5	115
438.721	140
438.943	126
439.165	72
439.386	87
439.608	106
439.829	120
440.05	149
440.272	198
440.493	124
440.715	91
440.936	87
441.158	92
441.379	64
441.6	112
441.822	106
442.043	105
442.264	124
442.486	109
442.707	111
442.928	115
443.149	176
443.371	156
443.592	136
443.813	129
444.034	126
444.255	94
444.476	82
444.698	89
444.919	88
445.14	119
445.361	148
445.582	144
445.803	193
446.024	214
446.245	191
446.466	152
446.687	106
446.908	93
447.129	78
447.35	91
447.571	86
447.792	89
448.013	102
448.234	115
448.455	109
448.675	128
448.896	163
449.117	116
449.338	114
449.559	157
449.779	181
450	104
450.221	84
450.442	76
450.662	89
450.883	133
451.104	160
451.324	106
451.545	88
451.766	74
451.986	76
452.207	73
452.428	91
452.648	107
452.869	130
453.089	128
453.31	134
453.53	99
453.751	99
453.971	109
454.192	130
454.412	91
454.633	79
454.853	77
455.073	92
455.294	95
455.514	113
455.734	97
455.955	85
456.175	88
456.395	65
456.616	89
456.836	82
457.056	90
457.276	69
457.497	76
457.717	97
457.937	81
458.157	94
458.377	95
458.598	131
458.818	208
459.038	232
459.258	150
459.478	86
459.698	82
459.918	75
460.138	74
460.358	85
460.578	83
460.798	84
461.018	78
461.238	83
461.458	88
461.678	79
461.898	97
462.118	89
462.338	88
462.558	98
462.777	92
462.997	112
463.217	104
463.437	93
463.657	85
463.876	78
464.096	106
464.316	116
464.536	121
464.755	102
464.975	123
465.195	238
465.414	241
465.634	127
465.854	92
466.073	91
466.293	78
466.512	92
466.732	96
466.951	92
467.171	105
467.391	115
467.61	130
467.829	210
468.049	579
468.268	908
468.488	226
468.707	105
468.927	94
469.146	103
469.365	103
469.585	86
469.804	96
470.023	102
470.243	94
470.462	108
470.681	151
470.901	112
471.12	92
471.339	107
471.558	124
471.777	157
471.997	301
472.216	1105
472.435	2653
472.654	653
472.873	162
473.092	93
473.311	93
473.53	93
473.749	80
473.968	116
474.187	142
474.406	106
474.625	100
474.844	69
475.063	84
475.282	103
475.501	85
475.72	106
475.939	96
476.158	78
476.377	101
476.596	96
476.814	92
477.033	97
477.252	86
477.471	93
477.69	95
477.908	92
478.127	88
478.346	80
478.564	99
478.783	93
479.002	114
479.22	128
479.439	146
479.658	137
479.876	134
480.095	114
480.313	133
480.532	161
480.751	270
480.969	1029
481.188	4437
481.406	2781
481.624	385
481.843	144
482.061	106
482.28	93
482.498	101
482.717	81
482.935	86
483.153	82
483.372	91
483.59	88
483.808	81
484.027	82
484.245	99
484.463	99
484.681	121
484.9	80
485.118	89
485.336	101
485.554	99
485.772	81
485.99	116
486.209	109
486.427	128
486.645	114
486.863	131
487.081	109
487.299	91
487.517	94
487.735	101
487.953	86
488.171	92
488.389	111
488.607	101
488.825	101
489.043	82
489.261	89
489.479	77
489.696	79
489.914	98
490.132	79
490.35	88
490.568	93
490.786	78
491.003	90
491.221	91
491.439	105
491.657	100
491.874	93
492.092	105
492.31	84
492.527	113
492.745	94
492.963	87
493.18	104
493.398	85
493.615	85
493.833	82
494.05	98
494.268	104
494.485	97
494.703	76
494.92	93
495.138	88
495.355	81
495.573	79
495.79	86
496.008	104
496.225	97
496.442	97
496.66	92
496.877	95
497.094	98
497.312	82
497.529	98
497.746	109
497.963	86
498.181	95
498.398	94
498.615	106
498.832	110
499.049	91
499.267	88
499.484	91
499.701	81
499.918	104
500.135	104
500.352	98
500.569	86
500.786	78
501.003	94
501.22	76
501.437	97
501.654	106
501.871	128
502.088	95
502.305	86
502.522	93
502.739	93
502.956	100
503.172	92
503.389	112
503.606	131
503.823	99
504.04	81
504.256	91
504.473	91
504.69	86
504.907	83
505.123	92
505.34	86
505.557	82
505.773	82
505.99	88
506.207	84
506.423	88
506.64	86
506.856	85
507.073	85
507.289	96
507.506	106
507.722	140
507.939	141
508.155	91
508.372	96
508.588	92
508.805	120
509.021	101
509.238	116
509.454	96
509.67	98
509.887	99
510.103	155
510.319	232
510.536	906
510.752	3107
510.968	920
511.184	181
511.401	146
511.617	108
511.833	101
512.049	104
512.265	111
512.481	91
512.698	92
512.914	85
513.13	103
513.346	92
513.562	80
513.778	93
513.994	91
514.21	108
514.426	163
514.642	176
514.858	180
515.074	217
515.29	707
515.506	2477
515.721	920
515.937	222
516.153	130
516.369	93
516.585	106
516.801	89
517.016	95
517.232	100
517.448	101
517.664	112
517.879	104
518.095	96
518.311	121
518.527	106
518.742	101
518.958	91
519.173	98
519.389	103
519.605	104
519.82	125
520.036	103
520.251	158
520.467	138
520.682	128
520.898	130
521.113	136
521.329	180
521.544	300
521.76	943
521.975	4192
522.19	2610
522.406	515
522.621	159
522.836	110
523.052	108
523.267	99
523.482	108
523.698	117
523.913	145
524.128	104
524.343	94
524.559	112
524.774	87
524.989	91
525.204	118
525.419	106
525.634	102
525.849	81
526.064	90
526.28	97
526.495	101
526.71	92
526.925	91
527.14	74
527.355	76
527.57	97
527.785	99
527.999	81
528.214	97
528.429	84
528.644	100
528.859	92
529.074	92
529.289	151
529.503	268
529.718	122
529.933	99
530.148	109
530.363	90
530.577	97
530.792	109
531.007	91
531.221	100
531.436	93
531.651	79
531.865	80
532.08	75
532.295	105
532.509	99
532.724	80
532.938	81
533.153	89
533.367	88
533.582	98
533.796	79
534.011	89
534.225	101
534.44	89
534.654	84
534.868	97
535.083	81
535.297	99
535.511	99
535.726	120
535.94	97
536.154	102
536.369	92
536.583	79
536.797	84
537.011	77
537.225	75
537.44	92
537.654	89
537.868	87
538.082	79
538.296	91
538.51	96
538.724	87
538.938	91
539.153	96
539.367	124
539.581	101
539.795	88
540.009	93
540.222	84
540.436	107
540.65	75
540.864	97
541.078	85
541.292	95
541.506	83
541.72	70
541.934	91
542.147	93
542.361	85
542.575	87
542.789	110
543.002	90
543.216	98
543.43	112
543.644	93
543.857	101
544.071	83
544.285	82
544.498	83
544.712	90
544.925	79
545.139	85
545.352	90
545.566	100
545.779	90
545.993	84
546.206	92
546.42	101
546.633	96
546.847	97
547.06	84
547.274	87
547.487	82
547.7	93
547.914	76
548.127	95
548.34	92
548.554	86
548.767	91
548.98	89
549.193	94
549.407	80
549.62	76
549.833	83
550.046	69
550.259	90
550.473	94
550.686	96
550.899	82
551.112	95
551.325	104
551.538	96
551.751	90
551.964	91
552.177	101
552.39	91
552.603	85
552.816	105
553.029	83
553.242	96
553.455	104
553.667	121
553.88	121
554.093	106
554.306	109
554.519	107
554.732	106
554.944	94
555.157	94
555.37	89
555.583	87
555.795	108
556.008	86
556.221	93
556.433	90
556.646	99
556.859	81
557.071	72
557.284	86
557.496	80
557.709	83
557.921	92
558.134	97
558.346	86
558.559	91
558.771	92
558.984	92
559.196	89
559.409	82
559.621	81
559.833	90
560.046	91
560.258	101
560.47	134
560.683	120
560.895	81
561.107	82
561.32	87
561.532	77
561.744	96
561.956	81
562.168	80
562.381	99
562.593	102
562.805	86
563.017	97
563.229	72
563.441	84
563.653	97
563.865	85
564.077	82
564.289	90
564.501	84
564.713	83
564.925	94
565.137	105
565.349	82
565.561	83
565.773	79
565.985	80
566.197	86
566.408	85
566.62	73
566.832	97
567.044	80
567.255	85
567.467	88
567.679	75
567.891	66
568.102	84
568.314	85
568.526	79
568.737	78
568.949	89
569.161	85
569.372	82
569.584	83
569.795	92
570.007	102
570.218	280
570.43	155
570.641	94
570.853	65
571.064	99
571.276	97
571.487	94
571.698	80
571.91	84
572.121	95
572.333	87
572.544	90
572.755	89
572.966	79
573.178	70
573.389	80
573.6	84
573.811	82
574.023	79
574.234	93
574.445	69
574.656	87
574.867	86
575.078	72
575.289	82
575.501	76
575.712	69
575.923	89
576.134	81
576.345	84
576.556	97
576.767	98
576.978	97
577.188	108
577.399	105
577.61	101
577.821	109
578.032	125
578.243	302
578.454	986
578.665	252
578.875	96
579.086	98
579.297	91
579.508	75
579.718	74
579.929	102
580.14	76
580.35	79
580.561	88
580.772	85
580.982	81
581.193	90
581.403	74
581.614	70
581.825	87
582.035	78
