Data from Circ_2023_H10_HRD10591_00019.txt Node
Date: Wed Jan 03 09:50:34 EST 2024
User: Yrep
Spectrometer: HR+D1059
Trigger mode: 1
Integration Time (sec): 1.000000E-1
Scans to average: 1
Electric dark correction enabled: true
Nonlinearity correction enabled: false
Boxcar width: 0
XAxis mode: Wavelengths
Number of Pixels in Spectrum: 2048
>>>>>Begin Spectral Data<<<<<
223.165	-19.38
223.4	-19.38
223.635	-19.38
223.869	-9.38
224.104	-13.38
224.338	-20.38
224.573	-17.38
224.808	-5.38
225.042	-9.38
225.277	5.62
225.511	4.62
225.746	-7.38
225.98	9.62
226.215	16.62
226.449	7.62
226.683	14.62
226.918	17.62
227.152	25.62
227.387	31.62
227.621	42.62
227.856	46.62
228.09	52.62
228.324	48.62
228.559	68.62
228.793	63.62
229.027	64.62
229.262	76.62
229.496	73.62
229.73	108.62
229.964	104.62
230.199	87.62
230.433	85.62
230.667	83.62
230.901	74.62
231.136	82.62
231.37	93.62
231.604	92.62
231.838	88.62
232.072	78.62
232.306	79.62
232.541	83.62
232.775	89.62
233.009	84.62
233.243	82.62
233.477	82.62
233.711	80.62
233.945	80.62
234.179	88.62
234.413	87.62
234.647	76.62
234.881	68.62
235.115	69.62
235.349	68.62
235.583	76.62
235.817	84.62
236.051	82.62
236.285	85.62
236.519	81.62
236.753	92.62
236.987	83.62
237.221	97.62
237.455	107.62
237.689	85.62
237.922	72.62
238.156	66.62
238.39	84.62
238.624	77.62
238.858	77.62
239.091	69.62
239.325	87.62
239.559	84.62
239.793	81.62
240.027	86.62
240.26	65.62
240.494	63.62
240.728	74.62
240.961	80.62
241.195	73.62
241.429	81.62
241.662	77.62
241.896	79.62
242.13	86.62
242.363	68.62
242.597	79.62
242.83	79.62
243.064	84.62
243.298	78.62
243.531	76.62
243.765	72.62
243.998	97.62
244.232	87.62
244.465	76.62
244.699	85.62
244.932	88.62
245.166	96.62
245.399	92.62
245.633	89.62
245.866	91.62
246.099	81.62
246.333	88.62
246.566	84.62
246.8	79.62
247.033	83.62
247.266	96.62
247.5	75.62
247.733	82.62
247.966	86.62
248.2	77.62
248.433	84.62
248.666	82.62
248.899	75.62
249.133	92.62
249.366	106.62
249.599	106.62
249.832	83.62
250.066	79.62
250.299	102.62
250.532	74.62
250.765	86.62
250.998	87.62
251.231	90.62
251.465	79.62
251.698	88.62
251.931	73.62
252.164	82.62
252.397	85.62
252.63	79.62
252.863	83.62
253.096	76.62
253.329	97.62
253.562	79.62
253.795	67.62
254.028	87.62
254.261	73.62
254.494	72.62
254.727	88.62
254.96	95.62
255.193	85.62
255.426	77.62
255.659	83.62
255.892	108.62
256.124	95.62
256.357	79.62
256.59	86.62
256.823	78.62
257.056	82.62
257.289	86.62
257.521	72.62
257.754	90.62
257.987	87.62
258.22	101.62
258.452	105.62
258.685	103.62
258.918	88.62
259.151	71.62
259.383	81.62
259.616	87.62
259.849	92.62
260.081	89.62
260.314	86.62
260.547	87.62
260.779	102.62
261.012	114.62
261.244	99.62
261.477	111.62
261.71	88.62
261.942	129.62
262.175	138.62
262.407	94.62
262.64	89.62
262.872	80.62
263.105	92.62
263.337	95.62
263.57	82.62
263.802	82.62
264.035	83.62
264.267	72.62
264.499	76.62
264.732	87.62
264.964	83.62
265.197	82.62
265.429	80.62
265.661	84.62
265.894	92.62
266.126	90.62
266.358	56.62
266.591	89.62
266.823	73.62
267.055	82.62
267.287	82.62
267.52	81.62
267.752	93.62
267.984	91.62
268.216	87.62
268.448	75.62
268.681	88.62
268.913	105.62
269.145	96.62
269.377	78.62
269.609	85.62
269.841	91.62
270.073	82.62
270.306	95.62
270.538	89.62
270.77	84.62
271.002	79.62
271.234	98.62
271.466	102.62
271.698	96.62
271.93	97.62
272.162	89.62
272.394	104.62
272.626	74.62
272.858	93.62
273.09	104.62
273.322	92.62
273.553	82.62
273.785	92.62
274.017	83.62
274.249	75.62
274.481	95.62
274.713	90.62
274.945	100.62
275.176	88.62
275.408	111.62
275.64	98.62
275.872	106.62
276.104	101.62
276.335	86.62
276.567	114.62
276.799	135.62
277.031	161.62
277.262	196.62
277.494	143.62
277.726	78.62
277.957	104.62
278.189	93.62
278.421	85.62
278.652	92.62
278.884	84.62
279.115	82.62
279.347	94.62
279.579	112.62
279.81	113.62
280.042	169.62
280.273	238.62
280.505	178.62
280.736	107.62
280.968	90.62
281.199	90.62
281.431	89.62
281.662	86.62
281.894	94.62
282.125	83.62
282.356	138.62
282.588	178.62
282.819	129.62
283.051	113.62
283.282	98.62
283.513	90.62
283.745	86.62
283.976	94.62
284.207	71.62
284.439	89.62
284.67	80.62
284.901	93.62
285.132	92.62
285.364	94.62
285.595	91.62
285.826	103.62
286.057	100.62
286.288	84.62
286.52	98.62
286.751	78.62
286.982	91.62
287.213	84.62
287.444	95.62
287.675	89.62
287.906	77.62
288.138	74.62
288.369	95.62
288.6	93.62
288.831	87.62
289.062	102.62
289.293	93.62
289.524	99.62
289.755	86.62
289.986	95.62
290.217	93.62
290.448	80.62
290.679	97.62
290.91	95.62
291.141	107.62
291.371	89.62
291.602	92.62
291.833	81.62
292.064	65.62
292.295	100.62
292.526	93.62
292.757	90.62
292.987	92.62
293.218	80.62
293.449	90.62
293.68	96.62
293.91	88.62
294.141	92.62
294.372	90.62
294.603	85.62
294.833	76.62
295.064	83.62
295.295	80.62
295.525	90.62
295.756	118.62
295.987	124.62
296.217	165.62
296.448	155.62
296.679	99.62
296.909	100.62
297.14	82.62
297.37	107.62
297.601	102.62
297.831	93.62
298.062	84.62
298.292	84.62
298.523	98.62
298.753	96.62
298.984	85.62
299.214	101.62
299.445	96.62
299.675	98.62
299.905	107.62
300.136	95.62
300.366	78.62
300.597	94.62
300.827	99.62
301.057	101.62
301.288	112.62
301.518	111.62
301.748	106.62
301.979	112.62
302.209	103.62
302.439	91.62
302.669	100.62
302.9	95.62
303.13	102.62
303.36	116.62
303.59	135.62
303.82	145.62
304.051	110.62
304.281	85.62
304.511	108.62
304.741	92.62
304.971	95.62
305.201	115.62
305.431	99.62
305.661	97.62
305.891	106.62
306.121	103.62
306.352	114.62
306.582	134.62
306.812	116.62
307.042	124.62
307.272	151.62
307.502	155.62
307.731	181.62
307.961	122.62
308.191	90.62
308.421	92.62
308.651	89.62
308.881	110.62
309.111	104.62
309.341	96.62
309.571	103.62
309.8	94.62
310.03	114.62
310.26	119.62
310.49	99.62
310.72	112.62
310.949	119.62
311.179	133.62
311.409	99.62
311.639	91.62
311.868	103.62
312.098	105.62
312.328	100.62
312.557	124.62
312.787	113.62
313.017	128.62
313.246	100.62
313.476	94.62
313.706	107.62
313.935	99.62
314.165	96.62
314.394	131.62
314.624	101.62
314.853	111.62
315.083	95.62
315.312	91.62
315.542	94.62
315.771	87.62
316.001	81.62
316.23	90.62
316.46	104.62
316.689	105.62
316.919	101.62
317.148	95.62
317.377	102.62
317.607	89.62
317.836	87.62
318.065	92.62
318.295	108.62
318.524	86.62
318.753	116.62
318.983	99.62
319.212	118.62
319.441	116.62
319.67	129.62
319.9	104.62
320.129	104.62
320.358	97.62
320.587	103.62
320.816	114.62
321.046	113.62
321.275	104.62
321.504	118.62
321.733	104.62
321.962	96.62
322.191	97.62
322.42	115.62
322.649	110.62
322.878	130.62
323.108	146.62
323.337	148.62
323.566	168.62
323.795	202.62
324.024	258.62
324.253	502.62
324.482	1122.62
324.71	2320.62
324.939	3154.62
325.168	1160.62
325.397	320.62
325.626	175.62
325.855	159.62
326.084	143.62
326.313	151.62
326.542	183.62
326.77	293.62
326.999	582.62
327.228	1215.62
327.457	2246.62
327.686	1849.62
327.914	608.62
328.143	506.62
328.372	619.62
328.6	366.62
328.829	201.62
329.058	196.62
329.287	209.62
329.515	189.62
329.744	237.62
329.972	456.62
330.201	878.62
330.43	1336.62
330.658	620.62
330.887	300.62
331.115	182.62
331.344	137.62
331.572	112.62
331.801	131.62
332.03	133.62
332.258	128.62
332.486	111.62
332.715	103.62
332.943	112.62
333.172	118.62
333.4	131.62
333.629	159.62
333.857	219.62
334.085	409.62
334.314	859.62
334.542	1649.62
334.771	1634.62
334.999	410.62
335.227	168.62
335.455	134.62
335.684	112.62
335.912	107.62
336.14	95.62
336.369	102.62
336.597	110.62
336.825	137.62
337.053	122.62
337.281	85.62
337.51	103.62
337.738	101.62
337.966	101.62
338.194	114.62
338.422	108.62
338.65	91.62
338.878	98.62
339.106	105.62
339.334	107.62
339.562	102.62
339.79	106.62
340.018	91.62
340.246	101.62
340.474	99.62
340.702	111.62
340.93	99.62
341.158	107.62
341.386	99.62
341.614	99.62
341.842	123.62
342.07	92.62
342.298	83.62
342.526	85.62
342.754	87.62
342.981	106.62
343.209	88.62
343.437	98.62
343.665	88.62
343.893	91.62
344.12	89.62
344.348	78.62
344.576	98.62
344.804	108.62
345.031	103.62
345.259	112.62
345.487	107.62
345.714	102.62
345.942	89.62
346.17	104.62
346.397	100.62
346.625	91.62
346.853	99.62
347.08	101.62
347.308	104.62
347.535	112.62
347.763	103.62
347.99	119.62
348.218	123.62
348.445	130.62
348.673	113.62
348.9	105.62
349.128	98.62
349.355	93.62
349.583	89.62
349.81	98.62
350.037	101.62
350.265	79.62
350.492	91.62
350.72	97.62
350.947	108.62
351.174	130.62
351.402	135.62
351.629	110.62
351.856	116.62
352.083	119.62
352.311	110.62
352.538	121.62
352.765	129.62
352.992	131.62
353.22	122.62
353.447	103.62
353.674	103.62
353.901	95.62
354.128	74.62
354.355	102.62
354.583	98.62
354.81	99.62
355.037	102.62
355.264	99.62
355.491	107.62
355.718	92.62
355.945	102.62
356.172	90.62
356.399	101.62
356.626	97.62
356.853	96.62
357.08	95.62
357.307	91.62
357.534	101.62
357.761	103.62
357.988	105.62
358.215	91.62
358.441	86.62
358.668	94.62
358.895	86.62
359.122	99.62
359.349	94.62
359.576	100.62
359.802	116.62
360.029	139.62
360.256	134.62
360.483	115.62
360.709	94.62
360.936	89.62
361.163	101.62
361.39	101.62
361.616	113.62
361.843	89.62
362.07	103.62
362.296	101.62
362.523	104.62
362.749	106.62
362.976	119.62
363.203	101.62
363.429	88.62
363.656	102.62
363.882	88.62
364.109	100.62
364.335	96.62
364.562	91.62
364.788	111.62
365.015	95.62
365.241	117.62
365.468	122.62
365.694	135.62
365.92	111.62
366.147	104.62
366.373	94.62
366.599	85.62
366.826	90.62
367.052	90.62
367.278	89.62
367.505	101.62
367.731	100.62
367.957	93.62
368.184	88.62
368.41	111.62
368.636	136.62
368.862	141.62
369.089	134.62
369.315	104.62
369.541	97.62
369.767	89.62
369.993	91.62
370.219	96.62
370.445	87.62
370.672	101.62
370.898	87.62
371.124	95.62
371.35	95.62
371.576	94.62
371.802	92.62
372.028	100.62
372.254	93.62
372.48	82.62
372.706	93.62
372.932	81.62
373.158	94.62
373.384	98.62
373.61	95.62
373.835	111.62
374.061	109.62
374.287	106.62
374.513	93.62
374.739	97.62
374.965	88.62
375.191	89.62
375.416	89.62
375.642	81.62
375.868	100.62
376.094	91.62
376.319	87.62
376.545	89.62
376.771	85.62
376.997	96.62
377.222	85.62
377.448	88.62
377.674	87.62
377.899	94.62
378.125	83.62
378.35	95.62
378.576	80.62
378.802	98.62
379.027	80.62
379.253	90.62
379.478	96.62
379.704	104.62
379.929	90.62
380.155	95.62
380.38	97.62
380.606	105.62
380.831	106.62
381.057	116.62
381.282	91.62
381.507	85.62
381.733	91.62
381.958	94.62
382.184	102.62
382.409	99.62
382.634	87.62
382.86	99.62
383.085	104.62
383.31	107.62
383.535	91.62
383.761	105.62
383.986	95.62
384.211	79.62
384.436	100.62
384.662	96.62
384.887	93.62
385.112	88.62
385.337	98.62
385.562	97.62
385.787	96.62
386.013	113.62
386.238	127.62
386.463	112.62
386.688	94.62
386.913	94.62
387.138	112.62
387.363	96.62
387.588	109.62
387.813	91.62
388.038	103.62
388.263	94.62
388.488	107.62
388.713	99.62
388.938	94.62
389.163	95.62
389.387	91.62
389.612	84.62
389.837	90.62
390.062	98.62
390.287	101.62
390.512	97.62
390.736	105.62
390.961	95.62
391.186	101.62
391.411	85.62
391.636	86.62
391.86	97.62
392.085	79.62
392.31	96.62
392.534	80.62
392.759	95.62
392.984	83.62
393.208	94.62
393.433	83.62
393.658	102.62
393.882	84.62
394.107	95.62
394.331	99.62
394.556	96.62
394.78	76.62
395.005	93.62
395.229	83.62
395.454	80.62
395.678	100.62
395.903	95.62
396.127	90.62
396.352	98.62
396.576	97.62
396.801	97.62
397.025	94.62
397.249	98.62
397.474	86.62
397.698	87.62
397.922	98.62
398.147	99.62
398.371	103.62
398.595	98.62
398.82	72.62
399.044	100.62
399.268	99.62
399.492	108.62
399.717	89.62
399.941	92.62
400.165	88.62
400.389	105.62
400.613	78.62
400.837	81.62
401.062	79.62
401.286	94.62
401.51	89.62
401.734	98.62
401.958	110.62
402.182	164.62
402.406	210.62
402.63	149.62
402.854	103.62
403.078	83.62
403.302	88.62
403.526	81.62
403.75	101.62
403.974	101.62
404.198	83.62
404.422	88.62
404.645	88.62
404.869	105.62
405.093	114.62
405.317	137.62
405.541	138.62
405.765	122.62
405.988	150.62
406.212	224.62
406.436	330.62
406.66	202.62
406.883	125.62
407.107	99.62
407.331	95.62
407.555	118.62
407.778	117.62
408.002	95.62
408.226	93.62
408.449	74.62
408.673	87.62
408.896	84.62
409.12	98.62
409.344	88.62
409.567	89.62
409.791	97.62
410.014	97.62
410.238	96.62
410.461	94.62
410.685	109.62
410.908	98.62
411.132	102.62
411.355	105.62
411.578	107.62
411.802	79.62
412.025	88.62
412.249	102.62
412.472	107.62
412.695	129.62
412.919	112.62
413.142	114.62
413.365	83.62
413.589	100.62
413.812	100.62
414.035	77.62
414.258	88.62
414.482	86.62
414.705	88.62
414.928	86.62
415.151	101.62
415.374	89.62
415.597	88.62
415.821	95.62
416.044	83.62
416.267	95.62
416.49	65.62
416.713	82.62
416.936	95.62
417.159	103.62
417.382	83.62
417.605	105.62
417.828	100.62
418.051	111.62
418.274	99.62
418.497	87.62
418.72	76.62
418.943	92.62
419.166	96.62
419.389	82.62
419.611	87.62
419.834	83.62
420.057	93.62
420.28	105.62
420.503	84.62
420.726	93.62
420.948	95.62
421.171	101.62
421.394	92.62
421.617	103.62
421.839	90.62
422.062	89.62
422.285	84.62
422.507	111.62
422.73	115.62
422.953	110.62
423.175	89.62
423.398	101.62
423.621	98.62
423.843	97.62
424.066	78.62
424.288	98.62
424.511	100.62
424.733	105.62
424.956	115.62
425.178	105.62
425.401	113.62
425.623	112.62
425.846	85.62
426.068	112.62
426.291	94.62
426.513	110.62
426.735	112.62
426.958	110.62
427.18	130.62
427.402	184.62
427.625	272.62
427.847	260.62
428.069	238.62
428.292	132.62
428.514	104.62
428.736	97.62
428.958	103.62
429.181	96.62
429.403	105.62
429.625	93.62
429.847	100.62
430.069	118.62
430.292	95.62
430.514	91.62
430.736	85.62
430.958	87.62
431.18	93.62
431.402	89.62
431.624	81.62
431.846	85.62
432.068	83.62
432.29	92.62
432.512	95.62
432.734	99.62
432.956	104.62
433.178	103.62
433.4	108.62
433.622	84.62
433.844	98.62
434.066	94.62
434.287	112.62
434.509	91.62
434.731	85.62
434.953	91.62
435.175	91.62
435.397	84.62
435.618	107.62
435.84	117.62
436.062	143.62
436.284	142.62
436.505	125.62
436.727	120.62
436.949	107.62
437.17	88.62
437.392	94.62
437.614	107.62
437.835	133.62
438.057	145.62
438.278	157.62
438.5	130.62
438.721	134.62
438.943	100.62
439.165	92.62
439.386	94.62
439.608	107.62
439.829	120.62
440.05	160.62
440.272	191.62
440.493	115.62
440.715	91.62
440.936	86.62
441.158	102.62
441.379	109.62
441.6	107.62
441.822	123.62
442.043	98.62
442.264	115.62
442.486	121.62
442.707	99.62
442.928	126.62
443.149	180.62
443.371	192.62
443.592	139.62
443.813	148.62
444.034	119.62
444.255	104.62
444.476	82.62
444.698	86.62
444.919	92.62
445.14	139.62
445.361	145.62
445.582	136.62
445.803	186.62
446.024	186.62
446.245	168.62
446.466	131.62
446.687	95.62
446.908	87.62
447.129	102.62
447.35	102.62
447.571	104.62
447.792	102.62
448.013	110.62
448.234	117.62
448.455	121.62
448.675	135.62
448.896	129.62
449.117	118.62
449.338	112.62
449.559	159.62
449.779	172.62
450	103.62
450.221	95.62
450.442	104.62
450.662	118.62
450.883	127.62
451.104	146.62
451.324	121.62
451.545	99.62
451.766	100.62
451.986	88.62
452.207	93.62
452.428	95.62
452.648	110.62
452.869	117.62
453.089	140.62
453.31	145.62
453.53	94.62
453.751	99.62
453.971	112.62
454.192	128.62
454.412	102.62
454.633	88.62
454.853	88.62
455.073	91.62
455.294	95.62
455.514	108.62
455.734	99.62
455.955	95.62
456.175	90.62
456.395	94.62
456.616	91.62
456.836	93.62
457.056	81.62
457.276	75.62
457.497	114.62
457.717	80.62
457.937	81.62
458.157	91.62
458.377	99.62
458.598	132.62
458.818	231.62
459.038	264.62
459.258	167.62
459.478	119.62
459.698	104.62
459.918	87.62
460.138	82.62
460.358	83.62
460.578	95.62
460.798	96.62
461.018	102.62
461.238	86.62
461.458	90.62
461.678	92.62
461.898	106.62
462.118	94.62
462.338	92.62
462.558	89.62
462.777	107.62
462.997	96.62
463.217	106.62
463.437	104.62
463.657	99.62
463.876	96.62
464.096	91.62
464.316	102.62
464.536	101.62
464.755	92.62
464.975	130.62
465.195	254.62
465.414	247.62
465.634	122.62
465.854	95.62
466.073	89.62
466.293	91.62
466.512	98.62
466.732	78.62
466.951	99.62
467.171	101.62
467.391	118.62
467.61	153.62
467.829	201.62
468.049	517.62
468.268	809.62
468.488	222.62
468.707	115.62
468.927	91.62
469.146	100.62
469.365	96.62
469.585	110.62
469.804	111.62
470.023	122.62
470.243	114.62
470.462	130.62
470.681	147.62
470.901	119.62
471.12	110.62
471.339	99.62
471.558	132.62
471.777	158.62
471.997	260.62
472.216	1009.62
472.435	2368.62
472.654	588.62
472.873	151.62
473.092	103.62
473.311	90.62
473.53	98.62
473.749	95.62
473.968	121.62
474.187	134.62
474.406	123.62
474.625	102.62
474.844	87.62
475.063	97.62
475.282	89.62
475.501	106.62
475.72	98.62
475.939	89.62
476.158	99.62
476.377	82.62
476.596	90.62
476.814	103.62
477.033	108.62
477.252	99.62
477.471	95.62
477.69	86.62
477.908	89.62
478.127	99.62
478.346	97.62
478.564	86.62
478.783	101.62
479.002	118.62
479.22	107.62
479.439	118.62
479.658	138.62
479.876	118.62
480.095	130.62
480.313	140.62
480.532	141.62
480.751	260.62
480.969	902.62
481.188	3838.62
481.406	2386.62
481.624	340.62
481.843	129.62
482.061	118.62
482.28	97.62
482.498	115.62
482.717	104.62
482.935	91.62
483.153	94.62
483.372	94.62
483.59	88.62
483.808	91.62
484.027	78.62
484.245	93.62
484.463	99.62
484.681	108.62
484.9	99.62
485.118	103.62
485.336	111.62
485.554	112.62
485.772	112.62
485.99	98.62
486.209	113.62
486.427	122.62
486.645	124.62
486.863	129.62
487.081	114.62
487.299	82.62
487.517	92.62
487.735	111.62
487.953	91.62
488.171	95.62
488.389	99.62
488.607	113.62
488.825	92.62
489.043	102.62
489.261	90.62
489.479	100.62
489.696	97.62
489.914	86.62
490.132	99.62
490.35	90.62
490.568	91.62
490.786	88.62
491.003	82.62
491.221	101.62
491.439	101.62
491.657	100.62
491.874	105.62
492.092	100.62
492.31	107.62
492.527	104.62
492.745	104.62
492.963	105.62
493.18	95.62
493.398	107.62
493.615	88.62
493.833	87.62
494.05	89.62
494.268	91.62
494.485	102.62
494.703	85.62
494.92	94.62
495.138	103.62
495.355	88.62
495.573	91.62
495.79	103.62
496.008	101.62
496.225	88.62
496.442	84.62
496.66	110.62
496.877	78.62
497.094	95.62
497.312	102.62
497.529	95.62
497.746	95.62
497.963	92.62
498.181	95.62
498.398	108.62
498.615	120.62
498.832	112.62
499.049	102.62
499.267	88.62
499.484	94.62
499.701	103.62
499.918	95.62
500.135	79.62
500.352	94.62
500.569	85.62
500.786	104.62
501.003	94.62
501.22	93.62
501.437	102.62
501.654	90.62
501.871	135.62
502.088	91.62
502.305	87.62
502.522	105.62
502.739	91.62
502.956	102.62
503.172	99.62
503.389	103.62
503.606	135.62
503.823	111.62
504.04	105.62
504.256	95.62
504.473	99.62
504.69	92.62
504.907	94.62
505.123	98.62
505.34	93.62
505.557	88.62
505.773	92.62
505.99	91.62
506.207	85.62
506.423	90.62
506.64	98.62
506.856	96.62
507.073	88.62
507.289	115.62
507.506	98.62
507.722	128.62
507.939	125.62
508.155	112.62
508.372	99.62
508.588	102.62
508.805	100.62
509.021	94.62
509.238	97.62
509.454	103.62
509.67	118.62
509.887	120.62
510.103	151.62
510.319	269.62
510.536	1051.62
510.752	3559.62
510.968	994.62
511.184	199.62
511.401	133.62
511.617	112.62
511.833	99.62
512.049	110.62
