Data from Circ_2023_H10_HRD10591_00056.txt Node
Date: Wed Jan 03 09:50:42 EST 2024
User: Yrep
Spectrometer: HR+D1059
Trigger mode: 1
Integration Time (sec): 1.000000E-1
Scans to average: 1
Electric dark correction enabled: true
Nonlinearity correction enabled: false
Boxcar width: 0
XAxis mode: Wavelengths
Number of Pixels in Spectrum: 2048
>>>>>Begin Spectral Data<<<<<
223.165	-38.88
223.4	-38.88
223.635	-38.88
223.869	-13.88
224.104	-12.88
224.338	-14.88
224.573	-11.88
224.808	-14.88
225.042	-3.88
225.277	-11.88
225.511	3.12
225.746	1.12
225.98	6.12
226.215	9.12
226.449	21.12
226.683	42.12
226.918	21.12
227.152	19.12
227.387	27.12
227.621	39.12
227.856	52.12
228.09	41.12
228.324	46.12
228.559	48.12
228.793	44.12
229.027	72.12
229.262	68.12
229.496	75.12
229.73	98.12
229.964	101.12
230.199	92.12
230.433	94.12
230.667	94.12
230.901	79.12
231.136	84.12
231.37	88.12
231.604	75.12
231.838	87.12
232.072	80.12
232.306	60.12
232.541	91.12
232.775	81.12
233.009	80.12
233.243	82.12
233.477	65.12
233.711	71.12
233.945	80.12
234.179	88.12
234.413	91.12
234.647	75.12
234.881	75.12
235.115	79.12
235.349	83.12
235.583	84.12
235.817	79.12
236.051	73.12
236.285	77.12
236.519	74.12
236.753	71.12
236.987	83.12
237.221	94.12
237.455	106.12
237.689	96.12
237.922	86.12
238.156	83.12
238.39	86.12
238.624	68.12
238.858	80.12
239.091	87.12
239.325	74.12
239.559	83.12
239.793	73.12
240.027	81.12
240.26	91.12
240.494	82.12
240.728	75.12
240.961	77.12
241.195	85.12
241.429	80.12
241.662	73.12
241.896	75.12
242.13	85.12
242.363	78.12
242.597	74.12
242.83	70.12
243.064	71.12
243.298	73.12
243.531	75.12
243.765	77.12
243.998	82.12
244.232	84.12
244.465	93.12
244.699	90.12
244.932	87.12
245.166	76.12
245.399	86.12
245.633	89.12
245.866	87.12
246.099	85.12
246.333	94.12
246.566	78.12
246.8	101.12
247.033	77.12
247.266	82.12
247.5	71.12
247.733	90.12
247.966	79.12
248.2	83.12
248.433	87.12
248.666	93.12
248.899	83.12
249.133	89.12
249.366	110.12
249.599	108.12
249.832	80.12
250.066	102.12
250.299	84.12
250.532	92.12
250.765	94.12
250.998	75.12
251.231	93.12
251.465	93.12
251.698	101.12
251.931	83.12
252.164	97.12
252.397	86.12
252.63	112.12
252.863	79.12
253.096	74.12
253.329	78.12
253.562	82.12
253.795	82.12
254.028	81.12
254.261	76.12
254.494	86.12
254.727	82.12
254.96	78.12
255.193	91.12
255.426	82.12
255.659	87.12
255.892	99.12
256.124	104.12
256.357	87.12
256.59	92.12
256.823	90.12
257.056	91.12
257.289	93.12
257.521	79.12
257.754	86.12
257.987	102.12
258.22	112.12
258.452	100.12
258.685	95.12
258.918	97.12
259.151	86.12
259.383	87.12
259.616	86.12
259.849	101.12
260.081	99.12
260.314	76.12
260.547	88.12
260.779	111.12
261.012	117.12
261.244	143.12
261.477	109.12
261.71	110.12
261.942	145.12
262.175	150.12
262.407	98.12
262.64	82.12
262.872	83.12
263.105	100.12
263.337	89.12
263.57	89.12
263.802	96.12
264.035	88.12
264.267	93.12
264.499	66.12
264.732	94.12
264.964	93.12
265.197	82.12
265.429	75.12
265.661	110.12
265.894	86.12
266.126	87.12
266.358	80.12
266.591	93.12
266.823	84.12
267.055	90.12
267.287	84.12
267.52	86.12
267.752	86.12
267.984	93.12
268.216	70.12
268.448	80.12
268.681	94.12
268.913	84.12
269.145	89.12
269.377	83.12
269.609	94.12
269.841	70.12
270.073	95.12
270.306	93.12
270.538	79.12
270.77	71.12
271.002	81.12
271.234	84.12
271.466	83.12
271.698	92.12
271.93	81.12
272.162	89.12
272.394	100.12
272.626	103.12
272.858	85.12
273.09	88.12
273.322	80.12
273.553	93.12
273.785	94.12
274.017	90.12
274.249	95.12
274.481	85.12
274.713	87.12
274.945	91.12
275.176	80.12
275.408	103.12
275.64	114.12
275.872	131.12
276.104	110.12
276.335	123.12
276.567	131.12
276.799	151.12
277.031	192.12
277.262	217.12
277.494	170.12
277.726	106.12
277.957	90.12
278.189	103.12
278.421	99.12
278.652	95.12
278.884	96.12
279.115	98.12
279.347	119.12
279.579	124.12
279.81	142.12
280.042	225.12
280.273	325.12
280.505	218.12
280.736	119.12
280.968	100.12
281.199	100.12
281.431	99.12
281.662	91.12
281.894	102.12
282.125	113.12
282.356	148.12
282.588	186.12
282.819	136.12
283.051	89.12
283.282	85.12
283.513	92.12
283.745	81.12
283.976	95.12
284.207	89.12
284.439	95.12
284.67	87.12
284.901	90.12
285.132	81.12
285.364	90.12
285.595	89.12
285.826	93.12
286.057	85.12
286.288	98.12
286.52	82.12
286.751	97.12
286.982	86.12
287.213	82.12
287.444	90.12
287.675	94.12
287.906	89.12
288.138	103.12
288.369	96.12
288.6	91.12
288.831	95.12
289.062	102.12
289.293	94.12
289.524	86.12
289.755	101.12
289.986	90.12
290.217	88.12
290.448	93.12
290.679	94.12
290.91	86.12
291.141	82.12
291.371	90.12
291.602	89.12
291.833	88.12
292.064	89.12
292.295	91.12
292.526	81.12
292.757	89.12
292.987	89.12
293.218	86.12
293.449	83.12
293.68	95.12
293.91	89.12
294.141	81.12
294.372	87.12
294.603	92.12
294.833	96.12
295.064	101.12
295.295	87.12
295.525	99.12
295.756	126.12
295.987	128.12
296.217	174.12
296.448	153.12
296.679	101.12
296.909	90.12
297.14	81.12
297.37	79.12
297.601	86.12
297.831	103.12
298.062	110.12
298.292	101.12
298.523	89.12
298.753	80.12
298.984	100.12
299.214	103.12
299.445	98.12
299.675	117.12
299.905	111.12
300.136	82.12
300.366	109.12
300.597	103.12
300.827	96.12
301.057	106.12
301.288	125.12
301.518	107.12
301.748	105.12
301.979	116.12
302.209	94.12
302.439	87.12
302.669	89.12
302.9	86.12
303.13	95.12
303.36	113.12
303.59	145.12
303.82	161.12
304.051	130.12
304.281	91.12
304.511	90.12
304.741	101.12
304.971	104.12
305.201	101.12
305.431	94.12
305.661	91.12
305.891	97.12
306.121	113.12
306.352	119.12
306.582	110.12
306.812	117.12
307.042	128.12
307.272	178.12
307.502	199.12
307.731	180.12
307.961	137.12
308.191	107.12
308.421	97.12
308.651	96.12
308.881	99.12
309.111	91.12
309.341	104.12
309.571	104.12
309.8	99.12
310.03	111.12
310.26	107.12
310.49	105.12
310.72	119.12
310.949	129.12
311.179	136.12
311.409	97.12
311.639	99.12
311.868	113.12
312.098	105.12
312.328	106.12
312.557	125.12
312.787	138.12
313.017	117.12
313.246	113.12
313.476	109.12
313.706	109.12
313.935	105.12
314.165	116.12
314.394	116.12
314.624	115.12
314.853	97.12
315.083	92.12
315.312	92.12
315.542	111.12
315.771	93.12
316.001	106.12
316.23	99.12
316.46	96.12
316.689	94.12
316.919	105.12
317.148	108.12
317.377	111.12
317.607	98.12
317.836	101.12
318.065	105.12
318.295	106.12
318.524	82.12
318.753	98.12
318.983	85.12
319.212	115.12
319.441	118.12
319.67	121.12
319.9	97.12
320.129	100.12
320.358	97.12
320.587	97.12
320.816	115.12
321.046	112.12
321.275	105.12
321.504	106.12
321.733	107.12
321.962	121.12
322.191	105.12
322.42	127.12
322.649	117.12
322.878	118.12
323.108	154.12
323.337	149.12
323.566	149.12
323.795	190.12
324.024	259.12
324.253	470.12
324.482	1063.12
324.71	2161.12
324.939	2853.12
325.168	1054.12
325.397	311.12
325.626	171.12
325.855	153.12
326.084	149.12
326.313	153.12
326.542	187.12
326.77	277.12
326.999	544.12
327.228	1117.12
327.457	2020.12
327.686	1703.12
327.914	600.12
328.143	630.12
328.372	827.12
328.6	453.12
328.829	222.12
329.058	217.12
329.287	242.12
329.515	197.12
329.744	305.12
329.972	596.12
330.201	1243.12
330.43	1831.12
330.658	797.12
330.887	333.12
331.115	201.12
331.344	148.12
331.572	140.12
331.801	139.12
332.03	125.12
332.258	144.12
332.486	102.12
332.715	121.12
332.943	125.12
333.172	140.12
333.4	143.12
333.629	197.12
333.857	263.12
334.085	532.12
334.314	1099.12
334.542	2253.12
334.771	2146.12
334.999	529.12
335.227	201.12
335.455	143.12
335.684	129.12
335.912	106.12
336.14	104.12
336.369	122.12
336.597	130.12
336.825	93.12
337.053	101.12
337.281	104.12
337.51	111.12
337.738	107.12
337.966	101.12
338.194	107.12
338.422	95.12
338.65	98.12
338.878	93.12
339.106	106.12
339.334	94.12
339.562	97.12
339.79	101.12
340.018	88.12
340.246	101.12
340.474	103.12
340.702	98.12
340.93	99.12
341.158	103.12
341.386	115.12
341.614	103.12
341.842	102.12
342.07	99.12
342.298	97.12
342.526	100.12
342.754	96.12
342.981	95.12
343.209	93.12
343.437	106.12
343.665	102.12
343.893	76.12
344.12	86.12
344.348	97.12
344.576	87.12
344.804	101.12
345.031	112.12
345.259	112.12
345.487	106.12
345.714	103.12
345.942	86.12
346.17	102.12
346.397	98.12
346.625	112.12
346.853	96.12
347.08	110.12
347.308	113.12
347.535	103.12
347.763	102.12
347.99	106.12
348.218	103.12
348.445	131.12
348.673	109.12
348.9	121.12
349.128	92.12
349.355	85.12
349.583	88.12
349.81	101.12
350.037	86.12
350.265	109.12
350.492	97.12
350.72	94.12
350.947	107.12
351.174	112.12
351.402	125.12
351.629	119.12
351.856	108.12
352.083	134.12
352.311	124.12
352.538	123.12
352.765	110.12
352.992	125.12
353.22	125.12
353.447	109.12
353.674	94.12
353.901	104.12
354.128	116.12
354.355	92.12
354.583	108.12
354.81	105.12
355.037	100.12
355.264	93.12
355.491	99.12
355.718	94.12
355.945	101.12
356.172	100.12
356.399	104.12
356.626	96.12
356.853	93.12
357.08	102.12
357.307	84.12
357.534	91.12
357.761	94.12
357.988	98.12
358.215	107.12
358.441	88.12
358.668	90.12
358.895	88.12
359.122	90.12
359.349	90.12
359.576	86.12
359.802	117.12
360.029	155.12
360.256	142.12
360.483	117.12
360.709	98.12
360.936	93.12
361.163	103.12
361.39	105.12
361.616	106.12
361.843	93.12
362.07	102.12
362.296	96.12
362.523	114.12
362.749	90.12
362.976	97.12
363.203	102.12
363.429	86.12
363.656	109.12
363.882	89.12
364.109	104.12
364.335	113.12
364.562	93.12
364.788	108.12
365.015	99.12
365.241	94.12
365.468	116.12
365.694	121.12
365.92	119.12
366.147	108.12
366.373	102.12
366.599	84.12
366.826	95.12
367.052	85.12
367.278	101.12
367.505	92.12
367.731	104.12
367.957	106.12
368.184	88.12
368.41	110.12
368.636	139.12
368.862	147.12
369.089	121.12
369.315	101.12
369.541	100.12
369.767	95.12
369.993	98.12
370.219	96.12
370.445	85.12
370.672	92.12
370.898	97.12
371.124	86.12
371.35	96.12
371.576	97.12
371.802	87.12
372.028	98.12
372.254	100.12
372.48	93.12
372.706	94.12
372.932	88.12
373.158	90.12
373.384	94.12
373.61	101.12
373.835	85.12
374.061	79.12
374.287	99.12
374.513	82.12
374.739	98.12
374.965	91.12
375.191	113.12
375.416	102.12
375.642	96.12
375.868	102.12
376.094	104.12
376.319	93.12
376.545	91.12
376.771	83.12
376.997	90.12
377.222	94.12
377.448	94.12
377.674	99.12
377.899	96.12
378.125	87.12
378.35	107.12
378.576	89.12
378.802	74.12
379.027	99.12
379.253	85.12
379.478	100.12
379.704	113.12
379.929	99.12
380.155	101.12
380.38	90.12
380.606	91.12
380.831	86.12
381.057	102.12
381.282	83.12
381.507	91.12
381.733	89.12
381.958	120.12
382.184	110.12
382.409	98.12
382.634	98.12
382.86	77.12
383.085	103.12
383.31	91.12
383.535	103.12
383.761	91.12
383.986	97.12
384.211	101.12
384.436	92.12
384.662	98.12
384.887	80.12
385.112	102.12
385.337	96.12
385.562	90.12
385.787	107.12
386.013	101.12
386.238	120.12
386.463	97.12
386.688	99.12
386.913	92.12
387.138	109.12
387.363	98.12
387.588	104.12
387.813	104.12
388.038	104.12
388.263	104.12
388.488	106.12
388.713	92.12
388.938	91.12
389.163	102.12
389.387	86.12
389.612	81.12
389.837	90.12
390.062	105.12
390.287	96.12
390.512	106.12
390.736	95.12
390.961	79.12
391.186	91.12
391.411	87.12
391.636	93.12
391.86	98.12
392.085	90.12
392.31	85.12
392.534	93.12
392.759	86.12
392.984	94.12
393.208	93.12
393.433	89.12
393.658	86.12
393.882	85.12
394.107	90.12
394.331	85.12
394.556	71.12
394.78	80.12
395.005	85.12
395.229	80.12
395.454	93.12
395.678	94.12
395.903	90.12
396.127	94.12
396.352	94.12
396.576	80.12
396.801	100.12
397.025	89.12
397.249	90.12
397.474	85.12
397.698	90.12
397.922	93.12
398.147	88.12
398.371	96.12
398.595	91.12
398.82	77.12
399.044	93.12
399.268	82.12
399.492	94.12
399.717	73.12
399.941	84.12
400.165	100.12
400.389	100.12
400.613	97.12
400.837	87.12
401.062	95.12
401.286	89.12
401.51	94.12
401.734	103.12
401.958	120.12
402.182	168.12
402.406	211.12
402.63	154.12
402.854	91.12
403.078	101.12
403.302	92.12
403.526	72.12
403.75	72.12
403.974	86.12
404.198	93.12
404.422	77.12
404.645	99.12
404.869	106.12
405.093	114.12
405.317	146.12
405.541	158.12
405.765	118.12
405.988	131.12
406.212	227.12
406.436	324.12
406.66	219.12
406.883	131.12
407.107	113.12
407.331	105.12
407.555	119.12
407.778	92.12
408.002	97.12
408.226	91.12
408.449	82.12
408.673	94.12
408.896	102.12
409.12	107.12
409.344	110.12
409.567	92.12
409.791	102.12
410.014	115.12
410.238	99.12
410.461	93.12
410.685	114.12
410.908	106.12
411.132	82.12
411.355	94.12
411.578	105.12
411.802	98.12
412.025	102.12
412.249	104.12
412.472	131.12
412.695	162.12
412.919	124.12
413.142	94.12
413.365	88.12
413.589	90.12
413.812	95.12
414.035	103.12
414.258	90.12
414.482	98.12
414.705	89.12
414.928	102.12
415.151	78.12
415.374	93.12
415.597	101.12
415.821	91.12
416.044	91.12
416.267	80.12
416.49	90.12
416.713	85.12
416.936	88.12
417.159	96.12
417.382	93.12
417.605	130.12
417.828	117.12
418.051	110.12
418.274	98.12
418.497	80.12
418.72	88.12
418.943	96.12
419.166	84.12
419.389	82.12
419.611	97.12
419.834	112.12
420.057	93.12
420.28	107.12
420.503	95.12
420.726	93.12
420.948	109.12
421.171	106.12
421.394	107.12
421.617	97.12
421.839	75.12
422.062	100.12
422.285	89.12
422.507	104.12
422.73	116.12
422.953	114.12
423.175	106.12
423.398	91.12
423.621	82.12
423.843	87.12
424.066	95.12
424.288	96.12
424.511	94.12
424.733	102.12
424.956	127.12
425.178	107.12
425.401	112.12
425.623	113.12
425.846	110.12
426.068	105.12
426.291	101.12
426.513	104.12
426.735	99.12
426.958	119.12
427.18	121.12
427.402	204.12
427.625	271.12
427.847	274.12
428.069	242.12
428.292	136.12
428.514	90.12
428.736	102.12
428.958	97.12
429.181	88.12
429.403	89.12
429.625	89.12
429.847	106.12
430.069	120.12
430.292	112.12
430.514	88.12
430.736	68.12
430.958	94.12
431.18	87.12
431.402	95.12
431.624	97.12
431.846	90.12
432.068	90.12
432.29	90.12
432.512	88.12
432.734	82.12
432.956	86.12
433.178	104.12
433.4	117.12
433.622	101.12
433.844	80.12
434.066	87.12
434.287	93.12
434.509	93.12
434.731	91.12
434.953	109.12
435.175	99.12
435.397	89.12
435.618	90.12
435.84	104.12
436.062	146.12
436.284	129.12
436.505	100.12
436.727	100.12
436.949	80.12
437.17	97.12
437.392	89.12
437.614	101.12
437.835	135.12
438.057	156.12
438.278	151.12
438.5	125.12
438.721	146.12
438.943	125.12
439.165	98.12
439.386	96.12
439.608	105.12
439.829	121.12
440.05	149.12
440.272	187.12
440.493	116.12
440.715	88.12
440.936	104.12
441.158	105.12
441.379	83.12
441.6	102.12
441.822	115.12
442.043	101.12
442.264	129.12
442.486	141.12
442.707	104.12
442.928	125.12
443.149	181.12
443.371	193.12
443.592	144.12
443.813	137.12
444.034	131.12
444.255	108.12
444.476	90.12
444.698	89.12
444.919	99.12
445.14	143.12
445.361	143.12
445.582	161.12
445.803	202.12
446.024	201.12
446.245	173.12
446.466	129.12
446.687	98.12
446.908	92.12
447.129	88.12
447.35	99.12
447.571	95.12
447.792	92.12
448.013	116.12
448.234	131.12
448.455	123.12
448.675	126.12
448.896	153.12
449.117	99.12
449.338	127.12
449.559	166.12
449.779	164.12
450	106.12
450.221	83.12
450.442	91.12
450.662	101.12
450.883	136.12
451.104	141.12
451.324	106.12
451.545	81.12
451.766	98.12
451.986	105.12
452.207	90.12
452.428	97.12
452.648	114.12
452.869	139.12
453.089	135.12
453.31	152.12
453.53	112.12
453.751	97.12
453.971	129.12
454.192	151.12
454.412	100.12
454.633	90.12
454.853	85.12
455.073	88.12
455.294	93.12
455.514	104.12
455.734	94.12
455.955	83.12
456.175	90.12
456.395	96.12
456.616	94.12
456.836	80.12
457.056	85.12
457.276	82.12
457.497	89.12
457.717	100.12
457.937	88.12
458.157	86.12
458.377	103.12
458.598	126.12
458.818	203.12
459.038	253.12
459.258	169.12
459.478	93.12
459.698	90.12
459.918	90.12
460.138	94.12
460.358	94.12
460.578	91.12
460.798	87.12
461.018	98.12
461.238	93.12
461.458	85.12
461.678	107.12
461.898	94.12
462.118	91.12
462.338	83.12
462.558	82.12
462.777	86.12
462.997	114.12
463.217	114.12
463.437	105.12
463.657	105.12
463.876	99.12
464.096	95.12
464.316	90.12
464.536	97.12
464.755	105.12
464.975	134.12
465.195	258.12
465.414	264.12
465.634	120.12
465.854	102.12
466.073	73.12
466.293	89.12
466.512	93.12
466.732	97.12
466.951	98.12
467.171	122.12
467.391	118.12
467.61	170.12
467.829	249.12
468.049	648.12
468.268	1036.12
468.488	251.12
468.707	129.12
468.927	106.12
469.146	72.12
469.365	89.12
469.585	99.12
469.804	119.12
470.023	107.12
470.243	110.12
470.462	131.12
470.681	157.12
470.901	110.12
471.12	111.12
471.339	114.12
471.558	113.12
471.777	167.12
471.997	329.12
472.216	1293.12
472.435	3109.12
472.654	724.12
472.873	186.12
473.092	115.12
473.311	91.12
473.53	95.12
473.749	95.12
473.968	111.12
474.187	135.12
474.406	113.12
474.625	86.12
474.844	109.12
475.063	89.12
475.282	102.12
475.501	97.12
475.72	86.12
475.939	87.12
476.158	98.12
476.377	103.12
476.596	101.12
476.814	113.12
477.033	107.12
477.252	90.12
477.471	79.12
477.69	112.12
477.908	95.12
478.127	113.12
478.346	79.12
478.564	112.12
478.783	123.12
479.002	111.12
479.22	106.12
479.439	135.12
479.658	153.12
479.876	128.12
480.095	143.12
480.313	139.12
480.532	182.12
480.751	311.12
480.969	1153.12
481.188	5036.12
481.406	3145.12
481.624	447.12
481.843	147.12
482.061	101.12
482.28	100.12
482.498	110.12
482.717	96.12
482.935	88.12
483.153	83.12
483.372	99.12
483.59	98.12
483.808	99.12
484.027	94.12
484.245	80.12
484.463	86.12
484.681	95.12
484.9	102.12
485.118	111.12
485.336	101.12
485.554	98.12
485.772	102.12
485.99	105.12
486.209	121.12
486.427	109.12
486.645	119.12
486.863	127.12
487.081	113.12
487.299	109.12
487.517	90.12
487.735	90.12
487.953	92.12
488.171	107.12
488.389	101.12
488.607	113.12
488.825	97.12
489.043	95.12
489.261	111.12
489.479	103.12
489.696	84.12
489.914	101.12
490.132	96.12
490.35	105.12
490.568	83.12
490.786	103.12
491.003	104.12
491.221	95.12
491.439	99.12
491.657	93.12
491.874	101.12
492.092	100.12
492.31	99.12
492.527	104.12
492.745	113.12
492.963	103.12
493.18	96.12
493.398	90.12
493.615	93.12
493.833	90.12
494.05	91.12
494.268	106.12
494.485	95.12
494.703	97.12
494.92	94.12
495.138	97.12
495.355	94.12
495.573	107.12
495.79	82.12
496.008	93.12
496.225	99.12
496.442	102.12
496.66	97.12
496.877	105.12
497.094	85.12
497.312	100.12
497.529	100.12
497.746	95.12
497.963	100.12
498.181	107.12
498.398	99.12
498.615	128.12
498.832	126.12
499.049	102.12
499.267	89.12
499.484	94.12
499.701	86.12
499.918	85.12
500.135	76.12
500.352	98.12
500.569	115.12
500.786	114.12
501.003	92.12
501.22	103.12
501.437	87.12
501.654	103.12
501.871	139.12
502.088	98.12
502.305	91.12
502.522	105.12
502.739	109.12
502.956	90.12
503.172	113.12
503.389	109.12
503.606	137.12
503.823	119.12
504.04	100.12
504.256	81.12
504.473	93.12
504.69	93.12
504.907	99.12
505.123	94.12
505.34	96.12
505.557	99.12
505.773	104.12
505.99	76.12
506.207	77.12
506.423	86.12
506.64	99.12
506.856	98.12
507.073	95.12
507.289	98.12
507.506	100.12
507.722	135.12
507.939	137.12
508.155	99.12
508.372	105.12
508.588	90.12
508.805	98.12
509.021	84.12
509.238	90.12
509.454	113.12
509.67	106.12
509.887	126.12
510.103	135.12
510.319	258.12
510.536	977.12
510.752	3474.12
510.968	952.12
511.184	194.12
511.401	129.12
511.617	121.12
