Data from Circ_2023_H10_HRD10591_00053.txt Node
Date: Wed Jan 03 09:50:41 EST 2024
User: Yrep
Spectrometer: HR+D1059
Trigger mode: 1
Integration Time (sec): 1.000000E-1
Scans to average: 1
Electric dark correction enabled: true
Nonlinearity correction enabled: false
Boxcar width: 0
XAxis mode: Wavelengths
Number of Pixels in Spectrum: 2048
>>>>>Begin Spectral Data<<<<<
223.165	-20.31
223.4	-20.31
223.635	-20.31
223.869	-23.31
224.104	-12.31
224.338	-15.31
224.573	-18.31
224.808	-16.31
225.042	-15.31
225.277	11.69
225.511	-2.31
225.746	9.69
225.98	-4.31
226.215	14.69
226.449	12.69
226.683	20.69
226.918	27.69
227.152	30.69
227.387	47.69
227.621	40.69
227.856	35.69
228.09	42.69
228.324	44.69
228.559	47.69
228.793	62.69
229.027	71.69
229.262	57.69
229.496	96.69
229.73	106.69
229.964	98.69
230.199	89.69
230.433	76.69
230.667	67.69
230.901	81.69
231.136	74.69
231.37	77.69
231.604	81.69
231.838	75.69
232.072	80.69
232.306	84.69
232.541	82.69
232.775	93.69
233.009	85.69
233.243	92.69
233.477	88.69
233.711	79.69
233.945	93.69
234.179	93.69
234.413	84.69
234.647	77.69
234.881	81.69
235.115	72.69
235.349	87.69
235.583	85.69
235.817	79.69
236.051	84.69
236.285	98.69
236.519	77.69
236.753	88.69
236.987	94.69
237.221	92.69
237.455	88.69
237.689	93.69
237.922	76.69
238.156	86.69
238.39	70.69
238.624	64.69
238.858	87.69
239.091	85.69
239.325	102.69
239.559	83.69
239.793	89.69
240.027	81.69
240.26	83.69
240.494	79.69
240.728	80.69
240.961	85.69
241.195	77.69
241.429	85.69
241.662	90.69
241.896	90.69
242.13	77.69
242.363	91.69
242.597	68.69
242.83	81.69
243.064	77.69
243.298	86.69
243.531	74.69
243.765	72.69
243.998	91.69
244.232	92.69
244.465	73.69
244.699	85.69
244.932	72.69
245.166	79.69
245.399	94.69
245.633	85.69
245.866	104.69
246.099	88.69
246.333	85.69
246.566	68.69
246.8	85.69
247.033	83.69
247.266	72.69
247.5	85.69
247.733	83.69
247.966	88.69
248.2	79.69
248.433	98.69
248.666	91.69
248.899	74.69
249.133	98.69
249.366	119.69
249.599	112.69
249.832	105.69
250.066	95.69
250.299	88.69
250.532	99.69
250.765	76.69
250.998	81.69
251.231	77.69
251.465	83.69
251.698	73.69
251.931	89.69
252.164	81.69
252.397	87.69
252.63	88.69
252.863	87.69
253.096	91.69
253.329	90.69
253.562	75.69
253.795	97.69
254.028	84.69
254.261	74.69
254.494	77.69
254.727	80.69
254.96	84.69
255.193	74.69
255.426	92.69
255.659	85.69
255.892	120.69
256.124	120.69
256.357	106.69
256.59	93.69
256.823	73.69
257.056	100.69
257.289	104.69
257.521	88.69
257.754	65.69
257.987	84.69
258.22	93.69
258.452	97.69
258.685	85.69
258.918	92.69
259.151	83.69
259.383	83.69
259.616	88.69
259.849	95.69
260.081	87.69
260.314	99.69
260.547	106.69
260.779	107.69
261.012	130.69
261.244	131.69
261.477	101.69
261.71	111.69
261.942	138.69
262.175	146.69
262.407	111.69
262.64	89.69
262.872	91.69
263.105	82.69
263.337	92.69
263.57	85.69
263.802	82.69
264.035	82.69
264.267	88.69
264.499	90.69
264.732	87.69
264.964	91.69
265.197	95.69
265.429	82.69
265.661	83.69
265.894	98.69
266.126	98.69
266.358	78.69
266.591	88.69
266.823	91.69
267.055	85.69
267.287	92.69
267.52	91.69
267.752	85.69
267.984	92.69
268.216	90.69
268.448	81.69
268.681	84.69
268.913	97.69
269.145	103.69
269.377	85.69
269.609	76.69
269.841	72.69
270.073	88.69
270.306	106.69
270.538	97.69
270.77	80.69
271.002	98.69
271.234	94.69
271.466	116.69
271.698	88.69
271.93	91.69
272.162	96.69
272.394	94.69
272.626	98.69
272.858	94.69
273.09	105.69
273.322	104.69
273.553	94.69
273.785	84.69
274.017	89.69
274.249	92.69
274.481	72.69
274.713	89.69
274.945	88.69
275.176	98.69
275.408	104.69
275.64	122.69
275.872	154.69
276.104	117.69
276.335	112.69
276.567	129.69
276.799	169.69
277.031	191.69
277.262	234.69
277.494	169.69
277.726	116.69
277.957	92.69
278.189	111.69
278.421	81.69
278.652	102.69
278.884	114.69
279.115	106.69
279.347	111.69
279.579	91.69
279.81	155.69
280.042	208.69
280.273	324.69
280.505	213.69
280.736	103.69
280.968	95.69
281.199	99.69
281.431	91.69
281.662	118.69
281.894	112.69
282.125	105.69
282.356	125.69
282.588	176.69
282.819	151.69
283.051	105.69
283.282	87.69
283.513	101.69
283.745	87.69
283.976	86.69
284.207	95.69
284.439	100.69
284.67	99.69
284.901	86.69
285.132	84.69
285.364	89.69
285.595	90.69
285.826	97.69
286.057	87.69
286.288	90.69
286.52	95.69
286.751	83.69
286.982	87.69
287.213	89.69
287.444	95.69
287.675	98.69
287.906	91.69
288.138	93.69
288.369	100.69
288.6	98.69
288.831	84.69
289.062	79.69
289.293	86.69
289.524	87.69
289.755	83.69
289.986	93.69
290.217	87.69
290.448	90.69
290.679	104.69
290.91	92.69
291.141	107.69
291.371	106.69
291.602	89.69
291.833	96.69
292.064	91.69
292.295	94.69
292.526	96.69
292.757	91.69
292.987	98.69
293.218	101.69
293.449	96.69
293.68	95.69
293.91	92.69
294.141	107.69
294.372	79.69
294.603	87.69
294.833	87.69
295.064	94.69
295.295	99.69
295.525	100.69
295.756	123.69
295.987	133.69
296.217	184.69
296.448	147.69
296.679	97.69
296.909	101.69
297.14	88.69
297.37	96.69
297.601	102.69
297.831	102.69
298.062	96.69
298.292	89.69
298.523	92.69
298.753	93.69
298.984	102.69
299.214	100.69
299.445	101.69
299.675	100.69
299.905	105.69
300.136	104.69
300.366	92.69
300.597	82.69
300.827	118.69
301.057	111.69
301.288	126.69
301.518	106.69
301.748	97.69
301.979	138.69
302.209	111.69
302.439	96.69
302.669	90.69
302.9	97.69
303.13	104.69
303.36	115.69
303.59	129.69
303.82	147.69
304.051	112.69
304.281	106.69
304.511	92.69
304.741	92.69
304.971	96.69
305.201	92.69
305.431	107.69
305.661	95.69
305.891	102.69
306.121	102.69
306.352	112.69
306.582	131.69
306.812	132.69
307.042	139.69
307.272	181.69
307.502	193.69
307.731	166.69
307.961	113.69
308.191	105.69
308.421	102.69
308.651	101.69
308.881	93.69
309.111	93.69
309.341	115.69
309.571	106.69
309.8	111.69
310.03	104.69
310.26	129.69
310.49	111.69
310.72	111.69
310.949	120.69
311.179	111.69
311.409	107.69
311.639	108.69
311.868	104.69
312.098	105.69
312.328	111.69
312.557	139.69
312.787	129.69
313.017	130.69
313.246	102.69
313.476	104.69
313.706	93.69
313.935	107.69
314.165	124.69
314.394	134.69
314.624	106.69
314.853	117.69
315.083	105.69
315.312	117.69
315.542	101.69
315.771	103.69
316.001	103.69
316.23	90.69
316.46	94.69
316.689	98.69
316.919	105.69
317.148	113.69
317.377	111.69
317.607	118.69
317.836	100.69
318.065	107.69
318.295	88.69
318.524	95.69
318.753	78.69
318.983	114.69
319.212	104.69
319.441	101.69
319.67	116.69
319.9	111.69
320.129	88.69
320.358	99.69
320.587	99.69
320.816	119.69
321.046	138.69
321.275	96.69
321.504	114.69
321.733	110.69
321.962	113.69
322.191	122.69
322.42	117.69
322.649	123.69
322.878	121.69
323.108	145.69
323.337	157.69
323.566	174.69
323.795	212.69
324.024	268.69
324.253	564.69
324.482	1293.69
324.71	2665.69
324.939	3614.69
325.168	1303.69
325.397	347.69
325.626	197.69
325.855	153.69
326.084	156.69
326.313	169.69
326.542	215.69
326.77	332.69
326.999	687.69
327.228	1436.69
327.457	2680.69
327.686	2160.69
327.914	712.69
328.143	655.69
328.372	837.69
328.6	484.69
328.829	226.69
329.058	209.69
329.287	241.69
329.515	203.69
329.744	316.69
329.972	651.69
330.201	1288.69
330.43	1872.69
330.658	815.69
330.887	356.69
331.115	230.69
331.344	156.69
331.572	143.69
331.801	142.69
332.03	143.69
332.258	125.69
332.486	122.69
332.715	135.69
332.943	140.69
333.172	141.69
333.4	158.69
333.629	179.69
333.857	298.69
334.085	579.69
334.314	1253.69
334.542	2427.69
334.771	2294.69
334.999	557.69
335.227	219.69
335.455	159.69
335.684	129.69
335.912	125.69
336.14	130.69
336.369	113.69
336.597	136.69
336.825	127.69
337.053	106.69
337.281	101.69
337.51	114.69
337.738	99.69
337.966	111.69
338.194	116.69
338.422	123.69
338.65	99.69
338.878	93.69
339.106	93.69
339.334	105.69
339.562	99.69
339.79	103.69
340.018	91.69
340.246	103.69
340.474	121.69
340.702	106.69
340.93	89.69
341.158	107.69
341.386	110.69
341.614	120.69
341.842	99.69
342.07	92.69
342.298	88.69
342.526	83.69
342.754	91.69
342.981	116.69
343.209	89.69
343.437	97.69
343.665	107.69
343.893	95.69
344.12	104.69
344.348	113.69
344.576	100.69
344.804	103.69
345.031	117.69
345.259	108.69
345.487	104.69
345.714	107.69
345.942	105.69
346.17	87.69
346.397	96.69
346.625	97.69
346.853	102.69
347.08	83.69
347.308	102.69
347.535	108.69
347.763	126.69
347.99	104.69
348.218	125.69
348.445	145.69
348.673	128.69
348.9	108.69
349.128	117.69
349.355	115.69
349.583	82.69
349.81	106.69
350.037	121.69
350.265	109.69
350.492	112.69
350.72	102.69
350.947	120.69
351.174	124.69
351.402	131.69
351.629	130.69
351.856	112.69
352.083	131.69
352.311	130.69
352.538	134.69
352.765	133.69
352.992	123.69
353.22	148.69
353.447	100.69
353.674	121.69
353.901	109.69
354.128	114.69
354.355	104.69
354.583	101.69
354.81	112.69
355.037	95.69
355.264	90.69
355.491	102.69
355.718	96.69
355.945	93.69
356.172	103.69
356.399	95.69
356.626	81.69
356.853	96.69
357.08	92.69
357.307	93.69
357.534	98.69
357.761	96.69
357.988	93.69
358.215	98.69
358.441	96.69
358.668	88.69
358.895	88.69
359.122	98.69
359.349	105.69
359.576	104.69
359.802	122.69
360.029	153.69
360.256	136.69
360.483	120.69
360.709	97.69
360.936	104.69
361.163	95.69
361.39	108.69
361.616	108.69
361.843	113.69
362.07	99.69
362.296	120.69
362.523	114.69
362.749	116.69
362.976	103.69
363.203	105.69
363.429	102.69
363.656	97.69
363.882	107.69
364.109	94.69
364.335	92.69
364.562	91.69
364.788	104.69
365.015	96.69
365.241	111.69
365.468	118.69
365.694	117.69
365.92	104.69
366.147	104.69
366.373	103.69
366.599	94.69
366.826	108.69
367.052	92.69
367.278	103.69
367.505	95.69
367.731	90.69
367.957	105.69
368.184	104.69
368.41	105.69
368.636	130.69
368.862	145.69
369.089	119.69
369.315	96.69
369.541	108.69
369.767	97.69
369.993	97.69
370.219	106.69
370.445	113.69
370.672	105.69
370.898	100.69
371.124	105.69
371.35	91.69
371.576	100.69
371.802	93.69
372.028	96.69
372.254	87.69
372.48	86.69
372.706	82.69
372.932	87.69
373.158	94.69
373.384	105.69
373.61	106.69
373.835	96.69
374.061	100.69
374.287	106.69
374.513	96.69
374.739	93.69
374.965	85.69
375.191	98.69
375.416	88.69
375.642	96.69
375.868	108.69
376.094	95.69
376.319	90.69
376.545	104.69
376.771	89.69
376.997	104.69
377.222	94.69
377.448	91.69
377.674	91.69
377.899	68.69
378.125	68.69
378.35	88.69
378.576	98.69
378.802	93.69
379.027	105.69
379.253	95.69
379.478	96.69
379.704	96.69
379.929	105.69
380.155	86.69
380.38	92.69
380.606	100.69
380.831	114.69
381.057	107.69
381.282	112.69
381.507	109.69
381.733	106.69
381.958	102.69
382.184	101.69
382.409	101.69
382.634	103.69
382.86	113.69
383.085	109.69
383.31	93.69
383.535	103.69
383.761	96.69
383.986	101.69
384.211	101.69
384.436	91.69
384.662	96.69
384.887	92.69
385.112	102.69
385.337	95.69
385.562	97.69
385.787	109.69
386.013	115.69
386.238	124.69
386.463	116.69
386.688	123.69
386.913	103.69
387.138	105.69
387.363	91.69
387.588	100.69
387.813	99.69
388.038	91.69
388.263	112.69
388.488	89.69
388.713	99.69
388.938	100.69
389.163	88.69
389.387	98.69
389.612	96.69
389.837	86.69
390.062	93.69
390.287	104.69
390.512	98.69
390.736	94.69
390.961	93.69
391.186	88.69
391.411	91.69
391.636	83.69
391.86	96.69
392.085	105.69
392.31	97.69
392.534	107.69
392.759	104.69
392.984	93.69
393.208	88.69
393.433	96.69
393.658	102.69
393.882	91.69
394.107	94.69
394.331	111.69
394.556	103.69
394.78	96.69
395.005	89.69
395.229	84.69
395.454	98.69
395.678	88.69
395.903	78.69
396.127	83.69
396.352	82.69
396.576	85.69
396.801	88.69
397.025	85.69
397.249	88.69
397.474	102.69
397.698	88.69
397.922	106.69
398.147	117.69
398.371	95.69
398.595	95.69
398.82	77.69
399.044	106.69
399.268	102.69
399.492	83.69
399.717	102.69
399.941	111.69
400.165	101.69
400.389	95.69
400.613	82.69
400.837	96.69
401.062	111.69
401.286	106.69
401.51	91.69
401.734	105.69
401.958	99.69
402.182	146.69
402.406	223.69
402.63	150.69
402.854	111.69
403.078	89.69
403.302	106.69
403.526	112.69
403.75	107.69
403.974	102.69
404.198	102.69
404.422	99.69
404.645	94.69
404.869	118.69
405.093	138.69
405.317	173.69
405.541	192.69
405.765	136.69
405.988	153.69
406.212	229.69
406.436	317.69
406.66	221.69
406.883	161.69
407.107	111.69
407.331	132.69
407.555	127.69
407.778	116.69
408.002	124.69
408.226	98.69
408.449	101.69
408.673	92.69
408.896	116.69
409.12	119.69
409.344	100.69
409.567	101.69
409.791	94.69
410.014	104.69
410.238	102.69
410.461	111.69
410.685	125.69
410.908	98.69
411.132	119.69
411.355	121.69
411.578	100.69
411.802	97.69
412.025	111.69
412.249	103.69
412.472	133.69
412.695	180.69
412.919	141.69
413.142	110.69
413.365	114.69
413.589	96.69
413.812	95.69
414.035	96.69
414.258	107.69
414.482	97.69
414.705	93.69
414.928	90.69
415.151	105.69
415.374	96.69
415.597	99.69
415.821	95.69
416.044	104.69
416.267	92.69
416.49	100.69
416.713	93.69
416.936	85.69
417.159	89.69
417.382	110.69
417.605	99.69
417.828	122.69
418.051	102.69
418.274	84.69
418.497	79.69
418.72	93.69
418.943	91.69
419.166	96.69
419.389	100.69
419.611	106.69
419.834	102.69
420.057	93.69
420.28	96.69
420.503	117.69
420.726	102.69
420.948	100.69
421.171	116.69
421.394	114.69
421.617	90.69
421.839	94.69
422.062	102.69
422.285	96.69
422.507	131.69
422.73	136.69
422.953	121.69
423.175	97.69
423.398	98.69
423.621	89.69
423.843	96.69
424.066	92.69
424.288	90.69
424.511	97.69
424.733	115.69
424.956	153.69
425.178	117.69
425.401	122.69
425.623	119.69
425.846	100.69
426.068	106.69
426.291	119.69
426.513	97.69
426.735	104.69
426.958	113.69
427.18	139.69
427.402	204.69
427.625	306.69
427.847	300.69
428.069	295.69
428.292	161.69
428.514	105.69
428.736	107.69
428.958	95.69
429.181	101.69
429.403	95.69
429.625	106.69
429.847	100.69
430.069	126.69
430.292	121.69
430.514	106.69
430.736	92.69
430.958	111.69
431.18	83.69
431.402	89.69
431.624	92.69
431.846	99.69
432.068	77.69
432.29	92.69
432.512	93.69
432.734	98.69
432.956	107.69
433.178	105.69
433.4	120.69
433.622	100.69
433.844	84.69
434.066	96.69
434.287	85.69
434.509	97.69
434.731	99.69
434.953	90.69
435.175	94.69
435.397	93.69
435.618	102.69
435.84	133.69
436.062	164.69
436.284	141.69
436.505	115.69
436.727	116.69
436.949	118.69
437.17	90.69
437.392	93.69
437.614	109.69
437.835	139.69
438.057	186.69
438.278	159.69
438.5	141.69
438.721	169.69
438.943	122.69
439.165	90.69
439.386	100.69
439.608	102.69
439.829	114.69
440.05	170.69
440.272	212.69
440.493	123.69
440.715	98.69
440.936	100.69
441.158	98.69
441.379	82.69
441.6	100.69
441.822	113.69
442.043	111.69
442.264	153.69
442.486	138.69
442.707	102.69
442.928	137.69
443.149	190.69
443.371	190.69
443.592	142.69
443.813	153.69
444.034	138.69
444.255	100.69
444.476	97.69
444.698	95.69
444.919	104.69
445.14	152.69
445.361	140.69
445.582	182.69
445.803	247.69
446.024	233.69
446.245	211.69
446.466	164.69
446.687	109.69
446.908	91.69
447.129	97.69
447.35	90.69
447.571	103.69
447.792	100.69
448.013	108.69
448.234	137.69
448.455	120.69
448.675	159.69
448.896	162.69
449.117	122.69
449.338	138.69
449.559	179.69
449.779	183.69
450	116.69
450.221	81.69
450.442	102.69
450.662	116.69
450.883	144.69
451.104	140.69
451.324	107.69
451.545	99.69
451.766	90.69
451.986	98.69
452.207	98.69
452.428	98.69
452.648	120.69
452.869	119.69
453.089	129.69
453.31	154.69
453.53	123.69
453.751	112.69
453.971	119.69
454.192	143.69
454.412	107.69
454.633	102.69
454.853	95.69
455.073	94.69
455.294	99.69
455.514	124.69
455.734	92.69
455.955	87.69
456.175	98.69
456.395	76.69
456.616	77.69
456.836	93.69
457.056	100.69
457.276	98.69
457.497	98.69
457.717	86.69
457.937	83.69
458.157	93.69
458.377	107.69
458.598	141.69
458.818	236.69
459.038	249.69
459.258	177.69
459.478	101.69
459.698	86.69
459.918	107.69
460.138	82.69
460.358	93.69
460.578	91.69
460.798	106.69
461.018	85.69
461.238	103.69
461.458	104.69
461.678	91.69
461.898	104.69
462.118	103.69
462.338	91.69
462.558	86.69
462.777	89.69
462.997	102.69
463.217	114.69
463.437	102.69
463.657	99.69
463.876	93.69
464.096	90.69
464.316	119.69
464.536	115.69
464.755	102.69
464.975	132.69
465.195	258.69
465.414	263.69
465.634	134.69
465.854	111.69
466.073	103.69
466.293	103.69
466.512	99.69
466.732	98.69
466.951	94.69
467.171	96.69
467.391	125.69
467.61	161.69
467.829	241.69
468.049	635.69
468.268	1008.69
468.488	245.69
468.707	117.69
468.927	100.69
469.146	99.69
469.365	90.69
469.585	121.69
469.804	120.69
470.023	122.69
470.243	103.69
470.462	131.69
470.681	165.69
470.901	144.69
471.12	115.69
471.339	128.69
471.558	138.69
471.777	159.69
471.997	375.69
472.216	1306.69
472.435	3074.69
472.654	728.69
472.873	181.69
473.092	117.69
473.311	100.69
473.53	99.69
473.749	104.69
473.968	120.69
474.187	157.69
474.406	145.69
474.625	106.69
474.844	87.69
475.063	84.69
475.282	87.69
475.501	95.69
475.72	99.69
475.939	108.69
476.158	95.69
476.377	95.69
476.596	101.69
476.814	116.69
477.033	96.69
477.252	91.69
477.471	98.69
477.69	80.69
477.908	100.69
478.127	99.69
478.346	99.69
478.564	91.69
478.783	93.69
479.002	116.69
479.22	106.69
479.439	142.69
479.658	161.69
479.876	143.69
480.095	134.69
480.313	155.69
480.532	192.69
480.751	317.69
480.969	1191.69
481.188	5182.69
481.406	3232.69
481.624	449.69
481.843	164.69
482.061	116.69
482.28	99.69
482.498	100.69
482.717	102.69
482.935	86.69
483.153	111.69
483.372	111.69
483.59	82.69
483.808	89.69
484.027	92.69
484.245	104.69
484.463	104.69
484.681	89.69
484.9	109.69
485.118	95.69
485.336	107.69
485.554	115.69
485.772	93.69
485.99	107.69
486.209	97.69
486.427	113.69
486.645	131.69
486.863	139.69
487.081	117.69
487.299	104.69
487.517	106.69
487.735	97.69
487.953	95.69
488.171	96.69
488.389	103.69
488.607	102.69
488.825	114.69
489.043	94.69
489.261	105.69
489.479	92.69
489.696	99.69
489.914	92.69
490.132	103.69
490.35	99.69
490.568	85.69
490.786	87.69
491.003	101.69
491.221	118.69
491.439	107.69
491.657	106.69
491.874	104.69
492.092	99.69
492.31	95.69
492.527	118.69
492.745	113.69
492.963	105.69
493.18	101.69
493.398	101.69
493.615	103.69
493.833	113.69
494.05	89.69
494.268	91.69
494.485	87.69
494.703	99.69
494.92	94.69
495.138	82.69
495.355	86.69
495.573	77.69
495.79	88.69
496.008	87.69
496.225	100.69
496.442	90.69
496.66	97.69
496.877	95.69
497.094	99.69
497.312	106.69
497.529	90.69
497.746	88.69
497.963	106.69
498.181	105.69
498.398	106.69
498.615	128.69
498.832	118.69
499.049	98.69
499.267	115.69
499.484	97.69
499.701	98.69
499.918	96.69
500.135	98.69
500.352	96.69
500.569	103.69
500.786	102.69
501.003	88.69
501.22	92.69
501.437	97.69
501.654	112.69
501.871	150.69
502.088	99.69
502.305	92.69
502.522	104.69
502.739	97.69
502.956	92.69
503.172	90.69
503.389	100.69
503.606	126.69
503.823	115.69
504.04	96.69
504.256	102.69
504.473	89.69
504.69	92.69
504.907	95.69
505.123	95.69
505.34	103.69
505.557	91.69
505.773	94.69
505.99	104.69
506.207	89.69
506.423	86.69
506.64	92.69
506.856	107.69
507.073	96.69
507.289	96.69
507.506	114.69
507.722	138.69
507.939	140.69
508.155	107.69
508.372	112.69
508.588	94.69
508.805	104.69
509.021	90.69
509.238	97.69
509.454	116.69
509.67	102.69
509.887	131.69
510.103	141.69
510.319	240.69
