Data from Circ_2023_H10_HRD10591_00048.txt Node
Date: Wed Jan 03 09:50:40 EST 2024
User: Yrep
Spectrometer: HR+D1059
Trigger mode: 1
Integration Time (sec): 1.000000E-1
Scans to average: 1
Electric dark correction enabled: true
Nonlinearity correction enabled: false
Boxcar width: 0
XAxis mode: Wavelengths
Number of Pixels in Spectrum: 2048
>>>>>Begin Spectral Data<<<<<
223.165	-16.69
223.4	-16.69
223.635	-16.69
223.869	-6.69
224.104	-21.69
224.338	-24.69
224.573	-16.69
224.808	-9.69
225.042	-13.69
225.277	-11.69
225.511	-7.69
225.746	-5.69
225.98	6.31
226.215	23.31
226.449	21.31
226.683	16.31
226.918	30.31
227.152	37.31
227.387	34.31
227.621	42.31
227.856	40.31
228.09	49.31
228.324	48.31
228.559	64.31
228.793	60.31
229.027	67.31
229.262	78.31
229.496	90.31
229.73	91.31
229.964	93.31
230.199	81.31
230.433	85.31
230.667	88.31
230.901	80.31
231.136	73.31
231.37	81.31
231.604	63.31
231.838	72.31
232.072	84.31
232.306	67.31
232.541	71.31
232.775	83.31
233.009	75.31
233.243	65.31
233.477	72.31
233.711	70.31
233.945	77.31
234.179	77.31
234.413	77.31
234.647	76.31
234.881	82.31
235.115	98.31
235.349	75.31
235.583	100.31
235.817	79.31
236.051	70.31
236.285	77.31
236.519	74.31
236.753	79.31
236.987	92.31
237.221	96.31
237.455	88.31
237.689	85.31
237.922	82.31
238.156	80.31
238.39	71.31
238.624	88.31
238.858	80.31
239.091	85.31
239.325	77.31
239.559	78.31
239.793	92.31
240.027	85.31
240.26	90.31
240.494	74.31
240.728	81.31
240.961	74.31
241.195	81.31
241.429	71.31
241.662	80.31
241.896	80.31
242.13	82.31
242.363	83.31
242.597	73.31
242.83	86.31
243.064	77.31
243.298	94.31
243.531	76.31
243.765	80.31
243.998	82.31
244.232	101.31
244.465	97.31
244.699	87.31
244.932	87.31
245.166	88.31
245.399	85.31
245.633	71.31
245.866	84.31
246.099	81.31
246.333	85.31
246.566	83.31
246.8	97.31
247.033	94.31
247.266	89.31
247.5	79.31
247.733	76.31
247.966	92.31
248.2	83.31
248.433	88.31
248.666	80.31
248.899	92.31
249.133	93.31
249.366	101.31
249.599	110.31
249.832	94.31
250.066	88.31
250.299	89.31
250.532	73.31
250.765	89.31
250.998	61.31
251.231	90.31
251.465	92.31
251.698	75.31
251.931	89.31
252.164	85.31
252.397	80.31
252.63	91.31
252.863	81.31
253.096	76.31
253.329	95.31
253.562	95.31
253.795	79.31
254.028	76.31
254.261	71.31
254.494	84.31
254.727	87.31
254.96	83.31
255.193	62.31
255.426	81.31
255.659	90.31
255.892	94.31
256.124	95.31
256.357	76.31
256.59	85.31
256.823	94.31
257.056	99.31
257.289	96.31
257.521	66.31
257.754	86.31
257.987	90.31
258.22	101.31
258.452	102.31
258.685	97.31
258.918	79.31
259.151	91.31
259.383	84.31
259.616	82.31
259.849	93.31
260.081	84.31
260.314	88.31
260.547	86.31
260.779	104.31
261.012	134.31
261.244	115.31
261.477	102.31
261.71	114.31
261.942	143.31
262.175	164.31
262.407	113.31
262.64	96.31
262.872	95.31
263.105	84.31
263.337	96.31
263.57	84.31
263.802	80.31
264.035	97.31
264.267	80.31
264.499	86.31
264.732	76.31
264.964	88.31
265.197	79.31
265.429	98.31
265.661	82.31
265.894	86.31
266.126	91.31
266.358	83.31
266.591	88.31
266.823	87.31
267.055	87.31
267.287	95.31
267.52	88.31
267.752	95.31
267.984	99.31
268.216	87.31
268.448	87.31
268.681	93.31
268.913	98.31
269.145	87.31
269.377	87.31
269.609	79.31
269.841	84.31
270.073	79.31
270.306	91.31
270.538	86.31
270.77	89.31
271.002	86.31
271.234	95.31
271.466	94.31
271.698	92.31
271.93	89.31
272.162	107.31
272.394	94.31
272.626	105.31
272.858	83.31
273.09	89.31
273.322	73.31
273.553	76.31
273.785	80.31
274.017	78.31
274.249	87.31
274.481	87.31
274.713	98.31
274.945	85.31
275.176	104.31
275.408	111.31
275.64	120.31
275.872	139.31
276.104	101.31
276.335	100.31
276.567	126.31
276.799	155.31
277.031	198.31
277.262	233.31
277.494	174.31
277.726	106.31
277.957	102.31
278.189	95.31
278.421	90.31
278.652	92.31
278.884	91.31
279.115	90.31
279.347	88.31
279.579	103.31
279.81	138.31
280.042	205.31
280.273	282.31
280.505	203.31
280.736	103.31
280.968	87.31
281.199	91.31
281.431	97.31
281.662	93.31
281.894	103.31
282.125	100.31
282.356	133.31
282.588	179.31
282.819	139.31
283.051	101.31
283.282	87.31
283.513	88.31
283.745	97.31
283.976	87.31
284.207	83.31
284.439	88.31
284.67	102.31
284.901	96.31
285.132	93.31
285.364	84.31
285.595	87.31
285.826	88.31
286.057	94.31
286.288	84.31
286.52	82.31
286.751	94.31
286.982	76.31
287.213	94.31
287.444	81.31
287.675	84.31
287.906	91.31
288.138	85.31
288.369	122.31
288.6	95.31
288.831	98.31
289.062	89.31
289.293	81.31
289.524	76.31
289.755	94.31
289.986	89.31
290.217	90.31
290.448	87.31
290.679	84.31
290.91	90.31
291.141	79.31
291.371	91.31
291.602	90.31
291.833	86.31
292.064	101.31
292.295	91.31
292.526	99.31
292.757	86.31
292.987	92.31
293.218	97.31
293.449	105.31
293.68	98.31
293.91	94.31
294.141	101.31
294.372	87.31
294.603	87.31
294.833	90.31
295.064	89.31
295.295	89.31
295.525	89.31
295.756	112.31
295.987	135.31
296.217	195.31
296.448	161.31
296.679	99.31
296.909	103.31
297.14	103.31
297.37	87.31
297.601	86.31
297.831	103.31
298.062	92.31
298.292	89.31
298.523	98.31
298.753	93.31
298.984	91.31
299.214	89.31
299.445	85.31
299.675	101.31
299.905	109.31
300.136	108.31
300.366	88.31
300.597	95.31
300.827	100.31
301.057	118.31
301.288	107.31
301.518	104.31
301.748	97.31
301.979	109.31
302.209	122.31
302.439	96.31
302.669	82.31
302.9	96.31
303.13	98.31
303.36	111.31
303.59	130.31
303.82	165.31
304.051	111.31
304.281	110.31
304.511	90.31
304.741	90.31
304.971	88.31
305.201	107.31
305.431	97.31
305.661	97.31
305.891	89.31
306.121	91.31
306.352	120.31
306.582	130.31
306.812	107.31
307.042	130.31
307.272	182.31
307.502	197.31
307.731	194.31
307.961	142.31
308.191	100.31
308.421	100.31
308.651	85.31
308.881	90.31
309.111	100.31
309.341	105.31
309.571	105.31
309.8	106.31
310.03	108.31
310.26	127.31
310.49	100.31
310.72	105.31
310.949	131.31
311.179	119.31
311.409	111.31
311.639	104.31
311.868	105.31
312.098	104.31
312.328	108.31
312.557	115.31
312.787	133.31
313.017	111.31
313.246	93.31
313.476	103.31
313.706	105.31
313.935	103.31
314.165	113.31
314.394	114.31
314.624	98.31
314.853	91.31
315.083	85.31
315.312	85.31
315.542	96.31
315.771	103.31
316.001	76.31
316.23	86.31
316.46	96.31
316.689	98.31
316.919	94.31
317.148	116.31
317.377	100.31
317.607	95.31
317.836	87.31
318.065	99.31
318.295	92.31
318.524	88.31
318.753	90.31
318.983	110.31
319.212	114.31
319.441	122.31
319.67	138.31
319.9	118.31
320.129	75.31
320.358	98.31
320.587	100.31
320.816	92.31
321.046	105.31
321.275	117.31
321.504	95.31
321.733	110.31
321.962	96.31
322.191	110.31
322.42	124.31
322.649	133.31
322.878	119.31
323.108	139.31
323.337	148.31
323.566	175.31
323.795	180.31
324.024	235.31
324.253	498.31
324.482	1070.31
324.71	2179.31
324.939	2886.31
325.168	1078.31
325.397	308.31
325.626	171.31
325.855	152.31
326.084	153.31
326.313	158.31
326.542	172.31
326.77	274.31
326.999	558.31
327.228	1104.31
327.457	2032.31
327.686	1703.31
327.914	612.31
328.143	601.31
328.372	801.31
328.6	448.31
328.829	240.31
329.058	207.31
329.287	207.31
329.515	191.31
329.744	283.31
329.972	535.31
330.201	1163.31
330.43	1703.31
330.658	777.31
330.887	347.31
331.115	210.31
331.344	115.31
331.572	133.31
331.801	138.31
332.03	126.31
332.258	114.31
332.486	105.31
332.715	110.31
332.943	128.31
333.172	147.31
333.4	157.31
333.629	173.31
333.857	263.31
334.085	486.31
334.314	982.31
334.542	2057.31
334.771	2004.31
334.999	514.31
335.227	215.31
335.455	142.31
335.684	114.31
335.912	110.31
336.14	117.31
336.369	112.31
336.597	117.31
336.825	117.31
337.053	95.31
337.281	101.31
337.51	91.31
337.738	113.31
337.966	110.31
338.194	123.31
338.422	98.31
338.65	104.31
338.878	103.31
339.106	108.31
339.334	104.31
339.562	83.31
339.79	119.31
340.018	90.31
340.246	106.31
340.474	107.31
340.702	97.31
340.93	89.31
341.158	87.31
341.386	111.31
341.614	97.31
341.842	104.31
342.07	99.31
342.298	99.31
342.526	97.31
342.754	105.31
342.981	92.31
343.209	96.31
343.437	99.31
343.665	88.31
343.893	100.31
344.12	80.31
344.348	89.31
344.576	104.31
344.804	96.31
345.031	111.31
345.259	121.31
345.487	100.31
345.714	105.31
345.942	87.31
346.17	99.31
346.397	94.31
346.625	96.31
346.853	96.31
347.08	106.31
347.308	97.31
347.535	97.31
347.763	110.31
347.99	114.31
348.218	104.31
348.445	126.31
348.673	99.31
348.9	94.31
349.128	106.31
349.355	89.31
349.583	89.31
349.81	101.31
350.037	103.31
350.265	92.31
350.492	97.31
350.72	110.31
350.947	108.31
351.174	128.31
351.402	122.31
351.629	119.31
351.856	122.31
352.083	128.31
352.311	125.31
352.538	137.31
352.765	129.31
352.992	129.31
353.22	120.31
353.447	121.31
353.674	112.31
353.901	117.31
354.128	105.31
354.355	99.31
354.583	111.31
354.81	100.31
355.037	94.31
355.264	85.31
355.491	87.31
355.718	104.31
355.945	89.31
356.172	103.31
356.399	82.31
356.626	95.31
356.853	95.31
357.08	91.31
357.307	89.31
357.534	98.31
357.761	88.31
357.988	97.31
358.215	97.31
358.441	93.31
358.668	97.31
358.895	90.31
359.122	87.31
359.349	83.31
359.576	106.31
359.802	120.31
360.029	154.31
360.256	153.31
360.483	119.31
360.709	86.31
360.936	90.31
361.163	92.31
361.39	108.31
361.616	106.31
361.843	96.31
362.07	98.31
362.296	107.31
362.523	110.31
362.749	92.31
362.976	87.31
363.203	113.31
363.429	89.31
363.656	114.31
363.882	100.31
364.109	93.31
364.335	91.31
364.562	97.31
364.788	99.31
365.015	91.31
365.241	102.31
365.468	122.31
365.694	130.31
365.92	111.31
366.147	110.31
366.373	103.31
366.599	92.31
366.826	89.31
367.052	94.31
367.278	96.31
367.505	95.31
367.731	98.31
367.957	103.31
368.184	112.31
368.41	111.31
368.636	135.31
368.862	138.31
369.089	143.31
369.315	114.31
369.541	107.31
369.767	111.31
369.993	91.31
370.219	107.31
370.445	90.31
370.672	87.31
370.898	97.31
371.124	110.31
371.35	100.31
371.576	96.31
371.802	92.31
372.028	80.31
372.254	87.31
372.48	104.31
372.706	88.31
372.932	75.31
373.158	93.31
373.384	87.31
373.61	98.31
373.835	90.31
374.061	88.31
374.287	86.31
374.513	89.31
374.739	91.31
374.965	78.31
375.191	83.31
375.416	81.31
375.642	98.31
375.868	99.31
376.094	91.31
376.319	82.31
376.545	96.31
376.771	87.31
376.997	89.31
377.222	102.31
377.448	89.31
377.674	87.31
377.899	84.31
378.125	91.31
378.35	90.31
378.576	95.31
378.802	91.31
379.027	91.31
379.253	101.31
379.478	89.31
379.704	92.31
379.929	98.31
380.155	90.31
380.38	100.31
380.606	99.31
380.831	87.31
381.057	103.31
381.282	87.31
381.507	87.31
381.733	89.31
381.958	86.31
382.184	93.31
382.409	102.31
382.634	100.31
382.86	94.31
383.085	80.31
383.31	106.31
383.535	97.31
383.761	96.31
383.986	89.31
384.211	88.31
384.436	89.31
384.662	76.31
384.887	94.31
385.112	95.31
385.337	89.31
385.562	102.31
385.787	98.31
386.013	90.31
386.238	121.31
386.463	96.31
386.688	97.31
386.913	102.31
387.138	99.31
387.363	88.31
387.588	87.31
387.813	113.31
388.038	103.31
388.263	96.31
388.488	100.31
388.713	94.31
388.938	89.31
389.163	92.31
389.387	95.31
389.612	93.31
389.837	93.31
390.062	95.31
390.287	96.31
390.512	94.31
390.736	71.31
390.961	92.31
391.186	99.31
391.411	94.31
391.636	90.31
391.86	97.31
392.085	76.31
392.31	92.31
392.534	84.31
392.759	94.31
392.984	87.31
393.208	85.31
393.433	99.31
393.658	97.31
393.882	78.31
394.107	86.31
394.331	79.31
394.556	80.31
394.78	80.31
395.005	95.31
395.229	87.31
395.454	84.31
395.678	91.31
395.903	93.31
396.127	84.31
396.352	89.31
396.576	76.31
396.801	88.31
397.025	92.31
397.249	101.31
397.474	94.31
397.698	73.31
397.922	92.31
398.147	80.31
398.371	86.31
398.595	81.31
398.82	78.31
399.044	98.31
399.268	88.31
399.492	95.31
399.717	101.31
399.941	86.31
400.165	98.31
400.389	78.31
400.613	96.31
400.837	83.31
401.062	99.31
401.286	92.31
401.51	98.31
401.734	113.31
401.958	120.31
402.182	169.31
402.406	214.31
402.63	165.31
402.854	101.31
403.078	88.31
403.302	68.31
403.526	87.31
403.75	91.31
403.974	74.31
404.198	92.31
404.422	85.31
404.645	100.31
404.869	90.31
405.093	121.31
405.317	150.31
405.541	157.31
405.765	135.31
405.988	144.31
406.212	241.31
406.436	374.31
406.66	238.31
406.883	125.31
407.107	117.31
407.331	125.31
407.555	120.31
407.778	116.31
408.002	97.31
408.226	93.31
408.449	107.31
408.673	88.31
408.896	95.31
409.12	94.31
409.344	97.31
409.567	92.31
409.791	90.31
410.014	94.31
410.238	101.31
410.461	94.31
410.685	105.31
410.908	101.31
411.132	103.31
411.355	96.31
411.578	97.31
411.802	104.31
412.025	92.31
412.249	99.31
412.472	128.31
412.695	131.31
412.919	110.31
413.142	100.31
413.365	98.31
413.589	93.31
413.812	102.31
414.035	93.31
414.258	90.31
414.482	82.31
414.705	105.31
414.928	96.31
415.151	88.31
415.374	103.31
415.597	76.31
415.821	94.31
416.044	78.31
416.267	94.31
416.49	88.31
416.713	74.31
416.936	97.31
417.159	89.31
417.382	90.31
417.605	100.31
417.828	140.31
418.051	93.31
418.274	78.31
418.497	74.31
418.72	75.31
418.943	83.31
419.166	89.31
419.389	87.31
419.611	94.31
419.834	86.31
420.057	92.31
420.28	104.31
420.503	96.31
420.726	97.31
420.948	86.31
421.171	102.31
421.394	103.31
421.617	71.31
421.839	86.31
422.062	75.31
422.285	91.31
422.507	99.31
422.73	110.31
422.953	88.31
423.175	94.31
423.398	101.31
423.621	89.31
423.843	95.31
424.066	99.31
424.288	87.31
424.511	95.31
424.733	110.31
424.956	112.31
425.178	99.31
425.401	105.31
425.623	125.31
425.846	91.31
426.068	99.31
426.291	101.31
426.513	102.31
426.735	83.31
426.958	94.31
427.18	134.31
427.402	178.31
427.625	273.31
427.847	265.31
428.069	219.31
428.292	130.31
428.514	110.31
428.736	104.31
428.958	75.31
429.181	92.31
429.403	92.31
429.625	98.31
429.847	91.31
430.069	111.31
430.292	98.31
430.514	77.31
430.736	87.31
430.958	104.31
431.18	96.31
431.402	94.31
431.624	102.31
431.846	89.31
432.068	76.31
432.29	84.31
432.512	95.31
432.734	90.31
432.956	94.31
433.178	103.31
433.4	100.31
433.622	83.31
433.844	88.31
434.066	103.31
434.287	82.31
434.509	67.31
434.731	84.31
434.953	87.31
435.175	95.31
435.397	93.31
435.618	96.31
435.84	116.31
436.062	150.31
436.284	131.31
436.505	119.31
436.727	114.31
436.949	89.31
437.17	91.31
437.392	101.31
437.614	99.31
437.835	141.31
438.057	161.31
438.278	139.31
438.5	119.31
438.721	143.31
438.943	101.31
439.165	98.31
439.386	104.31
439.608	90.31
439.829	115.31
440.05	154.31
440.272	176.31
440.493	122.31
440.715	103.31
440.936	80.31
441.158	83.31
441.379	93.31
441.6	103.31
441.822	97.31
442.043	100.31
442.264	127.31
442.486	115.31
442.707	112.31
442.928	135.31
443.149	175.31
443.371	183.31
443.592	139.31
443.813	103.31
444.034	122.31
444.255	96.31
444.476	93.31
444.698	87.31
444.919	93.31
445.14	125.31
445.361	138.31
445.582	147.31
445.803	194.31
446.024	191.31
446.245	167.31
446.466	131.31
446.687	90.31
446.908	94.31
447.129	106.31
447.35	89.31
447.571	89.31
447.792	101.31
448.013	102.31
448.234	126.31
448.455	113.31
448.675	140.31
448.896	136.31
449.117	112.31
449.338	103.31
449.559	150.31
449.779	166.31
450	98.31
450.221	97.31
450.442	98.31
450.662	110.31
450.883	144.31
451.104	148.31
451.324	110.31
451.545	86.31
451.766	91.31
451.986	92.31
452.207	104.31
452.428	99.31
452.648	116.31
452.869	138.31
453.089	132.31
453.31	146.31
453.53	106.31
453.751	88.31
453.971	127.31
454.192	134.31
454.412	97.31
454.633	93.31
454.853	82.31
455.073	97.31
455.294	106.31
455.514	111.31
455.734	89.31
455.955	84.31
456.175	94.31
456.395	88.31
456.616	98.31
456.836	104.31
457.056	96.31
457.276	90.31
457.497	96.31
457.717	84.31
457.937	82.31
458.157	89.31
458.377	107.31
458.598	132.31
458.818	227.31
459.038	253.31
459.258	160.31
459.478	96.31
459.698	102.31
459.918	84.31
460.138	88.31
460.358	94.31
460.578	82.31
460.798	93.31
461.018	116.31
461.238	100.31
461.458	79.31
461.678	109.31
461.898	91.31
462.118	91.31
462.338	76.31
462.558	84.31
462.777	87.31
462.997	101.31
463.217	101.31
463.437	105.31
463.657	99.31
463.876	100.31
464.096	89.31
464.316	102.31
464.536	94.31
464.755	114.31
464.975	148.31
465.195	260.31
465.414	270.31
465.634	106.31
465.854	100.31
466.073	89.31
466.293	92.31
466.512	90.31
466.732	99.31
466.951	91.31
467.171	109.31
467.391	128.31
467.61	158.31
467.829	230.31
468.049	666.31
468.268	1035.31
468.488	250.31
468.707	124.31
468.927	106.31
469.146	100.31
469.365	98.31
469.585	98.31
469.804	112.31
470.023	140.31
470.243	111.31
470.462	127.31
470.681	156.31
470.901	121.31
471.12	106.31
471.339	123.31
471.558	126.31
471.777	160.31
471.997	318.31
472.216	1244.31
472.435	2966.31
472.654	718.31
472.873	184.31
473.092	108.31
473.311	113.31
473.53	101.31
473.749	80.31
473.968	106.31
474.187	128.31
474.406	111.31
474.625	95.31
474.844	90.31
475.063	79.31
475.282	89.31
475.501	84.31
475.72	98.31
475.939	86.31
476.158	89.31
476.377	91.31
476.596	101.31
476.814	106.31
477.033	103.31
477.252	105.31
477.471	100.31
477.69	77.31
477.908	87.31
478.127	98.31
478.346	101.31
478.564	101.31
478.783	112.31
479.002	114.31
479.22	116.31
479.439	136.31
479.658	146.31
479.876	130.31
480.095	131.31
480.313	147.31
480.532	177.31
480.751	320.31
480.969	1099.31
481.188	4815.31
481.406	3060.31
481.624	425.31
481.843	154.31
482.061	133.31
482.28	93.31
482.498	106.31
482.717	99.31
482.935	89.31
483.153	97.31
483.372	102.31
483.59	91.31
483.808	96.31
484.027	101.31
484.245	100.31
484.463	114.31
484.681	82.31
484.9	89.31
485.118	91.31
485.336	107.31
485.554	91.31
485.772	105.31
485.99	112.31
486.209	105.31
486.427	108.31
486.645	129.31
486.863	134.31
487.081	117.31
487.299	97.31
487.517	95.31
487.735	92.31
487.953	93.31
488.171	94.31
488.389	104.31
488.607	118.31
488.825	106.31
489.043	89.31
489.261	94.31
489.479	105.31
489.696	94.31
489.914	79.31
490.132	100.31
490.35	95.31
490.568	94.31
490.786	83.31
491.003	102.31
491.221	94.31
491.439	113.31
491.657	102.31
491.874	96.31
492.092	100.31
492.31	99.31
492.527	92.31
492.745	96.31
492.963	98.31
493.18	86.31
493.398	92.31
493.615	96.31
493.833	89.31
494.05	87.31
494.268	97.31
494.485	90.31
494.703	84.31
494.92	79.31
495.138	92.31
495.355	95.31
495.573	112.31
495.79	97.31
496.008	98.31
496.225	92.31
496.442	98.31
496.66	103.31
496.877	81.31
497.094	89.31
497.312	94.31
497.529	95.31
497.746	91.31
497.963	87.31
498.181	90.31
498.398	107.31
498.615	117.31
498.832	114.31
499.049	95.31
499.267	95.31
499.484	101.31
499.701	81.31
499.918	94.31
500.135	96.31
500.352	95.31
500.569	102.31
500.786	97.31
501.003	102.31
501.22	84.31
501.437	92.31
501.654	115.31
501.871	133.31
502.088	100.31
502.305	101.31
502.522	80.31
502.739	69.31
502.956	93.31
503.172	94.31
503.389	101.31
503.606	132.31
503.823	107.31
504.04	105.31
504.256	99.31
504.473	90.31
504.69	84.31
504.907	90.31
505.123	92.31
505.34	87.31
505.557	97.31
505.773	105.31
505.99	98.31
506.207	107.31
506.423	88.31
506.64	86.31
506.856	99.31
507.073	83.31
507.289	89.31
507.506	92.31
507.722	143.31
507.939	160.31
508.155	103.31
508.372	92.31
508.588	103.31
508.805	106.31
509.021	116.31
509.238	112.31
509.454	109.31
509.67	113.31
509.887	116.31
510.103	147.31
510.319	278.31
510.536	1081.31
510.752	3977.31
510.968	1121.31
511.184	204.31
511.401	142.31
511.617	113.31
511.833	110.31
512.049	116.31
512.265	102.31
