Data from Circ_2023_H10_HRD10591_00040.txt Node
Date: Wed Jan 03 09:50:39 EST 2024
User: Yrep
Spectrometer: HR+D1059
Trigger mode: 1
Integration Time (sec): 1.000000E-1
Scans to average: 1
Electric dark correction enabled: true
Nonlinearity correction enabled: false
Boxcar width: 0
XAxis mode: Wavelengths
Number of Pixels in Spectrum: 2048
>>>>>Begin Spectral Data<<<<<
223.165	-38.25
223.4	-38.25
223.635	-38.25
223.869	-12.25
224.104	-4.25
224.338	-20.25
224.573	-19.25
224.808	-15.25
225.042	-1.25
225.277	-4.25
225.511	3.75
225.746	-2.25
225.98	11.75
226.215	14.75
226.449	21.75
226.683	16.75
226.918	22.75
227.152	25.75
227.387	29.75
227.621	47.75
227.856	33.75
228.09	54.75
228.324	41.75
228.559	61.75
228.793	65.75
229.027	65.75
229.262	80.75
229.496	68.75
229.73	93.75
229.964	96.75
230.199	71.75
230.433	79.75
230.667	90.75
230.901	82.75
231.136	77.75
231.37	71.75
231.604	69.75
231.838	70.75
232.072	97.75
232.306	97.75
232.541	84.75
232.775	90.75
233.009	84.75
233.243	93.75
233.477	86.75
233.711	81.75
233.945	86.75
234.179	71.75
234.413	81.75
234.647	81.75
234.881	75.75
235.115	96.75
235.349	86.75
235.583	94.75
235.817	88.75
236.051	92.75
236.285	89.75
236.519	100.75
236.753	86.75
236.987	72.75
237.221	94.75
237.455	93.75
237.689	75.75
237.922	78.75
238.156	85.75
238.39	75.75
238.624	79.75
238.858	76.75
239.091	79.75
239.325	86.75
239.559	91.75
239.793	83.75
240.027	86.75
240.26	84.75
240.494	70.75
240.728	68.75
240.961	77.75
241.195	79.75
241.429	67.75
241.662	81.75
241.896	91.75
242.13	90.75
242.363	84.75
242.597	88.75
242.83	75.75
243.064	81.75
243.298	78.75
243.531	85.75
243.765	85.75
243.998	80.75
244.232	84.75
244.465	91.75
244.699	95.75
244.932	88.75
245.166	80.75
245.399	68.75
245.633	80.75
245.866	89.75
246.099	89.75
246.333	70.75
246.566	76.75
246.8	87.75
247.033	72.75
247.266	92.75
247.5	81.75
247.733	94.75
247.966	110.75
248.2	90.75
248.433	82.75
248.666	88.75
248.899	77.75
249.133	78.75
249.366	110.75
249.599	115.75
249.832	89.75
250.066	77.75
250.299	95.75
250.532	90.75
250.765	77.75
250.998	92.75
251.231	82.75
251.465	87.75
251.698	81.75
251.931	86.75
252.164	88.75
252.397	98.75
252.63	85.75
252.863	86.75
253.096	91.75
253.329	69.75
253.562	108.75
253.795	70.75
254.028	78.75
254.261	72.75
254.494	64.75
254.727	79.75
254.96	87.75
255.193	84.75
255.426	93.75
255.659	96.75
255.892	82.75
256.124	116.75
256.357	95.75
256.59	91.75
256.823	94.75
257.056	94.75
257.289	74.75
257.521	84.75
257.754	82.75
257.987	89.75
258.22	96.75
258.452	94.75
258.685	103.75
258.918	87.75
259.151	90.75
259.383	90.75
259.616	89.75
259.849	82.75
260.081	103.75
260.314	84.75
260.547	102.75
260.779	91.75
261.012	115.75
261.244	110.75
261.477	101.75
261.71	91.75
261.942	140.75
262.175	141.75
262.407	104.75
262.64	78.75
262.872	75.75
263.105	75.75
263.337	97.75
263.57	86.75
263.802	88.75
264.035	89.75
264.267	79.75
264.499	89.75
264.732	78.75
264.964	93.75
265.197	87.75
265.429	87.75
265.661	96.75
265.894	89.75
266.126	85.75
266.358	82.75
266.591	79.75
266.823	71.75
267.055	72.75
267.287	86.75
267.52	84.75
267.752	90.75
267.984	75.75
268.216	87.75
268.448	85.75
268.681	85.75
268.913	82.75
269.145	89.75
269.377	92.75
269.609	79.75
269.841	78.75
270.073	77.75
270.306	86.75
270.538	98.75
270.77	91.75
271.002	97.75
271.234	72.75
271.466	84.75
271.698	97.75
271.93	95.75
272.162	104.75
272.394	88.75
272.626	82.75
272.858	75.75
273.09	88.75
273.322	92.75
273.553	88.75
273.785	83.75
274.017	76.75
274.249	93.75
274.481	86.75
274.713	78.75
274.945	92.75
275.176	98.75
275.408	102.75
275.64	111.75
275.872	133.75
276.104	113.75
276.335	105.75
276.567	131.75
276.799	137.75
277.031	179.75
277.262	203.75
277.494	150.75
277.726	129.75
277.957	91.75
278.189	73.75
278.421	100.75
278.652	80.75
278.884	94.75
279.115	98.75
279.347	94.75
279.579	89.75
279.81	129.75
280.042	209.75
280.273	275.75
280.505	185.75
280.736	118.75
280.968	93.75
281.199	90.75
281.431	90.75
281.662	104.75
281.894	81.75
282.125	115.75
282.356	130.75
282.588	165.75
282.819	139.75
283.051	101.75
283.282	87.75
283.513	88.75
283.745	95.75
283.976	88.75
284.207	83.75
284.439	85.75
284.67	95.75
284.901	99.75
285.132	88.75
285.364	98.75
285.595	105.75
285.826	82.75
286.057	76.75
286.288	75.75
286.52	84.75
286.751	97.75
286.982	75.75
287.213	105.75
287.444	83.75
287.675	93.75
287.906	81.75
288.138	89.75
288.369	94.75
288.6	103.75
288.831	89.75
289.062	101.75
289.293	89.75
289.524	84.75
289.755	98.75
289.986	98.75
290.217	91.75
290.448	84.75
290.679	92.75
290.91	85.75
291.141	90.75
291.371	89.75
291.602	83.75
291.833	103.75
292.064	92.75
292.295	110.75
292.526	107.75
292.757	100.75
292.987	95.75
293.218	94.75
293.449	100.75
293.68	88.75
293.91	86.75
294.141	92.75
294.372	84.75
294.603	90.75
294.833	78.75
295.064	92.75
295.295	97.75
295.525	97.75
295.756	98.75
295.987	130.75
296.217	171.75
296.448	153.75
296.679	90.75
296.909	85.75
297.14	87.75
297.37	87.75
297.601	92.75
297.831	99.75
298.062	100.75
298.292	107.75
298.523	82.75
298.753	92.75
298.984	80.75
299.214	102.75
299.445	98.75
299.675	96.75
299.905	102.75
300.136	79.75
300.366	108.75
300.597	95.75
300.827	96.75
301.057	111.75
301.288	111.75
301.518	106.75
301.748	91.75
301.979	120.75
302.209	102.75
302.439	98.75
302.669	86.75
302.9	80.75
303.13	100.75
303.36	114.75
303.59	138.75
303.82	151.75
304.051	120.75
304.281	87.75
304.511	97.75
304.741	102.75
304.971	97.75
305.201	89.75
305.431	91.75
305.661	86.75
305.891	86.75
306.121	96.75
306.352	105.75
306.582	126.75
306.812	122.75
307.042	129.75
307.272	167.75
307.502	179.75
307.731	167.75
307.961	120.75
308.191	89.75
308.421	90.75
308.651	110.75
308.881	102.75
309.111	105.75
309.341	111.75
309.571	93.75
309.8	92.75
310.03	98.75
310.26	112.75
310.49	101.75
310.72	100.75
310.949	129.75
311.179	114.75
311.409	93.75
311.639	95.75
311.868	105.75
312.098	105.75
312.328	101.75
312.557	129.75
312.787	135.75
313.017	106.75
313.246	110.75
313.476	90.75
313.706	87.75
313.935	96.75
314.165	90.75
314.394	109.75
314.624	100.75
314.853	101.75
315.083	109.75
315.312	102.75
315.542	103.75
315.771	88.75
316.001	105.75
316.23	106.75
316.46	86.75
316.689	111.75
316.919	91.75
317.148	106.75
317.377	100.75
317.607	98.75
317.836	92.75
318.065	90.75
318.295	88.75
318.524	97.75
318.753	108.75
318.983	112.75
319.212	103.75
319.441	117.75
319.67	122.75
319.9	92.75
320.129	96.75
320.358	107.75
320.587	88.75
320.816	105.75
321.046	107.75
321.275	98.75
321.504	100.75
321.733	97.75
321.962	103.75
322.191	106.75
322.42	120.75
322.649	109.75
322.878	121.75
323.108	129.75
323.337	152.75
323.566	152.75
323.795	175.75
324.024	237.75
324.253	496.75
324.482	1107.75
324.71	2218.75
324.939	2925.75
325.168	1076.75
325.397	287.75
325.626	158.75
325.855	153.75
326.084	151.75
326.313	157.75
326.542	177.75
326.77	288.75
326.999	562.75
327.228	1205.75
327.457	2139.75
327.686	1772.75
327.914	599.75
328.143	560.75
328.372	723.75
328.6	436.75
328.829	213.75
329.058	179.75
329.287	196.75
329.515	193.75
329.744	280.75
329.972	541.75
330.201	1097.75
330.43	1645.75
330.658	734.75
330.887	313.75
331.115	217.75
331.344	140.75
331.572	126.75
331.801	152.75
332.03	122.75
332.258	133.75
332.486	104.75
332.715	116.75
332.943	117.75
333.172	117.75
333.4	138.75
333.629	176.75
333.857	251.75
334.085	470.75
334.314	1039.75
334.542	1993.75
334.771	1922.75
334.999	484.75
335.227	176.75
335.455	129.75
335.684	128.75
335.912	127.75
336.14	105.75
336.369	104.75
336.597	103.75
336.825	102.75
337.053	95.75
337.281	94.75
337.51	109.75
337.738	102.75
337.966	97.75
338.194	113.75
338.422	113.75
338.65	102.75
338.878	91.75
339.106	94.75
339.334	94.75
339.562	79.75
339.79	106.75
340.018	104.75
340.246	96.75
340.474	109.75
340.702	101.75
340.93	93.75
341.158	79.75
341.386	102.75
341.614	102.75
341.842	91.75
342.07	88.75
342.298	99.75
342.526	97.75
342.754	89.75
342.981	81.75
343.209	78.75
343.437	95.75
343.665	83.75
343.893	79.75
344.12	93.75
344.348	94.75
344.576	97.75
344.804	90.75
345.031	109.75
345.259	103.75
345.487	101.75
345.714	118.75
345.942	96.75
346.17	81.75
346.397	89.75
346.625	101.75
346.853	107.75
347.08	74.75
347.308	90.75
347.535	100.75
347.763	114.75
347.99	114.75
348.218	102.75
348.445	118.75
348.673	117.75
348.9	96.75
349.128	110.75
349.355	85.75
349.583	97.75
349.81	94.75
350.037	97.75
350.265	108.75
350.492	98.75
350.72	90.75
350.947	104.75
351.174	128.75
351.402	114.75
351.629	102.75
351.856	114.75
352.083	121.75
352.311	131.75
352.538	109.75
352.765	121.75
352.992	119.75
353.22	121.75
353.447	93.75
353.674	105.75
353.901	116.75
354.128	101.75
354.355	95.75
354.583	103.75
354.81	90.75
355.037	88.75
355.264	82.75
355.491	93.75
355.718	93.75
355.945	98.75
356.172	102.75
356.399	88.75
356.626	104.75
356.853	95.75
357.08	98.75
357.307	79.75
357.534	96.75
357.761	89.75
357.988	94.75
358.215	89.75
358.441	100.75
358.668	93.75
358.895	93.75
359.122	92.75
359.349	87.75
359.576	87.75
359.802	103.75
360.029	153.75
360.256	128.75
360.483	101.75
360.709	73.75
360.936	95.75
361.163	112.75
361.39	104.75
361.616	109.75
361.843	97.75
362.07	102.75
362.296	107.75
362.523	100.75
362.749	95.75
362.976	93.75
363.203	93.75
363.429	96.75
363.656	94.75
363.882	87.75
364.109	93.75
364.335	93.75
364.562	114.75
364.788	83.75
365.015	110.75
365.241	124.75
365.468	119.75
365.694	110.75
365.92	113.75
366.147	97.75
366.373	85.75
366.599	113.75
366.826	94.75
367.052	98.75
367.278	102.75
367.505	98.75
367.731	105.75
367.957	94.75
368.184	100.75
368.41	110.75
368.636	115.75
368.862	135.75
369.089	114.75
369.315	93.75
369.541	84.75
369.767	87.75
369.993	92.75
370.219	99.75
370.445	93.75
370.672	82.75
370.898	86.75
371.124	79.75
371.35	91.75
371.576	95.75
371.802	80.75
372.028	97.75
372.254	77.75
372.48	77.75
372.706	94.75
372.932	86.75
373.158	96.75
373.384	96.75
373.61	94.75
373.835	85.75
374.061	82.75
374.287	91.75
374.513	84.75
374.739	96.75
374.965	83.75
375.191	91.75
375.416	84.75
375.642	87.75
375.868	87.75
376.094	90.75
376.319	95.75
376.545	87.75
376.771	82.75
376.997	83.75
377.222	98.75
377.448	100.75
377.674	92.75
377.899	73.75
378.125	82.75
378.35	93.75
378.576	95.75
378.802	94.75
379.027	98.75
379.253	99.75
379.478	78.75
379.704	94.75
379.929	90.75
380.155	87.75
380.38	87.75
380.606	106.75
380.831	87.75
381.057	90.75
381.282	95.75
381.507	90.75
381.733	99.75
381.958	100.75
382.184	89.75
382.409	91.75
382.634	97.75
382.86	98.75
383.085	88.75
383.31	110.75
383.535	106.75
383.761	98.75
383.986	104.75
384.211	84.75
384.436	84.75
384.662	89.75
384.887	96.75
385.112	96.75
385.337	90.75
385.562	84.75
385.787	101.75
386.013	125.75
386.238	124.75
386.463	93.75
386.688	93.75
386.913	90.75
387.138	97.75
387.363	88.75
387.588	102.75
387.813	97.75
388.038	88.75
388.263	98.75
388.488	102.75
388.713	97.75
388.938	91.75
389.163	94.75
389.387	100.75
389.612	94.75
389.837	105.75
390.062	104.75
390.287	85.75
390.512	88.75
390.736	96.75
390.961	86.75
391.186	99.75
391.411	91.75
391.636	85.75
391.86	80.75
392.085	82.75
392.31	79.75
392.534	94.75
392.759	86.75
392.984	94.75
393.208	67.75
393.433	90.75
393.658	87.75
393.882	94.75
394.107	91.75
394.331	85.75
394.556	83.75
394.78	84.75
395.005	91.75
395.229	87.75
395.454	67.75
395.678	81.75
395.903	86.75
396.127	84.75
396.352	93.75
396.576	78.75
396.801	86.75
397.025	89.75
397.249	85.75
397.474	79.75
397.698	89.75
397.922	82.75
398.147	93.75
398.371	94.75
398.595	84.75
398.82	97.75
399.044	86.75
399.268	99.75
399.492	75.75
399.717	89.75
399.941	97.75
400.165	88.75
400.389	86.75
400.613	104.75
400.837	90.75
401.062	98.75
401.286	93.75
401.51	94.75
401.734	102.75
401.958	102.75
402.182	138.75
402.406	206.75
402.63	154.75
402.854	112.75
403.078	102.75
403.302	94.75
403.526	97.75
403.75	97.75
403.974	91.75
404.198	86.75
404.422	81.75
404.645	92.75
404.869	104.75
405.093	115.75
405.317	168.75
405.541	155.75
405.765	126.75
405.988	152.75
406.212	216.75
406.436	301.75
406.66	194.75
406.883	129.75
407.107	102.75
407.331	104.75
407.555	125.75
407.778	113.75
408.002	100.75
408.226	90.75
408.449	98.75
408.673	114.75
408.896	85.75
409.12	103.75
409.344	97.75
409.567	91.75
409.791	93.75
410.014	103.75
410.238	102.75
410.461	91.75
410.685	88.75
410.908	102.75
411.132	116.75
411.355	119.75
411.578	96.75
411.802	95.75
412.025	98.75
412.249	112.75
412.472	132.75
412.695	166.75
412.919	122.75
413.142	103.75
413.365	91.75
413.589	93.75
413.812	94.75
414.035	84.75
414.258	98.75
414.482	87.75
414.705	70.75
414.928	104.75
415.151	97.75
415.374	97.75
415.597	88.75
415.821	87.75
416.044	86.75
416.267	90.75
416.49	86.75
416.713	90.75
416.936	98.75
417.159	88.75
417.382	103.75
417.605	97.75
417.828	114.75
418.051	98.75
418.274	104.75
418.497	78.75
418.72	103.75
418.943	93.75
419.166	88.75
419.389	87.75
419.611	94.75
419.834	96.75
420.057	81.75
420.28	107.75
420.503	111.75
420.726	94.75
420.948	103.75
421.171	103.75
421.394	97.75
421.617	90.75
421.839	87.75
422.062	98.75
422.285	97.75
422.507	109.75
422.73	107.75
422.953	114.75
423.175	95.75
423.398	99.75
423.621	78.75
423.843	94.75
424.066	98.75
424.288	80.75
424.511	87.75
424.733	115.75
424.956	134.75
425.178	117.75
425.401	114.75
425.623	114.75
425.846	102.75
426.068	109.75
426.291	92.75
426.513	90.75
426.735	94.75
426.958	117.75
427.18	120.75
427.402	197.75
427.625	274.75
427.847	257.75
428.069	241.75
428.292	152.75
428.514	100.75
428.736	90.75
428.958	105.75
429.181	88.75
429.403	86.75
429.625	92.75
429.847	99.75
430.069	111.75
430.292	94.75
430.514	91.75
430.736	87.75
430.958	90.75
431.18	81.75
431.402	105.75
431.624	72.75
431.846	84.75
432.068	78.75
432.29	86.75
432.512	93.75
432.734	85.75
432.956	110.75
433.178	102.75
433.4	99.75
433.622	95.75
433.844	84.75
434.066	99.75
434.287	90.75
434.509	94.75
434.731	95.75
434.953	90.75
435.175	87.75
435.397	101.75
435.618	85.75
435.84	114.75
436.062	163.75
436.284	141.75
436.505	109.75
436.727	117.75
436.949	108.75
437.17	95.75
437.392	103.75
437.614	104.75
437.835	129.75
438.057	178.75
438.278	145.75
438.5	133.75
438.721	149.75
438.943	111.75
439.165	93.75
439.386	85.75
439.608	97.75
439.829	113.75
440.05	160.75
440.272	198.75
440.493	109.75
440.715	82.75
440.936	87.75
441.158	101.75
441.379	109.75
441.6	86.75
441.822	102.75
442.043	103.75
442.264	131.75
442.486	113.75
442.707	94.75
442.928	133.75
443.149	197.75
443.371	183.75
443.592	146.75
443.813	112.75
444.034	134.75
444.255	100.75
444.476	89.75
444.698	90.75
444.919	90.75
445.14	133.75
445.361	136.75
445.582	151.75
445.803	206.75
446.024	192.75
446.245	182.75
446.466	134.75
446.687	110.75
446.908	95.75
447.129	86.75
447.35	95.75
447.571	96.75
447.792	109.75
448.013	105.75
448.234	129.75
448.455	119.75
448.675	138.75
448.896	129.75
449.117	126.75
449.338	128.75
449.559	162.75
449.779	180.75
450	110.75
450.221	102.75
450.442	97.75
450.662	107.75
450.883	128.75
451.104	135.75
451.324	106.75
451.545	90.75
451.766	103.75
451.986	87.75
452.207	93.75
452.428	82.75
452.648	100.75
452.869	125.75
453.089	146.75
453.31	131.75
453.53	104.75
453.751	97.75
453.971	134.75
454.192	140.75
454.412	117.75
454.633	92.75
454.853	83.75
455.073	94.75
455.294	110.75
455.514	113.75
455.734	98.75
455.955	93.75
456.175	86.75
456.395	89.75
456.616	97.75
456.836	85.75
457.056	87.75
457.276	95.75
457.497	75.75
457.717	91.75
457.937	89.75
458.157	87.75
458.377	95.75
458.598	139.75
458.818	216.75
459.038	229.75
459.258	148.75
459.478	109.75
459.698	95.75
459.918	94.75
460.138	89.75
460.358	86.75
460.578	94.75
460.798	97.75
461.018	89.75
461.238	101.75
461.458	98.75
461.678	90.75
461.898	97.75
462.118	81.75
462.338	100.75
462.558	98.75
462.777	111.75
462.997	106.75
463.217	112.75
463.437	99.75
463.657	93.75
463.876	72.75
464.096	96.75
464.316	93.75
464.536	107.75
464.755	104.75
464.975	135.75
465.195	228.75
465.414	242.75
465.634	113.75
465.854	89.75
466.073	102.75
466.293	99.75
466.512	98.75
466.732	92.75
466.951	83.75
467.171	110.75
467.391	112.75
467.61	146.75
467.829	213.75
468.049	563.75
468.268	899.75
468.488	227.75
468.707	107.75
468.927	103.75
469.146	96.75
469.365	98.75
469.585	109.75
469.804	118.75
470.023	117.75
470.243	98.75
470.462	125.75
470.681	145.75
470.901	104.75
471.12	98.75
471.339	100.75
471.558	120.75
471.777	158.75
471.997	307.75
472.216	1130.75
472.435	2718.75
472.654	659.75
472.873	178.75
473.092	121.75
473.311	98.75
473.53	96.75
473.749	99.75
473.968	116.75
474.187	133.75
474.406	122.75
474.625	95.75
474.844	84.75
475.063	86.75
475.282	105.75
475.501	94.75
475.72	100.75
475.939	104.75
476.158	98.75
476.377	100.75
476.596	94.75
476.814	93.75
477.033	104.75
477.252	95.75
477.471	91.75
477.69	87.75
477.908	104.75
478.127	87.75
478.346	89.75
478.564	111.75
478.783	111.75
479.002	104.75
479.22	113.75
479.439	111.75
479.658	142.75
479.876	127.75
480.095	109.75
480.313	138.75
480.532	166.75
480.751	294.75
480.969	1049.75
481.188	4507.75
481.406	2776.75
481.624	402.75
481.843	137.75
482.061	117.75
482.28	111.75
482.498	108.75
482.717	82.75
482.935	101.75
483.153	87.75
483.372	88.75
483.59	97.75
483.808	89.75
484.027	85.75
484.245	88.75
484.463	97.75
484.681	92.75
484.9	96.75
485.118	98.75
485.336	93.75
485.554	111.75
485.772	106.75
485.99	114.75
486.209	101.75
486.427	123.75
486.645	132.75
486.863	145.75
487.081	100.75
487.299	106.75
487.517	103.75
487.735	100.75
487.953	97.75
488.171	99.75
488.389	108.75
488.607	97.75
488.825	91.75
489.043	86.75
489.261	94.75
489.479	91.75
489.696	81.75
489.914	96.75
490.132	82.75
490.35	96.75
490.568	91.75
490.786	81.75
491.003	88.75
491.221	103.75
491.439	119.75
491.657	98.75
491.874	88.75
492.092	93.75
492.31	93.75
492.527	100.75
492.745	116.75
492.963	114.75
493.18	90.75
493.398	84.75
493.615	90.75
493.833	93.75
494.05	85.75
494.268	75.75
494.485	95.75
494.703	103.75
494.92	93.75
495.138	89.75
495.355	91.75
495.573	91.75
495.79	111.75
496.008	82.75
496.225	100.75
496.442	112.75
496.66	83.75
496.877	95.75
497.094	94.75
497.312	92.75
497.529	80.75
497.746	105.75
497.963	99.75
498.181	103.75
498.398	110.75
498.615	119.75
498.832	121.75
499.049	93.75
499.267	102.75
499.484	89.75
499.701	103.75
499.918	97.75
500.135	81.75
500.352	86.75
500.569	102.75
500.786	117.75
501.003	88.75
501.22	96.75
501.437	88.75
501.654	104.75
501.871	125.75
502.088	106.75
502.305	85.75
502.522	85.75
502.739	90.75
502.956	102.75
503.172	104.75
503.389	110.75
503.606	135.75
503.823	111.75
504.04	102.75
504.256	96.75
504.473	101.75
504.69	96.75
504.907	111.75
505.123	94.75
505.34	97.75
505.557	96.75
505.773	96.75
505.99	81.75
506.207	100.75
506.423	99.75
506.64	105.75
506.856	73.75
507.073	103.75
507.289	113.75
507.506	111.75
507.722	137.75
507.939	127.75
508.155	107.75
508.372	101.75
508.588	118.75
508.805	85.75
509.021	103.75
509.238	99.75
509.454	106.75
509.67	115.75
509.887	126.75
510.103	137.75
510.319	237.75
510.536	886.75
510.752	3062.75
510.968	868.75
511.184	191.75
511.401	130.75
511.617	111.75
511.833	114.75
512.049	107.75
512.265	91.75
