Data from Circ_2023_H10_HRD10591_00024.txt Node
Date: Wed Jan 03 09:50:35 EST 2024
User: Yrep
Spectrometer: HR+D1059
Trigger mode: 1
Integration Time (sec): 1.000000E-1
Scans to average: 1
Electric dark correction enabled: true
Nonlinearity correction enabled: false
Boxcar width: 0
XAxis mode: Wavelengths
Number of Pixels in Spectrum: 2048
>>>>>Begin Spectral Data<<<<<
223.165	-23.12
223.4	-23.12
223.635	-23.12
223.869	-17.12
224.104	-28.12
224.338	-14.12
224.573	-20.12
224.808	-10.12
225.042	-11.12
225.277	-1.12
225.511	1.88
225.746	9.88
225.98	20.88
226.215	1.88
226.449	22.88
226.683	12.88
226.918	25.88
227.152	28.88
227.387	32.88
227.621	47.88
227.856	40.88
228.09	44.88
228.324	46.88
228.559	46.88
228.793	55.88
229.027	67.88
229.262	59.88
229.496	82.88
229.73	92.88
229.964	93.88
230.199	82.88
230.433	65.88
230.667	76.88
230.901	68.88
231.136	83.88
231.37	79.88
231.604	89.88
231.838	76.88
232.072	88.88
232.306	80.88
232.541	70.88
232.775	80.88
233.009	76.88
233.243	92.88
233.477	78.88
233.711	95.88
233.945	74.88
234.179	81.88
234.413	88.88
234.647	98.88
234.881	80.88
235.115	80.88
235.349	79.88
235.583	75.88
235.817	90.88
236.051	72.88
236.285	63.88
236.519	88.88
236.753	81.88
236.987	83.88
237.221	87.88
237.455	104.88
237.689	78.88
237.922	71.88
238.156	74.88
238.39	88.88
238.624	71.88
238.858	73.88
239.091	98.88
239.325	74.88
239.559	78.88
239.793	80.88
240.027	72.88
240.26	70.88
240.494	81.88
240.728	74.88
240.961	83.88
241.195	79.88
241.429	76.88
241.662	76.88
241.896	78.88
242.13	86.88
242.363	86.88
242.597	76.88
242.83	73.88
243.064	73.88
243.298	79.88
243.531	78.88
243.765	74.88
243.998	96.88
244.232	76.88
244.465	82.88
244.699	88.88
244.932	82.88
245.166	88.88
245.399	75.88
245.633	82.88
245.866	82.88
246.099	68.88
246.333	79.88
246.566	61.88
246.8	74.88
247.033	79.88
247.266	80.88
247.5	84.88
247.733	81.88
247.966	73.88
248.2	68.88
248.433	94.88
248.666	78.88
248.899	87.88
249.133	90.88
249.366	100.88
249.599	96.88
249.832	95.88
250.066	86.88
250.299	77.88
250.532	79.88
250.765	78.88
250.998	87.88
251.231	82.88
251.465	69.88
251.698	80.88
251.931	76.88
252.164	81.88
252.397	88.88
252.63	78.88
252.863	87.88
253.096	80.88
253.329	82.88
253.562	84.88
253.795	80.88
254.028	72.88
254.261	81.88
254.494	84.88
254.727	95.88
254.96	94.88
255.193	94.88
255.426	96.88
255.659	84.88
255.892	98.88
256.124	115.88
256.357	85.88
256.59	67.88
256.823	75.88
257.056	89.88
257.289	94.88
257.521	81.88
257.754	88.88
257.987	75.88
258.22	85.88
258.452	76.88
258.685	80.88
258.918	94.88
259.151	85.88
259.383	93.88
259.616	84.88
259.849	89.88
260.081	91.88
260.314	78.88
260.547	88.88
260.779	88.88
261.012	105.88
261.244	107.88
261.477	87.88
261.71	91.88
261.942	127.88
262.175	133.88
262.407	92.88
262.64	84.88
262.872	88.88
263.105	84.88
263.337	101.88
263.57	70.88
263.802	82.88
264.035	80.88
264.267	78.88
264.499	83.88
264.732	90.88
264.964	84.88
265.197	81.88
265.429	85.88
265.661	70.88
265.894	69.88
266.126	79.88
266.358	74.88
266.591	82.88
266.823	96.88
267.055	89.88
267.287	103.88
267.52	82.88
267.752	82.88
267.984	79.88
268.216	89.88
268.448	74.88
268.681	80.88
268.913	86.88
269.145	79.88
269.377	80.88
269.609	67.88
269.841	86.88
270.073	97.88
270.306	83.88
270.538	87.88
270.77	85.88
271.002	89.88
271.234	89.88
271.466	92.88
271.698	93.88
271.93	95.88
272.162	87.88
272.394	83.88
272.626	89.88
272.858	69.88
273.09	96.88
273.322	102.88
273.553	89.88
273.785	85.88
274.017	92.88
274.249	92.88
274.481	88.88
274.713	94.88
274.945	108.88
275.176	93.88
275.408	82.88
275.64	106.88
275.872	112.88
276.104	98.88
276.335	112.88
276.567	103.88
276.799	134.88
277.031	171.88
277.262	168.88
277.494	147.88
277.726	107.88
277.957	104.88
278.189	76.88
278.421	97.88
278.652	80.88
278.884	100.88
279.115	95.88
279.347	105.88
279.579	89.88
279.81	127.88
280.042	176.88
280.273	242.88
280.505	186.88
280.736	85.88
280.968	97.88
281.199	92.88
281.431	99.88
281.662	97.88
281.894	88.88
282.125	104.88
282.356	132.88
282.588	159.88
282.819	133.88
283.051	94.88
283.282	84.88
283.513	81.88
283.745	85.88
283.976	81.88
284.207	94.88
284.439	75.88
284.67	91.88
284.901	103.88
285.132	93.88
285.364	81.88
285.595	80.88
285.826	95.88
286.057	91.88
286.288	86.88
286.52	94.88
286.751	89.88
286.982	89.88
287.213	80.88
287.444	91.88
287.675	90.88
287.906	96.88
288.138	112.88
288.369	115.88
288.6	91.88
288.831	75.88
289.062	104.88
289.293	96.88
289.524	79.88
289.755	84.88
289.986	97.88
290.217	98.88
290.448	86.88
290.679	74.88
290.91	86.88
291.141	87.88
291.371	103.88
291.602	90.88
291.833	93.88
292.064	83.88
292.295	94.88
292.526	91.88
292.757	76.88
292.987	86.88
293.218	102.88
293.449	90.88
293.68	86.88
293.91	100.88
294.141	92.88
294.372	82.88
294.603	86.88
294.833	87.88
295.064	83.88
295.295	103.88
295.525	95.88
295.756	98.88
295.987	115.88
296.217	150.88
296.448	151.88
296.679	105.88
296.909	86.88
297.14	81.88
297.37	96.88
297.601	87.88
297.831	79.88
298.062	86.88
298.292	97.88
298.523	84.88
298.753	100.88
298.984	103.88
299.214	97.88
299.445	98.88
299.675	112.88
299.905	114.88
300.136	110.88
300.366	100.88
300.597	90.88
300.827	106.88
301.057	104.88
301.288	114.88
301.518	100.88
301.748	107.88
301.979	113.88
302.209	99.88
302.439	104.88
302.669	86.88
302.9	66.88
303.13	102.88
303.36	95.88
303.59	125.88
303.82	141.88
304.051	116.88
304.281	84.88
304.511	93.88
304.741	95.88
304.971	85.88
305.201	104.88
305.431	100.88
305.661	101.88
305.891	106.88
306.121	107.88
306.352	105.88
306.582	121.88
306.812	92.88
307.042	122.88
307.272	142.88
307.502	160.88
307.731	154.88
307.961	127.88
308.191	112.88
308.421	88.88
308.651	91.88
308.881	92.88
309.111	81.88
309.341	98.88
309.571	112.88
309.8	87.88
310.03	98.88
310.26	110.88
310.49	100.88
310.72	105.88
310.949	112.88
311.179	119.88
311.409	99.88
311.639	102.88
311.868	120.88
312.098	107.88
312.328	98.88
312.557	114.88
312.787	120.88
313.017	110.88
313.246	96.88
313.476	95.88
313.706	90.88
313.935	109.88
314.165	103.88
314.394	119.88
314.624	106.88
314.853	96.88
315.083	102.88
315.312	96.88
315.542	89.88
315.771	90.88
316.001	88.88
316.23	84.88
316.46	86.88
316.689	95.88
316.919	92.88
317.148	89.88
317.377	103.88
317.607	94.88
317.836	96.88
318.065	99.88
318.295	103.88
318.524	91.88
318.753	110.88
318.983	114.88
319.212	114.88
319.441	113.88
319.67	130.88
319.9	110.88
320.129	101.88
320.358	104.88
320.587	90.88
320.816	92.88
321.046	106.88
321.275	102.88
321.504	102.88
321.733	98.88
321.962	112.88
322.191	112.88
322.42	107.88
322.649	115.88
322.878	123.88
323.108	125.88
323.337	127.88
323.566	158.88
323.795	172.88
324.024	236.88
324.253	473.88
324.482	997.88
324.71	2059.88
324.939	2716.88
325.168	1012.88
325.397	283.88
325.626	160.88
325.855	142.88
326.084	139.88
326.313	138.88
326.542	169.88
326.77	268.88
326.999	561.88
327.228	1154.88
327.457	2031.88
327.686	1660.88
327.914	536.88
328.143	488.88
328.372	570.88
328.6	331.88
328.829	180.88
329.058	184.88
329.287	182.88
329.515	152.88
329.744	231.88
329.972	433.88
330.201	849.88
330.43	1225.88
330.658	562.88
330.887	268.88
331.115	197.88
331.344	135.88
331.572	108.88
331.801	128.88
332.03	108.88
332.258	112.88
332.486	106.88
332.715	118.88
332.943	106.88
333.172	143.88
333.4	134.88
333.629	167.88
333.857	220.88
334.085	382.88
334.314	818.88
334.542	1601.88
334.771	1482.88
334.999	409.88
335.227	168.88
335.455	112.88
335.684	107.88
335.912	113.88
336.14	107.88
336.369	106.88
336.597	115.88
336.825	110.88
337.053	106.88
337.281	103.88
337.51	101.88
337.738	107.88
337.966	96.88
338.194	105.88
338.422	109.88
338.65	91.88
338.878	101.88
339.106	103.88
339.334	101.88
339.562	85.88
339.79	105.88
340.018	106.88
340.246	92.88
340.474	89.88
340.702	87.88
340.93	76.88
341.158	93.88
341.386	110.88
341.614	94.88
341.842	96.88
342.07	104.88
342.298	96.88
342.526	97.88
342.754	101.88
342.981	98.88
343.209	94.88
343.437	108.88
343.665	88.88
343.893	97.88
344.12	98.88
344.348	86.88
344.576	91.88
344.804	118.88
345.031	101.88
345.259	117.88
345.487	105.88
345.714	91.88
345.942	106.88
346.17	100.88
346.397	92.88
346.625	96.88
346.853	94.88
347.08	92.88
347.308	90.88
347.535	101.88
347.763	105.88
347.99	95.88
348.218	115.88
348.445	119.88
348.673	107.88
348.9	90.88
349.128	109.88
349.355	83.88
349.583	105.88
349.81	85.88
350.037	96.88
350.265	102.88
350.492	111.88
350.72	93.88
350.947	114.88
351.174	113.88
351.402	124.88
351.629	116.88
351.856	105.88
352.083	121.88
352.311	105.88
352.538	143.88
352.765	124.88
352.992	128.88
353.22	104.88
353.447	105.88
353.674	107.88
353.901	108.88
354.128	82.88
354.355	81.88
354.583	93.88
354.81	99.88
355.037	87.88
355.264	92.88
355.491	98.88
355.718	74.88
355.945	96.88
356.172	95.88
356.399	95.88
356.626	91.88
356.853	82.88
357.08	99.88
357.307	90.88
357.534	94.88
357.761	100.88
357.988	102.88
358.215	95.88
358.441	95.88
358.668	91.88
358.895	83.88
359.122	103.88
359.349	89.88
359.576	87.88
359.802	119.88
360.029	139.88
360.256	129.88
360.483	105.88
360.709	84.88
360.936	100.88
361.163	105.88
361.39	100.88
361.616	108.88
361.843	99.88
362.07	93.88
362.296	115.88
362.523	113.88
362.749	108.88
362.976	102.88
363.203	96.88
363.429	99.88
363.656	99.88
363.882	100.88
364.109	95.88
364.335	104.88
364.562	89.88
364.788	107.88
365.015	88.88
365.241	101.88
365.468	114.88
365.694	119.88
365.92	104.88
366.147	93.88
366.373	95.88
366.599	101.88
366.826	105.88
367.052	84.88
367.278	91.88
367.505	91.88
367.731	96.88
367.957	90.88
368.184	96.88
368.41	111.88
368.636	111.88
368.862	120.88
369.089	121.88
369.315	97.88
369.541	93.88
369.767	95.88
369.993	101.88
370.219	95.88
370.445	95.88
370.672	94.88
370.898	92.88
371.124	102.88
371.35	88.88
371.576	95.88
371.802	95.88
372.028	94.88
372.254	93.88
372.48	96.88
372.706	86.88
372.932	93.88
373.158	103.88
373.384	90.88
373.61	85.88
373.835	90.88
374.061	88.88
374.287	87.88
374.513	89.88
374.739	93.88
374.965	92.88
375.191	78.88
375.416	87.88
375.642	91.88
375.868	99.88
376.094	84.88
376.319	90.88
376.545	75.88
376.771	80.88
376.997	90.88
377.222	98.88
377.448	84.88
377.674	85.88
377.899	86.88
378.125	102.88
378.35	94.88
378.576	94.88
378.802	79.88
379.027	84.88
379.253	82.88
379.478	101.88
379.704	96.88
379.929	85.88
380.155	86.88
380.38	80.88
380.606	89.88
380.831	88.88
381.057	83.88
381.282	81.88
381.507	89.88
381.733	89.88
381.958	96.88
382.184	91.88
382.409	93.88
382.634	102.88
382.86	106.88
383.085	97.88
383.31	89.88
383.535	104.88
383.761	98.88
383.986	93.88
384.211	91.88
384.436	85.88
384.662	89.88
384.887	95.88
385.112	87.88
385.337	90.88
385.562	91.88
385.787	100.88
386.013	104.88
386.238	119.88
386.463	106.88
386.688	104.88
386.913	83.88
387.138	105.88
387.363	92.88
387.588	107.88
387.813	97.88
388.038	107.88
388.263	104.88
388.488	105.88
388.713	98.88
388.938	102.88
389.163	97.88
389.387	98.88
389.612	91.88
389.837	90.88
390.062	91.88
390.287	88.88
390.512	89.88
390.736	94.88
390.961	101.88
391.186	98.88
391.411	82.88
391.636	86.88
391.86	85.88
392.085	91.88
392.31	99.88
392.534	80.88
392.759	84.88
392.984	91.88
393.208	98.88
393.433	99.88
393.658	81.88
393.882	86.88
394.107	74.88
394.331	88.88
394.556	97.88
394.78	89.88
395.005	86.88
395.229	93.88
395.454	100.88
395.678	80.88
395.903	80.88
396.127	85.88
396.352	86.88
396.576	90.88
396.801	97.88
397.025	88.88
397.249	84.88
397.474	93.88
397.698	91.88
397.922	103.88
398.147	88.88
398.371	94.88
398.595	78.88
398.82	91.88
399.044	83.88
399.268	91.88
399.492	100.88
399.717	79.88
399.941	92.88
400.165	91.88
400.389	105.88
400.613	102.88
400.837	78.88
401.062	100.88
401.286	75.88
401.51	98.88
401.734	100.88
401.958	113.88
402.182	148.88
402.406	186.88
402.63	151.88
402.854	98.88
403.078	92.88
403.302	87.88
403.526	89.88
403.75	69.88
403.974	97.88
404.198	100.88
404.422	108.88
404.645	103.88
404.869	104.88
405.093	108.88
405.317	135.88
405.541	142.88
405.765	112.88
405.988	122.88
406.212	199.88
406.436	280.88
406.66	176.88
406.883	122.88
407.107	104.88
407.331	109.88
407.555	118.88
407.778	121.88
408.002	100.88
408.226	91.88
408.449	94.88
408.673	103.88
408.896	86.88
409.12	106.88
409.344	111.88
409.567	86.88
409.791	100.88
410.014	106.88
410.238	102.88
410.461	88.88
410.685	94.88
410.908	97.88
411.132	118.88
411.355	114.88
411.578	91.88
411.802	92.88
412.025	84.88
412.249	98.88
412.472	106.88
412.695	159.88
412.919	119.88
413.142	100.88
413.365	76.88
413.589	101.88
413.812	87.88
414.035	99.88
414.258	105.88
414.482	97.88
414.705	86.88
414.928	88.88
415.151	89.88
415.374	87.88
415.597	93.88
415.821	90.88
416.044	96.88
416.267	92.88
416.49	92.88
416.713	89.88
416.936	76.88
417.159	101.88
417.382	93.88
417.605	88.88
417.828	124.88
418.051	82.88
418.274	97.88
418.497	92.88
418.72	96.88
418.943	85.88
419.166	73.88
419.389	87.88
419.611	78.88
419.834	97.88
420.057	115.88
420.28	88.88
420.503	85.88
420.726	95.88
420.948	104.88
421.171	99.88
421.394	99.88
421.617	92.88
421.839	99.88
422.062	84.88
422.285	96.88
422.507	96.88
422.73	112.88
422.953	94.88
423.175	89.88
423.398	92.88
423.621	92.88
423.843	102.88
424.066	87.88
424.288	94.88
424.511	88.88
424.733	99.88
424.956	117.88
425.178	106.88
425.401	125.88
425.623	115.88
425.846	95.88
426.068	101.88
426.291	101.88
426.513	95.88
426.735	88.88
426.958	103.88
427.18	138.88
427.402	183.88
427.625	255.88
427.847	238.88
428.069	220.88
428.292	120.88
428.514	101.88
428.736	83.88
428.958	81.88
429.181	80.88
429.403	88.88
429.625	97.88
429.847	99.88
430.069	124.88
430.292	98.88
430.514	86.88
430.736	81.88
430.958	86.88
431.18	72.88
431.402	89.88
431.624	94.88
431.846	79.88
432.068	89.88
432.29	72.88
432.512	80.88
432.734	99.88
432.956	99.88
433.178	115.88
433.4	121.88
433.622	106.88
433.844	90.88
434.066	94.88
434.287	98.88
434.509	73.88
434.731	84.88
434.953	89.88
435.175	100.88
435.397	104.88
435.618	102.88
435.84	108.88
436.062	151.88
436.284	138.88
436.505	119.88
436.727	112.88
436.949	110.88
437.17	93.88
437.392	101.88
437.614	100.88
437.835	115.88
438.057	148.88
438.278	144.88
438.5	138.88
438.721	155.88
438.943	111.88
439.165	87.88
439.386	88.88
439.608	86.88
439.829	115.88
440.05	153.88
440.272	197.88
440.493	115.88
440.715	96.88
440.936	93.88
441.158	79.88
441.379	81.88
441.6	94.88
441.822	92.88
442.043	105.88
442.264	130.88
442.486	124.88
442.707	96.88
442.928	112.88
443.149	158.88
443.371	162.88
443.592	131.88
443.813	139.88
444.034	128.88
444.255	99.88
444.476	87.88
444.698	107.88
444.919	89.88
445.14	127.88
445.361	137.88
445.582	137.88
445.803	198.88
446.024	182.88
446.245	188.88
446.466	134.88
446.687	110.88
446.908	97.88
447.129	91.88
447.35	83.88
447.571	95.88
447.792	95.88
448.013	100.88
448.234	129.88
448.455	104.88
448.675	140.88
448.896	141.88
449.117	119.88
449.338	121.88
449.559	134.88
449.779	178.88
450	103.88
450.221	91.88
450.442	107.88
450.662	124.88
450.883	122.88
451.104	140.88
451.324	119.88
451.545	106.88
451.766	87.88
451.986	87.88
452.207	88.88
452.428	105.88
452.648	101.88
452.869	147.88
453.089	116.88
453.31	130.88
453.53	95.88
453.751	104.88
453.971	120.88
454.192	129.88
454.412	94.88
454.633	100.88
454.853	81.88
455.073	91.88
455.294	96.88
455.514	120.88
455.734	113.88
455.955	94.88
456.175	86.88
456.395	96.88
456.616	93.88
456.836	74.88
457.056	89.88
457.276	96.88
457.497	98.88
457.717	92.88
457.937	80.88
458.157	82.88
458.377	105.88
458.598	122.88
458.818	183.88
459.038	222.88
459.258	134.88
459.478	97.88
459.698	94.88
459.918	90.88
460.138	101.88
460.358	90.88
460.578	89.88
460.798	93.88
461.018	105.88
461.238	94.88
461.458	99.88
461.678	98.88
461.898	99.88
462.118	93.88
462.338	97.88
462.558	94.88
462.777	87.88
462.997	102.88
463.217	92.88
463.437	92.88
463.657	94.88
463.876	101.88
464.096	92.88
464.316	90.88
464.536	110.88
464.755	88.88
464.975	121.88
465.195	214.88
465.414	214.88
465.634	101.88
465.854	112.88
466.073	95.88
466.293	92.88
466.512	90.88
466.732	96.88
466.951	92.88
467.171	103.88
467.391	112.88
467.61	135.88
467.829	194.88
468.049	456.88
468.268	704.88
468.488	196.88
468.707	101.88
468.927	84.88
469.146	78.88
469.365	96.88
469.585	106.88
469.804	127.88
470.023	120.88
470.243	118.88
470.462	130.88
470.681	132.88
470.901	97.88
471.12	110.88
471.339	102.88
471.558	116.88
471.777	137.88
471.997	260.88
472.216	914.88
472.435	2054.88
472.654	534.88
472.873	160.88
473.092	100.88
473.311	95.88
473.53	91.88
473.749	94.88
473.968	127.88
474.187	140.88
474.406	122.88
474.625	104.88
474.844	88.88
475.063	102.88
475.282	81.88
475.501	90.88
475.72	91.88
475.939	90.88
476.158	92.88
476.377	98.88
476.596	79.88
476.814	96.88
477.033	102.88
477.252	99.88
477.471	95.88
477.69	94.88
477.908	98.88
478.127	95.88
478.346	91.88
478.564	116.88
478.783	105.88
479.002	103.88
479.22	100.88
479.439	125.88
479.658	120.88
479.876	130.88
480.095	105.88
480.313	136.88
480.532	144.88
480.751	266.88
480.969	867.88
481.188	3510.88
481.406	2241.88
481.624	341.88
481.843	137.88
482.061	111.88
482.28	105.88
482.498	94.88
482.717	87.88
482.935	89.88
483.153	90.88
483.372	96.88
483.59	75.88
483.808	84.88
484.027	90.88
484.245	89.88
484.463	107.88
484.681	102.88
484.9	110.88
485.118	112.88
485.336	104.88
485.554	103.88
485.772	103.88
485.99	102.88
486.209	116.88
486.427	112.88
486.645	127.88
486.863	135.88
487.081	113.88
487.299	112.88
487.517	82.88
487.735	105.88
487.953	90.88
488.171	101.88
488.389	94.88
488.607	111.88
488.825	97.88
489.043	97.88
489.261	103.88
489.479	97.88
489.696	101.88
489.914	99.88
490.132	105.88
490.35	86.88
490.568	90.88
490.786	115.88
491.003	78.88
491.221	94.88
491.439	79.88
491.657	86.88
491.874	91.88
492.092	80.88
492.31	93.88
492.527	106.88
492.745	111.88
492.963	94.88
493.18	78.88
493.398	94.88
493.615	89.88
493.833	97.88
494.05	83.88
494.268	87.88
494.485	89.88
494.703	100.88
494.92	97.88
495.138	87.88
495.355	95.88
495.573	90.88
495.79	92.88
496.008	89.88
496.225	96.88
496.442	97.88
496.66	102.88
496.877	102.88
497.094	94.88
497.312	94.88
497.529	87.88
497.746	89.88
497.963	88.88
498.181	86.88
498.398	114.88
498.615	123.88
498.832	125.88
499.049	91.88
499.267	94.88
499.484	98.88
499.701	90.88
499.918	94.88
500.135	97.88
500.352	99.88
500.569	100.88
500.786	113.88
501.003	106.88
501.22	105.88
501.437	94.88
501.654	86.88
501.871	128.88
502.088	104.88
502.305	102.88
502.522	109.88
502.739	100.88
502.956	85.88
503.172	100.88
503.389	110.88
503.606	113.88
503.823	110.88
504.04	91.88
504.256	86.88
504.473	89.88
504.69	103.88
504.907	108.88
505.123	80.88
505.34	97.88
505.557	89.88
505.773	93.88
505.99	101.88
506.207	81.88
506.423	83.88
506.64	105.88
506.856	99.88
507.073	101.88
507.289	85.88
507.506	117.88
507.722	118.88
507.939	135.88
508.155	100.88
508.372	97.88
508.588	96.88
508.805	96.88
509.021	123.88
509.238	106.88
509.454	85.88
509.67	103.88
509.887	114.88
510.103	146.88
510.319	247.88
510.536	916.88
510.752	3015.88
510.968	868.88
511.184	195.88
511.401	135.88
511.617	105.88
511.833	107.88
512.049	98.88
512.265	101.88
512.481	107.88
