Data from Circ_2023_H10_HRD10591_00012.txt Node
Date: Wed Jan 03 09:50:33 EST 2024
User: Yrep
Spectrometer: HR+D1059
Trigger mode: 1
Integration Time (sec): 1.000000E-1
Scans to average: 1
Electric dark correction enabled: true
Nonlinearity correction enabled: false
Boxcar width: 0
XAxis mode: Wavelengths
Number of Pixels in Spectrum: 2048
>>>>>Begin Spectral Data<<<<<
223.165	-17.5
223.4	-17.5
223.635	-17.5
223.869	-3.5
224.104	-17.5
224.338	-10.5
224.573	-25.5
224.808	-13.5
225.042	-20.5
225.277	2.5
225.511	-6.5
225.746	5.5
225.98	13.5
226.215	15.5
226.449	17.5
226.683	15.5
226.918	19.5
227.152	25.5
227.387	25.5
227.621	36.5
227.856	45.5
228.09	47.5
228.324	52.5
228.559	59.5
228.793	68.5
229.027	63.5
229.262	69.5
229.496	83.5
229.73	79.5
229.964	85.5
230.199	66.5
230.433	81.5
230.667	78.5
230.901	64.5
231.136	74.5
231.37	69.5
231.604	71.5
231.838	63.5
232.072	69.5
232.306	71.5
232.541	84.5
232.775	77.5
233.009	81.5
233.243	94.5
233.477	84.5
233.711	77.5
233.945	84.5
234.179	88.5
234.413	78.5
234.647	70.5
234.881	69.5
235.115	75.5
235.349	76.5
235.583	76.5
235.817	86.5
236.051	82.5
236.285	67.5
236.519	79.5
236.753	85.5
236.987	76.5
237.221	88.5
237.455	94.5
237.689	78.5
237.922	56.5
238.156	73.5
238.39	66.5
238.624	76.5
238.858	78.5
239.091	75.5
239.325	61.5
239.559	82.5
239.793	69.5
240.027	87.5
240.26	70.5
240.494	80.5
240.728	74.5
240.961	94.5
241.195	64.5
241.429	69.5
241.662	61.5
241.896	68.5
242.13	52.5
242.363	82.5
242.597	80.5
242.83	83.5
243.064	86.5
243.298	82.5
243.531	61.5
243.765	68.5
243.998	77.5
244.232	83.5
244.465	79.5
244.699	81.5
244.932	70.5
245.166	71.5
245.399	71.5
245.633	82.5
245.866	80.5
246.099	82.5
246.333	82.5
246.566	69.5
246.8	72.5
247.033	73.5
247.266	74.5
247.5	82.5
247.733	78.5
247.966	81.5
248.2	71.5
248.433	81.5
248.666	77.5
248.899	82.5
249.133	97.5
249.366	109.5
249.599	111.5
249.832	87.5
250.066	78.5
250.299	83.5
250.532	83.5
250.765	78.5
250.998	74.5
251.231	88.5
251.465	57.5
251.698	77.5
251.931	82.5
252.164	92.5
252.397	77.5
252.63	67.5
252.863	74.5
253.096	51.5
253.329	102.5
253.562	88.5
253.795	70.5
254.028	77.5
254.261	75.5
254.494	78.5
254.727	88.5
254.96	64.5
255.193	66.5
255.426	66.5
255.659	78.5
255.892	86.5
256.124	84.5
256.357	85.5
256.59	89.5
256.823	79.5
257.056	82.5
257.289	78.5
257.521	82.5
257.754	85.5
257.987	73.5
258.22	80.5
258.452	83.5
258.685	74.5
258.918	78.5
259.151	79.5
259.383	87.5
259.616	86.5
259.849	85.5
260.081	77.5
260.314	86.5
260.547	75.5
260.779	80.5
261.012	96.5
261.244	91.5
261.477	87.5
261.71	94.5
261.942	117.5
262.175	157.5
262.407	101.5
262.64	83.5
262.872	92.5
263.105	89.5
263.337	80.5
263.57	98.5
263.802	80.5
264.035	77.5
264.267	77.5
264.499	80.5
264.732	74.5
264.964	88.5
265.197	70.5
265.429	86.5
265.661	90.5
265.894	71.5
266.126	91.5
266.358	85.5
266.591	84.5
266.823	85.5
267.055	69.5
267.287	84.5
267.52	78.5
267.752	89.5
267.984	89.5
268.216	78.5
268.448	78.5
268.681	83.5
268.913	74.5
269.145	85.5
269.377	94.5
269.609	64.5
269.841	88.5
270.073	70.5
270.306	75.5
270.538	85.5
270.77	76.5
271.002	60.5
271.234	79.5
271.466	87.5
271.698	95.5
271.93	86.5
272.162	84.5
272.394	78.5
272.626	81.5
272.858	88.5
273.09	85.5
273.322	88.5
273.553	96.5
273.785	87.5
274.017	71.5
274.249	90.5
274.481	97.5
274.713	87.5
274.945	79.5
275.176	93.5
275.408	88.5
275.64	104.5
275.872	101.5
276.104	99.5
276.335	89.5
276.567	93.5
276.799	124.5
277.031	140.5
277.262	152.5
277.494	139.5
277.726	98.5
277.957	70.5
278.189	91.5
278.421	88.5
278.652	91.5
278.884	92.5
279.115	91.5
279.347	84.5
279.579	103.5
279.81	115.5
280.042	149.5
280.273	180.5
280.505	142.5
280.736	89.5
280.968	88.5
281.199	93.5
281.431	73.5
281.662	88.5
281.894	91.5
282.125	92.5
282.356	130.5
282.588	155.5
282.819	137.5
283.051	98.5
283.282	85.5
283.513	67.5
283.745	84.5
283.976	80.5
284.207	94.5
284.439	79.5
284.67	81.5
284.901	71.5
285.132	71.5
285.364	87.5
285.595	91.5
285.826	77.5
286.057	78.5
286.288	81.5
286.52	83.5
286.751	91.5
286.982	75.5
287.213	89.5
287.444	75.5
287.675	78.5
287.906	93.5
288.138	92.5
288.369	78.5
288.6	93.5
288.831	82.5
289.062	77.5
289.293	89.5
289.524	75.5
289.755	76.5
289.986	75.5
290.217	102.5
290.448	83.5
290.679	89.5
290.91	65.5
291.141	75.5
291.371	89.5
291.602	87.5
291.833	82.5
292.064	86.5
292.295	86.5
292.526	82.5
292.757	82.5
292.987	76.5
293.218	80.5
293.449	93.5
293.68	93.5
293.91	96.5
294.141	100.5
294.372	96.5
294.603	95.5
294.833	81.5
295.064	97.5
295.295	74.5
295.525	98.5
295.756	102.5
295.987	126.5
296.217	158.5
296.448	153.5
296.679	81.5
296.909	96.5
297.14	94.5
297.37	89.5
297.601	89.5
297.831	79.5
298.062	81.5
298.292	75.5
298.523	81.5
298.753	76.5
298.984	86.5
299.214	97.5
299.445	83.5
299.675	97.5
299.905	101.5
300.136	94.5
300.366	77.5
300.597	89.5
300.827	91.5
301.057	126.5
301.288	109.5
301.518	108.5
301.748	100.5
301.979	100.5
302.209	89.5
302.439	73.5
302.669	88.5
302.9	90.5
303.13	86.5
303.36	97.5
303.59	124.5
303.82	123.5
304.051	118.5
304.281	86.5
304.511	82.5
304.741	88.5
304.971	89.5
305.201	86.5
305.431	82.5
305.661	91.5
305.891	88.5
306.121	103.5
306.352	102.5
306.582	100.5
306.812	107.5
307.042	107.5
307.272	127.5
307.502	144.5
307.731	133.5
307.961	111.5
308.191	96.5
308.421	102.5
308.651	91.5
308.881	82.5
309.111	83.5
309.341	103.5
309.571	104.5
309.8	103.5
310.03	103.5
310.26	87.5
310.49	104.5
310.72	99.5
310.949	101.5
311.179	104.5
311.409	95.5
311.639	95.5
311.868	94.5
312.098	85.5
312.328	90.5
312.557	98.5
312.787	119.5
313.017	100.5
313.246	105.5
313.476	102.5
313.706	70.5
313.935	104.5
314.165	117.5
314.394	102.5
314.624	93.5
314.853	105.5
315.083	84.5
315.312	93.5
315.542	90.5
315.771	85.5
316.001	91.5
316.23	86.5
316.46	88.5
316.689	91.5
316.919	89.5
317.148	98.5
317.377	93.5
317.607	104.5
317.836	82.5
318.065	81.5
318.295	92.5
318.524	87.5
318.753	81.5
318.983	91.5
319.212	99.5
319.441	133.5
319.67	119.5
319.9	101.5
320.129	87.5
320.358	82.5
320.587	82.5
320.816	99.5
321.046	95.5
321.275	103.5
321.504	93.5
321.733	97.5
321.962	115.5
322.191	102.5
322.42	111.5
322.649	112.5
322.878	121.5
323.108	133.5
323.337	137.5
323.566	153.5
323.795	184.5
324.024	242.5
324.253	506.5
324.482	1105.5
324.71	2338.5
324.939	3067.5
325.168	1086.5
325.397	309.5
325.626	185.5
325.855	156.5
326.084	145.5
326.313	151.5
326.542	182.5
326.77	289.5
326.999	559.5
327.228	1241.5
327.457	2242.5
327.686	1824.5
327.914	549.5
328.143	433.5
328.372	497.5
328.6	309.5
328.829	157.5
329.058	164.5
329.287	174.5
329.515	162.5
329.744	201.5
329.972	353.5
330.201	648.5
330.43	971.5
330.658	480.5
330.887	249.5
331.115	186.5
331.344	119.5
331.572	120.5
331.801	125.5
332.03	104.5
332.258	91.5
332.486	93.5
332.715	107.5
332.943	94.5
333.172	115.5
333.4	115.5
333.629	147.5
333.857	189.5
334.085	334.5
334.314	618.5
334.542	1243.5
334.771	1197.5
334.999	323.5
335.227	158.5
335.455	121.5
335.684	110.5
335.912	100.5
336.14	89.5
336.369	122.5
336.597	106.5
336.825	108.5
337.053	80.5
337.281	99.5
337.51	94.5
337.738	89.5
337.966	112.5
338.194	100.5
338.422	95.5
338.65	92.5
338.878	92.5
339.106	97.5
339.334	81.5
339.562	98.5
339.79	95.5
340.018	92.5
340.246	90.5
340.474	101.5
340.702	89.5
340.93	87.5
341.158	98.5
341.386	90.5
341.614	95.5
341.842	100.5
342.07	86.5
342.298	84.5
342.526	87.5
342.754	96.5
342.981	96.5
343.209	77.5
343.437	94.5
343.665	89.5
343.893	84.5
344.12	90.5
344.348	97.5
344.576	94.5
344.804	97.5
345.031	97.5
345.259	100.5
345.487	94.5
345.714	98.5
345.942	95.5
346.17	102.5
346.397	90.5
346.625	92.5
346.853	83.5
347.08	86.5
347.308	82.5
347.535	89.5
347.763	98.5
347.99	105.5
348.218	107.5
348.445	118.5
348.673	99.5
348.9	107.5
349.128	90.5
349.355	100.5
349.583	79.5
349.81	94.5
350.037	85.5
350.265	100.5
350.492	109.5
350.72	88.5
350.947	107.5
351.174	111.5
351.402	113.5
351.629	99.5
351.856	109.5
352.083	119.5
352.311	107.5
352.538	118.5
352.765	114.5
352.992	112.5
353.22	100.5
353.447	104.5
353.674	101.5
353.901	104.5
354.128	107.5
354.355	88.5
354.583	96.5
354.81	97.5
355.037	98.5
355.264	93.5
355.491	97.5
355.718	94.5
355.945	87.5
356.172	86.5
356.399	92.5
356.626	106.5
356.853	84.5
357.08	105.5
357.307	91.5
357.534	88.5
357.761	106.5
357.988	86.5
358.215	103.5
358.441	89.5
358.668	87.5
358.895	93.5
359.122	98.5
359.349	84.5
359.576	85.5
359.802	105.5
360.029	125.5
360.256	121.5
360.483	122.5
360.709	96.5
360.936	86.5
361.163	108.5
361.39	95.5
361.616	99.5
361.843	98.5
362.07	111.5
362.296	99.5
362.523	86.5
362.749	84.5
362.976	109.5
363.203	97.5
363.429	93.5
363.656	90.5
363.882	97.5
364.109	85.5
364.335	101.5
364.562	88.5
364.788	98.5
365.015	104.5
365.241	109.5
365.468	101.5
365.694	102.5
365.92	91.5
366.147	91.5
366.373	74.5
366.599	93.5
366.826	89.5
367.052	77.5
367.278	90.5
367.505	93.5
367.731	95.5
367.957	95.5
368.184	81.5
368.41	101.5
368.636	120.5
368.862	127.5
369.089	128.5
369.315	99.5
369.541	95.5
369.767	95.5
369.993	87.5
370.219	88.5
370.445	96.5
370.672	85.5
370.898	89.5
371.124	85.5
371.35	91.5
371.576	81.5
371.802	87.5
372.028	85.5
372.254	86.5
372.48	76.5
372.706	80.5
372.932	77.5
373.158	83.5
373.384	90.5
373.61	77.5
373.835	76.5
374.061	78.5
374.287	91.5
374.513	113.5
374.739	84.5
374.965	96.5
375.191	98.5
375.416	86.5
375.642	86.5
375.868	97.5
376.094	97.5
376.319	86.5
376.545	95.5
376.771	83.5
376.997	82.5
377.222	81.5
377.448	86.5
377.674	88.5
377.899	75.5
378.125	79.5
378.35	92.5
378.576	93.5
378.802	94.5
379.027	91.5
379.253	101.5
379.478	93.5
379.704	81.5
379.929	86.5
380.155	96.5
380.38	82.5
380.606	85.5
380.831	89.5
381.057	95.5
381.282	110.5
381.507	92.5
381.733	101.5
381.958	92.5
382.184	77.5
382.409	92.5
382.634	82.5
382.86	83.5
383.085	95.5
383.31	86.5
383.535	82.5
383.761	92.5
383.986	92.5
384.211	89.5
384.436	89.5
384.662	94.5
384.887	96.5
385.112	84.5
385.337	106.5
385.562	96.5
385.787	99.5
386.013	103.5
386.238	107.5
386.463	111.5
386.688	86.5
386.913	96.5
387.138	102.5
387.363	94.5
387.588	94.5
387.813	95.5
388.038	87.5
388.263	89.5
388.488	80.5
388.713	87.5
388.938	81.5
389.163	66.5
389.387	99.5
389.612	104.5
389.837	86.5
390.062	90.5
390.287	83.5
390.512	92.5
390.736	80.5
390.961	84.5
391.186	88.5
391.411	82.5
391.636	94.5
391.86	97.5
392.085	75.5
392.31	94.5
392.534	84.5
392.759	100.5
392.984	71.5
393.208	88.5
393.433	86.5
393.658	84.5
393.882	91.5
394.107	96.5
394.331	83.5
394.556	75.5
394.78	91.5
395.005	82.5
395.229	84.5
395.454	76.5
395.678	77.5
395.903	87.5
396.127	82.5
396.352	93.5
396.576	86.5
396.801	94.5
397.025	89.5
397.249	79.5
397.474	86.5
397.698	88.5
397.922	75.5
398.147	79.5
398.371	75.5
398.595	87.5
398.82	83.5
399.044	84.5
399.268	73.5
399.492	90.5
399.717	83.5
399.941	75.5
400.165	95.5
400.389	101.5
400.613	101.5
400.837	94.5
401.062	93.5
401.286	83.5
401.51	96.5
401.734	88.5
401.958	112.5
402.182	140.5
402.406	176.5
402.63	141.5
402.854	98.5
403.078	81.5
403.302	84.5
403.526	79.5
403.75	77.5
403.974	82.5
404.198	84.5
404.422	96.5
404.645	84.5
404.869	98.5
405.093	107.5
405.317	141.5
405.541	144.5
405.765	102.5
405.988	147.5
406.212	222.5
406.436	303.5
406.66	189.5
406.883	109.5
407.107	91.5
407.331	119.5
407.555	109.5
407.778	119.5
408.002	84.5
408.226	75.5
408.449	82.5
408.673	78.5
408.896	106.5
409.12	97.5
409.344	79.5
409.567	93.5
409.791	91.5
410.014	95.5
410.238	92.5
410.461	94.5
410.685	100.5
410.908	102.5
411.132	110.5
411.355	107.5
411.578	89.5
411.802	91.5
412.025	77.5
412.249	91.5
412.472	118.5
412.695	109.5
412.919	98.5
413.142	95.5
413.365	85.5
413.589	96.5
413.812	89.5
414.035	74.5
414.258	90.5
414.482	101.5
414.705	71.5
414.928	93.5
415.151	87.5
415.374	85.5
415.597	79.5
415.821	94.5
416.044	94.5
416.267	98.5
416.49	78.5
416.713	108.5
416.936	91.5
417.159	92.5
417.382	113.5
417.605	93.5
417.828	113.5
418.051	98.5
418.274	79.5
418.497	87.5
418.72	85.5
418.943	86.5
419.166	90.5
419.389	84.5
419.611	84.5
419.834	89.5
420.057	94.5
420.28	93.5
420.503	85.5
420.726	77.5
420.948	83.5
421.171	108.5
421.394	89.5
421.617	77.5
421.839	72.5
422.062	82.5
422.285	81.5
422.507	106.5
422.73	106.5
422.953	84.5
423.175	94.5
423.398	71.5
423.621	84.5
423.843	96.5
424.066	89.5
424.288	89.5
424.511	87.5
424.733	97.5
424.956	124.5
425.178	97.5
425.401	114.5
425.623	113.5
425.846	95.5
426.068	90.5
426.291	100.5
426.513	89.5
426.735	97.5
426.958	101.5
427.18	116.5
427.402	177.5
427.625	255.5
427.847	227.5
428.069	190.5
428.292	124.5
428.514	85.5
428.736	91.5
428.958	82.5
429.181	79.5
429.403	91.5
429.625	100.5
429.847	98.5
430.069	111.5
430.292	100.5
430.514	86.5
430.736	95.5
430.958	83.5
431.18	85.5
431.402	79.5
431.624	87.5
431.846	85.5
432.068	67.5
432.29	79.5
432.512	82.5
432.734	84.5
432.956	92.5
433.178	103.5
433.4	109.5
433.622	95.5
433.844	78.5
434.066	100.5
434.287	81.5
434.509	98.5
434.731	95.5
434.953	85.5
435.175	94.5
435.397	93.5
435.618	92.5
435.84	114.5
436.062	154.5
436.284	153.5
436.505	115.5
436.727	92.5
436.949	103.5
437.17	86.5
437.392	84.5
437.614	96.5
437.835	101.5
438.057	140.5
438.278	116.5
438.5	105.5
438.721	143.5
438.943	109.5
439.165	92.5
439.386	89.5
439.608	82.5
439.829	111.5
440.05	147.5
440.272	185.5
440.493	126.5
440.715	85.5
440.936	78.5
441.158	71.5
441.379	78.5
441.6	100.5
441.822	106.5
442.043	106.5
442.264	125.5
442.486	123.5
442.707	98.5
442.928	115.5
443.149	165.5
443.371	177.5
443.592	126.5
443.813	112.5
444.034	119.5
444.255	91.5
444.476	93.5
444.698	93.5
444.919	91.5
445.14	144.5
445.361	135.5
445.582	133.5
445.803	195.5
446.024	182.5
446.245	171.5
446.466	123.5
446.687	82.5
446.908	86.5
447.129	86.5
447.35	91.5
447.571	102.5
447.792	115.5
448.013	107.5
448.234	113.5
448.455	111.5
448.675	135.5
448.896	135.5
449.117	108.5
449.338	131.5
449.559	157.5
449.779	166.5
450	122.5
450.221	100.5
450.442	94.5
450.662	110.5
450.883	113.5
451.104	114.5
451.324	93.5
451.545	77.5
451.766	77.5
451.986	81.5
452.207	89.5
452.428	84.5
452.648	94.5
452.869	117.5
453.089	141.5
453.31	142.5
453.53	94.5
453.751	99.5
453.971	107.5
454.192	126.5
454.412	101.5
454.633	85.5
454.853	83.5
455.073	70.5
455.294	77.5
455.514	108.5
455.734	86.5
455.955	81.5
456.175	85.5
456.395	71.5
456.616	71.5
456.836	89.5
457.056	91.5
457.276	98.5
457.497	77.5
457.717	95.5
457.937	73.5
458.157	89.5
458.377	88.5
458.598	119.5
458.818	199.5
459.038	222.5
459.258	140.5
459.478	90.5
459.698	90.5
459.918	98.5
460.138	76.5
460.358	88.5
460.578	72.5
460.798	106.5
461.018	83.5
461.238	89.5
461.458	79.5
461.678	80.5
461.898	90.5
462.118	63.5
462.338	87.5
462.558	87.5
462.777	81.5
462.997	95.5
463.217	95.5
463.437	87.5
463.657	68.5
463.876	92.5
464.096	88.5
464.316	92.5
464.536	91.5
464.755	101.5
464.975	105.5
465.195	211.5
465.414	226.5
465.634	105.5
465.854	93.5
466.073	89.5
466.293	89.5
466.512	73.5
466.732	91.5
466.951	111.5
467.171	104.5
467.391	96.5
467.61	131.5
467.829	170.5
468.049	363.5
468.268	572.5
468.488	169.5
468.707	97.5
468.927	83.5
469.146	93.5
469.365	98.5
469.585	81.5
469.804	100.5
470.023	101.5
470.243	95.5
470.462	107.5
470.681	140.5
470.901	98.5
471.12	110.5
471.339	100.5
471.558	102.5
471.777	134.5
471.997	226.5
472.216	714.5
472.435	1743.5
472.654	457.5
472.873	144.5
473.092	108.5
473.311	97.5
473.53	82.5
473.749	90.5
473.968	88.5
474.187	132.5
474.406	95.5
474.625	84.5
474.844	88.5
475.063	80.5
475.282	92.5
475.501	77.5
475.72	97.5
475.939	84.5
476.158	79.5
476.377	77.5
476.596	101.5
476.814	90.5
477.033	89.5
477.252	93.5
477.471	84.5
477.69	88.5
477.908	97.5
478.127	83.5
478.346	90.5
478.564	98.5
478.783	109.5
479.002	94.5
479.22	90.5
479.439	118.5
479.658	135.5
479.876	127.5
480.095	98.5
480.313	132.5
480.532	130.5
480.751	213.5
480.969	697.5
481.188	2843.5
481.406	1829.5
481.624	296.5
481.843	124.5
482.061	105.5
482.28	92.5
482.498	95.5
482.717	80.5
482.935	89.5
483.153	90.5
483.372	75.5
483.59	87.5
483.808	98.5
484.027	94.5
484.245	93.5
484.463	81.5
484.681	93.5
484.9	87.5
485.118	98.5
485.336	87.5
485.554	117.5
485.772	92.5
485.99	102.5
486.209	93.5
486.427	107.5
486.645	124.5
486.863	115.5
487.081	114.5
487.299	95.5
487.517	97.5
487.735	103.5
487.953	94.5
488.171	88.5
488.389	91.5
488.607	97.5
488.825	101.5
489.043	90.5
489.261	81.5
489.479	78.5
489.696	89.5
489.914	88.5
490.132	75.5
490.35	91.5
490.568	84.5
490.786	85.5
491.003	78.5
491.221	112.5
491.439	97.5
491.657	85.5
491.874	82.5
492.092	97.5
492.31	89.5
492.527	89.5
492.745	82.5
492.963	88.5
493.18	74.5
493.398	101.5
493.615	93.5
493.833	95.5
494.05	93.5
494.268	71.5
494.485	91.5
494.703	90.5
494.92	93.5
495.138	87.5
495.355	92.5
495.573	86.5
495.79	84.5
496.008	96.5
496.225	87.5
496.442	97.5
496.66	98.5
496.877	90.5
497.094	90.5
497.312	83.5
497.529	84.5
497.746	88.5
497.963	93.5
498.181	105.5
498.398	93.5
498.615	108.5
498.832	103.5
499.049	83.5
499.267	79.5
499.484	94.5
499.701	78.5
499.918	85.5
500.135	83.5
500.352	115.5
500.569	83.5
500.786	101.5
501.003	96.5
501.22	86.5
501.437	95.5
501.654	92.5
501.871	125.5
502.088	107.5
502.305	91.5
502.522	92.5
502.739	95.5
502.956	98.5
503.172	88.5
503.389	96.5
503.606	107.5
503.823	91.5
504.04	90.5
504.256	89.5
504.473	90.5
504.69	103.5
504.907	96.5
505.123	77.5
505.34	90.5
505.557	96.5
505.773	95.5
505.99	98.5
506.207	110.5
506.423	95.5
506.64	93.5
506.856	102.5
507.073	94.5
507.289	93.5
507.506	106.5
507.722	124.5
507.939	139.5
508.155	109.5
508.372	87.5
508.588	106.5
508.805	100.5
509.021	103.5
509.238	114.5
509.454	90.5
509.67	109.5
509.887	111.5
510.103	144.5
510.319	243.5
510.536	980.5
510.752	3428.5
510.968	949.5
511.184	169.5
511.401	130.5
511.617	106.5
511.833	107.5
512.049	104.5
512.265	89.5
512.481	93.5
512.698	97.5
512.914	106.5
513.13	91.5
513.346	100.5
513.562	97.5
513.778	113.5
513.994	108.5
514.21	105.5
514.426	122.5
514.642	169.5
514.858	143.5
515.074	218.5
515.29	676.5
515.506	2531.5
515.721	937.5
515.937	198.5
516.153	143.5
516.369	112.5
516.585	95.5
516.801	98.5
517.016	97.5
517.232	106.5
517.448	105.5
517.664	96.5
517.879	113.5
518.095	95.5
518.311	120.5
518.527	107.5
518.742	100.5
518.958	97.5
519.173	102.5
519.389	122.5
519.605	99.5
519.82	100.5
520.036	109.5
520.251	150.5
520.467	141.5
520.682	132.5
520.898	113.5
521.113	142.5
521.329	182.5
521.544	292.5
521.76	884.5
521.975	4175.5
522.19	2566.5
522.406	497.5
522.621	157.5
522.836	127.5
523.052	125.5
523.267	111.5
523.482	91.5
523.698	104.5
523.913	138.5
524.128	106.5
524.343	91.5
524.559	88.5
524.774	90.5
524.989	112.5
525.204	119.5
525.419	108.5
525.634	89.5
525.849	101.5
526.064	94.5
526.28	93.5
526.495	101.5
526.71	86.5
526.925	84.5
527.14	88.5
527.355	93.5
527.57	94.5
527.785	82.5
527.999	76.5
528.214	88.5
528.429	89.5
528.644	103.5
528.859	105.5
529.074	93.5
529.289	141.5
529.503	258.5
529.718	116.5
529.933	104.5
530.148	101.5
530.363	97.5
530.577	83.5
530.792	95.5
531.007	83.5
531.221	81.5
531.436	91.5
531.651	88.5
531.865	81.5
532.08	93.5
532.295	84.5
532.509	83.5
532.724	85.5
532.938	92.5
533.153	77.5
533.367	86.5
533.582	100.5
