Data from Circ_2023_H10_HRD10591_00058.txt Node
Date: Wed Jan 03 09:50:42 EST 2024
User: Yrep
Spectrometer: HR+D1059
Trigger mode: 1
Integration Time (sec): 1.000000E-1
Scans to average: 1
Electric dark correction enabled: true
Nonlinearity correction enabled: false
Boxcar width: 0
XAxis mode: Wavelengths
Number of Pixels in Spectrum: 2048
>>>>>Begin Spectral Data<<<<<
223.165	-23
223.4	-23
223.635	-23
223.869	-24
224.104	-20
224.338	-13
224.573	-8
224.808	-8
225.042	-5
225.277	-5
225.511	10
225.746	1
225.98	11
226.215	11
226.449	3
226.683	24
226.918	15
227.152	31
227.387	37
227.621	42
227.856	55
228.09	46
228.324	38
228.559	46
228.793	76
229.027	63
229.262	77
229.496	79
229.73	90
229.964	95
230.199	77
230.433	73
230.667	75
230.901	85
231.136	82
231.37	86
231.604	75
231.838	87
232.072	90
232.306	81
232.541	79
232.775	75
233.009	83
233.243	68
233.477	90
233.711	75
233.945	79
234.179	79
234.413	70
234.647	81
234.881	90
235.115	89
235.349	91
235.583	91
235.817	79
236.051	74
236.285	79
236.519	86
236.753	81
236.987	83
237.221	91
237.455	101
237.689	82
237.922	84
238.156	65
238.39	87
238.624	65
238.858	74
239.091	81
239.325	84
239.559	84
239.793	83
240.027	76
240.26	83
240.494	89
240.728	71
240.961	79
241.195	81
241.429	99
241.662	80
241.896	76
242.13	76
242.363	81
242.597	69
242.83	81
243.064	82
243.298	87
243.531	88
243.765	94
243.998	78
244.232	81
244.465	84
244.699	98
244.932	90
245.166	88
245.399	87
245.633	83
245.866	85
246.099	79
246.333	82
246.566	60
246.8	75
247.033	86
247.266	77
247.5	75
247.733	88
247.966	105
248.2	79
248.433	83
248.666	91
248.899	88
249.133	104
249.366	91
249.599	111
249.832	91
250.066	84
250.299	87
250.532	101
250.765	97
250.998	80
251.231	82
251.465	82
251.698	71
251.931	85
252.164	74
252.397	73
252.63	83
252.863	83
253.096	77
253.329	73
253.562	66
253.795	74
254.028	79
254.261	85
254.494	90
254.727	83
254.96	84
255.193	76
255.426	94
255.659	93
255.892	110
256.124	113
256.357	104
256.59	91
256.823	93
257.056	110
257.289	73
257.521	73
257.754	88
257.987	103
258.22	97
258.452	114
258.685	92
258.918	80
259.151	75
259.383	87
259.616	90
259.849	91
260.081	89
260.314	99
260.547	87
260.779	106
261.012	110
261.244	130
261.477	112
261.71	96
261.942	139
262.175	166
262.407	97
262.64	87
262.872	90
263.105	87
263.337	94
263.57	95
263.802	90
264.035	87
264.267	93
264.499	79
264.732	88
264.964	87
265.197	96
265.429	79
265.661	94
265.894	80
266.126	98
266.358	79
266.591	94
266.823	93
267.055	95
267.287	84
267.52	87
267.752	80
267.984	102
268.216	81
268.448	92
268.681	98
268.913	86
269.145	99
269.377	81
269.609	95
269.841	81
270.073	86
270.306	93
270.538	82
270.77	91
271.002	95
271.234	87
271.466	111
271.698	79
271.93	90
272.162	84
272.394	82
272.626	88
272.858	101
273.09	96
273.322	87
273.553	90
273.785	97
274.017	90
274.249	96
274.481	97
274.713	88
274.945	95
275.176	88
275.408	106
275.64	124
275.872	138
276.104	113
276.335	116
276.567	152
276.799	163
277.031	190
277.262	215
277.494	152
277.726	113
277.957	91
278.189	94
278.421	106
278.652	93
278.884	91
279.115	98
279.347	91
279.579	87
279.81	138
280.042	216
280.273	314
280.505	220
280.736	136
280.968	103
281.199	82
281.431	94
281.662	84
281.894	88
282.125	114
282.356	142
282.588	182
282.819	155
283.051	96
283.282	102
283.513	76
283.745	86
283.976	92
284.207	91
284.439	88
284.67	74
284.901	88
285.132	104
285.364	98
285.595	71
285.826	83
286.057	94
286.288	96
286.52	90
286.751	90
286.982	94
287.213	82
287.444	76
287.675	85
287.906	103
288.138	94
288.369	99
288.6	89
288.831	76
289.062	75
289.293	78
289.524	89
289.755	83
289.986	88
290.217	94
290.448	77
290.679	74
290.91	91
291.141	80
291.371	83
291.602	98
291.833	88
292.064	98
292.295	98
292.526	90
292.757	97
292.987	95
293.218	86
293.449	95
293.68	90
293.91	91
294.141	95
294.372	79
294.603	83
294.833	102
295.064	89
295.295	97
295.525	110
295.756	117
295.987	136
296.217	165
296.448	147
296.679	98
296.909	81
297.14	93
297.37	95
297.601	97
297.831	99
298.062	103
298.292	90
298.523	82
298.753	91
298.984	90
299.214	105
299.445	103
299.675	100
299.905	119
300.136	108
300.366	94
300.597	111
300.827	94
301.057	99
301.288	122
301.518	95
301.748	102
301.979	117
302.209	103
302.439	98
302.669	107
302.9	84
303.13	98
303.36	116
303.59	142
303.82	168
304.051	128
304.281	95
304.511	96
304.741	97
304.971	79
305.201	93
305.431	89
305.661	80
305.891	105
306.121	92
306.352	111
306.582	112
306.812	110
307.042	130
307.272	175
307.502	197
307.731	188
307.961	137
308.191	96
308.421	97
308.651	98
308.881	102
309.111	101
309.341	101
309.571	95
309.8	101
310.03	112
310.26	103
310.49	99
310.72	105
310.949	124
311.179	139
311.409	100
311.639	109
311.868	117
312.098	107
312.328	107
312.557	122
312.787	134
313.017	115
313.246	110
313.476	107
313.706	105
313.935	111
314.165	112
314.394	124
314.624	102
314.853	108
315.083	100
315.312	103
315.542	89
315.771	98
316.001	97
316.23	91
316.46	96
316.689	94
316.919	103
317.148	112
317.377	93
317.607	96
317.836	101
318.065	88
318.295	85
318.524	86
318.753	100
318.983	105
319.212	98
319.441	107
319.67	114
319.9	114
320.129	88
320.358	101
320.587	102
320.816	101
321.046	95
321.275	105
321.504	102
321.733	105
321.962	106
322.191	99
322.42	126
322.649	130
322.878	107
323.108	126
323.337	139
323.566	160
323.795	201
324.024	283
324.253	562
324.482	1187
324.71	2437
324.939	3280
325.168	1191
325.397	330
325.626	180
325.855	160
326.084	165
326.313	158
326.542	185
326.77	289
326.999	634
327.228	1264
327.457	2352
327.686	1936
327.914	668
328.143	634
328.372	839
328.6	460
328.829	220
329.058	218
329.287	242
329.515	207
329.744	306
329.972	613
330.201	1240
330.43	1836
330.658	810
330.887	338
331.115	233
331.344	116
331.572	115
331.801	146
332.03	148
332.258	123
332.486	124
332.715	113
332.943	125
333.172	152
333.4	151
333.629	194
333.857	286
334.085	534
334.314	1110
334.542	2292
334.771	2194
334.999	542
335.227	209
335.455	132
335.684	118
335.912	117
336.14	130
336.369	106
336.597	125
336.825	98
337.053	96
337.281	126
337.51	102
337.738	94
337.966	114
338.194	135
338.422	102
338.65	98
338.878	107
339.106	108
339.334	92
339.562	105
339.79	103
340.018	98
340.246	122
340.474	91
340.702	89
340.93	90
341.158	97
341.386	90
341.614	102
341.842	108
342.07	104
342.298	110
342.526	100
342.754	92
342.981	97
343.209	87
343.437	108
343.665	94
343.893	91
344.12	98
344.348	84
344.576	98
344.804	100
345.031	113
345.259	121
345.487	93
345.714	81
345.942	103
346.17	108
346.397	99
346.625	110
346.853	99
347.08	96
347.308	97
347.535	111
347.763	133
347.99	106
348.218	102
348.445	146
348.673	130
348.9	109
349.128	99
349.355	107
349.583	110
349.81	93
350.037	98
350.265	107
350.492	110
350.72	98
350.947	101
351.174	117
351.402	132
351.629	139
351.856	110
352.083	119
352.311	124
352.538	140
352.765	131
352.992	121
353.22	130
353.447	133
353.674	108
353.901	96
354.128	90
354.355	102
354.583	110
354.81	103
355.037	112
355.264	86
355.491	94
355.718	103
355.945	84
356.172	89
356.399	105
356.626	93
356.853	91
357.08	96
357.307	94
357.534	86
357.761	89
357.988	100
358.215	99
358.441	95
358.668	82
358.895	103
359.122	94
359.349	80
359.576	103
359.802	118
360.029	136
360.256	135
360.483	130
360.709	106
360.936	99
361.163	104
361.39	110
361.616	107
361.843	110
362.07	115
362.296	112
362.523	125
362.749	115
362.976	107
363.203	99
363.429	97
363.656	83
363.882	81
364.109	102
364.335	94
364.562	99
364.788	104
365.015	86
365.241	114
365.468	127
365.694	137
365.92	119
366.147	106
366.373	91
366.599	100
366.826	91
367.052	82
367.278	99
367.505	90
367.731	100
367.957	111
368.184	80
368.41	112
368.636	122
368.862	130
369.089	124
369.315	106
369.541	93
369.767	104
369.993	101
370.219	90
370.445	98
370.672	90
370.898	96
371.124	107
371.35	97
371.576	113
371.802	90
372.028	78
372.254	101
372.48	87
372.706	76
372.932	103
373.158	100
373.384	94
373.61	84
373.835	84
374.061	94
374.287	90
374.513	91
374.739	83
374.965	88
375.191	91
375.416	103
375.642	104
375.868	93
376.094	98
376.319	86
376.545	90
376.771	100
376.997	110
377.222	92
377.448	94
377.674	95
377.899	85
378.125	95
378.35	94
378.576	91
378.802	85
379.027	87
379.253	91
379.478	103
379.704	113
379.929	103
380.155	91
380.38	102
380.606	103
380.831	108
381.057	96
381.282	84
381.507	96
381.733	86
381.958	98
382.184	84
382.409	94
382.634	103
382.86	104
383.085	93
383.31	84
383.535	106
383.761	89
383.986	99
384.211	106
384.436	91
384.662	102
384.887	90
385.112	94
385.337	105
385.562	110
385.787	94
386.013	125
386.238	126
386.463	107
386.688	103
386.913	102
387.138	95
387.363	107
387.588	110
387.813	100
388.038	99
388.263	106
388.488	111
388.713	114
388.938	94
389.163	85
389.387	93
389.612	99
389.837	94
390.062	92
390.287	91
390.512	81
390.736	82
390.961	89
391.186	100
391.411	84
391.636	88
391.86	90
392.085	101
392.31	90
392.534	84
392.759	76
392.984	83
393.208	80
393.433	90
393.658	83
393.882	85
394.107	87
394.331	69
394.556	97
394.78	98
395.005	95
395.229	102
395.454	71
395.678	93
395.903	103
396.127	103
396.352	86
396.576	73
396.801	112
397.025	78
397.249	97
397.474	110
397.698	96
397.922	88
398.147	88
398.371	69
398.595	87
398.82	88
399.044	94
399.268	88
399.492	106
399.717	98
399.941	88
400.165	107
400.389	85
400.613	97
400.837	97
401.062	94
401.286	93
401.51	83
401.734	103
401.958	111
402.182	162
402.406	215
402.63	156
402.854	113
403.078	99
403.302	101
403.526	105
403.75	83
403.974	87
404.198	90
404.422	79
404.645	94
404.869	102
405.093	142
405.317	150
405.541	155
405.765	120
405.988	136
406.212	241
406.436	357
406.66	224
406.883	124
407.107	110
407.331	122
407.555	117
407.778	115
408.002	82
408.226	101
408.449	88
408.673	105
408.896	117
409.12	94
409.344	81
409.567	98
409.791	92
410.014	94
410.238	99
410.461	97
410.685	102
410.908	110
411.132	122
411.355	123
411.578	101
411.802	89
412.025	88
412.249	112
412.472	143
412.695	157
412.919	127
413.142	103
413.365	103
413.589	94
413.812	89
414.035	103
414.258	106
414.482	100
414.705	90
414.928	106
415.151	101
415.374	94
415.597	95
415.821	101
416.044	95
416.267	89
416.49	100
416.713	98
416.936	86
417.159	88
417.382	100
417.605	117
417.828	118
418.051	99
418.274	111
418.497	89
418.72	80
418.943	91
419.166	95
419.389	97
419.611	99
419.834	102
420.057	98
420.28	106
420.503	86
420.726	102
420.948	114
421.171	102
421.394	101
421.617	97
421.839	91
422.062	92
422.285	90
422.507	103
422.73	121
422.953	101
423.175	94
423.398	78
423.621	92
423.843	91
424.066	106
424.288	83
424.511	94
424.733	114
424.956	146
425.178	116
425.401	113
425.623	132
425.846	114
426.068	104
426.291	91
426.513	106
426.735	110
426.958	122
427.18	154
427.402	219
427.625	286
427.847	272
428.069	235
428.292	154
428.514	119
428.736	103
428.958	86
429.181	102
429.403	94
429.625	112
429.847	86
430.069	140
430.292	116
430.514	102
430.736	91
430.958	83
431.18	81
431.402	104
431.624	93
431.846	95
432.068	75
432.29	94
432.512	100
432.734	77
432.956	97
433.178	100
433.4	116
433.622	96
433.844	96
434.066	100
434.287	89
434.509	89
434.731	102
434.953	84
435.175	99
435.397	98
435.618	99
435.84	110
436.062	154
436.284	149
436.505	122
436.727	99
436.949	86
437.17	101
437.392	90
437.614	101
437.835	142
438.057	158
438.278	149
438.5	131
438.721	163
438.943	127
439.165	95
439.386	95
439.608	95
439.829	126
440.05	167
440.272	203
440.493	129
440.715	102
440.936	102
441.158	98
441.379	86
441.6	101
441.822	126
442.043	118
442.264	135
442.486	137
442.707	120
442.928	141
443.149	177
443.371	192
443.592	153
443.813	153
444.034	129
444.255	91
444.476	94
444.698	101
444.919	97
445.14	131
445.361	136
445.582	154
445.803	222
446.024	208
446.245	206
446.466	130
446.687	113
446.908	100
447.129	86
447.35	100
447.571	101
447.792	101
448.013	117
448.234	125
448.455	130
448.675	144
448.896	171
449.117	105
449.338	120
449.559	171
449.779	184
450	116
450.221	102
450.442	103
450.662	103
450.883	145
451.104	153
451.324	116
451.545	100
451.766	77
451.986	88
452.207	87
452.428	102
452.648	105
452.869	142
453.089	155
453.31	136
453.53	114
453.751	102
453.971	131
454.192	142
454.412	103
454.633	88
454.853	101
455.073	102
455.294	89
455.514	113
455.734	93
455.955	90
456.175	85
456.395	89
456.616	100
456.836	95
457.056	69
457.276	87
457.497	91
457.717	89
457.937	98
458.157	102
458.377	107
458.598	137
458.818	238
459.038	257
459.258	151
459.478	99
459.698	97
459.918	91
460.138	92
460.358	77
460.578	105
460.798	99
461.018	103
461.238	90
461.458	92
461.678	95
461.898	99
462.118	94
462.338	87
462.558	95
462.777	84
462.997	104
463.217	119
463.437	103
463.657	82
463.876	97
464.096	97
464.316	117
464.536	98
464.755	119
464.975	138
465.195	275
465.414	273
465.634	118
465.854	110
466.073	101
466.293	102
466.512	90
466.732	89
466.951	98
467.171	106
467.391	142
467.61	169
467.829	235
468.049	672
468.268	1079
468.488	278
468.707	131
468.927	92
469.146	95
469.365	94
469.585	91
469.804	114
470.023	118
470.243	112
470.462	129
470.681	139
470.901	127
471.12	116
471.339	121
471.558	126
471.777	180
471.997	331
472.216	1350
472.435	3175
472.654	768
472.873	185
473.092	120
473.311	94
473.53	90
473.749	100
473.968	106
474.187	144
474.406	114
474.625	97
474.844	84
475.063	102
475.282	98
475.501	88
475.72	95
475.939	108
476.158	102
476.377	97
476.596	93
476.814	99
477.033	111
477.252	103
477.471	103
477.69	97
477.908	100
478.127	86
478.346	102
478.564	113
478.783	114
479.002	106
479.22	112
479.439	137
479.658	134
479.876	133
480.095	139
480.313	136
480.532	183
480.751	329
480.969	1164
481.188	5138
481.406	3243
481.624	448
481.843	161
482.061	115
482.28	128
482.498	103
482.717	107
482.935	102
483.153	91
483.372	94
483.59	92
483.808	91
484.027	106
484.245	115
484.463	100
484.681	98
484.9	75
485.118	102
485.336	119
485.554	94
485.772	113
485.99	102
486.209	118
486.427	105
486.645	121
486.863	132
487.081	119
487.299	103
487.517	106
487.735	110
487.953	95
488.171	120
488.389	114
488.607	117
488.825	97
489.043	81
489.261	101
489.479	75
489.696	74
489.914	95
490.132	98
490.35	108
490.568	102
490.786	89
491.003	96
491.221	96
491.439	105
491.657	100
491.874	93
492.092	92
492.31	104
492.527	104
492.745	101
492.963	105
493.18	86
493.398	104
493.615	107
493.833	97
494.05	81
494.268	95
494.485	85
494.703	87
494.92	100
495.138	99
495.355	111
495.573	112
495.79	98
496.008	110
496.225	99
496.442	107
496.66	97
496.877	88
497.094	86
497.312	93
497.529	99
497.746	91
497.963	109
498.181	107
498.398	98
498.615	121
498.832	124
499.049	95
499.267	93
499.484	97
499.701	95
499.918	97
500.135	93
500.352	94
500.569	102
500.786	103
501.003	97
501.22	91
501.437	90
501.654	84
501.871	135
502.088	122
502.305	102
502.522	85
502.739	89
502.956	102
503.172	101
503.389	117
503.606	141
503.823	107
504.04	99
504.256	105
504.473	86
504.69	96
504.907	99
505.123	87
505.34	89
505.557	106
505.773	86
505.99	80
506.207	84
506.423	111
506.64	106
506.856	103
507.073	92
507.289	94
507.506	103
507.722	139
507.939	139
508.155	111
508.372	98
508.588	90
508.805	106
509.021	116
509.238	96
509.454	112
509.67	111
509.887	118
510.103	155
510.319	281
510.536	970
510.752	3578
510.968	968
511.184	194
511.401	155
511.617	131
511.833	122
512.049	122
512.265	95
512.481	89
512.698	100
512.914	115
513.13	84
513.346	85
513.562	103
513.778	122
513.994	112
514.21	137
514.426	169
514.642	200
514.858	167
515.074	228
515.29	813
515.506	2897
515.721	1060
515.937	238
516.153	154
516.369	103
516.585	112
516.801	122
517.016	106
517.232	100
517.448	106
517.664	107
517.879	103
518.095	107
518.311	127
518.527	121
518.742	104
518.958	113
519.173	103
519.389	103
519.605	111
519.82	125
520.036	119
520.251	169
520.467	141
520.682	124
520.898	128
521.113	164
521.329	197
521.544	329
521.76	1022
521.975	4758
522.19	2994
522.406	588
522.621	180
522.836	134
523.052	114
523.267	120
523.482	110
523.698	108
523.913	156
524.128	130
524.343	112
524.559	115
524.774	100
524.989	91
525.204	128
525.419	129
525.634	92
525.849	99
526.064	102
526.28	95
526.495	113
526.71	85
526.925	101
527.14	84
527.355	90
527.57	98
527.785	93
527.999	103
528.214	98
528.429	90
528.644	97
528.859	105
529.074	104
529.289	166
529.503	313
529.718	138
529.933	103
530.148	86
530.363	93
530.577	98
530.792	102
531.007	94
531.221	101
531.436	91
531.651	97
531.865	105
532.08	104
532.295	91
532.509	92
532.724	104
532.938	96
533.153	106
533.367	107
533.582	90
533.796	102
534.011	106
534.225	99
534.44	112
534.654	99
534.868	102
535.083	111
535.297	99
535.511	100
535.726	114
535.94	110
536.154	104
536.369	101
536.583	89
536.797	87
537.011	103
537.225	96
537.44	83
537.654	93
537.868	84
538.082	94
538.296	85
538.51	99
538.724	93
538.938	105
539.153	103
539.367	134
539.581	107
539.795	101
540.009	106
540.222	95
540.436	95
540.65	113
540.864	99
541.078	103
541.292	105
541.506	95
541.72	82
541.934	90
542.147	99
542.361	90
542.575	97
542.789	99
543.002	100
543.216	98
543.43	105
543.644	106
543.857	96
544.071	102
544.285	93
544.498	97
544.712	101
544.925	104
545.139	105
545.352	91
545.566	99
545.779	99
545.993	83
546.206	92
546.42	90
546.633	109
546.847	99
547.06	93
547.274	96
547.487	99
547.7	100
547.914	102
548.127	106
548.34	94
548.554	96
548.767	80
548.98	82
549.193	85
549.407	84
549.62	83
549.833	81
550.046	93
550.259	77
550.473	106
550.686	101
550.899	80
551.112	93
551.325	95
551.538	106
551.751	114
551.964	106
552.177	113
552.39	96
552.603	87
552.816	83
553.029	99
553.242	97
553.455	98
553.667	141
553.88	137
554.093	115
554.306	117
554.519	139
554.732	95
554.944	103
555.157	94
555.37	95
555.583	107
555.795	96
556.008	92
556.221	94
556.433	98
556.646	103
556.859	93
557.071	74
557.284	90
557.496	85
557.709	94
557.921	103
558.134	97
558.346	106
558.559	79
558.771	77
558.984	90
559.196	85
559.409	110
559.621	88
559.833	102
560.046	101
560.258	134
560.47	141
560.683	113
560.895	97
561.107	87
561.32	84
561.532	88
561.744	84
561.956	97
562.168	88
562.381	106
562.593	88
562.805	93
563.017	83
563.229	87
563.441	87
563.653	84
563.865	76
564.077	89
564.289	100
564.501	103
564.713	90
564.925	88
565.137	131
565.349	80
565.561	97
565.773	94
565.985	86
566.197	90
566.408	99
566.62	93
566.832	88
567.044	80
567.255	89
567.467	94
567.679	83
567.891	84
568.102	73
568.314	103
568.526	103
568.737	81
568.949	89
569.161	97
569.372	87
569.584	84
569.795	87
570.007	120
570.218	311
570.43	149
570.641	103
570.853	90
571.064	99
571.276	97
571.487	87
571.698	79
571.91	73
572.121	89
572.333	91
572.544	89
572.755	83
572.966	86
573.178	99
573.389	86
573.6	93
573.811	84
574.023	91
574.234	77
574.445	76
574.656	82
574.867	84
575.078	92
575.289	85
575.501	98
575.712	99
575.923	99
576.134	105
576.345	95
576.556	86
576.767	95
576.978	88
577.188	97
