Data from Circ_2023_H10_HRD10591_00043.txt Node
Date: Wed Jan 03 09:50:39 EST 2024
User: Yrep
Spectrometer: HR+D1059
Trigger mode: 1
Integration Time (sec): 1.000000E-1
Scans to average: 1
Electric dark correction enabled: true
Nonlinearity correction enabled: false
Boxcar width: 0
XAxis mode: Wavelengths
Number of Pixels in Spectrum: 2048
>>>>>Begin Spectral Data<<<<<
223.165	-14.38
223.4	-14.38
223.635	-14.38
223.869	-22.38
224.104	-8.38
224.338	-21.38
224.573	-12.38
224.808	-9.38
225.042	-1.38
225.277	-21.38
225.511	-9.38
225.746	-0.38
225.98	9.62
226.215	7.62
226.449	9.62
226.683	19.62
226.918	32.62
227.152	41.62
227.387	27.62
227.621	36.62
227.856	44.62
228.09	47.62
228.324	48.62
228.559	64.62
228.793	63.62
229.027	51.62
229.262	72.62
229.496	80.62
229.73	109.62
229.964	104.62
230.199	90.62
230.433	75.62
230.667	87.62
230.901	64.62
231.136	82.62
231.37	95.62
231.604	89.62
231.838	59.62
232.072	89.62
232.306	87.62
232.541	93.62
232.775	68.62
233.009	85.62
233.243	80.62
233.477	90.62
233.711	79.62
233.945	85.62
234.179	94.62
234.413	91.62
234.647	95.62
234.881	88.62
235.115	85.62
235.349	91.62
235.583	91.62
235.817	84.62
236.051	83.62
236.285	71.62
236.519	89.62
236.753	87.62
236.987	79.62
237.221	105.62
237.455	98.62
237.689	88.62
237.922	72.62
238.156	92.62
238.39	90.62
238.624	75.62
238.858	72.62
239.091	73.62
239.325	82.62
239.559	76.62
239.793	96.62
240.027	90.62
240.26	76.62
240.494	105.62
240.728	81.62
240.961	86.62
241.195	91.62
241.429	91.62
241.662	73.62
241.896	80.62
242.13	79.62
242.363	88.62
242.597	73.62
242.83	89.62
243.064	85.62
243.298	91.62
243.531	84.62
243.765	90.62
243.998	81.62
244.232	96.62
244.465	89.62
244.699	83.62
244.932	93.62
245.166	82.62
245.399	76.62
245.633	87.62
245.866	85.62
246.099	74.62
246.333	79.62
246.566	103.62
246.8	90.62
247.033	77.62
247.266	90.62
247.5	93.62
247.733	77.62
247.966	84.62
248.2	86.62
248.433	73.62
248.666	78.62
248.899	81.62
249.133	83.62
249.366	105.62
249.599	97.62
249.832	77.62
250.066	99.62
250.299	93.62
250.532	101.62
250.765	98.62
250.998	92.62
251.231	76.62
251.465	85.62
251.698	90.62
251.931	109.62
252.164	87.62
252.397	75.62
252.63	68.62
252.863	81.62
253.096	91.62
253.329	88.62
253.562	76.62
253.795	90.62
254.028	97.62
254.261	85.62
254.494	80.62
254.727	83.62
254.96	88.62
255.193	82.62
255.426	82.62
255.659	98.62
255.892	112.62
256.124	115.62
256.357	91.62
256.59	102.62
256.823	95.62
257.056	98.62
257.289	80.62
257.521	101.62
257.754	103.62
257.987	84.62
258.22	111.62
258.452	95.62
258.685	113.62
258.918	95.62
259.151	96.62
259.383	85.62
259.616	72.62
259.849	71.62
260.081	86.62
260.314	83.62
260.547	96.62
260.779	102.62
261.012	129.62
261.244	114.62
261.477	101.62
261.71	121.62
261.942	146.62
262.175	150.62
262.407	100.62
262.64	91.62
262.872	92.62
263.105	89.62
263.337	85.62
263.57	74.62
263.802	93.62
264.035	87.62
264.267	80.62
264.499	77.62
264.732	95.62
264.964	84.62
265.197	73.62
265.429	84.62
265.661	91.62
265.894	87.62
266.126	89.62
266.358	83.62
266.591	85.62
266.823	87.62
267.055	98.62
267.287	98.62
267.52	93.62
267.752	89.62
267.984	86.62
268.216	89.62
268.448	92.62
268.681	87.62
268.913	106.62
269.145	89.62
269.377	90.62
269.609	89.62
269.841	78.62
270.073	106.62
270.306	90.62
270.538	91.62
270.77	81.62
271.002	89.62
271.234	99.62
271.466	85.62
271.698	83.62
271.93	87.62
272.162	88.62
272.394	117.62
272.626	90.62
272.858	93.62
273.09	86.62
273.322	97.62
273.553	81.62
273.785	90.62
274.017	82.62
274.249	96.62
274.481	108.62
274.713	101.62
274.945	94.62
275.176	92.62
275.408	97.62
275.64	117.62
275.872	136.62
276.104	114.62
276.335	114.62
276.567	122.62
276.799	164.62
277.031	211.62
277.262	227.62
277.494	182.62
277.726	115.62
277.957	101.62
278.189	89.62
278.421	105.62
278.652	90.62
278.884	95.62
279.115	104.62
279.347	107.62
279.579	115.62
279.81	145.62
280.042	232.62
280.273	334.62
280.505	214.62
280.736	127.62
280.968	107.62
281.199	96.62
281.431	95.62
281.662	100.62
281.894	107.62
282.125	120.62
282.356	151.62
282.588	186.62
282.819	141.62
283.051	89.62
283.282	89.62
283.513	90.62
283.745	85.62
283.976	87.62
284.207	92.62
284.439	85.62
284.67	91.62
284.901	99.62
285.132	85.62
285.364	92.62
285.595	99.62
285.826	84.62
286.057	92.62
286.288	84.62
286.52	77.62
286.751	94.62
286.982	90.62
287.213	76.62
287.444	100.62
287.675	90.62
287.906	81.62
288.138	83.62
288.369	97.62
288.6	98.62
288.831	95.62
289.062	106.62
289.293	97.62
289.524	99.62
289.755	90.62
289.986	92.62
290.217	91.62
290.448	76.62
290.679	82.62
290.91	98.62
291.141	100.62
291.371	102.62
291.602	102.62
291.833	86.62
292.064	87.62
292.295	89.62
292.526	100.62
292.757	100.62
292.987	86.62
293.218	98.62
293.449	68.62
293.68	95.62
293.91	88.62
294.141	90.62
294.372	93.62
294.603	99.62
294.833	98.62
295.064	87.62
295.295	89.62
295.525	101.62
295.756	101.62
295.987	124.62
296.217	173.62
296.448	159.62
296.679	97.62
296.909	98.62
297.14	84.62
297.37	96.62
297.601	95.62
297.831	94.62
298.062	114.62
298.292	85.62
298.523	99.62
298.753	103.62
298.984	86.62
299.214	92.62
299.445	124.62
299.675	113.62
299.905	108.62
300.136	107.62
300.366	95.62
300.597	95.62
300.827	96.62
301.057	114.62
301.288	136.62
301.518	112.62
301.748	106.62
301.979	128.62
302.209	110.62
302.439	96.62
302.669	106.62
302.9	104.62
303.13	99.62
303.36	115.62
303.59	147.62
303.82	183.62
304.051	116.62
304.281	103.62
304.511	90.62
304.741	89.62
304.971	100.62
305.201	91.62
305.431	75.62
305.661	94.62
305.891	106.62
306.121	109.62
306.352	117.62
306.582	117.62
306.812	106.62
307.042	130.62
307.272	185.62
307.502	198.62
307.731	183.62
307.961	143.62
308.191	105.62
308.421	95.62
308.651	102.62
308.881	84.62
309.111	101.62
309.341	107.62
309.571	107.62
309.8	121.62
310.03	113.62
310.26	102.62
310.49	113.62
310.72	114.62
310.949	120.62
311.179	129.62
311.409	91.62
311.639	102.62
311.868	110.62
312.098	104.62
312.328	106.62
312.557	123.62
312.787	117.62
313.017	116.62
313.246	114.62
313.476	92.62
313.706	108.62
313.935	117.62
314.165	123.62
314.394	128.62
314.624	123.62
314.853	122.62
315.083	91.62
315.312	100.62
315.542	101.62
315.771	95.62
316.001	101.62
316.23	89.62
316.46	94.62
316.689	107.62
316.919	97.62
317.148	123.62
317.377	110.62
317.607	108.62
317.836	120.62
318.065	104.62
318.295	114.62
318.524	98.62
318.753	101.62
318.983	87.62
319.212	104.62
319.441	128.62
319.67	115.62
319.9	103.62
320.129	88.62
320.358	83.62
320.587	108.62
320.816	116.62
321.046	105.62
321.275	103.62
321.504	105.62
321.733	111.62
321.962	101.62
322.191	109.62
322.42	133.62
322.649	132.62
322.878	140.62
323.108	143.62
323.337	172.62
323.566	152.62
323.795	188.62
324.024	259.62
324.253	545.62
324.482	1111.62
324.71	2272.62
324.939	3040.62
325.168	1091.62
325.397	322.62
325.626	166.62
325.855	149.62
326.084	153.62
326.313	154.62
326.542	188.62
326.77	297.62
326.999	567.62
327.228	1198.62
327.457	2173.62
327.686	1791.62
327.914	644.62
328.143	644.62
328.372	841.62
328.6	471.62
328.829	215.62
329.058	211.62
329.287	209.62
329.515	194.62
329.744	303.62
329.972	588.62
330.201	1228.62
330.43	1793.62
330.658	800.62
330.887	353.62
331.115	212.62
331.344	133.62
331.572	140.62
331.801	137.62
332.03	136.62
332.258	123.62
332.486	106.62
332.715	119.62
332.943	117.62
333.172	143.62
333.4	151.62
333.629	190.62
333.857	285.62
334.085	539.62
334.314	1112.62
334.542	2229.62
334.771	2123.62
334.999	535.62
335.227	212.62
335.455	140.62
335.684	131.62
335.912	120.62
336.14	115.62
336.369	118.62
336.597	119.62
336.825	119.62
337.053	119.62
337.281	98.62
337.51	101.62
337.738	105.62
337.966	109.62
338.194	121.62
338.422	117.62
338.65	107.62
338.878	101.62
339.106	95.62
339.334	101.62
339.562	101.62
339.79	108.62
340.018	102.62
340.246	104.62
340.474	121.62
340.702	106.62
340.93	99.62
341.158	107.62
341.386	103.62
341.614	111.62
341.842	100.62
342.07	102.62
342.298	107.62
342.526	100.62
342.754	98.62
342.981	94.62
343.209	94.62
343.437	99.62
343.665	78.62
343.893	98.62
344.12	100.62
344.348	104.62
344.576	97.62
344.804	112.62
345.031	119.62
345.259	119.62
345.487	111.62
345.714	119.62
345.942	106.62
346.17	98.62
346.397	98.62
346.625	105.62
346.853	98.62
347.08	91.62
347.308	109.62
347.535	115.62
347.763	107.62
347.99	104.62
348.218	123.62
348.445	137.62
348.673	119.62
348.9	95.62
349.128	104.62
349.355	101.62
349.583	113.62
349.81	107.62
350.037	98.62
350.265	105.62
350.492	99.62
350.72	101.62
350.947	109.62
351.174	128.62
351.402	115.62
351.629	118.62
351.856	97.62
352.083	129.62
352.311	135.62
352.538	141.62
352.765	122.62
352.992	125.62
353.22	133.62
353.447	105.62
353.674	120.62
353.901	97.62
354.128	93.62
354.355	93.62
354.583	99.62
354.81	98.62
355.037	97.62
355.264	97.62
355.491	90.62
355.718	97.62
355.945	99.62
356.172	96.62
356.399	86.62
356.626	102.62
356.853	88.62
357.08	98.62
357.307	104.62
357.534	92.62
357.761	91.62
357.988	95.62
358.215	84.62
358.441	84.62
358.668	93.62
358.895	94.62
359.122	82.62
359.349	99.62
359.576	95.62
359.802	113.62
360.029	142.62
360.256	155.62
360.483	150.62
360.709	98.62
360.936	93.62
361.163	103.62
361.39	123.62
361.616	102.62
361.843	108.62
362.07	127.62
362.296	106.62
362.523	101.62
362.749	90.62
362.976	100.62
363.203	105.62
363.429	98.62
363.656	103.62
363.882	93.62
364.109	106.62
364.335	104.62
364.562	106.62
364.788	98.62
365.015	115.62
365.241	118.62
365.468	130.62
365.694	144.62
365.92	104.62
366.147	113.62
366.373	99.62
366.599	107.62
366.826	95.62
367.052	101.62
367.278	103.62
367.505	99.62
367.731	98.62
367.957	102.62
368.184	103.62
368.41	126.62
368.636	131.62
368.862	135.62
369.089	117.62
369.315	92.62
369.541	116.62
369.767	112.62
369.993	113.62
370.219	100.62
370.445	112.62
370.672	86.62
370.898	74.62
371.124	92.62
371.35	92.62
371.576	87.62
371.802	86.62
372.028	98.62
372.254	95.62
372.48	91.62
372.706	101.62
372.932	91.62
373.158	80.62
373.384	98.62
373.61	104.62
373.835	99.62
374.061	98.62
374.287	87.62
374.513	115.62
374.739	88.62
374.965	76.62
375.191	96.62
375.416	90.62
375.642	105.62
375.868	92.62
376.094	94.62
376.319	87.62
376.545	90.62
376.771	88.62
376.997	93.62
377.222	91.62
377.448	99.62
377.674	77.62
377.899	93.62
378.125	97.62
378.35	86.62
378.576	89.62
378.802	86.62
379.027	95.62
379.253	76.62
379.478	85.62
379.704	82.62
379.929	102.62
380.155	103.62
380.38	107.62
380.606	98.62
380.831	101.62
381.057	94.62
381.282	81.62
381.507	87.62
381.733	103.62
381.958	91.62
382.184	91.62
382.409	103.62
382.634	88.62
382.86	98.62
383.085	91.62
383.31	96.62
383.535	92.62
383.761	92.62
383.986	96.62
384.211	85.62
384.436	91.62
384.662	112.62
384.887	103.62
385.112	91.62
385.337	115.62
385.562	100.62
385.787	107.62
386.013	105.62
386.238	127.62
386.463	115.62
386.688	114.62
386.913	95.62
387.138	98.62
387.363	95.62
387.588	92.62
387.813	103.62
388.038	102.62
388.263	106.62
388.488	99.62
388.713	107.62
388.938	97.62
389.163	92.62
389.387	110.62
389.612	94.62
389.837	79.62
390.062	93.62
390.287	83.62
390.512	89.62
390.736	100.62
390.961	84.62
391.186	90.62
391.411	82.62
391.636	97.62
391.86	94.62
392.085	91.62
392.31	73.62
392.534	95.62
392.759	90.62
392.984	72.62
393.208	86.62
393.433	95.62
393.658	89.62
393.882	95.62
394.107	89.62
394.331	89.62
394.556	106.62
394.78	95.62
395.005	94.62
395.229	83.62
395.454	80.62
395.678	83.62
395.903	86.62
396.127	80.62
396.352	87.62
396.576	95.62
396.801	93.62
397.025	78.62
397.249	87.62
397.474	96.62
397.698	86.62
397.922	95.62
398.147	92.62
398.371	84.62
398.595	103.62
398.82	102.62
399.044	92.62
399.268	82.62
399.492	100.62
399.717	87.62
399.941	108.62
400.165	105.62
400.389	97.62
400.613	88.62
400.837	88.62
401.062	94.62
401.286	96.62
401.51	82.62
401.734	98.62
401.958	113.62
402.182	159.62
402.406	215.62
402.63	164.62
402.854	104.62
403.078	107.62
403.302	94.62
403.526	98.62
403.75	97.62
403.974	88.62
404.198	98.62
404.422	104.62
404.645	99.62
404.869	104.62
405.093	152.62
405.317	154.62
405.541	158.62
405.765	124.62
405.988	146.62
406.212	223.62
406.436	343.62
406.66	241.62
406.883	137.62
407.107	105.62
407.331	106.62
407.555	123.62
407.778	119.62
408.002	100.62
408.226	97.62
408.449	96.62
408.673	104.62
408.896	100.62
409.12	106.62
409.344	103.62
409.567	86.62
409.791	88.62
410.014	107.62
410.238	96.62
410.461	121.62
410.685	92.62
410.908	123.62
411.132	105.62
411.355	107.62
411.578	114.62
411.802	96.62
412.025	101.62
412.249	116.62
412.472	118.62
412.695	149.62
412.919	113.62
413.142	97.62
413.365	104.62
413.589	108.62
413.812	84.62
414.035	97.62
414.258	113.62
414.482	94.62
414.705	112.62
414.928	100.62
415.151	86.62
415.374	94.62
415.597	90.62
415.821	91.62
416.044	96.62
416.267	100.62
416.49	103.62
416.713	75.62
416.936	98.62
417.159	111.62
417.382	109.62
417.605	111.62
417.828	129.62
418.051	97.62
418.274	91.62
418.497	90.62
418.72	86.62
418.943	89.62
419.166	86.62
419.389	86.62
419.611	104.62
419.834	87.62
420.057	92.62
420.28	115.62
420.503	93.62
420.726	91.62
420.948	112.62
421.171	115.62
421.394	98.62
421.617	99.62
421.839	85.62
422.062	96.62
422.285	82.62
422.507	115.62
422.73	119.62
422.953	108.62
423.175	86.62
423.398	101.62
423.621	102.62
423.843	92.62
424.066	101.62
424.288	105.62
424.511	112.62
424.733	113.62
424.956	152.62
425.178	131.62
425.401	120.62
425.623	126.62
425.846	106.62
426.068	106.62
426.291	84.62
426.513	98.62
426.735	100.62
426.958	117.62
427.18	140.62
427.402	204.62
427.625	284.62
427.847	261.62
428.069	244.62
428.292	140.62
428.514	103.62
428.736	92.62
428.958	96.62
429.181	85.62
429.403	98.62
429.625	96.62
429.847	114.62
430.069	123.62
430.292	93.62
430.514	81.62
430.736	92.62
430.958	92.62
431.18	93.62
431.402	81.62
431.624	90.62
431.846	87.62
432.068	100.62
432.29	87.62
432.512	94.62
432.734	93.62
432.956	99.62
433.178	111.62
433.4	117.62
433.622	89.62
433.844	90.62
434.066	108.62
434.287	97.62
434.509	84.62
434.731	95.62
434.953	93.62
435.175	95.62
435.397	112.62
435.618	108.62
435.84	111.62
436.062	152.62
436.284	141.62
436.505	114.62
436.727	107.62
436.949	101.62
437.17	89.62
437.392	87.62
437.614	117.62
437.835	144.62
438.057	193.62
438.278	143.62
438.5	127.62
438.721	145.62
438.943	109.62
439.165	102.62
439.386	100.62
439.608	97.62
439.829	126.62
440.05	164.62
440.272	212.62
440.493	112.62
440.715	105.62
440.936	118.62
441.158	106.62
441.379	106.62
441.6	108.62
441.822	106.62
442.043	119.62
442.264	131.62
442.486	131.62
442.707	108.62
442.928	125.62
443.149	201.62
443.371	195.62
443.592	130.62
443.813	140.62
444.034	140.62
444.255	101.62
444.476	96.62
444.698	74.62
444.919	102.62
445.14	149.62
445.361	149.62
445.582	145.62
445.803	205.62
446.024	204.62
446.245	184.62
446.466	143.62
446.687	103.62
446.908	103.62
447.129	100.62
447.35	105.62
447.571	103.62
447.792	100.62
448.013	92.62
448.234	131.62
448.455	127.62
448.675	128.62
448.896	165.62
449.117	132.62
449.338	124.62
449.559	175.62
449.779	164.62
450	107.62
450.221	102.62
450.442	95.62
450.662	110.62
450.883	133.62
451.104	149.62
451.324	105.62
451.545	89.62
451.766	95.62
451.986	98.62
452.207	102.62
452.428	105.62
452.648	116.62
452.869	143.62
453.089	151.62
453.31	163.62
453.53	106.62
453.751	104.62
453.971	127.62
454.192	159.62
454.412	109.62
454.633	104.62
454.853	90.62
455.073	91.62
455.294	100.62
455.514	116.62
455.734	95.62
455.955	94.62
456.175	95.62
456.395	80.62
456.616	103.62
456.836	105.62
457.056	96.62
457.276	102.62
457.497	92.62
457.717	95.62
457.937	91.62
458.157	106.62
458.377	104.62
458.598	132.62
458.818	236.62
459.038	270.62
459.258	175.62
459.478	116.62
459.698	96.62
459.918	87.62
460.138	102.62
460.358	87.62
460.578	104.62
460.798	115.62
461.018	92.62
461.238	94.62
461.458	89.62
461.678	86.62
461.898	92.62
462.118	93.62
462.338	94.62
462.558	96.62
462.777	90.62
462.997	87.62
463.217	100.62
463.437	106.62
463.657	102.62
463.876	94.62
464.096	94.62
464.316	96.62
464.536	116.62
464.755	111.62
464.975	136.62
465.195	259.62
465.414	261.62
465.634	116.62
465.854	96.62
466.073	93.62
466.293	106.62
466.512	81.62
466.732	99.62
466.951	100.62
467.171	103.62
467.391	120.62
467.61	164.62
467.829	260.62
468.049	648.62
468.268	1045.62
468.488	258.62
468.707	120.62
468.927	97.62
469.146	99.62
469.365	97.62
469.585	100.62
469.804	123.62
470.023	141.62
470.243	107.62
470.462	135.62
470.681	156.62
470.901	113.62
471.12	106.62
471.339	121.62
471.558	126.62
471.777	168.62
471.997	344.62
472.216	1284.62
472.435	3105.62
472.654	741.62
472.873	188.62
473.092	98.62
473.311	103.62
473.53	105.62
473.749	105.62
473.968	130.62
474.187	155.62
474.406	125.62
474.625	93.62
474.844	96.62
475.063	92.62
475.282	100.62
475.501	90.62
475.72	96.62
475.939	92.62
476.158	96.62
476.377	85.62
476.596	98.62
476.814	103.62
477.033	112.62
477.252	111.62
477.471	89.62
477.69	93.62
477.908	86.62
478.127	110.62
478.346	97.62
478.564	106.62
478.783	127.62
479.002	123.62
479.22	119.62
479.439	133.62
479.658	157.62
479.876	135.62
480.095	137.62
480.313	139.62
480.532	178.62
480.751	308.62
480.969	1117.62
481.188	5011.62
481.406	3129.62
481.624	438.62
481.843	154.62
482.061	112.62
482.28	97.62
482.498	111.62
482.717	108.62
482.935	97.62
483.153	86.62
483.372	85.62
483.59	96.62
483.808	107.62
484.027	92.62
484.245	111.62
484.463	103.62
484.681	107.62
484.9	106.62
485.118	96.62
485.336	88.62
485.554	111.62
485.772	101.62
485.99	88.62
486.209	120.62
486.427	122.62
486.645	122.62
486.863	130.62
487.081	114.62
487.299	111.62
487.517	86.62
487.735	92.62
487.953	103.62
488.171	103.62
488.389	125.62
488.607	115.62
488.825	93.62
489.043	79.62
489.261	83.62
489.479	88.62
489.696	99.62
489.914	93.62
490.132	87.62
490.35	109.62
490.568	91.62
490.786	88.62
491.003	93.62
491.221	111.62
491.439	107.62
491.657	100.62
491.874	89.62
492.092	97.62
492.31	96.62
492.527	106.62
492.745	110.62
492.963	105.62
493.18	99.62
493.398	93.62
493.615	103.62
493.833	95.62
494.05	100.62
494.268	103.62
494.485	99.62
494.703	77.62
494.92	91.62
495.138	94.62
495.355	104.62
495.573	93.62
495.79	101.62
496.008	101.62
496.225	84.62
496.442	86.62
496.66	103.62
496.877	89.62
497.094	108.62
497.312	92.62
497.529	85.62
497.746	89.62
497.963	92.62
498.181	91.62
498.398	94.62
498.615	128.62
498.832	123.62
499.049	105.62
499.267	88.62
499.484	85.62
499.701	103.62
499.918	97.62
500.135	86.62
500.352	93.62
500.569	107.62
500.786	118.62
501.003	95.62
501.22	88.62
501.437	96.62
501.654	115.62
501.871	147.62
502.088	97.62
502.305	95.62
502.522	104.62
502.739	95.62
502.956	90.62
503.172	105.62
503.389	124.62
503.606	132.62
503.823	125.62
504.04	94.62
504.256	80.62
504.473	87.62
504.69	99.62
504.907	100.62
505.123	99.62
505.34	104.62
505.557	93.62
505.773	104.62
505.99	90.62
506.207	95.62
506.423	96.62
506.64	78.62
506.856	96.62
507.073	113.62
507.289	107.62
507.506	102.62
507.722	156.62
507.939	134.62
508.155	99.62
508.372	100.62
508.588	108.62
508.805	92.62
509.021	106.62
509.238	104.62
509.454	102.62
509.67	111.62
509.887	126.62
510.103	152.62
510.319	263.62
510.536	1027.62
510.752	3642.62
