Data from Circ_2023_H10_HRD10591_00096.txt Node
Date: Wed Jan 03 09:50:50 EST 2024
User: Yrep
Spectrometer: HR+D1059
Trigger mode: 1
Integration Time (sec): 1.000000E-1
Scans to average: 1
Electric dark correction enabled: true
Nonlinearity correction enabled: false
Boxcar width: 0
XAxis mode: Wavelengths
Number of Pixels in Spectrum: 2048
>>>>>Begin Spectral Data<<<<<
223.165	-19.12
223.4	-19.12
223.635	-19.12
223.869	-13.12
224.104	-24.12
224.338	-7.12
224.573	-24.12
224.808	-19.12
225.042	-21.12
225.277	6.88
225.511	-9.12
225.746	8.88
225.98	19.88
226.215	16.88
226.449	7.88
226.683	21.88
226.918	25.88
227.152	28.88
227.387	38.88
227.621	53.88
227.856	40.88
228.09	39.88
228.324	48.88
228.559	58.88
228.793	59.88
229.027	44.88
229.262	62.88
229.496	70.88
229.73	86.88
229.964	96.88
230.199	86.88
230.433	82.88
230.667	79.88
230.901	78.88
231.136	71.88
231.37	71.88
231.604	76.88
231.838	88.88
232.072	80.88
232.306	67.88
232.541	80.88
232.775	71.88
233.009	94.88
233.243	63.88
233.477	71.88
233.711	85.88
233.945	84.88
234.179	66.88
234.413	65.88
234.647	72.88
234.881	78.88
235.115	91.88
235.349	77.88
235.583	77.88
235.817	71.88
236.051	77.88
236.285	74.88
236.519	60.88
236.753	83.88
236.987	73.88
237.221	103.88
237.455	99.88
237.689	97.88
237.922	91.88
238.156	81.88
238.39	69.88
238.624	66.88
238.858	62.88
239.091	70.88
239.325	85.88
239.559	80.88
239.793	77.88
240.027	72.88
240.26	83.88
240.494	81.88
240.728	77.88
240.961	79.88
241.195	78.88
241.429	76.88
241.662	70.88
241.896	88.88
242.13	79.88
242.363	75.88
242.597	70.88
242.83	92.88
243.064	80.88
243.298	77.88
243.531	70.88
243.765	80.88
243.998	88.88
244.232	90.88
244.465	83.88
244.699	73.88
244.932	90.88
245.166	75.88
245.399	68.88
245.633	65.88
245.866	90.88
246.099	97.88
246.333	79.88
246.566	80.88
246.8	76.88
247.033	75.88
247.266	82.88
247.5	86.88
247.733	67.88
247.966	83.88
248.2	76.88
248.433	85.88
248.666	66.88
248.899	81.88
249.133	105.88
249.366	110.88
249.599	107.88
249.832	90.88
250.066	81.88
250.299	91.88
250.532	80.88
250.765	71.88
250.998	77.88
251.231	79.88
251.465	86.88
251.698	55.88
251.931	84.88
252.164	81.88
252.397	87.88
252.63	85.88
252.863	94.88
253.096	84.88
253.329	67.88
253.562	93.88
253.795	72.88
254.028	73.88
254.261	90.88
254.494	85.88
254.727	82.88
254.96	77.88
255.193	80.88
255.426	80.88
255.659	89.88
255.892	98.88
256.124	115.88
256.357	87.88
256.59	95.88
256.823	96.88
257.056	82.88
257.289	82.88
257.521	89.88
257.754	87.88
257.987	93.88
258.22	92.88
258.452	98.88
258.685	100.88
258.918	90.88
259.151	79.88
259.383	96.88
259.616	85.88
259.849	103.88
260.081	91.88
260.314	85.88
260.547	92.88
260.779	110.88
261.012	125.88
261.244	110.88
261.477	94.88
261.71	104.88
261.942	133.88
262.175	147.88
262.407	97.88
262.64	88.88
262.872	80.88
263.105	96.88
263.337	78.88
263.57	80.88
263.802	89.88
264.035	82.88
264.267	73.88
264.499	84.88
264.732	68.88
264.964	82.88
265.197	84.88
265.429	90.88
265.661	85.88
265.894	79.88
266.126	93.88
266.358	81.88
266.591	67.88
266.823	77.88
267.055	84.88
267.287	87.88
267.52	79.88
267.752	94.88
267.984	95.88
268.216	101.88
268.448	97.88
268.681	94.88
268.913	73.88
269.145	80.88
269.377	84.88
269.609	80.88
269.841	106.88
270.073	79.88
270.306	86.88
270.538	78.88
270.77	74.88
271.002	93.88
271.234	97.88
271.466	81.88
271.698	94.88
271.93	87.88
272.162	86.88
272.394	85.88
272.626	82.88
272.858	93.88
273.09	77.88
273.322	73.88
273.553	92.88
273.785	88.88
274.017	82.88
274.249	77.88
274.481	78.88
274.713	87.88
274.945	87.88
275.176	85.88
275.408	87.88
275.64	114.88
275.872	142.88
276.104	109.88
276.335	98.88
276.567	111.88
276.799	140.88
277.031	190.88
277.262	234.88
277.494	190.88
277.726	112.88
277.957	90.88
278.189	82.88
278.421	96.88
278.652	84.88
278.884	89.88
279.115	95.88
279.347	84.88
279.579	124.88
279.81	156.88
280.042	249.88
280.273	322.88
280.505	242.88
280.736	112.88
280.968	93.88
281.199	95.88
281.431	86.88
281.662	84.88
281.894	89.88
282.125	103.88
282.356	141.88
282.588	160.88
282.819	142.88
283.051	94.88
283.282	85.88
283.513	93.88
283.745	86.88
283.976	93.88
284.207	97.88
284.439	74.88
284.67	84.88
284.901	79.88
285.132	85.88
285.364	84.88
285.595	90.88
285.826	82.88
286.057	90.88
286.288	89.88
286.52	72.88
286.751	81.88
286.982	86.88
287.213	89.88
287.444	98.88
287.675	97.88
287.906	81.88
288.138	92.88
288.369	88.88
288.6	87.88
288.831	80.88
289.062	95.88
289.293	76.88
289.524	93.88
289.755	77.88
289.986	98.88
290.217	93.88
290.448	81.88
290.679	78.88
290.91	74.88
291.141	87.88
291.371	84.88
291.602	98.88
291.833	86.88
292.064	83.88
292.295	90.88
292.526	87.88
292.757	74.88
292.987	93.88
293.218	74.88
293.449	96.88
293.68	95.88
293.91	78.88
294.141	80.88
294.372	86.88
294.603	82.88
294.833	79.88
295.064	85.88
295.295	91.88
295.525	108.88
295.756	92.88
295.987	122.88
296.217	167.88
296.448	135.88
296.679	101.88
296.909	82.88
297.14	93.88
297.37	93.88
297.601	94.88
297.831	87.88
298.062	87.88
298.292	95.88
298.523	73.88
298.753	85.88
298.984	92.88
299.214	95.88
299.445	86.88
299.675	98.88
299.905	101.88
300.136	86.88
300.366	95.88
300.597	75.88
300.827	82.88
301.057	119.88
301.288	116.88
301.518	85.88
301.748	99.88
301.979	98.88
302.209	107.88
302.439	102.88
302.669	93.88
302.9	79.88
303.13	95.88
303.36	122.88
303.59	145.88
303.82	160.88
304.051	103.88
304.281	93.88
304.511	94.88
304.741	90.88
304.971	89.88
305.201	85.88
305.431	91.88
305.661	95.88
305.891	98.88
306.121	88.88
306.352	115.88
306.582	115.88
306.812	104.88
307.042	142.88
307.272	179.88
307.502	226.88
307.731	191.88
307.961	146.88
308.191	100.88
308.421	84.88
308.651	89.88
308.881	92.88
309.111	86.88
309.341	104.88
309.571	105.88
309.8	110.88
310.03	91.88
310.26	105.88
310.49	92.88
310.72	102.88
310.949	122.88
311.179	102.88
311.409	104.88
311.639	87.88
311.868	96.88
312.098	104.88
312.328	90.88
312.557	103.88
312.787	120.88
313.017	132.88
313.246	92.88
313.476	108.88
313.706	92.88
313.935	108.88
314.165	101.88
314.394	103.88
314.624	77.88
314.853	108.88
315.083	95.88
315.312	90.88
315.542	82.88
315.771	99.88
316.001	88.88
316.23	78.88
316.46	92.88
316.689	92.88
316.919	104.88
317.148	112.88
317.377	88.88
317.607	119.88
317.836	84.88
318.065	85.88
318.295	93.88
318.524	81.88
318.753	82.88
318.983	113.88
319.212	103.88
319.441	132.88
319.67	107.88
319.9	87.88
320.129	92.88
320.358	84.88
320.587	95.88
320.816	98.88
321.046	111.88
321.275	101.88
321.504	94.88
321.733	100.88
321.962	106.88
322.191	89.88
322.42	110.88
322.649	125.88
322.878	118.88
323.108	129.88
323.337	154.88
323.566	162.88
323.795	181.88
324.024	252.88
324.253	479.88
324.482	1107.88
324.71	2227.88
324.939	2959.88
325.168	1092.88
325.397	290.88
325.626	174.88
325.855	151.88
326.084	146.88
326.313	161.88
326.542	172.88
326.77	282.88
326.999	572.88
327.228	1166.88
327.457	2147.88
327.686	1743.88
327.914	666.88
328.143	676.88
328.372	912.88
328.6	490.88
328.829	231.88
329.058	198.88
329.287	203.88
329.515	202.88
329.744	327.88
329.972	658.88
330.201	1370.88
330.43	2078.88
330.658	876.88
330.887	343.88
331.115	220.88
331.344	112.88
331.572	128.88
331.801	130.88
332.03	144.88
332.258	104.88
332.486	100.88
332.715	108.88
332.943	114.88
333.172	134.88
333.4	141.88
333.629	171.88
333.857	275.88
334.085	598.88
334.314	1264.88
334.542	2556.88
334.771	2440.88
334.999	593.88
335.227	213.88
335.455	137.88
335.684	119.88
335.912	110.88
336.14	109.88
336.369	111.88
336.597	130.88
336.825	90.88
337.053	101.88
337.281	97.88
337.51	85.88
337.738	91.88
337.966	106.88
338.194	94.88
338.422	99.88
338.65	87.88
338.878	93.88
339.106	82.88
339.334	84.88
339.562	83.88
339.79	92.88
340.018	93.88
340.246	96.88
340.474	91.88
340.702	112.88
340.93	94.88
341.158	89.88
341.386	105.88
341.614	100.88
341.842	113.88
342.07	98.88
342.298	97.88
342.526	100.88
342.754	94.88
342.981	87.88
343.209	76.88
343.437	97.88
343.665	95.88
343.893	87.88
344.12	91.88
344.348	88.88
344.576	85.88
344.804	94.88
345.031	103.88
345.259	100.88
345.487	103.88
345.714	104.88
345.942	91.88
346.17	86.88
346.397	89.88
346.625	93.88
346.853	89.88
347.08	85.88
347.308	88.88
347.535	110.88
347.763	117.88
347.99	96.88
348.218	107.88
348.445	108.88
348.673	111.88
348.9	107.88
349.128	102.88
349.355	101.88
349.583	97.88
349.81	98.88
350.037	90.88
350.265	92.88
350.492	93.88
350.72	95.88
350.947	101.88
351.174	117.88
351.402	120.88
351.629	96.88
351.856	106.88
352.083	107.88
352.311	102.88
352.538	121.88
352.765	124.88
352.992	120.88
353.22	124.88
353.447	106.88
353.674	101.88
353.901	89.88
354.128	91.88
354.355	88.88
354.583	99.88
354.81	88.88
355.037	91.88
355.264	83.88
355.491	82.88
355.718	79.88
355.945	85.88
356.172	85.88
356.399	94.88
356.626	99.88
356.853	88.88
357.08	106.88
357.307	98.88
357.534	102.88
357.761	72.88
357.988	93.88
358.215	90.88
358.441	92.88
358.668	98.88
358.895	83.88
359.122	97.88
359.349	97.88
359.576	95.88
359.802	118.88
360.029	135.88
360.256	147.88
360.483	110.88
360.709	67.88
360.936	101.88
361.163	101.88
361.39	108.88
361.616	100.88
361.843	87.88
362.07	91.88
362.296	77.88
362.523	98.88
362.749	97.88
362.976	77.88
363.203	94.88
363.429	91.88
363.656	84.88
363.882	96.88
364.109	89.88
364.335	81.88
364.562	87.88
364.788	93.88
365.015	93.88
365.241	110.88
365.468	99.88
365.694	108.88
365.92	97.88
366.147	96.88
366.373	88.88
366.599	77.88
366.826	94.88
367.052	92.88
367.278	76.88
367.505	90.88
367.731	104.88
367.957	101.88
368.184	90.88
368.41	92.88
368.636	115.88
368.862	123.88
369.089	100.88
369.315	101.88
369.541	93.88
369.767	100.88
369.993	97.88
370.219	95.88
370.445	80.88
370.672	86.88
370.898	95.88
371.124	89.88
371.35	89.88
371.576	97.88
371.802	92.88
372.028	101.88
372.254	101.88
372.48	78.88
372.706	83.88
372.932	98.88
373.158	74.88
373.384	75.88
373.61	93.88
373.835	91.88
374.061	90.88
374.287	94.88
374.513	82.88
374.739	69.88
374.965	92.88
375.191	89.88
375.416	97.88
375.642	86.88
375.868	92.88
376.094	95.88
376.319	94.88
376.545	85.88
376.771	94.88
376.997	74.88
377.222	98.88
377.448	74.88
377.674	86.88
377.899	71.88
378.125	91.88
378.35	91.88
378.576	90.88
378.802	88.88
379.027	86.88
379.253	92.88
379.478	93.88
379.704	87.88
379.929	90.88
380.155	81.88
380.38	94.88
380.606	102.88
380.831	87.88
381.057	99.88
381.282	84.88
381.507	79.88
381.733	93.88
381.958	93.88
382.184	100.88
382.409	99.88
382.634	92.88
382.86	96.88
383.085	102.88
383.31	107.88
383.535	91.88
383.761	92.88
383.986	87.88
384.211	87.88
384.436	99.88
384.662	112.88
384.887	82.88
385.112	86.88
385.337	94.88
385.562	94.88
385.787	88.88
386.013	103.88
386.238	124.88
386.463	101.88
386.688	95.88
386.913	83.88
387.138	95.88
387.363	97.88
387.588	99.88
387.813	80.88
388.038	90.88
388.263	91.88
388.488	92.88
388.713	88.88
388.938	92.88
389.163	98.88
389.387	92.88
389.612	99.88
389.837	92.88
390.062	82.88
390.287	90.88
390.512	101.88
390.736	86.88
390.961	80.88
391.186	89.88
391.411	74.88
391.636	83.88
391.86	89.88
392.085	103.88
392.31	92.88
392.534	79.88
392.759	82.88
392.984	72.88
393.208	79.88
393.433	76.88
393.658	92.88
393.882	91.88
394.107	72.88
394.331	88.88
394.556	83.88
394.78	83.88
395.005	75.88
395.229	81.88
395.454	78.88
395.678	72.88
395.903	83.88
396.127	69.88
396.352	79.88
396.576	88.88
396.801	90.88
397.025	95.88
397.249	81.88
397.474	76.88
397.698	80.88
397.922	97.88
398.147	93.88
398.371	86.88
398.595	78.88
398.82	77.88
399.044	90.88
399.268	98.88
399.492	95.88
399.717	86.88
399.941	80.88
400.165	100.88
400.389	102.88
400.613	88.88
400.837	75.88
401.062	90.88
401.286	90.88
401.51	84.88
401.734	80.88
401.958	100.88
402.182	142.88
402.406	167.88
402.63	146.88
402.854	96.88
403.078	99.88
403.302	80.88
403.526	82.88
403.75	95.88
403.974	77.88
404.198	90.88
404.422	83.88
404.645	103.88
404.869	97.88
405.093	112.88
405.317	165.88
405.541	155.88
405.765	127.88
405.988	132.88
406.212	201.88
406.436	298.88
406.66	198.88
406.883	118.88
407.107	100.88
407.331	102.88
407.555	107.88
407.778	101.88
408.002	93.88
408.226	88.88
408.449	87.88
408.673	82.88
408.896	108.88
409.12	111.88
409.344	94.88
409.567	88.88
409.791	101.88
410.014	100.88
410.238	95.88
410.461	101.88
410.685	93.88
410.908	102.88
411.132	106.88
411.355	98.88
411.578	85.88
411.802	94.88
412.025	103.88
412.249	104.88
412.472	124.88
412.695	164.88
412.919	123.88
413.142	99.88
413.365	98.88
413.589	89.88
413.812	103.88
414.035	98.88
414.258	93.88
414.482	93.88
414.705	69.88
414.928	85.88
415.151	72.88
415.374	98.88
415.597	84.88
415.821	98.88
416.044	87.88
416.267	93.88
416.49	80.88
416.713	95.88
416.936	76.88
417.159	93.88
417.382	100.88
417.605	104.88
417.828	120.88
418.051	99.88
418.274	76.88
418.497	106.88
418.72	98.88
418.943	85.88
419.166	94.88
419.389	91.88
419.611	99.88
419.834	100.88
420.057	90.88
420.28	94.88
420.503	92.88
420.726	83.88
420.948	86.88
421.171	107.88
421.394	101.88
421.617	83.88
421.839	80.88
422.062	90.88
422.285	111.88
422.507	93.88
422.73	108.88
422.953	111.88
423.175	83.88
423.398	97.88
423.621	93.88
423.843	76.88
424.066	73.88
424.288	96.88
424.511	85.88
424.733	102.88
424.956	122.88
425.178	119.88
425.401	116.88
425.623	120.88
425.846	103.88
426.068	113.88
426.291	93.88
426.513	95.88
426.735	88.88
426.958	98.88
427.18	111.88
427.402	192.88
427.625	259.88
427.847	258.88
428.069	256.88
428.292	139.88
428.514	93.88
428.736	82.88
428.958	92.88
429.181	88.88
429.403	81.88
429.625	75.88
429.847	101.88
430.069	113.88
430.292	103.88
430.514	77.88
430.736	81.88
430.958	91.88
431.18	90.88
431.402	89.88
431.624	89.88
431.846	73.88
432.068	89.88
432.29	82.88
432.512	86.88
432.734	95.88
432.956	94.88
433.178	86.88
433.4	91.88
433.622	80.88
433.844	90.88
434.066	87.88
434.287	86.88
434.509	83.88
434.731	91.88
434.953	88.88
435.175	82.88
435.397	79.88
435.618	86.88
435.84	101.88
436.062	152.88
436.284	129.88
436.505	103.88
436.727	106.88
436.949	81.88
437.17	96.88
437.392	80.88
437.614	98.88
437.835	102.88
438.057	140.88
438.278	130.88
438.5	122.88
438.721	149.88
438.943	112.88
439.165	99.88
439.386	86.88
439.608	113.88
439.829	106.88
440.05	157.88
440.272	193.88
440.493	102.88
440.715	87.88
440.936	83.88
441.158	105.88
441.379	83.88
441.6	88.88
441.822	101.88
442.043	94.88
442.264	126.88
442.486	127.88
442.707	104.88
442.928	112.88
443.149	164.88
443.371	177.88
443.592	119.88
443.813	129.88
444.034	115.88
444.255	87.88
444.476	88.88
444.698	94.88
444.919	84.88
445.14	130.88
445.361	135.88
445.582	148.88
445.803	196.88
446.024	190.88
446.245	159.88
446.466	126.88
446.687	94.88
446.908	80.88
447.129	91.88
447.35	105.88
447.571	98.88
447.792	104.88
448.013	100.88
448.234	122.88
448.455	109.88
448.675	146.88
448.896	148.88
449.117	108.88
449.338	122.88
449.559	149.88
449.779	174.88
450	99.88
450.221	87.88
450.442	81.88
450.662	95.88
450.883	110.88
451.104	145.88
451.324	101.88
451.545	86.88
451.766	96.88
451.986	78.88
452.207	96.88
452.428	94.88
452.648	105.88
452.869	113.88
453.089	131.88
453.31	134.88
453.53	107.88
453.751	101.88
453.971	113.88
454.192	141.88
454.412	93.88
454.633	104.88
454.853	88.88
455.073	83.88
455.294	94.88
455.514	112.88
455.734	89.88
455.955	84.88
456.175	87.88
456.395	78.88
456.616	95.88
456.836	83.88
457.056	80.88
457.276	84.88
457.497	86.88
457.717	94.88
457.937	86.88
458.157	86.88
458.377	90.88
458.598	128.88
458.818	223.88
459.038	238.88
459.258	148.88
459.478	95.88
459.698	94.88
459.918	71.88
460.138	84.88
460.358	86.88
460.578	102.88
460.798	86.88
461.018	97.88
461.238	83.88
461.458	86.88
461.678	84.88
461.898	87.88
462.118	87.88
462.338	91.88
462.558	91.88
462.777	104.88
462.997	108.88
463.217	129.88
463.437	95.88
463.657	80.88
463.876	89.88
464.096	94.88
464.316	84.88
464.536	117.88
464.755	118.88
464.975	139.88
465.195	248.88
465.414	235.88
465.634	99.88
465.854	80.88
466.073	94.88
466.293	102.88
466.512	75.88
466.732	73.88
466.951	108.88
467.171	115.88
467.391	103.88
467.61	171.88
467.829	266.88
468.049	759.88
468.268	1282.88
468.488	303.88
468.707	114.88
468.927	110.88
469.146	110.88
469.365	81.88
469.585	90.88
469.804	105.88
470.023	111.88
470.243	119.88
470.462	128.88
470.681	134.88
470.901	111.88
471.12	105.88
471.339	110.88
471.558	123.88
471.777	192.88
471.997	378.88
472.216	1522.88
472.435	3573.88
472.654	871.88
472.873	184.88
473.092	118.88
473.311	99.88
473.53	99.88
473.749	115.88
473.968	118.88
474.187	135.88
474.406	128.88
474.625	95.88
474.844	87.88
475.063	72.88
475.282	101.88
475.501	91.88
475.72	91.88
475.939	87.88
476.158	70.88
476.377	81.88
476.596	100.88
476.814	77.88
477.033	99.88
477.252	94.88
477.471	84.88
477.69	99.88
477.908	103.88
478.127	80.88
478.346	96.88
478.564	100.88
478.783	106.88
479.002	111.88
479.22	112.88
479.439	115.88
479.658	143.88
479.876	135.88
480.095	124.88
480.313	160.88
480.532	197.88
480.751	347.88
480.969	1322.88
481.188	5996.88
481.406	3691.88
481.624	498.88
481.843	172.88
482.061	118.88
482.28	96.88
482.498	108.88
482.717	107.88
482.935	115.88
483.153	101.88
483.372	99.88
483.59	91.88
483.808	100.88
484.027	92.88
484.245	94.88
484.463	110.88
484.681	107.88
484.9	95.88
485.118	100.88
485.336	97.88
485.554	109.88
485.772	94.88
485.99	107.88
486.209	100.88
486.427	108.88
486.645	129.88
486.863	133.88
487.081	98.88
487.299	99.88
487.517	95.88
487.735	102.88
487.953	79.88
488.171	101.88
488.389	110.88
488.607	111.88
488.825	97.88
489.043	95.88
489.261	99.88
489.479	90.88
489.696	88.88
489.914	86.88
490.132	84.88
490.35	91.88
490.568	88.88
490.786	83.88
491.003	95.88
491.221	113.88
491.439	101.88
491.657	95.88
491.874	117.88
492.092	89.88
492.31	93.88
492.527	103.88
492.745	96.88
492.963	108.88
493.18	104.88
493.398	96.88
493.615	102.88
493.833	86.88
494.05	94.88
494.268	86.88
494.485	70.88
494.703	93.88
494.92	79.88
495.138	82.88
495.355	79.88
495.573	77.88
495.79	98.88
496.008	90.88
496.225	95.88
496.442	80.88
496.66	78.88
496.877	81.88
497.094	106.88
497.312	84.88
497.529	88.88
497.746	98.88
497.963	91.88
498.181	94.88
498.398	109.88
498.615	132.88
498.832	113.88
499.049	82.88
499.267	77.88
499.484	85.88
499.701	94.88
499.918	92.88
500.135	96.88
500.352	80.88
500.569	105.88
500.786	99.88
501.003	94.88
501.22	95.88
501.437	95.88
501.654	94.88
501.871	115.88
502.088	103.88
502.305	91.88
502.522	98.88
502.739	85.88
502.956	78.88
503.172	84.88
503.389	95.88
503.606	117.88
503.823	106.88
504.04	105.88
504.256	88.88
504.473	86.88
504.69	92.88
504.907	93.88
505.123	100.88
505.34	96.88
505.557	90.88
505.773	113.88
505.99	94.88
506.207	85.88
506.423	83.88
506.64	81.88
506.856	86.88
507.073	108.88
507.289	82.88
507.506	102.88
507.722	128.88
507.939	136.88
508.155	103.88
508.372	82.88
508.588	99.88
508.805	101.88
509.021	95.88
509.238	103.88
509.454	97.88
509.67	91.88
509.887	110.88
510.103	136.88
510.319	214.88
510.536	858.88
510.752	3047.88
510.968	868.88
511.184	174.88
511.401	127.88
511.617	125.88
511.833	123.88
512.049	119.88
512.265	100.88
512.481	102.88
512.698	111.88
512.914	91.88
513.13	106.88
513.346	95.88
