Data from Circ_2023_H10_HRD10591_00097.txt Node
Date: Wed Jan 03 09:50:50 EST 2024
User: Yrep
Spectrometer: HR+D1059
Trigger mode: 1
Integration Time (sec): 1.000000E-1
Scans to average: 1
Electric dark correction enabled: true
Nonlinearity correction enabled: false
Boxcar width: 0
XAxis mode: Wavelengths
Number of Pixels in Spectrum: 2048
>>>>>Begin Spectral Data<<<<<
223.165	-4.5
223.4	-4.5
223.635	-4.5
223.869	-28.5
224.104	-23.5
224.338	-6.5
224.573	-15.5
224.808	-17.5
225.042	-8.5
225.277	0.5
225.511	-3.5
225.746	4.5
225.98	9.5
226.215	8.5
226.449	21.5
226.683	20.5
226.918	15.5
227.152	27.5
227.387	30.5
227.621	46.5
227.856	30.5
228.09	45.5
228.324	56.5
228.559	47.5
228.793	59.5
229.027	65.5
229.262	62.5
229.496	78.5
229.73	87.5
229.964	94.5
230.199	70.5
230.433	77.5
230.667	89.5
230.901	76.5
231.136	73.5
231.37	74.5
231.604	75.5
231.838	85.5
232.072	85.5
232.306	66.5
232.541	82.5
232.775	94.5
233.009	89.5
233.243	78.5
233.477	88.5
233.711	85.5
233.945	86.5
234.179	83.5
234.413	79.5
234.647	75.5
234.881	75.5
235.115	83.5
235.349	90.5
235.583	87.5
235.817	79.5
236.051	86.5
236.285	89.5
236.519	87.5
236.753	78.5
236.987	83.5
237.221	105.5
237.455	101.5
237.689	90.5
237.922	75.5
238.156	74.5
238.39	76.5
238.624	81.5
238.858	65.5
239.091	78.5
239.325	86.5
239.559	88.5
239.793	82.5
240.027	70.5
240.26	76.5
240.494	77.5
240.728	83.5
240.961	73.5
241.195	76.5
241.429	69.5
241.662	74.5
241.896	77.5
242.13	76.5
242.363	80.5
242.597	91.5
242.83	89.5
243.064	83.5
243.298	68.5
243.531	81.5
243.765	89.5
243.998	85.5
244.232	87.5
244.465	100.5
244.699	96.5
244.932	62.5
245.166	87.5
245.399	72.5
245.633	86.5
245.866	71.5
246.099	70.5
246.333	89.5
246.566	94.5
246.8	83.5
247.033	87.5
247.266	89.5
247.5	73.5
247.733	68.5
247.966	75.5
248.2	87.5
248.433	76.5
248.666	81.5
248.899	91.5
249.133	86.5
249.366	101.5
249.599	119.5
249.832	86.5
250.066	86.5
250.299	102.5
250.532	89.5
250.765	86.5
250.998	95.5
251.231	87.5
251.465	83.5
251.698	98.5
251.931	87.5
252.164	90.5
252.397	75.5
252.63	93.5
252.863	79.5
253.096	78.5
253.329	92.5
253.562	78.5
253.795	77.5
254.028	84.5
254.261	79.5
254.494	86.5
254.727	84.5
254.96	80.5
255.193	79.5
255.426	83.5
255.659	77.5
255.892	90.5
256.124	104.5
256.357	97.5
256.59	90.5
256.823	79.5
257.056	93.5
257.289	99.5
257.521	90.5
257.754	70.5
257.987	104.5
258.22	104.5
258.452	89.5
258.685	103.5
258.918	98.5
259.151	75.5
259.383	90.5
259.616	86.5
259.849	99.5
260.081	85.5
260.314	70.5
260.547	94.5
260.779	104.5
261.012	122.5
261.244	108.5
261.477	113.5
261.71	104.5
261.942	127.5
262.175	147.5
262.407	87.5
262.64	93.5
262.872	82.5
263.105	96.5
263.337	93.5
263.57	85.5
263.802	84.5
264.035	73.5
264.267	86.5
264.499	88.5
264.732	91.5
264.964	84.5
265.197	92.5
265.429	85.5
265.661	75.5
265.894	83.5
266.126	79.5
266.358	84.5
266.591	87.5
266.823	74.5
267.055	80.5
267.287	82.5
267.52	82.5
267.752	79.5
267.984	79.5
268.216	87.5
268.448	100.5
268.681	91.5
268.913	100.5
269.145	73.5
269.377	81.5
269.609	81.5
269.841	71.5
270.073	83.5
270.306	86.5
270.538	82.5
270.77	89.5
271.002	83.5
271.234	93.5
271.466	98.5
271.698	92.5
271.93	76.5
272.162	76.5
272.394	108.5
272.626	97.5
272.858	100.5
273.09	91.5
273.322	77.5
273.553	75.5
273.785	76.5
274.017	81.5
274.249	72.5
274.481	82.5
274.713	87.5
274.945	95.5
275.176	98.5
275.408	108.5
275.64	121.5
275.872	136.5
276.104	106.5
276.335	105.5
276.567	107.5
276.799	156.5
277.031	211.5
277.262	228.5
277.494	157.5
277.726	114.5
277.957	107.5
278.189	87.5
278.421	87.5
278.652	85.5
278.884	87.5
279.115	102.5
279.347	92.5
279.579	111.5
279.81	140.5
280.042	235.5
280.273	335.5
280.505	210.5
280.736	105.5
280.968	110.5
281.199	101.5
281.431	81.5
281.662	85.5
281.894	103.5
282.125	106.5
282.356	134.5
282.588	170.5
282.819	133.5
283.051	107.5
283.282	94.5
283.513	89.5
283.745	88.5
283.976	75.5
284.207	88.5
284.439	100.5
284.67	93.5
284.901	80.5
285.132	74.5
285.364	69.5
285.595	87.5
285.826	97.5
286.057	91.5
286.288	75.5
286.52	76.5
286.751	95.5
286.982	98.5
287.213	75.5
287.444	90.5
287.675	90.5
287.906	103.5
288.138	89.5
288.369	97.5
288.6	102.5
288.831	82.5
289.062	97.5
289.293	85.5
289.524	92.5
289.755	81.5
289.986	83.5
290.217	103.5
290.448	72.5
290.679	71.5
290.91	92.5
291.141	107.5
291.371	98.5
291.602	88.5
291.833	89.5
292.064	108.5
292.295	99.5
292.526	87.5
292.757	86.5
292.987	97.5
293.218	99.5
293.449	84.5
293.68	85.5
293.91	85.5
294.141	89.5
294.372	86.5
294.603	91.5
294.833	97.5
295.064	87.5
295.295	93.5
295.525	96.5
295.756	116.5
295.987	120.5
296.217	166.5
296.448	145.5
296.679	113.5
296.909	90.5
297.14	85.5
297.37	96.5
297.601	96.5
297.831	90.5
298.062	96.5
298.292	91.5
298.523	90.5
298.753	96.5
298.984	89.5
299.214	84.5
299.445	93.5
299.675	113.5
299.905	96.5
300.136	101.5
300.366	81.5
300.597	89.5
300.827	103.5
301.057	108.5
301.288	106.5
301.518	106.5
301.748	107.5
301.979	112.5
302.209	103.5
302.439	99.5
302.669	110.5
302.9	96.5
303.13	102.5
303.36	99.5
303.59	140.5
303.82	150.5
304.051	115.5
304.281	99.5
304.511	97.5
304.741	91.5
304.971	106.5
305.201	89.5
305.431	95.5
305.661	84.5
305.891	87.5
306.121	99.5
306.352	110.5
306.582	126.5
306.812	106.5
307.042	119.5
307.272	171.5
307.502	194.5
307.731	185.5
307.961	146.5
308.191	97.5
308.421	100.5
308.651	93.5
308.881	101.5
309.111	99.5
309.341	92.5
309.571	101.5
309.8	102.5
310.03	91.5
310.26	110.5
310.49	100.5
310.72	115.5
310.949	113.5
311.179	112.5
311.409	97.5
311.639	97.5
311.868	102.5
312.098	84.5
312.328	111.5
312.557	105.5
312.787	122.5
313.017	113.5
313.246	98.5
313.476	96.5
313.706	95.5
313.935	97.5
314.165	105.5
314.394	119.5
314.624	126.5
314.853	120.5
315.083	111.5
315.312	94.5
315.542	101.5
315.771	87.5
316.001	81.5
316.23	84.5
316.46	92.5
316.689	111.5
316.919	86.5
317.148	103.5
317.377	100.5
317.607	107.5
317.836	92.5
318.065	95.5
318.295	96.5
318.524	95.5
318.753	104.5
318.983	85.5
319.212	97.5
319.441	127.5
319.67	119.5
319.9	99.5
320.129	86.5
320.358	82.5
320.587	94.5
320.816	106.5
321.046	112.5
321.275	98.5
321.504	104.5
321.733	104.5
321.962	117.5
322.191	114.5
322.42	119.5
322.649	121.5
322.878	136.5
323.108	139.5
323.337	166.5
323.566	166.5
323.795	182.5
324.024	243.5
324.253	489.5
324.482	1054.5
324.71	2182.5
324.939	2866.5
325.168	1030.5
325.397	300.5
325.626	178.5
325.855	127.5
326.084	155.5
326.313	158.5
326.542	184.5
326.77	276.5
326.999	567.5
327.228	1134.5
327.457	2090.5
327.686	1714.5
327.914	618.5
328.143	624.5
328.372	855.5
328.6	469.5
328.829	201.5
329.058	212.5
329.287	206.5
329.515	203.5
329.744	310.5
329.972	582.5
330.201	1243.5
330.43	1862.5
330.658	804.5
330.887	324.5
331.115	207.5
331.344	146.5
331.572	145.5
331.801	129.5
332.03	149.5
332.258	124.5
332.486	98.5
332.715	135.5
332.943	124.5
333.172	134.5
333.4	132.5
333.629	182.5
333.857	283.5
334.085	545.5
334.314	1132.5
334.542	2239.5
334.771	2182.5
334.999	551.5
335.227	204.5
335.455	150.5
335.684	124.5
335.912	126.5
336.14	114.5
336.369	110.5
336.597	116.5
336.825	120.5
337.053	107.5
337.281	110.5
337.51	94.5
337.738	91.5
337.966	87.5
338.194	112.5
338.422	110.5
338.65	95.5
338.878	93.5
339.106	94.5
339.334	102.5
339.562	90.5
339.79	114.5
340.018	106.5
340.246	100.5
340.474	107.5
340.702	91.5
340.93	88.5
341.158	106.5
341.386	104.5
341.614	114.5
341.842	113.5
342.07	94.5
342.298	104.5
342.526	104.5
342.754	101.5
342.981	98.5
343.209	102.5
343.437	90.5
343.665	76.5
343.893	96.5
344.12	92.5
344.348	96.5
344.576	83.5
344.804	95.5
345.031	102.5
345.259	113.5
345.487	103.5
345.714	98.5
345.942	107.5
346.17	98.5
346.397	98.5
346.625	117.5
346.853	87.5
347.08	102.5
347.308	104.5
347.535	111.5
347.763	100.5
347.99	111.5
348.218	122.5
348.445	102.5
348.673	122.5
348.9	95.5
349.128	112.5
349.355	105.5
349.583	91.5
349.81	87.5
350.037	88.5
350.265	93.5
350.492	86.5
350.72	94.5
350.947	103.5
351.174	113.5
351.402	144.5
351.629	124.5
351.856	122.5
352.083	108.5
352.311	118.5
352.538	126.5
352.765	106.5
352.992	128.5
353.22	138.5
353.447	132.5
353.674	104.5
353.901	107.5
354.128	98.5
354.355	95.5
354.583	98.5
354.81	105.5
355.037	103.5
355.264	103.5
355.491	86.5
355.718	80.5
355.945	98.5
356.172	98.5
356.399	100.5
356.626	102.5
356.853	89.5
357.08	95.5
357.307	97.5
357.534	99.5
357.761	98.5
357.988	100.5
358.215	88.5
358.441	86.5
358.668	94.5
358.895	89.5
359.122	83.5
359.349	99.5
359.576	89.5
359.802	101.5
360.029	141.5
360.256	135.5
360.483	122.5
360.709	96.5
360.936	112.5
361.163	101.5
361.39	105.5
361.616	105.5
361.843	106.5
362.07	108.5
362.296	105.5
362.523	110.5
362.749	112.5
362.976	99.5
363.203	104.5
363.429	90.5
363.656	96.5
363.882	89.5
364.109	103.5
364.335	94.5
364.562	90.5
364.788	107.5
365.015	106.5
365.241	110.5
365.468	121.5
365.694	120.5
365.92	117.5
366.147	97.5
366.373	99.5
366.599	98.5
366.826	101.5
367.052	99.5
367.278	80.5
367.505	94.5
367.731	105.5
367.957	101.5
368.184	99.5
368.41	120.5
368.636	126.5
368.862	130.5
369.089	129.5
369.315	106.5
369.541	94.5
369.767	95.5
369.993	94.5
370.219	101.5
370.445	92.5
370.672	94.5
370.898	90.5
371.124	76.5
371.35	99.5
371.576	90.5
371.802	82.5
372.028	86.5
372.254	75.5
372.48	94.5
372.706	89.5
372.932	85.5
373.158	91.5
373.384	91.5
373.61	83.5
373.835	84.5
374.061	90.5
374.287	100.5
374.513	96.5
374.739	95.5
374.965	73.5
375.191	96.5
375.416	92.5
375.642	90.5
375.868	99.5
376.094	99.5
376.319	81.5
376.545	93.5
376.771	93.5
376.997	85.5
377.222	102.5
377.448	95.5
377.674	89.5
377.899	99.5
378.125	103.5
378.35	93.5
378.576	89.5
378.802	92.5
379.027	96.5
379.253	91.5
379.478	102.5
379.704	97.5
379.929	91.5
380.155	105.5
380.38	97.5
380.606	114.5
380.831	99.5
381.057	101.5
381.282	94.5
381.507	99.5
381.733	92.5
381.958	111.5
382.184	89.5
382.409	93.5
382.634	101.5
382.86	112.5
383.085	105.5
383.31	90.5
383.535	97.5
383.761	100.5
383.986	86.5
384.211	88.5
384.436	96.5
384.662	104.5
384.887	115.5
385.112	108.5
385.337	99.5
385.562	103.5
385.787	97.5
386.013	114.5
386.238	125.5
386.463	125.5
386.688	103.5
386.913	105.5
387.138	105.5
387.363	108.5
387.588	98.5
387.813	101.5
388.038	103.5
388.263	106.5
388.488	108.5
388.713	92.5
388.938	96.5
389.163	103.5
389.387	93.5
389.612	113.5
389.837	97.5
390.062	96.5
390.287	86.5
390.512	87.5
390.736	104.5
390.961	96.5
391.186	103.5
391.411	101.5
391.636	85.5
391.86	93.5
392.085	88.5
392.31	79.5
392.534	83.5
392.759	88.5
392.984	90.5
393.208	77.5
393.433	94.5
393.658	100.5
393.882	89.5
394.107	86.5
394.331	76.5
394.556	79.5
394.78	97.5
395.005	89.5
395.229	90.5
395.454	93.5
395.678	96.5
395.903	88.5
396.127	102.5
396.352	113.5
396.576	94.5
396.801	84.5
397.025	104.5
397.249	82.5
397.474	75.5
397.698	86.5
397.922	91.5
398.147	106.5
398.371	94.5
398.595	95.5
398.82	99.5
399.044	85.5
399.268	81.5
399.492	86.5
399.717	94.5
399.941	91.5
400.165	94.5
400.389	101.5
400.613	102.5
400.837	97.5
401.062	86.5
401.286	86.5
401.51	99.5
401.734	113.5
401.958	106.5
402.182	158.5
402.406	187.5
402.63	164.5
402.854	92.5
403.078	102.5
403.302	103.5
403.526	112.5
403.75	93.5
403.974	94.5
404.198	85.5
404.422	94.5
404.645	96.5
404.869	123.5
405.093	126.5
405.317	158.5
405.541	150.5
405.765	120.5
405.988	155.5
406.212	205.5
406.436	302.5
406.66	203.5
406.883	118.5
407.107	103.5
407.331	101.5
407.555	141.5
407.778	130.5
408.002	105.5
408.226	112.5
408.449	93.5
408.673	88.5
408.896	99.5
409.12	119.5
409.344	110.5
409.567	89.5
409.791	89.5
410.014	115.5
410.238	105.5
410.461	104.5
410.685	105.5
410.908	103.5
411.132	116.5
411.355	116.5
411.578	89.5
411.802	83.5
412.025	98.5
412.249	114.5
412.472	130.5
412.695	154.5
412.919	123.5
413.142	101.5
413.365	113.5
413.589	101.5
413.812	105.5
414.035	103.5
414.258	97.5
414.482	90.5
414.705	91.5
414.928	104.5
415.151	99.5
415.374	94.5
415.597	95.5
415.821	74.5
416.044	104.5
416.267	88.5
416.49	103.5
416.713	94.5
416.936	93.5
417.159	97.5
417.382	99.5
417.605	109.5
417.828	122.5
418.051	110.5
418.274	95.5
418.497	108.5
418.72	84.5
418.943	88.5
419.166	96.5
419.389	100.5
419.611	110.5
419.834	99.5
420.057	91.5
420.28	100.5
420.503	92.5
420.726	92.5
420.948	107.5
421.171	117.5
421.394	104.5
421.617	103.5
421.839	96.5
422.062	94.5
422.285	99.5
422.507	118.5
422.73	120.5
422.953	104.5
423.175	100.5
423.398	96.5
423.621	78.5
423.843	95.5
424.066	95.5
424.288	101.5
424.511	102.5
424.733	119.5
424.956	116.5
425.178	119.5
425.401	127.5
425.623	119.5
425.846	118.5
426.068	90.5
426.291	102.5
426.513	90.5
426.735	111.5
426.958	96.5
427.18	120.5
427.402	194.5
427.625	266.5
427.847	264.5
428.069	245.5
428.292	143.5
428.514	110.5
428.736	86.5
428.958	89.5
429.181	87.5
429.403	98.5
429.625	94.5
429.847	107.5
430.069	134.5
430.292	118.5
430.514	82.5
430.736	97.5
430.958	90.5
431.18	96.5
431.402	96.5
431.624	90.5
431.846	82.5
432.068	96.5
432.29	86.5
432.512	94.5
432.734	94.5
432.956	87.5
433.178	105.5
433.4	113.5
433.622	107.5
433.844	108.5
434.066	99.5
434.287	103.5
434.509	106.5
434.731	99.5
434.953	90.5
435.175	99.5
435.397	105.5
435.618	100.5
435.84	119.5
436.062	146.5
436.284	155.5
436.505	112.5
436.727	111.5
436.949	102.5
437.17	97.5
437.392	96.5
437.614	95.5
437.835	121.5
438.057	158.5
438.278	146.5
438.5	118.5
438.721	139.5
438.943	129.5
439.165	87.5
439.386	97.5
439.608	99.5
439.829	121.5
440.05	155.5
440.272	196.5
440.493	111.5
440.715	105.5
440.936	100.5
441.158	86.5
441.379	104.5
441.6	113.5
441.822	106.5
442.043	97.5
442.264	103.5
442.486	114.5
442.707	105.5
442.928	134.5
443.149	165.5
443.371	180.5
443.592	124.5
443.813	148.5
444.034	133.5
444.255	107.5
444.476	80.5
444.698	91.5
444.919	94.5
445.14	117.5
445.361	132.5
445.582	162.5
445.803	188.5
446.024	187.5
446.245	180.5
446.466	136.5
446.687	94.5
446.908	96.5
447.129	87.5
447.35	90.5
447.571	106.5
447.792	115.5
448.013	125.5
448.234	110.5
448.455	126.5
448.675	149.5
448.896	152.5
449.117	119.5
449.338	120.5
449.559	163.5
449.779	181.5
450	108.5
450.221	94.5
450.442	87.5
450.662	104.5
450.883	134.5
451.104	128.5
451.324	113.5
451.545	94.5
451.766	95.5
451.986	103.5
452.207	93.5
452.428	97.5
452.648	110.5
452.869	143.5
453.089	143.5
453.31	145.5
453.53	93.5
453.751	95.5
453.971	128.5
454.192	145.5
454.412	98.5
454.633	97.5
454.853	99.5
455.073	96.5
455.294	93.5
455.514	113.5
455.734	95.5
455.955	89.5
456.175	89.5
456.395	91.5
456.616	87.5
456.836	92.5
457.056	82.5
457.276	87.5
457.497	99.5
457.717	102.5
457.937	88.5
458.157	88.5
458.377	106.5
458.598	134.5
458.818	210.5
459.038	233.5
459.258	151.5
459.478	99.5
459.698	88.5
459.918	77.5
460.138	91.5
460.358	84.5
460.578	82.5
460.798	81.5
461.018	108.5
461.238	84.5
461.458	95.5
461.678	85.5
461.898	97.5
462.118	83.5
462.338	90.5
462.558	89.5
462.777	83.5
462.997	94.5
463.217	112.5
463.437	114.5
463.657	97.5
463.876	103.5
464.096	89.5
464.316	93.5
464.536	94.5
464.755	92.5
464.975	125.5
465.195	228.5
465.414	235.5
465.634	110.5
465.854	93.5
466.073	100.5
466.293	86.5
466.512	79.5
466.732	89.5
466.951	106.5
467.171	90.5
467.391	111.5
467.61	165.5
467.829	252.5
468.049	713.5
468.268	1128.5
468.488	268.5
468.707	118.5
468.927	98.5
469.146	95.5
469.365	107.5
469.585	93.5
469.804	116.5
470.023	106.5
470.243	118.5
470.462	125.5
470.681	144.5
470.901	120.5
471.12	105.5
471.339	122.5
471.558	139.5
471.777	186.5
471.997	357.5
472.216	1394.5
472.435	3364.5
472.654	794.5
472.873	196.5
473.092	114.5
473.311	104.5
473.53	111.5
473.749	88.5
473.968	106.5
474.187	150.5
474.406	118.5
474.625	99.5
474.844	102.5
475.063	100.5
475.282	93.5
475.501	94.5
475.72	87.5
475.939	87.5
476.158	88.5
476.377	93.5
476.596	84.5
476.814	103.5
477.033	95.5
477.252	98.5
477.471	86.5
477.69	100.5
477.908	94.5
478.127	98.5
478.346	106.5
478.564	114.5
478.783	113.5
479.002	115.5
479.22	115.5
479.439	123.5
479.658	156.5
479.876	143.5
480.095	137.5
480.313	152.5
480.532	191.5
480.751	328.5
480.969	1235.5
481.188	5440.5
481.406	3380.5
481.624	475.5
481.843	158.5
482.061	104.5
482.28	100.5
482.498	106.5
482.717	106.5
482.935	102.5
483.153	82.5
483.372	107.5
483.59	98.5
483.808	91.5
484.027	111.5
484.245	93.5
484.463	96.5
484.681	96.5
484.9	99.5
485.118	96.5
485.336	101.5
485.554	104.5
485.772	117.5
485.99	97.5
486.209	111.5
486.427	115.5
486.645	144.5
486.863	135.5
487.081	110.5
487.299	96.5
487.517	109.5
487.735	94.5
487.953	87.5
488.171	117.5
488.389	109.5
488.607	102.5
488.825	117.5
489.043	102.5
489.261	100.5
489.479	87.5
489.696	93.5
489.914	105.5
490.132	75.5
490.35	85.5
490.568	84.5
490.786	93.5
491.003	84.5
491.221	81.5
491.439	105.5
491.657	101.5
491.874	106.5
492.092	110.5
492.31	97.5
492.527	115.5
492.745	111.5
492.963	91.5
493.18	87.5
493.398	83.5
493.615	102.5
493.833	97.5
494.05	85.5
494.268	97.5
494.485	85.5
494.703	96.5
494.92	93.5
495.138	89.5
495.355	104.5
495.573	106.5
495.79	86.5
496.008	105.5
496.225	87.5
496.442	92.5
496.66	111.5
496.877	104.5
497.094	108.5
497.312	94.5
497.529	85.5
497.746	93.5
497.963	94.5
498.181	101.5
498.398	120.5
498.615	114.5
498.832	120.5
499.049	88.5
499.267	88.5
499.484	92.5
499.701	103.5
499.918	97.5
500.135	98.5
500.352	89.5
500.569	91.5
500.786	120.5
501.003	94.5
501.22	93.5
501.437	90.5
501.654	99.5
501.871	120.5
502.088	94.5
502.305	88.5
502.522	94.5
502.739	92.5
502.956	94.5
503.172	86.5
503.389	92.5
503.606	124.5
503.823	121.5
504.04	105.5
504.256	102.5
504.473	89.5
504.69	81.5
504.907	95.5
505.123	89.5
505.34	93.5
505.557	99.5
505.773	92.5
505.99	83.5
506.207	104.5
506.423	101.5
506.64	87.5
506.856	95.5
507.073	107.5
507.289	85.5
507.506	102.5
507.722	137.5
507.939	132.5
508.155	103.5
508.372	101.5
508.588	92.5
508.805	115.5
509.021	103.5
509.238	118.5
509.454	108.5
509.67	114.5
509.887	140.5
510.103	138.5
510.319	246.5
510.536	895.5
510.752	3220.5
510.968	915.5
511.184	180.5
511.401	132.5
511.617	121.5
511.833	115.5
512.049	110.5
512.265	82.5
512.481	99.5
512.698	103.5
512.914	102.5
513.13	93.5
513.346	94.5
513.562	100.5
513.778	103.5
513.994	122.5
514.21	142.5
514.426	143.5
514.642	188.5
514.858	162.5
515.074	214.5
515.29	677.5
515.506	2480.5
515.721	922.5
515.937	212.5
516.153	163.5
516.369	129.5
516.585	99.5
516.801	101.5
517.016	107.5
517.232	103.5
517.448	98.5
517.664	103.5
517.879	97.5
518.095	103.5
518.311	116.5
518.527	124.5
518.742	93.5
518.958	98.5
519.173	103.5
519.389	89.5
519.605	106.5
519.82	114.5
520.036	116.5
520.251	153.5
520.467	139.5
520.682	102.5
520.898	128.5
521.113	135.5
521.329	176.5
521.544	296.5
521.76	913.5
521.975	4085.5
522.19	2605.5
522.406	510.5
522.621	162.5
522.836	120.5
523.052	118.5
523.267	103.5
523.482	104.5
523.698	104.5
523.913	160.5
524.128	125.5
524.343	106.5
524.559	106.5
524.774	98.5
524.989	118.5
525.204	131.5
525.419	117.5
525.634	89.5
525.849	100.5
526.064	73.5
526.28	105.5
526.495	87.5
526.71	78.5
526.925	87.5
527.14	101.5
527.355	95.5
527.57	91.5
527.785	94.5
527.999	89.5
528.214	87.5
528.429	91.5
528.644	99.5
528.859	98.5
529.074	94.5
529.289	159.5
529.503	290.5
529.718	122.5
529.933	95.5
530.148	94.5
530.363	89.5
