Data from Circ_2023_H10_HRD10591_00032.txt Node
Date: Wed Jan 03 09:50:37 EST 2024
User: Yrep
Spectrometer: HR+D1059
Trigger mode: 1
Integration Time (sec): 1.000000E-1
Scans to average: 1
Electric dark correction enabled: true
Nonlinearity correction enabled: false
Boxcar width: 0
XAxis mode: Wavelengths
Number of Pixels in Spectrum: 2048
>>>>>Begin Spectral Data<<<<<
223.165	-21.75
223.4	-21.75
223.635	-21.75
223.869	-21.75
224.104	-19.75
224.338	-35.75
224.573	-5.75
224.808	-15.75
225.042	-4.75
225.277	-2.75
225.511	-11.75
225.746	4.25
225.98	14.25
226.215	13.25
226.449	25.25
226.683	29.25
226.918	24.25
227.152	29.25
227.387	43.25
227.621	44.25
227.856	60.25
228.09	58.25
228.324	55.25
228.559	68.25
228.793	58.25
229.027	65.25
229.262	59.25
229.496	83.25
229.73	104.25
229.964	94.25
230.199	79.25
230.433	88.25
230.667	79.25
230.901	85.25
231.136	71.25
231.37	74.25
231.604	82.25
231.838	75.25
232.072	85.25
232.306	82.25
232.541	85.25
232.775	92.25
233.009	87.25
233.243	89.25
233.477	91.25
233.711	82.25
233.945	94.25
234.179	71.25
234.413	89.25
234.647	82.25
234.881	77.25
235.115	85.25
235.349	70.25
235.583	74.25
235.817	71.25
236.051	82.25
236.285	91.25
236.519	76.25
236.753	92.25
236.987	78.25
237.221	106.25
237.455	107.25
237.689	90.25
237.922	69.25
238.156	74.25
238.39	82.25
238.624	77.25
238.858	83.25
239.091	94.25
239.325	82.25
239.559	92.25
239.793	68.25
240.027	92.25
240.26	66.25
240.494	92.25
240.728	83.25
240.961	98.25
241.195	80.25
241.429	87.25
241.662	75.25
241.896	74.25
242.13	88.25
242.363	93.25
242.597	84.25
242.83	89.25
243.064	86.25
243.298	89.25
243.531	84.25
243.765	87.25
243.998	83.25
244.232	75.25
244.465	92.25
244.699	93.25
244.932	78.25
245.166	75.25
245.399	69.25
245.633	74.25
245.866	81.25
246.099	82.25
246.333	91.25
246.566	78.25
246.8	74.25
247.033	84.25
247.266	78.25
247.5	85.25
247.733	78.25
247.966	72.25
248.2	75.25
248.433	73.25
248.666	82.25
248.899	98.25
249.133	100.25
249.366	114.25
249.599	114.25
249.832	85.25
250.066	86.25
250.299	100.25
250.532	81.25
250.765	84.25
250.998	82.25
251.231	92.25
251.465	89.25
251.698	99.25
251.931	83.25
252.164	93.25
252.397	84.25
252.63	86.25
252.863	94.25
253.096	80.25
253.329	79.25
253.562	86.25
253.795	78.25
254.028	93.25
254.261	87.25
254.494	89.25
254.727	91.25
254.96	88.25
255.193	92.25
255.426	81.25
255.659	79.25
255.892	95.25
256.124	88.25
256.357	108.25
256.59	94.25
256.823	87.25
257.056	94.25
257.289	93.25
257.521	81.25
257.754	93.25
257.987	85.25
258.22	75.25
258.452	93.25
258.685	93.25
258.918	90.25
259.151	91.25
259.383	75.25
259.616	96.25
259.849	98.25
260.081	98.25
260.314	104.25
260.547	98.25
260.779	88.25
261.012	109.25
261.244	115.25
261.477	108.25
261.71	106.25
261.942	137.25
262.175	129.25
262.407	100.25
262.64	82.25
262.872	86.25
263.105	97.25
263.337	86.25
263.57	99.25
263.802	105.25
264.035	97.25
264.267	71.25
264.499	85.25
264.732	84.25
264.964	92.25
265.197	75.25
265.429	84.25
265.661	91.25
265.894	92.25
266.126	86.25
266.358	85.25
266.591	92.25
266.823	92.25
267.055	85.25
267.287	96.25
267.52	93.25
267.752	82.25
267.984	85.25
268.216	88.25
268.448	108.25
268.681	100.25
268.913	98.25
269.145	92.25
269.377	88.25
269.609	94.25
269.841	86.25
270.073	93.25
270.306	88.25
270.538	100.25
270.77	100.25
271.002	92.25
271.234	106.25
271.466	91.25
271.698	95.25
271.93	91.25
272.162	101.25
272.394	103.25
272.626	102.25
272.858	94.25
273.09	89.25
273.322	88.25
273.553	98.25
273.785	108.25
274.017	84.25
274.249	104.25
274.481	96.25
274.713	94.25
274.945	87.25
275.176	94.25
275.408	106.25
275.64	118.25
275.872	135.25
276.104	105.25
276.335	108.25
276.567	113.25
276.799	143.25
277.031	156.25
277.262	201.25
277.494	149.25
277.726	104.25
277.957	98.25
278.189	100.25
278.421	87.25
278.652	94.25
278.884	91.25
279.115	93.25
279.347	91.25
279.579	101.25
279.81	138.25
280.042	201.25
280.273	257.25
280.505	158.25
280.736	109.25
280.968	105.25
281.199	82.25
281.431	89.25
281.662	81.25
281.894	92.25
282.125	116.25
282.356	141.25
282.588	173.25
282.819	139.25
283.051	107.25
283.282	93.25
283.513	98.25
283.745	99.25
283.976	92.25
284.207	88.25
284.439	81.25
284.67	101.25
284.901	88.25
285.132	96.25
285.364	93.25
285.595	93.25
285.826	81.25
286.057	102.25
286.288	86.25
286.52	85.25
286.751	98.25
286.982	105.25
287.213	92.25
287.444	101.25
287.675	91.25
287.906	96.25
288.138	105.25
288.369	105.25
288.6	112.25
288.831	96.25
289.062	89.25
289.293	78.25
289.524	86.25
289.755	89.25
289.986	85.25
290.217	68.25
290.448	98.25
290.679	88.25
290.91	94.25
291.141	101.25
291.371	117.25
291.602	103.25
291.833	95.25
292.064	94.25
292.295	88.25
292.526	102.25
292.757	103.25
292.987	87.25
293.218	86.25
293.449	88.25
293.68	82.25
293.91	100.25
294.141	89.25
294.372	89.25
294.603	93.25
294.833	92.25
295.064	90.25
295.295	99.25
295.525	100.25
295.756	95.25
295.987	134.25
296.217	157.25
296.448	153.25
296.679	103.25
296.909	94.25
297.14	100.25
297.37	94.25
297.601	86.25
297.831	101.25
298.062	102.25
298.292	81.25
298.523	82.25
298.753	100.25
298.984	87.25
299.214	86.25
299.445	100.25
299.675	99.25
299.905	101.25
300.136	93.25
300.366	88.25
300.597	88.25
300.827	96.25
301.057	106.25
301.288	105.25
301.518	109.25
301.748	85.25
301.979	126.25
302.209	112.25
302.439	101.25
302.669	105.25
302.9	101.25
303.13	94.25
303.36	105.25
303.59	136.25
303.82	134.25
304.051	130.25
304.281	113.25
304.511	85.25
304.741	97.25
304.971	102.25
305.201	98.25
305.431	93.25
305.661	99.25
305.891	89.25
306.121	117.25
306.352	107.25
306.582	110.25
306.812	124.25
307.042	118.25
307.272	170.25
307.502	163.25
307.731	168.25
307.961	117.25
308.191	98.25
308.421	92.25
308.651	95.25
308.881	84.25
309.111	91.25
309.341	107.25
309.571	106.25
309.8	92.25
310.03	97.25
310.26	103.25
310.49	97.25
310.72	98.25
310.949	115.25
311.179	125.25
311.409	110.25
311.639	107.25
311.868	117.25
312.098	87.25
312.328	119.25
312.557	111.25
312.787	125.25
313.017	115.25
313.246	111.25
313.476	93.25
313.706	89.25
313.935	106.25
314.165	103.25
314.394	111.25
314.624	106.25
314.853	101.25
315.083	103.25
315.312	97.25
315.542	93.25
315.771	89.25
316.001	107.25
316.23	104.25
316.46	98.25
316.689	102.25
316.919	121.25
317.148	114.25
317.377	107.25
317.607	105.25
317.836	89.25
318.065	93.25
318.295	116.25
318.524	100.25
318.753	102.25
318.983	95.25
319.212	110.25
319.441	118.25
319.67	117.25
319.9	113.25
320.129	93.25
320.358	94.25
320.587	113.25
320.816	106.25
321.046	109.25
321.275	123.25
321.504	107.25
321.733	123.25
321.962	109.25
322.191	121.25
322.42	104.25
322.649	115.25
322.878	133.25
323.108	120.25
323.337	145.25
323.566	169.25
323.795	197.25
324.024	262.25
324.253	515.25
324.482	1047.25
324.71	2236.25
324.939	2967.25
325.168	1086.25
325.397	308.25
325.626	189.25
325.855	151.25
326.084	149.25
326.313	156.25
326.542	171.25
326.77	284.25
326.999	571.25
327.228	1155.25
327.457	2153.25
327.686	1766.25
327.914	586.25
328.143	534.25
328.372	670.25
328.6	384.25
328.829	189.25
329.058	185.25
329.287	196.25
329.515	189.25
329.744	236.25
329.972	454.25
330.201	952.25
330.43	1393.25
330.658	641.25
330.887	297.25
331.115	193.25
331.344	147.25
331.572	131.25
331.801	118.25
332.03	139.25
332.258	119.25
332.486	84.25
332.715	96.25
332.943	130.25
333.172	133.25
333.4	134.25
333.629	154.25
333.857	232.25
334.085	404.25
334.314	865.25
334.542	1692.25
334.771	1657.25
334.999	437.25
335.227	189.25
335.455	137.25
335.684	136.25
335.912	118.25
336.14	98.25
336.369	122.25
336.597	130.25
336.825	111.25
337.053	109.25
337.281	109.25
337.51	108.25
337.738	102.25
337.966	102.25
338.194	110.25
338.422	103.25
338.65	108.25
338.878	95.25
339.106	88.25
339.334	90.25
339.562	90.25
339.79	99.25
340.018	92.25
340.246	83.25
340.474	123.25
340.702	104.25
340.93	91.25
341.158	104.25
341.386	110.25
341.614	101.25
341.842	99.25
342.07	93.25
342.298	107.25
342.526	87.25
342.754	89.25
342.981	94.25
343.209	85.25
343.437	108.25
343.665	93.25
343.893	92.25
344.12	103.25
344.348	91.25
344.576	103.25
344.804	90.25
345.031	110.25
345.259	117.25
345.487	105.25
345.714	89.25
345.942	95.25
346.17	103.25
346.397	97.25
346.625	93.25
346.853	104.25
347.08	106.25
347.308	113.25
347.535	123.25
347.763	111.25
347.99	103.25
348.218	107.25
348.445	116.25
348.673	119.25
348.9	105.25
349.128	100.25
349.355	83.25
349.583	104.25
349.81	103.25
350.037	109.25
350.265	98.25
350.492	98.25
350.72	99.25
350.947	133.25
351.174	99.25
351.402	114.25
351.629	123.25
351.856	102.25
352.083	122.25
352.311	112.25
352.538	116.25
352.765	123.25
352.992	118.25
353.22	118.25
353.447	117.25
353.674	100.25
353.901	103.25
354.128	94.25
354.355	108.25
354.583	113.25
354.81	112.25
355.037	97.25
355.264	92.25
355.491	101.25
355.718	98.25
355.945	90.25
356.172	103.25
356.399	96.25
356.626	88.25
356.853	103.25
357.08	102.25
357.307	100.25
357.534	108.25
357.761	78.25
357.988	97.25
358.215	102.25
358.441	96.25
358.668	94.25
358.895	94.25
359.122	98.25
359.349	87.25
359.576	93.25
359.802	119.25
360.029	138.25
360.256	135.25
360.483	110.25
360.709	83.25
360.936	102.25
361.163	99.25
361.39	105.25
361.616	107.25
361.843	98.25
362.07	109.25
362.296	86.25
362.523	111.25
362.749	104.25
362.976	89.25
363.203	98.25
363.429	97.25
363.656	103.25
363.882	93.25
364.109	92.25
364.335	107.25
364.562	100.25
364.788	90.25
365.015	110.25
365.241	101.25
365.468	108.25
365.694	103.25
365.92	116.25
366.147	107.25
366.373	103.25
366.599	97.25
366.826	86.25
367.052	89.25
367.278	90.25
367.505	103.25
367.731	90.25
367.957	113.25
368.184	105.25
368.41	89.25
368.636	135.25
368.862	133.25
369.089	127.25
369.315	109.25
369.541	104.25
369.767	94.25
369.993	100.25
370.219	101.25
370.445	79.25
370.672	97.25
370.898	68.25
371.124	84.25
371.35	99.25
371.576	94.25
371.802	97.25
372.028	89.25
372.254	80.25
372.48	82.25
372.706	92.25
372.932	95.25
373.158	104.25
373.384	98.25
373.61	100.25
373.835	99.25
374.061	102.25
374.287	93.25
374.513	104.25
374.739	90.25
374.965	95.25
375.191	89.25
375.416	102.25
375.642	106.25
375.868	107.25
376.094	88.25
376.319	97.25
376.545	90.25
376.771	91.25
376.997	93.25
377.222	75.25
377.448	91.25
377.674	94.25
377.899	93.25
378.125	85.25
378.35	92.25
378.576	92.25
378.802	82.25
379.027	98.25
379.253	79.25
379.478	87.25
379.704	94.25
379.929	98.25
380.155	102.25
380.38	100.25
380.606	93.25
380.831	102.25
381.057	106.25
381.282	99.25
381.507	102.25
381.733	107.25
381.958	101.25
382.184	110.25
382.409	102.25
382.634	94.25
382.86	102.25
383.085	94.25
383.31	92.25
383.535	103.25
383.761	111.25
383.986	99.25
384.211	88.25
384.436	114.25
384.662	92.25
384.887	94.25
385.112	108.25
385.337	98.25
385.562	96.25
385.787	117.25
386.013	117.25
386.238	110.25
386.463	114.25
386.688	94.25
386.913	93.25
387.138	107.25
387.363	104.25
387.588	109.25
387.813	103.25
388.038	117.25
388.263	94.25
388.488	109.25
388.713	102.25
388.938	94.25
389.163	103.25
389.387	88.25
389.612	102.25
389.837	101.25
390.062	93.25
390.287	87.25
390.512	96.25
390.736	109.25
390.961	92.25
391.186	99.25
391.411	87.25
391.636	94.25
391.86	94.25
392.085	90.25
392.31	93.25
392.534	92.25
392.759	84.25
392.984	86.25
393.208	86.25
393.433	87.25
393.658	93.25
393.882	89.25
394.107	78.25
394.331	85.25
394.556	88.25
394.78	95.25
395.005	95.25
395.229	82.25
395.454	98.25
395.678	98.25
395.903	94.25
396.127	87.25
396.352	94.25
396.576	84.25
396.801	94.25
397.025	99.25
397.249	90.25
397.474	87.25
397.698	89.25
397.922	96.25
398.147	83.25
398.371	92.25
398.595	84.25
398.82	80.25
399.044	82.25
399.268	90.25
399.492	80.25
399.717	102.25
399.941	103.25
400.165	104.25
400.389	96.25
400.613	82.25
400.837	87.25
401.062	89.25
401.286	83.25
401.51	106.25
401.734	91.25
401.958	106.25
402.182	152.25
402.406	190.25
402.63	155.25
402.854	106.25
403.078	95.25
403.302	91.25
403.526	94.25
403.75	92.25
403.974	95.25
404.198	91.25
404.422	91.25
404.645	100.25
404.869	111.25
405.093	116.25
405.317	163.25
405.541	156.25
405.765	110.25
405.988	130.25
406.212	211.25
406.436	313.25
406.66	209.25
406.883	133.25
407.107	115.25
407.331	120.25
407.555	122.25
407.778	114.25
408.002	101.25
408.226	99.25
408.449	93.25
408.673	94.25
408.896	94.25
409.12	98.25
409.344	97.25
409.567	89.25
409.791	102.25
410.014	98.25
410.238	90.25
410.461	99.25
410.685	108.25
410.908	119.25
411.132	106.25
411.355	104.25
411.578	86.25
411.802	86.25
412.025	103.25
412.249	102.25
412.472	113.25
412.695	139.25
412.919	103.25
413.142	105.25
413.365	106.25
413.589	85.25
413.812	90.25
414.035	106.25
414.258	101.25
414.482	104.25
414.705	92.25
414.928	99.25
415.151	94.25
415.374	105.25
415.597	104.25
415.821	107.25
416.044	88.25
416.267	94.25
416.49	89.25
416.713	108.25
416.936	108.25
417.159	97.25
417.382	78.25
417.605	113.25
417.828	108.25
418.051	108.25
418.274	89.25
418.497	89.25
418.72	82.25
418.943	95.25
419.166	101.25
419.389	87.25
419.611	91.25
419.834	102.25
420.057	100.25
420.28	125.25
420.503	111.25
420.726	92.25
420.948	100.25
421.171	116.25
421.394	94.25
421.617	88.25
421.839	91.25
422.062	108.25
422.285	94.25
422.507	116.25
422.73	120.25
422.953	92.25
423.175	95.25
423.398	93.25
423.621	94.25
423.843	83.25
424.066	107.25
424.288	96.25
424.511	103.25
424.733	118.25
424.956	131.25
425.178	107.25
425.401	126.25
425.623	105.25
425.846	105.25
426.068	104.25
426.291	101.25
426.513	83.25
426.735	89.25
426.958	103.25
427.18	109.25
427.402	172.25
427.625	272.25
427.847	259.25
428.069	238.25
428.292	149.25
428.514	101.25
428.736	107.25
428.958	87.25
429.181	85.25
429.403	93.25
429.625	95.25
429.847	93.25
430.069	113.25
430.292	99.25
430.514	100.25
430.736	96.25
430.958	94.25
431.18	84.25
431.402	94.25
431.624	86.25
431.846	98.25
432.068	88.25
432.29	105.25
432.512	85.25
432.734	97.25
432.956	100.25
433.178	108.25
433.4	101.25
433.622	105.25
433.844	97.25
434.066	100.25
434.287	105.25
434.509	87.25
434.731	93.25
434.953	91.25
435.175	100.25
435.397	106.25
435.618	109.25
435.84	107.25
436.062	155.25
436.284	136.25
436.505	117.25
436.727	119.25
436.949	89.25
437.17	99.25
437.392	90.25
437.614	101.25
437.835	131.25
438.057	149.25
438.278	132.25
438.5	114.25
438.721	139.25
438.943	123.25
439.165	94.25
439.386	90.25
439.608	117.25
439.829	118.25
440.05	163.25
440.272	207.25
440.493	104.25
440.715	114.25
440.936	97.25
441.158	100.25
441.379	81.25
441.6	103.25
441.822	115.25
442.043	108.25
442.264	119.25
442.486	122.25
442.707	114.25
442.928	129.25
443.149	178.25
443.371	184.25
443.592	129.25
443.813	135.25
444.034	133.25
444.255	122.25
444.476	90.25
444.698	101.25
444.919	93.25
445.14	117.25
445.361	140.25
445.582	135.25
445.803	172.25
446.024	191.25
446.245	183.25
446.466	143.25
446.687	90.25
446.908	97.25
447.129	93.25
447.35	92.25
447.571	84.25
447.792	117.25
448.013	112.25
448.234	130.25
448.455	121.25
448.675	130.25
448.896	151.25
449.117	110.25
449.338	105.25
449.559	153.25
449.779	185.25
450	103.25
450.221	105.25
450.442	109.25
450.662	125.25
450.883	126.25
451.104	131.25
451.324	104.25
451.545	93.25
451.766	95.25
451.986	98.25
452.207	93.25
452.428	92.25
452.648	117.25
452.869	124.25
453.089	138.25
453.31	135.25
453.53	114.25
453.751	97.25
453.971	122.25
454.192	158.25
454.412	101.25
454.633	92.25
454.853	84.25
455.073	86.25
455.294	102.25
455.514	100.25
455.734	93.25
455.955	106.25
456.175	94.25
456.395	99.25
456.616	94.25
456.836	86.25
457.056	84.25
457.276	97.25
457.497	79.25
457.717	82.25
457.937	80.25
458.157	89.25
458.377	97.25
458.598	128.25
458.818	220.25
459.038	237.25
459.258	160.25
459.478	116.25
459.698	78.25
459.918	85.25
460.138	89.25
460.358	89.25
460.578	95.25
460.798	106.25
461.018	87.25
461.238	97.25
461.458	101.25
461.678	102.25
461.898	94.25
462.118	104.25
462.338	82.25
462.558	90.25
462.777	101.25
462.997	91.25
463.217	113.25
463.437	110.25
463.657	90.25
463.876	79.25
464.096	97.25
464.316	107.25
464.536	103.25
464.755	115.25
464.975	118.25
465.195	234.25
465.414	236.25
465.634	117.25
465.854	92.25
466.073	110.25
466.293	103.25
466.512	105.25
466.732	102.25
466.951	104.25
467.171	111.25
467.391	121.25
467.61	154.25
467.829	202.25
468.049	537.25
468.268	829.25
468.488	243.25
468.707	107.25
468.927	88.25
469.146	82.25
469.365	106.25
469.585	95.25
469.804	114.25
470.023	108.25
470.243	114.25
470.462	132.25
470.681	147.25
470.901	120.25
471.12	114.25
471.339	103.25
471.558	114.25
471.777	156.25
471.997	268.25
472.216	1029.25
472.435	2390.25
472.654	590.25
472.873	166.25
473.092	118.25
473.311	102.25
473.53	98.25
473.749	95.25
473.968	120.25
474.187	139.25
474.406	119.25
474.625	86.25
474.844	98.25
475.063	96.25
475.282	100.25
475.501	89.25
475.72	92.25
475.939	85.25
476.158	97.25
476.377	93.25
476.596	97.25
476.814	106.25
477.033	109.25
477.252	104.25
477.471	103.25
477.69	92.25
477.908	105.25
478.127	94.25
478.346	107.25
478.564	91.25
478.783	108.25
479.002	109.25
479.22	111.25
479.439	120.25
479.658	117.25
479.876	124.25
480.095	119.25
480.313	140.25
480.532	161.25
480.751	245.25
480.969	943.25
481.188	3907.25
481.406	2503.25
481.624	387.25
481.843	153.25
482.061	125.25
482.28	96.25
482.498	94.25
482.717	103.25
482.935	98.25
483.153	96.25
483.372	101.25
483.59	98.25
483.808	102.25
484.027	99.25
484.245	104.25
484.463	106.25
484.681	88.25
484.9	98.25
485.118	90.25
485.336	85.25
485.554	95.25
485.772	127.25
485.99	85.25
486.209	119.25
486.427	113.25
486.645	124.25
486.863	134.25
487.081	117.25
487.299	85.25
487.517	98.25
487.735	80.25
487.953	100.25
488.171	106.25
488.389	107.25
488.607	106.25
488.825	87.25
489.043	100.25
489.261	102.25
489.479	107.25
489.696	104.25
489.914	100.25
490.132	98.25
490.35	85.25
490.568	91.25
490.786	88.25
491.003	105.25
491.221	92.25
491.439	98.25
491.657	90.25
491.874	117.25
492.092	102.25
492.31	104.25
492.527	103.25
492.745	95.25
492.963	95.25
493.18	94.25
493.398	91.25
493.615	108.25
493.833	103.25
494.05	117.25
494.268	86.25
494.485	98.25
494.703	98.25
494.92	89.25
495.138	108.25
495.355	92.25
495.573	95.25
495.79	100.25
496.008	97.25
496.225	97.25
496.442	89.25
496.66	110.25
496.877	98.25
497.094	99.25
497.312	97.25
497.529	94.25
497.746	101.25
497.963	114.25
498.181	95.25
498.398	106.25
498.615	118.25
498.832	110.25
499.049	100.25
499.267	105.25
499.484	104.25
499.701	90.25
499.918	85.25
500.135	95.25
500.352	100.25
500.569	103.25
500.786	108.25
501.003	118.25
501.22	83.25
501.437	93.25
501.654	81.25
501.871	119.25
502.088	96.25
502.305	101.25
502.522	109.25
502.739	99.25
502.956	90.25
503.172	98.25
503.389	117.25
503.606	136.25
503.823	109.25
504.04	102.25
504.256	90.25
504.473	89.25
504.69	101.25
504.907	102.25
505.123	95.25
505.34	93.25
505.557	75.25
505.773	79.25
505.99	85.25
506.207	91.25
506.423	104.25
506.64	95.25
506.856	91.25
507.073	88.25
507.289	108.25
507.506	103.25
507.722	128.25
507.939	134.25
508.155	106.25
508.372	104.25
508.588	106.25
508.805	109.25
509.021	102.25
509.238	96.25
509.454	114.25
509.67	114.25
509.887	106.25
510.103	149.25
510.319	238.25
510.536	918.25
510.752	3150.25
510.968	909.25
