Data from Circ_2023_H10_HRD10591_00073.txt Node
Date: Wed Jan 03 09:50:45 EST 2024
User: Yrep
Spectrometer: HR+D1059
Trigger mode: 1
Integration Time (sec): 1.000000E-1
Scans to average: 1
Electric dark correction enabled: true
Nonlinearity correction enabled: false
Boxcar width: 0
XAxis mode: Wavelengths
Number of Pixels in Spectrum: 2048
>>>>>Begin Spectral Data<<<<<
223.165	-21.88
223.4	-21.88
223.635	-21.88
223.869	-20.88
224.104	-14.88
224.338	-25.88
224.573	-14.88
224.808	-8.88
225.042	-1.88
225.277	0.12
225.511	-7.88
225.746	-7.88
225.98	21.12
226.215	6.12
226.449	17.12
226.683	13.12
226.918	23.12
227.152	44.12
227.387	32.12
227.621	49.12
227.856	49.12
228.09	45.12
228.324	50.12
228.559	57.12
228.793	57.12
229.027	68.12
229.262	68.12
229.496	91.12
229.73	107.12
229.964	103.12
230.199	91.12
230.433	82.12
230.667	103.12
230.901	67.12
231.136	89.12
231.37	81.12
231.604	80.12
231.838	68.12
232.072	79.12
232.306	65.12
232.541	79.12
232.775	77.12
233.009	85.12
233.243	85.12
233.477	84.12
233.711	83.12
233.945	75.12
234.179	86.12
234.413	86.12
234.647	90.12
234.881	81.12
235.115	74.12
235.349	89.12
235.583	90.12
235.817	73.12
236.051	82.12
236.285	84.12
236.519	78.12
236.753	79.12
236.987	106.12
237.221	112.12
237.455	97.12
237.689	98.12
237.922	77.12
238.156	71.12
238.39	78.12
238.624	77.12
238.858	88.12
239.091	77.12
239.325	73.12
239.559	73.12
239.793	69.12
240.027	84.12
240.26	93.12
240.494	83.12
240.728	79.12
240.961	88.12
241.195	77.12
241.429	77.12
241.662	83.12
241.896	82.12
242.13	87.12
242.363	75.12
242.597	78.12
242.83	94.12
243.064	81.12
243.298	82.12
243.531	75.12
243.765	80.12
243.998	86.12
244.232	81.12
244.465	83.12
244.699	81.12
244.932	89.12
245.166	87.12
245.399	76.12
245.633	80.12
245.866	79.12
246.099	77.12
246.333	84.12
246.566	73.12
246.8	87.12
247.033	76.12
247.266	65.12
247.5	78.12
247.733	88.12
247.966	86.12
248.2	84.12
248.433	82.12
248.666	73.12
248.899	94.12
249.133	93.12
249.366	127.12
249.599	123.12
249.832	90.12
250.066	81.12
250.299	104.12
250.532	105.12
250.765	91.12
250.998	81.12
251.231	75.12
251.465	85.12
251.698	69.12
251.931	79.12
252.164	82.12
252.397	93.12
252.63	80.12
252.863	74.12
253.096	90.12
253.329	90.12
253.562	75.12
253.795	85.12
254.028	95.12
254.261	89.12
254.494	76.12
254.727	89.12
254.96	82.12
255.193	88.12
255.426	86.12
255.659	69.12
255.892	101.12
256.124	115.12
256.357	89.12
256.59	81.12
256.823	91.12
257.056	96.12
257.289	90.12
257.521	87.12
257.754	91.12
257.987	88.12
258.22	102.12
258.452	106.12
258.685	117.12
258.918	94.12
259.151	86.12
259.383	72.12
259.616	84.12
259.849	76.12
260.081	97.12
260.314	110.12
260.547	115.12
260.779	100.12
261.012	125.12
261.244	134.12
261.477	109.12
261.71	127.12
261.942	154.12
262.175	161.12
262.407	111.12
262.64	106.12
262.872	100.12
263.105	93.12
263.337	98.12
263.57	96.12
263.802	79.12
264.035	96.12
264.267	93.12
264.499	79.12
264.732	82.12
264.964	80.12
265.197	90.12
265.429	70.12
265.661	84.12
265.894	92.12
266.126	84.12
266.358	81.12
266.591	81.12
266.823	82.12
267.055	88.12
267.287	81.12
267.52	81.12
267.752	81.12
267.984	95.12
268.216	87.12
268.448	102.12
268.681	84.12
268.913	88.12
269.145	86.12
269.377	84.12
269.609	86.12
269.841	91.12
270.073	89.12
270.306	75.12
270.538	103.12
270.77	80.12
271.002	81.12
271.234	89.12
271.466	120.12
271.698	91.12
271.93	85.12
272.162	98.12
272.394	107.12
272.626	86.12
272.858	81.12
273.09	90.12
273.322	93.12
273.553	86.12
273.785	96.12
274.017	93.12
274.249	100.12
274.481	81.12
274.713	97.12
274.945	94.12
275.176	102.12
275.408	104.12
275.64	131.12
275.872	155.12
276.104	135.12
276.335	121.12
276.567	147.12
276.799	177.12
277.031	226.12
277.262	295.12
277.494	195.12
277.726	120.12
277.957	111.12
278.189	96.12
278.421	98.12
278.652	85.12
278.884	82.12
279.115	86.12
279.347	104.12
279.579	112.12
279.81	157.12
280.042	272.12
280.273	386.12
280.505	262.12
280.736	130.12
280.968	85.12
281.199	103.12
281.431	115.12
281.662	95.12
281.894	103.12
282.125	131.12
282.356	145.12
282.588	199.12
282.819	141.12
283.051	98.12
283.282	90.12
283.513	87.12
283.745	101.12
283.976	96.12
284.207	110.12
284.439	110.12
284.67	100.12
284.901	96.12
285.132	93.12
285.364	115.12
285.595	85.12
285.826	89.12
286.057	97.12
286.288	91.12
286.52	89.12
286.751	93.12
286.982	82.12
287.213	87.12
287.444	93.12
287.675	94.12
287.906	89.12
288.138	89.12
288.369	88.12
288.6	103.12
288.831	91.12
289.062	99.12
289.293	99.12
289.524	102.12
289.755	82.12
289.986	94.12
290.217	98.12
290.448	99.12
290.679	88.12
290.91	94.12
291.141	78.12
291.371	89.12
291.602	96.12
291.833	100.12
292.064	89.12
292.295	87.12
292.526	86.12
292.757	91.12
292.987	91.12
293.218	78.12
293.449	105.12
293.68	98.12
293.91	95.12
294.141	102.12
294.372	87.12
294.603	97.12
294.833	93.12
295.064	79.12
295.295	94.12
295.525	109.12
295.756	133.12
295.987	151.12
296.217	208.12
296.448	163.12
296.679	105.12
296.909	88.12
297.14	95.12
297.37	79.12
297.601	97.12
297.831	79.12
298.062	78.12
298.292	87.12
298.523	96.12
298.753	92.12
298.984	98.12
299.214	94.12
299.445	95.12
299.675	98.12
299.905	91.12
300.136	103.12
300.366	88.12
300.597	104.12
300.827	90.12
301.057	110.12
301.288	131.12
301.518	107.12
301.748	109.12
301.979	128.12
302.209	97.12
302.439	90.12
302.669	89.12
302.9	97.12
303.13	106.12
303.36	135.12
303.59	158.12
303.82	183.12
304.051	110.12
304.281	88.12
304.511	110.12
304.741	95.12
304.971	90.12
305.201	109.12
305.431	93.12
305.661	95.12
305.891	98.12
306.121	97.12
306.352	126.12
306.582	127.12
306.812	133.12
307.042	138.12
307.272	200.12
307.502	219.12
307.731	224.12
307.961	177.12
308.191	98.12
308.421	116.12
308.651	100.12
308.881	93.12
309.111	104.12
309.341	81.12
309.571	110.12
309.8	125.12
310.03	121.12
310.26	109.12
310.49	100.12
310.72	123.12
310.949	142.12
311.179	126.12
311.409	99.12
311.639	112.12
311.868	102.12
312.098	93.12
312.328	102.12
312.557	115.12
312.787	130.12
313.017	114.12
313.246	97.12
313.476	98.12
313.706	90.12
313.935	113.12
314.165	114.12
314.394	125.12
314.624	105.12
314.853	116.12
315.083	111.12
315.312	95.12
315.542	85.12
315.771	101.12
316.001	97.12
316.23	105.12
316.46	92.12
316.689	90.12
316.919	95.12
317.148	104.12
317.377	115.12
317.607	101.12
317.836	112.12
318.065	82.12
318.295	98.12
318.524	111.12
318.753	95.12
318.983	106.12
319.212	110.12
319.441	127.12
319.67	136.12
319.9	93.12
320.129	95.12
320.358	103.12
320.587	98.12
320.816	109.12
321.046	123.12
321.275	129.12
321.504	98.12
321.733	103.12
321.962	112.12
322.191	109.12
322.42	115.12
322.649	132.12
322.878	142.12
323.108	140.12
323.337	178.12
323.566	188.12
323.795	199.12
324.024	289.12
324.253	589.12
324.482	1263.12
324.71	2613.12
324.939	3530.12
325.168	1254.12
325.397	339.12
325.626	198.12
325.855	160.12
326.084	167.12
326.313	161.12
326.542	197.12
326.77	337.12
326.999	655.12
327.228	1347.12
327.457	2475.12
327.686	2034.12
327.914	725.12
328.143	768.12
328.372	1023.12
328.6	554.12
328.829	242.12
329.058	232.12
329.287	255.12
329.515	227.12
329.744	345.12
329.972	720.12
330.201	1555.12
330.43	2317.12
330.658	988.12
330.887	370.12
331.115	249.12
331.344	156.12
331.572	146.12
331.801	136.12
332.03	131.12
332.258	133.12
332.486	128.12
332.715	123.12
332.943	117.12
333.172	145.12
333.4	159.12
333.629	201.12
333.857	315.12
334.085	655.12
334.314	1445.12
334.542	2930.12
334.771	2776.12
334.999	653.12
335.227	250.12
335.455	149.12
335.684	132.12
335.912	98.12
336.14	120.12
336.369	98.12
336.597	136.12
336.825	123.12
337.053	110.12
337.281	99.12
337.51	103.12
337.738	112.12
337.966	100.12
338.194	101.12
338.422	102.12
338.65	101.12
338.878	111.12
339.106	100.12
339.334	93.12
339.562	104.12
339.79	105.12
340.018	112.12
340.246	87.12
340.474	118.12
340.702	93.12
340.93	96.12
341.158	100.12
341.386	102.12
341.614	120.12
341.842	104.12
342.07	98.12
342.298	101.12
342.526	114.12
342.754	87.12
342.981	96.12
343.209	102.12
343.437	96.12
343.665	88.12
343.893	97.12
344.12	100.12
344.348	90.12
344.576	80.12
344.804	105.12
345.031	108.12
345.259	118.12
345.487	119.12
345.714	118.12
345.942	102.12
346.17	83.12
346.397	99.12
346.625	110.12
346.853	98.12
347.08	111.12
347.308	102.12
347.535	109.12
347.763	103.12
347.99	97.12
348.218	118.12
348.445	125.12
348.673	113.12
348.9	118.12
349.128	94.12
349.355	103.12
349.583	94.12
349.81	95.12
350.037	103.12
350.265	97.12
350.492	88.12
350.72	115.12
350.947	127.12
351.174	116.12
351.402	140.12
351.629	110.12
351.856	117.12
352.083	139.12
352.311	121.12
352.538	139.12
352.765	131.12
352.992	129.12
353.22	127.12
353.447	119.12
353.674	114.12
353.901	100.12
354.128	91.12
354.355	101.12
354.583	96.12
354.81	88.12
355.037	96.12
355.264	97.12
355.491	103.12
355.718	80.12
355.945	87.12
356.172	91.12
356.399	94.12
356.626	97.12
356.853	95.12
357.08	79.12
357.307	84.12
357.534	89.12
357.761	78.12
357.988	93.12
358.215	101.12
358.441	83.12
358.668	100.12
358.895	87.12
359.122	102.12
359.349	87.12
359.576	92.12
359.802	114.12
360.029	173.12
360.256	157.12
360.483	123.12
360.709	96.12
360.936	104.12
361.163	106.12
361.39	126.12
361.616	106.12
361.843	98.12
362.07	122.12
362.296	125.12
362.523	104.12
362.749	100.12
362.976	98.12
363.203	107.12
363.429	90.12
363.656	93.12
363.882	87.12
364.109	94.12
364.335	94.12
364.562	104.12
364.788	102.12
365.015	105.12
365.241	106.12
365.468	139.12
365.694	115.12
365.92	102.12
366.147	109.12
366.373	92.12
366.599	100.12
366.826	98.12
367.052	103.12
367.278	80.12
367.505	89.12
367.731	105.12
367.957	109.12
368.184	107.12
368.41	112.12
368.636	137.12
368.862	157.12
369.089	129.12
369.315	106.12
369.541	111.12
369.767	115.12
369.993	117.12
370.219	109.12
370.445	96.12
370.672	110.12
370.898	82.12
371.124	86.12
371.35	99.12
371.576	103.12
371.802	96.12
372.028	90.12
372.254	93.12
372.48	87.12
372.706	87.12
372.932	79.12
373.158	89.12
373.384	98.12
373.61	94.12
373.835	94.12
374.061	95.12
374.287	103.12
374.513	82.12
374.739	94.12
374.965	95.12
375.191	95.12
375.416	98.12
375.642	99.12
375.868	89.12
376.094	100.12
376.319	98.12
376.545	85.12
376.771	96.12
376.997	96.12
377.222	91.12
377.448	98.12
377.674	78.12
377.899	86.12
378.125	98.12
378.35	94.12
378.576	81.12
378.802	81.12
379.027	80.12
379.253	87.12
379.478	94.12
379.704	95.12
379.929	96.12
380.155	116.12
380.38	91.12
380.606	90.12
380.831	99.12
381.057	97.12
381.282	98.12
381.507	88.12
381.733	91.12
381.958	105.12
382.184	94.12
382.409	90.12
382.634	102.12
382.86	101.12
383.085	114.12
383.31	97.12
383.535	80.12
383.761	102.12
383.986	90.12
384.211	101.12
384.436	93.12
384.662	86.12
384.887	112.12
385.112	98.12
385.337	109.12
385.562	101.12
385.787	98.12
386.013	114.12
386.238	121.12
386.463	106.12
386.688	93.12
386.913	83.12
387.138	100.12
387.363	91.12
387.588	106.12
387.813	93.12
388.038	89.12
388.263	102.12
388.488	101.12
388.713	88.12
388.938	83.12
389.163	105.12
389.387	88.12
389.612	100.12
389.837	99.12
390.062	96.12
390.287	82.12
390.512	90.12
390.736	81.12
390.961	95.12
391.186	87.12
391.411	103.12
391.636	96.12
391.86	79.12
392.085	88.12
392.31	81.12
392.534	85.12
392.759	85.12
392.984	93.12
393.208	85.12
393.433	89.12
393.658	83.12
393.882	88.12
394.107	93.12
394.331	79.12
394.556	89.12
394.78	84.12
395.005	85.12
395.229	95.12
395.454	94.12
395.678	96.12
395.903	97.12
396.127	87.12
396.352	83.12
396.576	105.12
396.801	95.12
397.025	88.12
397.249	84.12
397.474	74.12
397.698	75.12
397.922	81.12
398.147	94.12
398.371	88.12
398.595	87.12
398.82	87.12
399.044	81.12
399.268	90.12
399.492	99.12
399.717	82.12
399.941	89.12
400.165	93.12
400.389	92.12
400.613	77.12
400.837	87.12
401.062	102.12
401.286	103.12
401.51	104.12
401.734	99.12
401.958	114.12
402.182	165.12
402.406	217.12
402.63	180.12
402.854	126.12
403.078	116.12
403.302	88.12
403.526	102.12
403.75	94.12
403.974	101.12
404.198	89.12
404.422	110.12
404.645	97.12
404.869	114.12
405.093	122.12
405.317	175.12
405.541	167.12
405.765	136.12
405.988	164.12
406.212	247.12
406.436	369.12
406.66	253.12
406.883	129.12
407.107	105.12
407.331	123.12
407.555	109.12
407.778	112.12
408.002	101.12
408.226	88.12
408.449	109.12
408.673	101.12
408.896	107.12
409.12	105.12
409.344	92.12
409.567	81.12
409.791	87.12
410.014	93.12
410.238	96.12
410.461	94.12
410.685	94.12
410.908	95.12
411.132	112.12
411.355	114.12
411.578	96.12
411.802	99.12
412.025	105.12
412.249	109.12
412.472	117.12
412.695	177.12
412.919	133.12
413.142	98.12
413.365	97.12
413.589	83.12
413.812	100.12
414.035	99.12
414.258	101.12
414.482	105.12
414.705	94.12
414.928	102.12
415.151	85.12
415.374	83.12
415.597	99.12
415.821	98.12
416.044	92.12
416.267	90.12
416.49	85.12
416.713	72.12
416.936	81.12
417.159	83.12
417.382	100.12
417.605	114.12
417.828	125.12
418.051	104.12
418.274	98.12
418.497	97.12
418.72	84.12
418.943	75.12
419.166	96.12
419.389	80.12
419.611	97.12
419.834	104.12
420.057	88.12
420.28	104.12
420.503	106.12
420.726	92.12
420.948	99.12
421.171	94.12
421.394	102.12
421.617	97.12
421.839	109.12
422.062	78.12
422.285	107.12
422.507	111.12
422.73	106.12
422.953	102.12
423.175	79.12
423.398	92.12
423.621	91.12
423.843	93.12
424.066	90.12
424.288	103.12
424.511	104.12
424.733	111.12
424.956	147.12
425.178	115.12
425.401	113.12
425.623	130.12
425.846	104.12
426.068	106.12
426.291	104.12
426.513	90.12
426.735	105.12
426.958	113.12
427.18	143.12
427.402	210.12
427.625	336.12
427.847	302.12
428.069	271.12
428.292	155.12
428.514	118.12
428.736	70.12
428.958	83.12
429.181	94.12
429.403	115.12
429.625	86.12
429.847	104.12
430.069	135.12
430.292	115.12
430.514	87.12
430.736	87.12
430.958	103.12
431.18	84.12
431.402	96.12
431.624	120.12
431.846	79.12
432.068	84.12
432.29	101.12
432.512	95.12
432.734	83.12
432.956	85.12
433.178	109.12
433.4	110.12
433.622	105.12
433.844	95.12
434.066	101.12
434.287	95.12
434.509	97.12
434.731	92.12
434.953	99.12
435.175	93.12
435.397	99.12
435.618	105.12
435.84	112.12
436.062	158.12
436.284	149.12
436.505	110.12
436.727	114.12
436.949	102.12
437.17	99.12
437.392	87.12
437.614	105.12
437.835	146.12
438.057	166.12
438.278	156.12
438.5	118.12
438.721	148.12
438.943	125.12
439.165	105.12
439.386	93.12
439.608	102.12
439.829	122.12
440.05	163.12
440.272	220.12
440.493	126.12
440.715	92.12
440.936	102.12
441.158	90.12
441.379	93.12
441.6	92.12
441.822	110.12
442.043	101.12
442.264	125.12
442.486	125.12
442.707	111.12
442.928	165.12
443.149	182.12
443.371	207.12
443.592	159.12
443.813	159.12
444.034	148.12
444.255	90.12
444.476	89.12
444.698	97.12
444.919	88.12
445.14	140.12
445.361	145.12
445.582	166.12
445.803	214.12
446.024	215.12
446.245	198.12
446.466	151.12
446.687	100.12
446.908	85.12
447.129	113.12
447.35	85.12
447.571	108.12
447.792	94.12
448.013	106.12
448.234	129.12
448.455	116.12
448.675	148.12
448.896	169.12
449.117	123.12
449.338	115.12
449.559	154.12
449.779	173.12
450	119.12
450.221	99.12
450.442	92.12
450.662	129.12
450.883	157.12
451.104	151.12
451.324	111.12
451.545	105.12
451.766	96.12
451.986	92.12
452.207	98.12
452.428	109.12
452.648	119.12
452.869	136.12
453.089	157.12
453.31	150.12
453.53	103.12
453.751	125.12
453.971	115.12
454.192	150.12
454.412	117.12
454.633	99.12
454.853	85.12
455.073	90.12
455.294	111.12
455.514	125.12
455.734	91.12
455.955	90.12
456.175	99.12
456.395	82.12
456.616	91.12
456.836	77.12
457.056	102.12
457.276	87.12
457.497	96.12
457.717	83.12
457.937	90.12
458.157	81.12
458.377	99.12
458.598	142.12
458.818	244.12
459.038	270.12
459.258	191.12
459.478	117.12
459.698	103.12
459.918	115.12
460.138	80.12
460.358	92.12
460.578	99.12
460.798	104.12
461.018	97.12
461.238	93.12
461.458	83.12
461.678	109.12
461.898	93.12
462.118	97.12
462.338	83.12
462.558	97.12
462.777	85.12
462.997	100.12
463.217	118.12
463.437	102.12
463.657	104.12
463.876	90.12
464.096	100.12
464.316	96.12
464.536	102.12
464.755	112.12
464.975	141.12
465.195	285.12
465.414	283.12
465.634	111.12
465.854	85.12
466.073	87.12
466.293	96.12
466.512	103.12
466.732	96.12
466.951	99.12
467.171	107.12
467.391	115.12
467.61	174.12
467.829	296.12
468.049	851.12
468.268	1337.12
468.488	337.12
468.707	135.12
468.927	109.12
469.146	98.12
469.365	97.12
469.585	104.12
469.804	121.12
470.023	112.12
470.243	114.12
470.462	117.12
470.681	164.12
470.901	114.12
471.12	123.12
471.339	115.12
471.558	137.12
471.777	184.12
471.997	400.12
472.216	1624.12
472.435	4022.12
472.654	921.12
472.873	236.12
473.092	123.12
473.311	107.12
473.53	94.12
473.749	102.12
473.968	126.12
474.187	149.12
474.406	114.12
474.625	94.12
474.844	101.12
475.063	88.12
475.282	87.12
475.501	90.12
475.72	99.12
475.939	102.12
476.158	109.12
476.377	106.12
476.596	112.12
476.814	106.12
477.033	119.12
477.252	109.12
477.471	90.12
477.69	107.12
477.908	95.12
478.127	102.12
478.346	104.12
478.564	105.12
478.783	126.12
479.002	116.12
479.22	111.12
479.439	138.12
479.658	143.12
479.876	131.12
480.095	150.12
480.313	177.12
480.532	195.12
480.751	376.12
480.969	1457.12
481.188	6471.12
481.406	4031.12
481.624	521.12
481.843	187.12
482.061	124.12
482.28	131.12
482.498	102.12
482.717	95.12
482.935	91.12
483.153	90.12
483.372	100.12
483.59	93.12
483.808	83.12
484.027	104.12
484.245	119.12
484.463	104.12
484.681	96.12
484.9	94.12
485.118	96.12
485.336	97.12
485.554	107.12
485.772	97.12
485.99	115.12
486.209	127.12
486.427	120.12
486.645	121.12
486.863	127.12
487.081	117.12
487.299	103.12
487.517	98.12
487.735	98.12
487.953	90.12
488.171	105.12
488.389	99.12
488.607	106.12
488.825	90.12
489.043	105.12
489.261	100.12
489.479	93.12
489.696	86.12
489.914	86.12
490.132	92.12
490.35	92.12
490.568	99.12
490.786	95.12
491.003	85.12
491.221	99.12
491.439	112.12
491.657	99.12
491.874	87.12
492.092	97.12
492.31	121.12
492.527	110.12
492.745	106.12
492.963	105.12
493.18	101.12
493.398	98.12
493.615	103.12
493.833	90.12
494.05	86.12
494.268	111.12
494.485	99.12
494.703	101.12
494.92	95.12
495.138	94.12
495.355	89.12
495.573	97.12
495.79	93.12
496.008	92.12
496.225	98.12
496.442	101.12
496.66	100.12
496.877	95.12
497.094	101.12
497.312	90.12
497.529	78.12
497.746	74.12
497.963	94.12
498.181	94.12
498.398	106.12
498.615	136.12
498.832	109.12
499.049	101.12
499.267	102.12
499.484	85.12
499.701	88.12
499.918	87.12
500.135	104.12
500.352	98.12
500.569	106.12
500.786	103.12
501.003	96.12
501.22	99.12
501.437	90.12
501.654	110.12
501.871	146.12
502.088	116.12
502.305	94.12
502.522	102.12
502.739	98.12
502.956	87.12
503.172	109.12
503.389	109.12
503.606	126.12
503.823	138.12
504.04	117.12
504.256	98.12
504.473	91.12
504.69	108.12
504.907	89.12
505.123	105.12
505.34	90.12
505.557	104.12
505.773	81.12
505.99	78.12
506.207	99.12
506.423	99.12
506.64	90.12
506.856	94.12
507.073	98.12
507.289	104.12
507.506	105.12
507.722	150.12
507.939	157.12
508.155	131.12
508.372	121.12
508.588	94.12
508.805	110.12
509.021	107.12
509.238	110.12
509.454	102.12
509.67	114.12
509.887	136.12
510.103	151.12
510.319	287.12
510.536	1135.12
510.752	3984.12
510.968	1109.12
