Data from Circ_2023_H10_HRD10591_00092.txt Node
Date: Wed Jan 03 09:50:49 EST 2024
User: Yrep
Spectrometer: HR+D1059
Trigger mode: 1
Integration Time (sec): 1.000000E-1
Scans to average: 1
Electric dark correction enabled: true
Nonlinearity correction enabled: false
Boxcar width: 0
XAxis mode: Wavelengths
Number of Pixels in Spectrum: 2048
>>>>>Begin Spectral Data<<<<<
223.165	-14.75
223.4	-14.75
223.635	-14.75
223.869	-29.75
224.104	-29.75
224.338	-21.75
224.573	-16.75
224.808	-1.75
225.042	-7.75
225.277	-7.75
225.511	4.25
225.746	1.25
225.98	14.25
226.215	19.25
226.449	21.25
226.683	21.25
226.918	27.25
227.152	21.25
227.387	35.25
227.621	43.25
227.856	61.25
228.09	43.25
228.324	46.25
228.559	59.25
228.793	63.25
229.027	72.25
229.262	78.25
229.496	91.25
229.73	96.25
229.964	90.25
230.199	89.25
230.433	72.25
230.667	77.25
230.901	83.25
231.136	77.25
231.37	67.25
231.604	77.25
231.838	79.25
232.072	79.25
232.306	92.25
232.541	77.25
232.775	85.25
233.009	90.25
233.243	84.25
233.477	83.25
233.711	91.25
233.945	85.25
234.179	83.25
234.413	71.25
234.647	83.25
234.881	76.25
235.115	80.25
235.349	86.25
235.583	88.25
235.817	97.25
236.051	76.25
236.285	87.25
236.519	94.25
236.753	89.25
236.987	82.25
237.221	111.25
237.455	109.25
237.689	103.25
237.922	91.25
238.156	76.25
238.39	81.25
238.624	86.25
238.858	93.25
239.091	79.25
239.325	81.25
239.559	84.25
239.793	79.25
240.027	97.25
240.26	74.25
240.494	85.25
240.728	92.25
240.961	82.25
241.195	88.25
241.429	78.25
241.662	78.25
241.896	71.25
242.13	82.25
242.363	78.25
242.597	70.25
242.83	93.25
243.064	92.25
243.298	95.25
243.531	76.25
243.765	95.25
243.998	81.25
244.232	93.25
244.465	84.25
244.699	84.25
244.932	87.25
245.166	87.25
245.399	86.25
245.633	78.25
245.866	96.25
246.099	90.25
246.333	88.25
246.566	93.25
246.8	91.25
247.033	89.25
247.266	82.25
247.5	83.25
247.733	86.25
247.966	74.25
248.2	76.25
248.433	94.25
248.666	87.25
248.899	83.25
249.133	92.25
249.366	109.25
249.599	111.25
249.832	86.25
250.066	97.25
250.299	86.25
250.532	89.25
250.765	99.25
250.998	76.25
251.231	77.25
251.465	92.25
251.698	84.25
251.931	90.25
252.164	91.25
252.397	88.25
252.63	78.25
252.863	89.25
253.096	93.25
253.329	75.25
253.562	79.25
253.795	83.25
254.028	87.25
254.261	86.25
254.494	91.25
254.727	82.25
254.96	89.25
255.193	102.25
255.426	78.25
255.659	92.25
255.892	107.25
256.124	112.25
256.357	92.25
256.59	100.25
256.823	95.25
257.056	87.25
257.289	103.25
257.521	108.25
257.754	90.25
257.987	84.25
258.22	86.25
258.452	98.25
258.685	111.25
258.918	103.25
259.151	94.25
259.383	101.25
259.616	86.25
259.849	83.25
260.081	90.25
260.314	91.25
260.547	93.25
260.779	122.25
261.012	119.25
261.244	124.25
261.477	110.25
261.71	111.25
261.942	131.25
262.175	126.25
262.407	100.25
262.64	82.25
262.872	83.25
263.105	96.25
263.337	87.25
263.57	92.25
263.802	83.25
264.035	85.25
264.267	105.25
264.499	92.25
264.732	80.25
264.964	76.25
265.197	92.25
265.429	86.25
265.661	92.25
265.894	86.25
266.126	94.25
266.358	99.25
266.591	89.25
266.823	86.25
267.055	74.25
267.287	84.25
267.52	88.25
267.752	96.25
267.984	100.25
268.216	94.25
268.448	102.25
268.681	92.25
268.913	107.25
269.145	94.25
269.377	88.25
269.609	88.25
269.841	82.25
270.073	88.25
270.306	97.25
270.538	92.25
270.77	82.25
271.002	98.25
271.234	94.25
271.466	98.25
271.698	88.25
271.93	106.25
272.162	86.25
272.394	85.25
272.626	86.25
272.858	76.25
273.09	91.25
273.322	100.25
273.553	90.25
273.785	81.25
274.017	84.25
274.249	98.25
274.481	93.25
274.713	90.25
274.945	102.25
275.176	96.25
275.408	126.25
275.64	129.25
275.872	142.25
276.104	132.25
276.335	109.25
276.567	112.25
276.799	147.25
277.031	186.25
277.262	229.25
277.494	179.25
277.726	119.25
277.957	104.25
278.189	97.25
278.421	91.25
278.652	101.25
278.884	94.25
279.115	96.25
279.347	88.25
279.579	105.25
279.81	140.25
280.042	230.25
280.273	317.25
280.505	230.25
280.736	131.25
280.968	105.25
281.199	94.25
281.431	100.25
281.662	92.25
281.894	94.25
282.125	96.25
282.356	145.25
282.588	181.25
282.819	133.25
283.051	112.25
283.282	90.25
283.513	84.25
283.745	99.25
283.976	88.25
284.207	93.25
284.439	90.25
284.67	86.25
284.901	90.25
285.132	88.25
285.364	94.25
285.595	103.25
285.826	82.25
286.057	94.25
286.288	91.25
286.52	104.25
286.751	81.25
286.982	101.25
287.213	91.25
287.444	96.25
287.675	96.25
287.906	101.25
288.138	102.25
288.369	101.25
288.6	97.25
288.831	88.25
289.062	86.25
289.293	98.25
289.524	79.25
289.755	108.25
289.986	106.25
290.217	108.25
290.448	94.25
290.679	90.25
290.91	101.25
291.141	88.25
291.371	89.25
291.602	88.25
291.833	96.25
292.064	94.25
292.295	104.25
292.526	102.25
292.757	95.25
292.987	85.25
293.218	97.25
293.449	76.25
293.68	95.25
293.91	97.25
294.141	97.25
294.372	90.25
294.603	91.25
294.833	99.25
295.064	90.25
295.295	96.25
295.525	79.25
295.756	109.25
295.987	132.25
296.217	158.25
296.448	136.25
296.679	101.25
296.909	87.25
297.14	95.25
297.37	90.25
297.601	93.25
297.831	99.25
298.062	106.25
298.292	92.25
298.523	91.25
298.753	76.25
298.984	97.25
299.214	95.25
299.445	102.25
299.675	87.25
299.905	102.25
300.136	100.25
300.366	101.25
300.597	109.25
300.827	92.25
301.057	108.25
301.288	112.25
301.518	116.25
301.748	104.25
301.979	123.25
302.209	111.25
302.439	101.25
302.669	113.25
302.9	102.25
303.13	98.25
303.36	119.25
303.59	160.25
303.82	174.25
304.051	113.25
304.281	91.25
304.511	96.25
304.741	92.25
304.971	92.25
305.201	90.25
305.431	87.25
305.661	89.25
305.891	101.25
306.121	99.25
306.352	131.25
306.582	125.25
306.812	131.25
307.042	130.25
307.272	178.25
307.502	207.25
307.731	182.25
307.961	133.25
308.191	106.25
308.421	118.25
308.651	109.25
308.881	87.25
309.111	108.25
309.341	105.25
309.571	87.25
309.8	87.25
310.03	105.25
310.26	113.25
310.49	103.25
310.72	113.25
310.949	126.25
311.179	123.25
311.409	98.25
311.639	108.25
311.868	102.25
312.098	114.25
312.328	111.25
312.557	122.25
312.787	127.25
313.017	104.25
313.246	107.25
313.476	99.25
313.706	97.25
313.935	98.25
314.165	111.25
314.394	121.25
314.624	115.25
314.853	119.25
315.083	98.25
315.312	98.25
315.542	95.25
315.771	115.25
316.001	102.25
316.23	108.25
316.46	91.25
316.689	92.25
316.919	106.25
317.148	113.25
317.377	104.25
317.607	115.25
317.836	107.25
318.065	101.25
318.295	104.25
318.524	89.25
318.753	95.25
318.983	105.25
319.212	111.25
319.441	119.25
319.67	126.25
319.9	107.25
320.129	111.25
320.358	107.25
320.587	115.25
320.816	102.25
321.046	119.25
321.275	106.25
321.504	106.25
321.733	110.25
321.962	112.25
322.191	118.25
322.42	106.25
322.649	122.25
322.878	126.25
323.108	125.25
323.337	150.25
323.566	158.25
323.795	207.25
324.024	246.25
324.253	496.25
324.482	1058.25
324.71	2184.25
324.939	2847.25
325.168	1006.25
325.397	311.25
325.626	168.25
325.855	147.25
326.084	159.25
326.313	144.25
326.542	181.25
326.77	272.25
326.999	565.25
327.228	1199.25
327.457	2113.25
327.686	1753.25
327.914	622.25
328.143	616.25
328.372	839.25
328.6	480.25
328.829	206.25
329.058	195.25
329.287	225.25
329.515	198.25
329.744	296.25
329.972	594.25
330.201	1280.25
330.43	1902.25
330.658	825.25
330.887	327.25
331.115	202.25
331.344	129.25
331.572	136.25
331.801	135.25
332.03	118.25
332.258	111.25
332.486	111.25
332.715	134.25
332.943	118.25
333.172	129.25
333.4	142.25
333.629	172.25
333.857	262.25
334.085	551.25
334.314	1194.25
334.542	2397.25
334.771	2238.25
334.999	550.25
335.227	218.25
335.455	128.25
335.684	131.25
335.912	125.25
336.14	128.25
336.369	117.25
336.597	116.25
336.825	88.25
337.053	107.25
337.281	102.25
337.51	113.25
337.738	100.25
337.966	117.25
338.194	113.25
338.422	106.25
338.65	103.25
338.878	105.25
339.106	86.25
339.334	101.25
339.562	95.25
339.79	77.25
340.018	95.25
340.246	106.25
340.474	103.25
340.702	111.25
340.93	102.25
341.158	107.25
341.386	124.25
341.614	115.25
341.842	98.25
342.07	108.25
342.298	79.25
342.526	90.25
342.754	92.25
342.981	85.25
343.209	108.25
343.437	108.25
343.665	100.25
343.893	101.25
344.12	95.25
344.348	100.25
344.576	97.25
344.804	99.25
345.031	110.25
345.259	114.25
345.487	113.25
345.714	115.25
345.942	109.25
346.17	88.25
346.397	106.25
346.625	85.25
346.853	98.25
347.08	107.25
347.308	97.25
347.535	110.25
347.763	118.25
347.99	105.25
348.218	112.25
348.445	124.25
348.673	122.25
348.9	102.25
349.128	102.25
349.355	98.25
349.583	87.25
349.81	97.25
350.037	96.25
350.265	102.25
350.492	97.25
350.72	96.25
350.947	97.25
351.174	130.25
351.402	120.25
351.629	118.25
351.856	101.25
352.083	113.25
352.311	131.25
352.538	122.25
352.765	127.25
352.992	124.25
353.22	122.25
353.447	114.25
353.674	92.25
353.901	103.25
354.128	101.25
354.355	90.25
354.583	105.25
354.81	114.25
355.037	110.25
355.264	83.25
355.491	109.25
355.718	97.25
355.945	93.25
356.172	99.25
356.399	93.25
356.626	93.25
356.853	89.25
357.08	101.25
357.307	104.25
357.534	100.25
357.761	102.25
357.988	90.25
358.215	100.25
358.441	86.25
358.668	94.25
358.895	89.25
359.122	100.25
359.349	81.25
359.576	108.25
359.802	110.25
360.029	143.25
360.256	125.25
360.483	109.25
360.709	93.25
360.936	110.25
361.163	105.25
361.39	110.25
361.616	105.25
361.843	98.25
362.07	106.25
362.296	102.25
362.523	92.25
362.749	106.25
362.976	95.25
363.203	112.25
363.429	106.25
363.656	93.25
363.882	97.25
364.109	101.25
364.335	90.25
364.562	99.25
364.788	92.25
365.015	101.25
365.241	110.25
365.468	132.25
365.694	121.25
365.92	107.25
366.147	106.25
366.373	81.25
366.599	87.25
366.826	113.25
367.052	102.25
367.278	104.25
367.505	104.25
367.731	98.25
367.957	95.25
368.184	95.25
368.41	100.25
368.636	111.25
368.862	107.25
369.089	118.25
369.315	111.25
369.541	104.25
369.767	94.25
369.993	105.25
370.219	97.25
370.445	98.25
370.672	92.25
370.898	71.25
371.124	83.25
371.35	93.25
371.576	81.25
371.802	86.25
372.028	89.25
372.254	77.25
372.48	82.25
372.706	91.25
372.932	92.25
373.158	88.25
373.384	95.25
373.61	90.25
373.835	101.25
374.061	95.25
374.287	98.25
374.513	96.25
374.739	78.25
374.965	102.25
375.191	119.25
375.416	110.25
375.642	101.25
375.868	92.25
376.094	90.25
376.319	93.25
376.545	90.25
376.771	91.25
376.997	106.25
377.222	102.25
377.448	84.25
377.674	96.25
377.899	93.25
378.125	93.25
378.35	103.25
378.576	91.25
378.802	85.25
379.027	114.25
379.253	104.25
379.478	99.25
379.704	97.25
379.929	102.25
380.155	102.25
380.38	92.25
380.606	116.25
380.831	118.25
381.057	99.25
381.282	104.25
381.507	98.25
381.733	97.25
381.958	105.25
382.184	119.25
382.409	98.25
382.634	96.25
382.86	95.25
383.085	97.25
383.31	103.25
383.535	100.25
383.761	111.25
383.986	107.25
384.211	92.25
384.436	102.25
384.662	94.25
384.887	91.25
385.112	97.25
385.337	85.25
385.562	105.25
385.787	110.25
386.013	102.25
386.238	119.25
386.463	100.25
386.688	102.25
386.913	109.25
387.138	102.25
387.363	97.25
387.588	95.25
387.813	104.25
388.038	104.25
388.263	105.25
388.488	101.25
388.713	93.25
388.938	87.25
389.163	88.25
389.387	108.25
389.612	103.25
389.837	89.25
390.062	101.25
390.287	95.25
390.512	102.25
390.736	95.25
390.961	100.25
391.186	98.25
391.411	90.25
391.636	92.25
391.86	87.25
392.085	88.25
392.31	98.25
392.534	86.25
392.759	92.25
392.984	94.25
393.208	101.25
393.433	100.25
393.658	85.25
393.882	82.25
394.107	83.25
394.331	92.25
394.556	100.25
394.78	96.25
395.005	97.25
395.229	89.25
395.454	94.25
395.678	95.25
395.903	82.25
396.127	84.25
396.352	102.25
396.576	88.25
396.801	85.25
397.025	74.25
397.249	94.25
397.474	91.25
397.698	107.25
397.922	93.25
398.147	87.25
398.371	85.25
398.595	92.25
398.82	93.25
399.044	83.25
399.268	86.25
399.492	73.25
399.717	101.25
399.941	99.25
400.165	96.25
400.389	106.25
400.613	92.25
400.837	79.25
401.062	85.25
401.286	78.25
401.51	92.25
401.734	86.25
401.958	121.25
402.182	136.25
402.406	183.25
402.63	127.25
402.854	114.25
403.078	89.25
403.302	88.25
403.526	90.25
403.75	75.25
403.974	101.25
404.198	98.25
404.422	101.25
404.645	108.25
404.869	118.25
405.093	123.25
405.317	178.25
405.541	165.25
405.765	114.25
405.988	134.25
406.212	197.25
406.436	285.25
406.66	197.25
406.883	133.25
407.107	106.25
407.331	121.25
407.555	116.25
407.778	123.25
408.002	112.25
408.226	93.25
408.449	81.25
408.673	95.25
408.896	99.25
409.12	99.25
409.344	89.25
409.567	83.25
409.791	75.25
410.014	95.25
410.238	90.25
410.461	89.25
410.685	96.25
410.908	105.25
411.132	118.25
411.355	121.25
411.578	96.25
411.802	90.25
412.025	97.25
412.249	118.25
412.472	139.25
412.695	170.25
412.919	132.25
413.142	110.25
413.365	93.25
413.589	101.25
413.812	91.25
414.035	103.25
414.258	94.25
414.482	87.25
414.705	100.25
414.928	82.25
415.151	104.25
415.374	102.25
415.597	93.25
415.821	91.25
416.044	99.25
416.267	98.25
416.49	92.25
416.713	99.25
416.936	100.25
417.159	95.25
417.382	106.25
417.605	133.25
417.828	123.25
418.051	106.25
418.274	104.25
418.497	102.25
418.72	94.25
418.943	90.25
419.166	98.25
419.389	74.25
419.611	90.25
419.834	101.25
420.057	101.25
420.28	110.25
420.503	95.25
420.726	85.25
420.948	109.25
421.171	116.25
421.394	98.25
421.617	83.25
421.839	99.25
422.062	99.25
422.285	98.25
422.507	110.25
422.73	116.25
422.953	119.25
423.175	100.25
423.398	90.25
423.621	85.25
423.843	99.25
424.066	98.25
424.288	91.25
424.511	118.25
424.733	116.25
424.956	132.25
425.178	112.25
425.401	118.25
425.623	126.25
425.846	94.25
426.068	119.25
426.291	96.25
426.513	113.25
426.735	98.25
426.958	103.25
427.18	144.25
427.402	202.25
427.625	267.25
427.847	253.25
428.069	257.25
428.292	167.25
428.514	120.25
428.736	98.25
428.958	108.25
429.181	85.25
429.403	115.25
429.625	97.25
429.847	106.25
430.069	126.25
430.292	116.25
430.514	97.25
430.736	100.25
430.958	103.25
431.18	92.25
431.402	96.25
431.624	85.25
431.846	84.25
432.068	103.25
432.29	92.25
432.512	86.25
432.734	79.25
432.956	89.25
433.178	109.25
433.4	113.25
433.622	106.25
433.844	100.25
434.066	96.25
434.287	97.25
434.509	97.25
434.731	111.25
434.953	99.25
435.175	97.25
435.397	98.25
435.618	105.25
435.84	116.25
436.062	161.25
436.284	170.25
436.505	117.25
436.727	115.25
436.949	98.25
437.17	95.25
437.392	85.25
437.614	104.25
437.835	121.25
438.057	133.25
438.278	149.25
438.5	121.25
438.721	146.25
438.943	129.25
439.165	110.25
439.386	99.25
439.608	105.25
439.829	131.25
440.05	174.25
440.272	205.25
440.493	118.25
440.715	113.25
440.936	95.25
441.158	92.25
441.379	82.25
441.6	98.25
441.822	107.25
442.043	104.25
442.264	124.25
442.486	123.25
442.707	120.25
442.928	133.25
443.149	162.25
443.371	180.25
443.592	148.25
443.813	150.25
444.034	149.25
444.255	110.25
444.476	99.25
444.698	90.25
444.919	89.25
445.14	120.25
445.361	144.25
445.582	152.25
445.803	204.25
446.024	185.25
446.245	163.25
446.466	143.25
446.687	105.25
446.908	97.25
447.129	113.25
447.35	101.25
447.571	99.25
447.792	106.25
448.013	105.25
448.234	115.25
448.455	117.25
448.675	159.25
448.896	159.25
449.117	103.25
449.338	135.25
449.559	169.25
449.779	179.25
450	114.25
450.221	90.25
450.442	92.25
450.662	105.25
450.883	118.25
451.104	139.25
451.324	111.25
451.545	98.25
451.766	72.25
451.986	88.25
452.207	97.25
452.428	110.25
452.648	117.25
452.869	139.25
453.089	121.25
453.31	139.25
453.53	110.25
453.751	96.25
453.971	118.25
454.192	143.25
454.412	118.25
454.633	96.25
454.853	106.25
455.073	91.25
455.294	111.25
455.514	129.25
455.734	108.25
455.955	88.25
456.175	95.25
456.395	87.25
456.616	82.25
456.836	89.25
457.056	96.25
457.276	94.25
457.497	79.25
457.717	86.25
457.937	93.25
458.157	95.25
458.377	115.25
458.598	119.25
458.818	223.25
459.038	221.25
459.258	156.25
459.478	118.25
459.698	97.25
459.918	99.25
460.138	91.25
460.358	100.25
460.578	111.25
460.798	103.25
461.018	103.25
461.238	106.25
461.458	93.25
461.678	94.25
461.898	98.25
462.118	88.25
462.338	99.25
462.558	97.25
462.777	90.25
462.997	113.25
463.217	133.25
463.437	105.25
463.657	115.25
463.876	83.25
464.096	94.25
464.316	113.25
464.536	119.25
464.755	108.25
464.975	125.25
465.195	225.25
465.414	213.25
465.634	126.25
465.854	97.25
466.073	113.25
466.293	90.25
466.512	87.25
466.732	89.25
466.951	106.25
467.171	109.25
467.391	119.25
467.61	143.25
467.829	232.25
468.049	711.25
468.268	1110.25
468.488	283.25
468.707	114.25
468.927	106.25
469.146	113.25
469.365	81.25
469.585	113.25
469.804	126.25
470.023	136.25
470.243	125.25
470.462	111.25
470.681	155.25
470.901	111.25
471.12	105.25
471.339	106.25
471.558	148.25
471.777	186.25
471.997	353.25
472.216	1363.25
472.435	3315.25
472.654	778.25
472.873	195.25
473.092	126.25
473.311	93.25
473.53	101.25
473.749	104.25
473.968	121.25
474.187	147.25
474.406	120.25
474.625	107.25
474.844	86.25
475.063	104.25
475.282	100.25
475.501	106.25
475.72	99.25
475.939	89.25
476.158	88.25
476.377	102.25
476.596	108.25
476.814	93.25
477.033	119.25
477.252	100.25
477.471	101.25
477.69	105.25
477.908	107.25
478.127	87.25
478.346	96.25
478.564	99.25
478.783	115.25
479.002	102.25
479.22	115.25
479.439	135.25
479.658	155.25
479.876	129.25
480.095	145.25
480.313	148.25
480.532	186.25
480.751	331.25
480.969	1250.25
481.188	5420.25
481.406	3389.25
481.624	460.25
481.843	161.25
482.061	120.25
482.28	116.25
482.498	107.25
482.717	106.25
482.935	84.25
483.153	104.25
483.372	99.25
483.59	100.25
483.808	100.25
484.027	102.25
484.245	106.25
484.463	89.25
484.681	117.25
484.9	110.25
485.118	109.25
485.336	106.25
485.554	78.25
485.772	109.25
485.99	93.25
486.209	109.25
486.427	121.25
486.645	144.25
486.863	133.25
487.081	117.25
487.299	105.25
487.517	84.25
487.735	92.25
487.953	86.25
488.171	95.25
488.389	105.25
488.607	105.25
488.825	105.25
489.043	93.25
489.261	99.25
489.479	83.25
489.696	99.25
489.914	100.25
490.132	91.25
490.35	93.25
490.568	97.25
490.786	99.25
491.003	96.25
491.221	116.25
491.439	95.25
491.657	98.25
491.874	102.25
492.092	103.25
492.31	97.25
492.527	108.25
492.745	124.25
492.963	97.25
493.18	111.25
493.398	105.25
493.615	107.25
493.833	104.25
494.05	99.25
494.268	92.25
494.485	96.25
494.703	101.25
494.92	91.25
495.138	96.25
495.355	109.25
495.573	107.25
495.79	98.25
496.008	85.25
496.225	98.25
496.442	85.25
496.66	99.25
496.877	81.25
497.094	96.25
497.312	103.25
497.529	89.25
497.746	90.25
497.963	103.25
498.181	117.25
498.398	113.25
498.615	123.25
498.832	132.25
499.049	101.25
499.267	94.25
499.484	89.25
499.701	112.25
499.918	99.25
500.135	88.25
500.352	101.25
500.569	116.25
500.786	107.25
501.003	105.25
501.22	91.25
501.437	106.25
501.654	115.25
501.871	130.25
502.088	106.25
502.305	104.25
502.522	93.25
502.739	98.25
502.956	90.25
503.172	98.25
503.389	118.25
503.606	123.25
503.823	124.25
504.04	105.25
504.256	104.25
504.473	92.25
504.69	95.25
504.907	91.25
505.123	92.25
505.34	105.25
505.557	104.25
505.773	82.25
505.99	89.25
506.207	89.25
506.423	108.25
506.64	95.25
506.856	98.25
507.073	96.25
507.289	87.25
507.506	93.25
507.722	130.25
507.939	137.25
508.155	100.25
508.372	106.25
508.588	102.25
508.805	113.25
509.021	113.25
509.238	110.25
509.454	125.25
509.67	100.25
509.887	131.25
510.103	134.25
510.319	235.25
510.536	865.25
