Data from Circ_2023_H10_HRD10591_00003.txt Node
Date: Wed Jan 03 09:50:31 EST 2024
User: Yrep
Spectrometer: HR+D1059
Trigger mode: 1
Integration Time (sec): 1.000000E-1
Scans to average: 1
Electric dark correction enabled: true
Nonlinearity correction enabled: false
Boxcar width: 0
XAxis mode: Wavelengths
Number of Pixels in Spectrum: 2048
>>>>>Begin Spectral Data<<<<<
223.165	-6.75
223.4	-6.75
223.635	-6.75
223.869	-22.75
224.104	-18.75
224.338	-14.75
224.573	-14.75
224.808	-19.75
225.042	-19.75
225.277	2.25
225.511	0.25
225.746	4.25
225.98	12.25
226.215	1.25
226.449	12.25
226.683	24.25
226.918	21.25
227.152	39.25
227.387	49.25
227.621	52.25
227.856	50.25
228.09	53.25
228.324	58.25
228.559	50.25
228.793	56.25
229.027	61.25
229.262	77.25
229.496	81.25
229.73	87.25
229.964	81.25
230.199	81.25
230.433	84.25
230.667	88.25
230.901	96.25
231.136	82.25
231.37	84.25
231.604	89.25
231.838	75.25
232.072	67.25
232.306	88.25
232.541	77.25
232.775	86.25
233.009	77.25
233.243	86.25
233.477	97.25
233.711	93.25
233.945	77.25
234.179	86.25
234.413	96.25
234.647	85.25
234.881	83.25
235.115	85.25
235.349	83.25
235.583	84.25
235.817	76.25
236.051	76.25
236.285	84.25
236.519	76.25
236.753	93.25
236.987	102.25
237.221	101.25
237.455	93.25
237.689	86.25
237.922	76.25
238.156	87.25
238.39	89.25
238.624	75.25
238.858	83.25
239.091	70.25
239.325	87.25
239.559	86.25
239.793	90.25
240.027	91.25
240.26	70.25
240.494	83.25
240.728	74.25
240.961	67.25
241.195	84.25
241.429	93.25
241.662	74.25
241.896	74.25
242.13	82.25
242.363	83.25
242.597	66.25
242.83	82.25
243.064	80.25
243.298	98.25
243.531	76.25
243.765	77.25
243.998	79.25
244.232	67.25
244.465	89.25
244.699	91.25
244.932	96.25
245.166	74.25
245.399	87.25
245.633	83.25
245.866	73.25
246.099	76.25
246.333	77.25
246.566	93.25
246.8	76.25
247.033	74.25
247.266	94.25
247.5	87.25
247.733	72.25
247.966	73.25
248.2	74.25
248.433	83.25
248.666	84.25
248.899	93.25
249.133	96.25
249.366	95.25
249.599	116.25
249.832	89.25
250.066	91.25
250.299	85.25
250.532	100.25
250.765	83.25
250.998	85.25
251.231	91.25
251.465	92.25
251.698	89.25
251.931	85.25
252.164	83.25
252.397	81.25
252.63	84.25
252.863	70.25
253.096	69.25
253.329	96.25
253.562	87.25
253.795	90.25
254.028	81.25
254.261	84.25
254.494	98.25
254.727	88.25
254.96	88.25
255.193	92.25
255.426	86.25
255.659	88.25
255.892	95.25
256.124	77.25
256.357	82.25
256.59	91.25
256.823	75.25
257.056	97.25
257.289	97.25
257.521	89.25
257.754	91.25
257.987	86.25
258.22	93.25
258.452	80.25
258.685	92.25
258.918	93.25
259.151	100.25
259.383	91.25
259.616	82.25
259.849	80.25
260.081	78.25
260.314	81.25
260.547	86.25
260.779	101.25
261.012	98.25
261.244	96.25
261.477	96.25
261.71	95.25
261.942	120.25
262.175	134.25
262.407	99.25
262.64	101.25
262.872	99.25
263.105	114.25
263.337	88.25
263.57	80.25
263.802	75.25
264.035	75.25
264.267	99.25
264.499	89.25
264.732	85.25
264.964	85.25
265.197	80.25
265.429	94.25
265.661	94.25
265.894	88.25
266.126	84.25
266.358	87.25
266.591	96.25
266.823	103.25
267.055	83.25
267.287	104.25
267.52	75.25
267.752	87.25
267.984	99.25
268.216	96.25
268.448	102.25
268.681	94.25
268.913	84.25
269.145	105.25
269.377	82.25
269.609	82.25
269.841	102.25
270.073	98.25
270.306	83.25
270.538	88.25
270.77	89.25
271.002	77.25
271.234	97.25
271.466	101.25
271.698	93.25
271.93	94.25
272.162	95.25
272.394	106.25
272.626	98.25
272.858	92.25
273.09	94.25
273.322	84.25
273.553	96.25
273.785	92.25
274.017	84.25
274.249	100.25
274.481	93.25
274.713	91.25
274.945	112.25
275.176	99.25
275.408	103.25
275.64	102.25
275.872	112.25
276.104	100.25
276.335	105.25
276.567	110.25
276.799	130.25
277.031	133.25
277.262	154.25
277.494	122.25
277.726	92.25
277.957	86.25
278.189	86.25
278.421	91.25
278.652	97.25
278.884	105.25
279.115	105.25
279.347	104.25
279.579	102.25
279.81	124.25
280.042	149.25
280.273	203.25
280.505	134.25
280.736	99.25
280.968	78.25
281.199	75.25
281.431	99.25
281.662	105.25
281.894	89.25
282.125	115.25
282.356	124.25
282.588	148.25
282.819	135.25
283.051	84.25
283.282	85.25
283.513	90.25
283.745	93.25
283.976	98.25
284.207	93.25
284.439	89.25
284.67	82.25
284.901	87.25
285.132	88.25
285.364	90.25
285.595	75.25
285.826	81.25
286.057	93.25
286.288	94.25
286.52	87.25
286.751	98.25
286.982	89.25
287.213	101.25
287.444	101.25
287.675	104.25
287.906	94.25
288.138	83.25
288.369	102.25
288.6	94.25
288.831	96.25
289.062	99.25
289.293	95.25
289.524	108.25
289.755	91.25
289.986	85.25
290.217	91.25
290.448	98.25
290.679	97.25
290.91	90.25
291.141	83.25
291.371	107.25
291.602	90.25
291.833	89.25
292.064	93.25
292.295	98.25
292.526	78.25
292.757	88.25
292.987	95.25
293.218	86.25
293.449	93.25
293.68	92.25
293.91	83.25
294.141	86.25
294.372	106.25
294.603	69.25
294.833	83.25
295.064	93.25
295.295	95.25
295.525	96.25
295.756	119.25
295.987	112.25
296.217	156.25
296.448	143.25
296.679	88.25
296.909	89.25
297.14	83.25
297.37	81.25
297.601	75.25
297.831	101.25
298.062	93.25
298.292	95.25
298.523	78.25
298.753	88.25
298.984	97.25
299.214	99.25
299.445	86.25
299.675	92.25
299.905	105.25
300.136	92.25
300.366	101.25
300.597	108.25
300.827	97.25
301.057	94.25
301.288	111.25
301.518	104.25
301.748	98.25
301.979	118.25
302.209	101.25
302.439	82.25
302.669	88.25
302.9	92.25
303.13	110.25
303.36	100.25
303.59	122.25
303.82	116.25
304.051	96.25
304.281	109.25
304.511	100.25
304.741	93.25
304.971	83.25
305.201	97.25
305.431	94.25
305.661	96.25
305.891	97.25
306.121	100.25
306.352	112.25
306.582	118.25
306.812	108.25
307.042	98.25
307.272	130.25
307.502	155.25
307.731	130.25
307.961	104.25
308.191	95.25
308.421	115.25
308.651	103.25
308.881	89.25
309.111	91.25
309.341	87.25
309.571	101.25
309.8	90.25
310.03	93.25
310.26	117.25
310.49	119.25
310.72	108.25
310.949	114.25
311.179	118.25
311.409	106.25
311.639	91.25
311.868	96.25
312.098	94.25
312.328	100.25
312.557	97.25
312.787	120.25
313.017	105.25
313.246	96.25
313.476	98.25
313.706	99.25
313.935	125.25
314.165	96.25
314.394	109.25
314.624	109.25
314.853	96.25
315.083	109.25
315.312	93.25
315.542	96.25
315.771	89.25
316.001	105.25
316.23	83.25
316.46	102.25
316.689	90.25
316.919	99.25
317.148	98.25
317.377	101.25
317.607	107.25
317.836	94.25
318.065	99.25
318.295	103.25
318.524	105.25
318.753	95.25
318.983	88.25
319.212	124.25
319.441	132.25
319.67	112.25
319.9	96.25
320.129	107.25
320.358	116.25
320.587	100.25
320.816	107.25
321.046	124.25
321.275	99.25
321.504	102.25
321.733	131.25
321.962	101.25
322.191	99.25
322.42	137.25
322.649	129.25
322.878	112.25
323.108	129.25
323.337	136.25
323.566	144.25
323.795	178.25
324.024	231.25
324.253	479.25
324.482	1018.25
324.71	2028.25
324.939	2752.25
325.168	1038.25
325.397	294.25
325.626	176.25
325.855	154.25
326.084	134.25
326.313	138.25
326.542	177.25
326.77	270.25
326.999	548.25
327.228	1111.25
327.457	2092.25
327.686	1709.25
327.914	514.25
328.143	406.25
328.372	450.25
328.6	283.25
328.829	151.25
329.058	173.25
329.287	187.25
329.515	159.25
329.744	191.25
329.972	344.25
330.201	639.25
330.43	956.25
330.658	457.25
330.887	242.25
331.115	192.25
331.344	108.25
331.572	130.25
331.801	119.25
332.03	107.25
332.258	124.25
332.486	107.25
332.715	110.25
332.943	108.25
333.172	123.25
333.4	126.25
333.629	146.25
333.857	196.25
334.085	311.25
334.314	630.25
334.542	1176.25
334.771	1110.25
334.999	345.25
335.227	148.25
335.455	115.25
335.684	113.25
335.912	117.25
336.14	99.25
336.369	124.25
336.597	96.25
336.825	109.25
337.053	108.25
337.281	110.25
337.51	102.25
337.738	99.25
337.966	103.25
338.194	107.25
338.422	107.25
338.65	107.25
338.878	106.25
339.106	78.25
339.334	91.25
339.562	98.25
339.79	98.25
340.018	102.25
340.246	99.25
340.474	88.25
340.702	110.25
340.93	88.25
341.158	98.25
341.386	101.25
341.614	101.25
341.842	111.25
342.07	97.25
342.298	96.25
342.526	85.25
342.754	91.25
342.981	92.25
343.209	110.25
343.437	110.25
343.665	100.25
343.893	92.25
344.12	94.25
344.348	93.25
344.576	91.25
344.804	85.25
345.031	105.25
345.259	110.25
345.487	114.25
345.714	108.25
345.942	99.25
346.17	81.25
346.397	91.25
346.625	107.25
346.853	113.25
347.08	84.25
347.308	108.25
347.535	102.25
347.763	110.25
347.99	109.25
348.218	107.25
348.445	117.25
348.673	129.25
348.9	113.25
349.128	105.25
349.355	89.25
349.583	89.25
349.81	112.25
350.037	108.25
350.265	79.25
350.492	93.25
350.72	115.25
350.947	117.25
351.174	119.25
351.402	137.25
351.629	111.25
351.856	101.25
352.083	112.25
352.311	131.25
352.538	137.25
352.765	123.25
352.992	129.25
353.22	120.25
353.447	99.25
353.674	112.25
353.901	99.25
354.128	106.25
354.355	89.25
354.583	114.25
354.81	100.25
355.037	93.25
355.264	89.25
355.491	106.25
355.718	104.25
355.945	86.25
356.172	109.25
356.399	76.25
356.626	89.25
356.853	73.25
357.08	101.25
357.307	91.25
357.534	100.25
357.761	96.25
357.988	82.25
358.215	95.25
358.441	100.25
358.668	101.25
358.895	98.25
359.122	89.25
359.349	89.25
359.576	97.25
359.802	112.25
360.029	109.25
360.256	128.25
360.483	100.25
360.709	97.25
360.936	112.25
361.163	96.25
361.39	100.25
361.616	102.25
361.843	98.25
362.07	109.25
362.296	97.25
362.523	101.25
362.749	106.25
362.976	95.25
363.203	105.25
363.429	105.25
363.656	105.25
363.882	107.25
364.109	100.25
364.335	90.25
364.562	100.25
364.788	98.25
365.015	86.25
365.241	102.25
365.468	121.25
365.694	120.25
365.92	101.25
366.147	112.25
366.373	107.25
366.599	93.25
366.826	97.25
367.052	92.25
367.278	96.25
367.505	99.25
367.731	106.25
367.957	103.25
368.184	93.25
368.41	99.25
368.636	116.25
368.862	136.25
369.089	107.25
369.315	97.25
369.541	112.25
369.767	102.25
369.993	92.25
370.219	86.25
370.445	94.25
370.672	90.25
370.898	89.25
371.124	108.25
371.35	87.25
371.576	85.25
371.802	97.25
372.028	106.25
372.254	98.25
372.48	100.25
372.706	81.25
372.932	86.25
373.158	97.25
373.384	98.25
373.61	87.25
373.835	102.25
374.061	88.25
374.287	104.25
374.513	96.25
374.739	81.25
374.965	92.25
375.191	108.25
375.416	88.25
375.642	87.25
375.868	98.25
376.094	94.25
376.319	102.25
376.545	93.25
376.771	101.25
376.997	91.25
377.222	115.25
377.448	97.25
377.674	98.25
377.899	93.25
378.125	89.25
378.35	84.25
378.576	97.25
378.802	93.25
379.027	92.25
379.253	98.25
379.478	93.25
379.704	103.25
379.929	97.25
380.155	98.25
380.38	106.25
380.606	95.25
380.831	100.25
381.057	89.25
381.282	98.25
381.507	97.25
381.733	108.25
381.958	101.25
382.184	86.25
382.409	77.25
382.634	107.25
382.86	97.25
383.085	87.25
383.31	97.25
383.535	98.25
383.761	102.25
383.986	114.25
384.211	105.25
384.436	101.25
384.662	100.25
384.887	89.25
385.112	91.25
385.337	90.25
385.562	90.25
385.787	99.25
386.013	107.25
386.238	102.25
386.463	106.25
386.688	114.25
386.913	103.25
387.138	100.25
387.363	108.25
387.588	98.25
387.813	102.25
388.038	105.25
388.263	106.25
388.488	107.25
388.713	90.25
388.938	109.25
389.163	85.25
389.387	100.25
389.612	99.25
389.837	85.25
390.062	99.25
390.287	84.25
390.512	85.25
390.736	85.25
390.961	93.25
391.186	101.25
391.411	101.25
391.636	92.25
391.86	88.25
392.085	86.25
392.31	92.25
392.534	92.25
392.759	100.25
392.984	101.25
393.208	98.25
393.433	94.25
393.658	101.25
393.882	93.25
394.107	86.25
394.331	80.25
394.556	82.25
394.78	107.25
395.005	90.25
395.229	89.25
395.454	88.25
395.678	87.25
395.903	96.25
396.127	91.25
396.352	94.25
396.576	84.25
396.801	102.25
397.025	88.25
397.249	99.25
397.474	89.25
397.698	100.25
397.922	105.25
398.147	84.25
398.371	103.25
398.595	96.25
398.82	93.25
399.044	87.25
399.268	99.25
399.492	96.25
399.717	99.25
399.941	96.25
400.165	103.25
400.389	81.25
400.613	88.25
400.837	91.25
401.062	78.25
401.286	90.25
401.51	92.25
401.734	88.25
401.958	107.25
402.182	144.25
402.406	192.25
402.63	132.25
402.854	104.25
403.078	89.25
403.302	88.25
403.526	87.25
403.75	100.25
403.974	91.25
404.198	97.25
404.422	99.25
404.645	98.25
404.869	90.25
405.093	106.25
405.317	148.25
405.541	147.25
405.765	119.25
405.988	118.25
406.212	213.25
406.436	282.25
406.66	188.25
406.883	120.25
407.107	101.25
407.331	96.25
407.555	117.25
407.778	114.25
408.002	104.25
408.226	89.25
408.449	87.25
408.673	87.25
408.896	102.25
409.12	98.25
409.344	87.25
409.567	97.25
409.791	96.25
410.014	99.25
410.238	94.25
410.461	89.25
410.685	94.25
410.908	105.25
411.132	115.25
411.355	123.25
411.578	96.25
411.802	96.25
412.025	75.25
412.249	97.25
412.472	119.25
412.695	120.25
412.919	113.25
413.142	101.25
413.365	97.25
413.589	85.25
413.812	100.25
414.035	86.25
414.258	86.25
414.482	102.25
414.705	89.25
414.928	96.25
415.151	101.25
415.374	104.25
415.597	85.25
415.821	86.25
416.044	89.25
416.267	79.25
416.49	96.25
416.713	90.25
416.936	96.25
417.159	96.25
417.382	92.25
417.605	104.25
417.828	102.25
418.051	101.25
418.274	99.25
418.497	92.25
418.72	89.25
418.943	96.25
419.166	91.25
419.389	91.25
419.611	93.25
419.834	103.25
420.057	87.25
420.28	99.25
420.503	94.25
420.726	94.25
420.948	93.25
421.171	99.25
421.394	92.25
421.617	99.25
421.839	102.25
422.062	106.25
422.285	104.25
422.507	101.25
422.73	114.25
422.953	100.25
423.175	101.25
423.398	104.25
423.621	85.25
423.843	90.25
424.066	98.25
424.288	98.25
424.511	101.25
424.733	94.25
424.956	128.25
425.178	87.25
425.401	130.25
425.623	96.25
425.846	99.25
426.068	96.25
426.291	92.25
426.513	91.25
426.735	92.25
426.958	109.25
427.18	102.25
427.402	165.25
427.625	234.25
427.847	211.25
428.069	201.25
428.292	134.25
428.514	91.25
428.736	94.25
428.958	102.25
429.181	97.25
429.403	88.25
429.625	91.25
429.847	92.25
430.069	130.25
430.292	114.25
430.514	92.25
430.736	69.25
430.958	81.25
431.18	75.25
431.402	82.25
431.624	88.25
431.846	81.25
432.068	90.25
432.29	96.25
432.512	98.25
432.734	97.25
432.956	95.25
433.178	106.25
433.4	110.25
433.622	90.25
433.844	88.25
434.066	88.25
434.287	100.25
434.509	83.25
434.731	84.25
434.953	86.25
435.175	88.25
435.397	85.25
435.618	108.25
435.84	97.25
436.062	131.25
436.284	146.25
436.505	119.25
436.727	116.25
436.949	93.25
437.17	100.25
437.392	78.25
437.614	106.25
437.835	119.25
438.057	142.25
438.278	135.25
438.5	123.25
438.721	137.25
438.943	113.25
439.165	103.25
439.386	88.25
439.608	94.25
439.829	115.25
440.05	142.25
440.272	167.25
440.493	102.25
440.715	88.25
440.936	88.25
441.158	84.25
441.379	107.25
441.6	107.25
441.822	103.25
442.043	108.25
442.264	114.25
442.486	122.25
442.707	97.25
442.928	110.25
443.149	153.25
443.371	179.25
443.592	154.25
443.813	136.25
444.034	126.25
444.255	91.25
444.476	96.25
444.698	75.25
444.919	99.25
445.14	138.25
445.361	123.25
445.582	141.25
445.803	169.25
446.024	181.25
446.245	171.25
446.466	128.25
446.687	97.25
446.908	98.25
447.129	102.25
447.35	97.25
447.571	106.25
447.792	97.25
448.013	113.25
448.234	105.25
448.455	116.25
448.675	136.25
448.896	134.25
449.117	117.25
449.338	130.25
449.559	156.25
449.779	153.25
450	114.25
450.221	93.25
450.442	94.25
450.662	112.25
450.883	127.25
451.104	145.25
451.324	93.25
451.545	89.25
451.766	91.25
451.986	90.25
452.207	94.25
452.428	93.25
452.648	88.25
452.869	122.25
453.089	128.25
453.31	137.25
453.53	102.25
453.751	106.25
453.971	117.25
454.192	130.25
454.412	104.25
454.633	82.25
454.853	97.25
455.073	82.25
455.294	91.25
455.514	125.25
455.734	93.25
455.955	86.25
456.175	87.25
456.395	83.25
456.616	72.25
456.836	89.25
457.056	96.25
457.276	104.25
457.497	99.25
457.717	106.25
457.937	86.25
458.157	95.25
458.377	105.25
458.598	125.25
458.818	172.25
459.038	210.25
459.258	138.25
459.478	104.25
459.698	102.25
459.918	100.25
460.138	108.25
460.358	93.25
460.578	95.25
460.798	89.25
461.018	92.25
461.238	96.25
461.458	85.25
461.678	95.25
461.898	78.25
462.118	84.25
462.338	90.25
462.558	91.25
462.777	91.25
462.997	97.25
463.217	95.25
463.437	89.25
463.657	104.25
463.876	93.25
464.096	94.25
464.316	100.25
464.536	85.25
464.755	108.25
464.975	113.25
465.195	207.25
465.414	203.25
465.634	107.25
465.854	91.25
466.073	90.25
466.293	89.25
466.512	92.25
466.732	94.25
466.951	89.25
467.171	100.25
467.391	98.25
467.61	131.25
467.829	173.25
468.049	357.25
468.268	519.25
468.488	190.25
468.707	118.25
468.927	101.25
469.146	92.25
469.365	94.25
469.585	112.25
469.804	109.25
470.023	114.25
470.243	89.25
470.462	107.25
470.681	124.25
470.901	100.25
471.12	101.25
471.339	98.25
471.558	114.25
471.777	112.25
471.997	210.25
472.216	676.25
472.435	1564.25
472.654	412.25
472.873	143.25
473.092	107.25
473.311	93.25
473.53	98.25
473.749	85.25
473.968	92.25
474.187	96.25
474.406	118.25
474.625	91.25
474.844	73.25
475.063	99.25
475.282	90.25
475.501	96.25
475.72	83.25
475.939	80.25
476.158	96.25
476.377	94.25
476.596	96.25
476.814	92.25
477.033	98.25
477.252	93.25
477.471	96.25
477.69	96.25
477.908	99.25
478.127	96.25
478.346	88.25
478.564	105.25
478.783	90.25
479.002	112.25
479.22	97.25
479.439	96.25
479.658	126.25
479.876	116.25
480.095	113.25
480.313	123.25
480.532	129.25
480.751	217.25
480.969	659.25
481.188	2665.25
481.406	1684.25
481.624	272.25
481.843	136.25
482.061	131.25
482.28	107.25
482.498	97.25
482.717	106.25
482.935	106.25
483.153	86.25
483.372	97.25
483.59	97.25
483.808	96.25
484.027	111.25
484.245	93.25
484.463	93.25
484.681	105.25
484.9	113.25
485.118	94.25
485.336	100.25
485.554	89.25
485.772	108.25
485.99	122.25
486.209	119.25
486.427	106.25
486.645	124.25
486.863	129.25
487.081	105.25
487.299	85.25
487.517	117.25
487.735	88.25
487.953	103.25
488.171	106.25
488.389	103.25
488.607	91.25
488.825	104.25
489.043	86.25
489.261	88.25
489.479	86.25
489.696	99.25
489.914	88.25
490.132	100.25
490.35	94.25
490.568	94.25
490.786	96.25
491.003	92.25
491.221	105.25
491.439	106.25
491.657	110.25
491.874	93.25
492.092	99.25
492.31	86.25
492.527	102.25
492.745	91.25
492.963	101.25
493.18	88.25
493.398	98.25
493.615	93.25
493.833	90.25
494.05	96.25
494.268	84.25
494.485	93.25
494.703	95.25
494.92	75.25
495.138	85.25
495.355	102.25
495.573	93.25
495.79	94.25
496.008	87.25
496.225	93.25
496.442	94.25
496.66	96.25
496.877	93.25
497.094	105.25
497.312	96.25
497.529	78.25
497.746	105.25
497.963	98.25
498.181	100.25
498.398	90.25
498.615	104.25
498.832	110.25
499.049	94.25
499.267	106.25
499.484	89.25
499.701	98.25
499.918	118.25
500.135	93.25
500.352	85.25
500.569	104.25
500.786	101.25
501.003	99.25
501.22	98.25
501.437	100.25
501.654	101.25
501.871	118.25
502.088	109.25
502.305	102.25
502.522	97.25
502.739	109.25
502.956	93.25
503.172	110.25
503.389	102.25
503.606	113.25
503.823	112.25
504.04	101.25
504.256	115.25
504.473	82.25
504.69	100.25
504.907	103.25
505.123	93.25
505.34	73.25
505.557	96.25
505.773	96.25
505.99	78.25
506.207	95.25
506.423	94.25
506.64	80.25
506.856	86.25
507.073	97.25
507.289	103.25
507.506	105.25
507.722	133.25
507.939	138.25
508.155	119.25
508.372	95.25
508.588	97.25
508.805	103.25
509.021	103.25
509.238	108.25
509.454	101.25
509.67	105.25
509.887	129.25
510.103	140.25
510.319	233.25
510.536	837.25
510.752	2847.25
510.968	830.25
511.184	186.25
511.401	131.25
511.617	107.25
511.833	119.25
512.049	101.25
512.265	100.25
