Data from Circ_2023_H10_HRD10591_00095.txt Node
Date: Wed Jan 03 09:50:50 EST 2024
User: Yrep
Spectrometer: HR+D1059
Trigger mode: 1
Integration Time (sec): 1.000000E-1
Scans to average: 1
Electric dark correction enabled: true
Nonlinearity correction enabled: false
Boxcar width: 0
XAxis mode: Wavelengths
Number of Pixels in Spectrum: 2048
>>>>>Begin Spectral Data<<<<<
223.165	-10.19
223.4	-10.19
223.635	-10.19
223.869	-24.19
224.104	-4.19
224.338	-11.19
224.573	-24.19
224.808	-8.19
225.042	-10.19
225.277	-11.19
225.511	-8.19
225.746	-0.19
225.98	8.81
226.215	19.81
226.449	14.81
226.683	19.81
226.918	21.81
227.152	26.81
227.387	45.81
227.621	43.81
227.856	47.81
228.09	41.81
228.324	47.81
228.559	57.81
228.793	64.81
229.027	64.81
229.262	63.81
229.496	73.81
229.73	100.81
229.964	91.81
230.199	84.81
230.433	81.81
230.667	95.81
230.901	80.81
231.136	84.81
231.37	78.81
231.604	82.81
231.838	58.81
232.072	83.81
232.306	93.81
232.541	80.81
232.775	84.81
233.009	83.81
233.243	64.81
233.477	69.81
233.711	81.81
233.945	62.81
234.179	80.81
234.413	83.81
234.647	75.81
234.881	90.81
235.115	86.81
235.349	69.81
235.583	80.81
235.817	72.81
236.051	76.81
236.285	74.81
236.519	79.81
236.753	87.81
236.987	87.81
237.221	91.81
237.455	107.81
237.689	92.81
237.922	78.81
238.156	79.81
238.39	80.81
238.624	74.81
238.858	74.81
239.091	65.81
239.325	83.81
239.559	92.81
239.793	80.81
240.027	76.81
240.26	75.81
240.494	72.81
240.728	77.81
240.961	76.81
241.195	73.81
241.429	83.81
241.662	69.81
241.896	77.81
242.13	79.81
242.363	86.81
242.597	64.81
242.83	82.81
243.064	65.81
243.298	102.81
243.531	79.81
243.765	81.81
243.998	81.81
244.232	80.81
244.465	71.81
244.699	87.81
244.932	73.81
245.166	79.81
245.399	64.81
245.633	82.81
245.866	88.81
246.099	82.81
246.333	95.81
246.566	84.81
246.8	88.81
247.033	68.81
247.266	88.81
247.5	86.81
247.733	78.81
247.966	71.81
248.2	88.81
248.433	83.81
248.666	87.81
248.899	77.81
249.133	93.81
249.366	100.81
249.599	100.81
249.832	87.81
250.066	95.81
250.299	87.81
250.532	97.81
250.765	95.81
250.998	92.81
251.231	85.81
251.465	92.81
251.698	88.81
251.931	95.81
252.164	80.81
252.397	95.81
252.63	81.81
252.863	88.81
253.096	81.81
253.329	101.81
253.562	80.81
253.795	71.81
254.028	80.81
254.261	72.81
254.494	85.81
254.727	83.81
254.96	94.81
255.193	101.81
255.426	83.81
255.659	84.81
255.892	96.81
256.124	99.81
256.357	86.81
256.59	104.81
256.823	90.81
257.056	83.81
257.289	91.81
257.521	93.81
257.754	92.81
257.987	92.81
258.22	107.81
258.452	108.81
258.685	103.81
258.918	93.81
259.151	92.81
259.383	90.81
259.616	89.81
259.849	97.81
260.081	76.81
260.314	84.81
260.547	93.81
260.779	98.81
261.012	115.81
261.244	113.81
261.477	110.81
261.71	117.81
261.942	144.81
262.175	148.81
262.407	103.81
262.64	78.81
262.872	93.81
263.105	83.81
263.337	72.81
263.57	87.81
263.802	87.81
264.035	92.81
264.267	82.81
264.499	82.81
264.732	85.81
264.964	94.81
265.197	75.81
265.429	75.81
265.661	86.81
265.894	94.81
266.126	85.81
266.358	81.81
266.591	86.81
266.823	84.81
267.055	97.81
267.287	94.81
267.52	72.81
267.752	82.81
267.984	88.81
268.216	71.81
268.448	85.81
268.681	84.81
268.913	82.81
269.145	71.81
269.377	77.81
269.609	81.81
269.841	81.81
270.073	94.81
270.306	65.81
270.538	82.81
270.77	88.81
271.002	84.81
271.234	85.81
271.466	95.81
271.698	89.81
271.93	87.81
272.162	83.81
272.394	83.81
272.626	92.81
272.858	91.81
273.09	88.81
273.322	97.81
273.553	91.81
273.785	88.81
274.017	102.81
274.249	92.81
274.481	90.81
274.713	95.81
274.945	92.81
275.176	88.81
275.408	112.81
275.64	110.81
275.872	159.81
276.104	136.81
276.335	101.81
276.567	130.81
276.799	186.81
277.031	237.81
277.262	259.81
277.494	198.81
277.726	108.81
277.957	88.81
278.189	94.81
278.421	110.81
278.652	95.81
278.884	94.81
279.115	102.81
279.347	112.81
279.579	119.81
279.81	171.81
280.042	254.81
280.273	367.81
280.505	245.81
280.736	111.81
280.968	102.81
281.199	95.81
281.431	87.81
281.662	101.81
281.894	85.81
282.125	93.81
282.356	138.81
282.588	175.81
282.819	129.81
283.051	92.81
283.282	70.81
283.513	80.81
283.745	77.81
283.976	86.81
284.207	75.81
284.439	91.81
284.67	80.81
284.901	76.81
285.132	86.81
285.364	93.81
285.595	89.81
285.826	77.81
286.057	99.81
286.288	81.81
286.52	85.81
286.751	93.81
286.982	78.81
287.213	85.81
287.444	81.81
287.675	87.81
287.906	89.81
288.138	82.81
288.369	98.81
288.6	90.81
288.831	91.81
289.062	88.81
289.293	89.81
289.524	94.81
289.755	77.81
289.986	78.81
290.217	84.81
290.448	71.81
290.679	79.81
290.91	80.81
291.141	95.81
291.371	82.81
291.602	80.81
291.833	88.81
292.064	95.81
292.295	86.81
292.526	95.81
292.757	85.81
292.987	80.81
293.218	93.81
293.449	83.81
293.68	94.81
293.91	95.81
294.141	93.81
294.372	87.81
294.603	93.81
294.833	86.81
295.064	75.81
295.295	84.81
295.525	77.81
295.756	110.81
295.987	125.81
296.217	157.81
296.448	150.81
296.679	96.81
296.909	87.81
297.14	93.81
297.37	98.81
297.601	94.81
297.831	99.81
298.062	108.81
298.292	93.81
298.523	76.81
298.753	89.81
298.984	80.81
299.214	88.81
299.445	97.81
299.675	92.81
299.905	99.81
300.136	102.81
300.366	97.81
300.597	94.81
300.827	110.81
301.057	103.81
301.288	110.81
301.518	115.81
301.748	96.81
301.979	127.81
302.209	107.81
302.439	88.81
302.669	93.81
302.9	87.81
303.13	102.81
303.36	130.81
303.59	162.81
303.82	164.81
304.051	108.81
304.281	98.81
304.511	77.81
304.741	88.81
304.971	96.81
305.201	80.81
305.431	87.81
305.661	98.81
305.891	94.81
306.121	108.81
306.352	115.81
306.582	116.81
306.812	112.81
307.042	144.81
307.272	215.81
307.502	231.81
307.731	217.81
307.961	142.81
308.191	101.81
308.421	97.81
308.651	96.81
308.881	98.81
309.111	105.81
309.341	105.81
309.571	111.81
309.8	107.81
310.03	105.81
310.26	95.81
310.49	117.81
310.72	105.81
310.949	113.81
311.179	124.81
311.409	92.81
311.639	96.81
311.868	108.81
312.098	110.81
312.328	109.81
312.557	123.81
312.787	126.81
313.017	131.81
313.246	90.81
313.476	81.81
313.706	107.81
313.935	107.81
314.165	119.81
314.394	114.81
314.624	94.81
314.853	90.81
315.083	94.81
315.312	96.81
315.542	100.81
315.771	101.81
316.001	88.81
316.23	97.81
316.46	92.81
316.689	112.81
316.919	108.81
317.148	107.81
317.377	123.81
317.607	100.81
317.836	101.81
318.065	107.81
318.295	98.81
318.524	107.81
318.753	104.81
318.983	95.81
319.212	113.81
319.441	116.81
319.67	116.81
319.9	108.81
320.129	99.81
320.358	94.81
320.587	101.81
320.816	99.81
321.046	109.81
321.275	101.81
321.504	111.81
321.733	111.81
321.962	96.81
322.191	102.81
322.42	118.81
322.649	119.81
322.878	127.81
323.108	132.81
323.337	153.81
323.566	153.81
323.795	183.81
324.024	266.81
324.253	516.81
324.482	1103.81
324.71	2280.81
324.939	2997.81
325.168	1122.81
325.397	299.81
325.626	178.81
325.855	153.81
326.084	150.81
326.313	153.81
326.542	179.81
326.77	276.81
326.999	578.81
327.228	1159.81
327.457	2103.81
327.686	1785.81
327.914	670.81
328.143	745.81
328.372	1008.81
328.6	528.81
328.829	235.81
329.058	232.81
329.287	241.81
329.515	211.81
329.744	359.81
329.972	736.81
330.201	1559.81
330.43	2329.81
330.658	967.81
330.887	381.81
331.115	217.81
331.344	143.81
331.572	148.81
331.801	145.81
332.03	148.81
332.258	117.81
332.486	118.81
332.715	141.81
332.943	116.81
333.172	138.81
333.4	159.81
333.629	191.81
333.857	307.81
334.085	638.81
334.314	1379.81
334.542	2811.81
334.771	2707.81
334.999	650.81
335.227	224.81
335.455	141.81
335.684	133.81
335.912	122.81
336.14	108.81
336.369	111.81
336.597	109.81
336.825	105.81
337.053	82.81
337.281	103.81
337.51	93.81
337.738	108.81
337.966	104.81
338.194	104.81
338.422	111.81
338.65	95.81
338.878	94.81
339.106	104.81
339.334	93.81
339.562	104.81
339.79	103.81
340.018	88.81
340.246	95.81
340.474	101.81
340.702	92.81
340.93	90.81
341.158	89.81
341.386	117.81
341.614	108.81
341.842	92.81
342.07	91.81
342.298	91.81
342.526	88.81
342.754	83.81
342.981	86.81
343.209	84.81
343.437	107.81
343.665	80.81
343.893	84.81
344.12	88.81
344.348	94.81
344.576	100.81
344.804	97.81
345.031	104.81
345.259	132.81
345.487	105.81
345.714	114.81
345.942	97.81
346.17	86.81
346.397	94.81
346.625	103.81
346.853	84.81
347.08	89.81
347.308	105.81
347.535	102.81
347.763	123.81
347.99	95.81
348.218	106.81
348.445	131.81
348.673	98.81
348.9	99.81
349.128	91.81
349.355	85.81
349.583	95.81
349.81	97.81
350.037	82.81
350.265	92.81
350.492	84.81
350.72	87.81
350.947	98.81
351.174	120.81
351.402	135.81
351.629	117.81
351.856	104.81
352.083	116.81
352.311	113.81
352.538	122.81
352.765	130.81
352.992	133.81
353.22	115.81
353.447	108.81
353.674	115.81
353.901	106.81
354.128	91.81
354.355	103.81
354.583	100.81
354.81	93.81
355.037	92.81
355.264	94.81
355.491	84.81
355.718	95.81
355.945	96.81
356.172	72.81
356.399	101.81
356.626	80.81
356.853	87.81
357.08	101.81
357.307	96.81
357.534	82.81
357.761	85.81
357.988	89.81
358.215	92.81
358.441	85.81
358.668	89.81
358.895	102.81
359.122	90.81
359.349	96.81
359.576	109.81
359.802	109.81
360.029	160.81
360.256	146.81
360.483	116.81
360.709	97.81
360.936	96.81
361.163	99.81
361.39	94.81
361.616	106.81
361.843	93.81
362.07	123.81
362.296	102.81
362.523	113.81
362.749	111.81
362.976	111.81
363.203	87.81
363.429	91.81
363.656	86.81
363.882	79.81
364.109	91.81
364.335	99.81
364.562	87.81
364.788	92.81
365.015	113.81
365.241	121.81
365.468	118.81
365.694	129.81
365.92	111.81
366.147	95.81
366.373	88.81
366.599	93.81
366.826	98.81
367.052	100.81
367.278	97.81
367.505	90.81
367.731	94.81
367.957	94.81
368.184	96.81
368.41	107.81
368.636	115.81
368.862	142.81
369.089	125.81
369.315	107.81
369.541	95.81
369.767	102.81
369.993	98.81
370.219	93.81
370.445	87.81
370.672	82.81
370.898	91.81
371.124	84.81
371.35	85.81
371.576	82.81
371.802	83.81
372.028	98.81
372.254	96.81
372.48	94.81
372.706	98.81
372.932	71.81
373.158	87.81
373.384	89.81
373.61	110.81
373.835	87.81
374.061	89.81
374.287	100.81
374.513	102.81
374.739	95.81
374.965	89.81
375.191	88.81
375.416	102.81
375.642	96.81
375.868	95.81
376.094	99.81
376.319	80.81
376.545	81.81
376.771	96.81
376.997	96.81
377.222	84.81
377.448	106.81
377.674	99.81
377.899	88.81
378.125	95.81
378.35	87.81
378.576	79.81
378.802	85.81
379.027	83.81
379.253	80.81
379.478	79.81
379.704	92.81
379.929	94.81
380.155	94.81
380.38	86.81
380.606	108.81
380.831	90.81
381.057	94.81
381.282	90.81
381.507	90.81
381.733	102.81
381.958	92.81
382.184	91.81
382.409	115.81
382.634	104.81
382.86	94.81
383.085	93.81
383.31	96.81
383.535	105.81
383.761	97.81
383.986	98.81
384.211	72.81
384.436	97.81
384.662	95.81
384.887	89.81
385.112	95.81
385.337	100.81
385.562	95.81
385.787	97.81
386.013	107.81
386.238	124.81
386.463	98.81
386.688	92.81
386.913	74.81
387.138	93.81
387.363	100.81
387.588	103.81
387.813	103.81
388.038	97.81
388.263	102.81
388.488	98.81
388.713	89.81
388.938	85.81
389.163	89.81
389.387	109.81
389.612	97.81
389.837	96.81
390.062	93.81
390.287	87.81
390.512	89.81
390.736	75.81
390.961	94.81
391.186	88.81
391.411	80.81
391.636	102.81
391.86	78.81
392.085	80.81
392.31	90.81
392.534	77.81
392.759	89.81
392.984	77.81
393.208	84.81
393.433	82.81
393.658	93.81
393.882	83.81
394.107	104.81
394.331	83.81
394.556	81.81
394.78	82.81
395.005	82.81
395.229	80.81
395.454	86.81
395.678	91.81
395.903	80.81
396.127	98.81
396.352	98.81
396.576	70.81
396.801	95.81
397.025	92.81
397.249	93.81
397.474	92.81
397.698	82.81
397.922	79.81
398.147	87.81
398.371	85.81
398.595	93.81
398.82	69.81
399.044	84.81
399.268	75.81
399.492	80.81
399.717	85.81
399.941	92.81
400.165	100.81
400.389	102.81
400.613	89.81
400.837	86.81
401.062	84.81
401.286	92.81
401.51	98.81
401.734	92.81
401.958	117.81
402.182	145.81
402.406	206.81
402.63	167.81
402.854	101.81
403.078	103.81
403.302	80.81
403.526	94.81
403.75	93.81
403.974	84.81
404.198	85.81
404.422	101.81
404.645	103.81
404.869	98.81
405.093	114.81
405.317	176.81
405.541	156.81
405.765	122.81
405.988	140.81
406.212	207.81
406.436	362.81
406.66	236.81
406.883	134.81
407.107	115.81
407.331	111.81
407.555	98.81
407.778	124.81
408.002	96.81
408.226	100.81
408.449	85.81
408.673	88.81
408.896	99.81
409.12	97.81
409.344	85.81
409.567	84.81
409.791	99.81
410.014	87.81
410.238	95.81
410.461	95.81
410.685	115.81
410.908	101.81
411.132	113.81
411.355	108.81
411.578	87.81
411.802	81.81
412.025	105.81
412.249	116.81
412.472	135.81
412.695	159.81
412.919	119.81
413.142	103.81
413.365	85.81
413.589	87.81
413.812	86.81
414.035	108.81
414.258	97.81
414.482	90.81
414.705	81.81
414.928	71.81
415.151	99.81
415.374	92.81
415.597	71.81
415.821	81.81
416.044	91.81
416.267	101.81
416.49	78.81
416.713	86.81
416.936	99.81
417.159	85.81
417.382	110.81
417.605	119.81
417.828	125.81
418.051	114.81
418.274	86.81
418.497	83.81
418.72	83.81
418.943	80.81
419.166	84.81
419.389	95.81
419.611	83.81
419.834	102.81
420.057	105.81
420.28	99.81
420.503	84.81
420.726	91.81
420.948	98.81
421.171	116.81
421.394	97.81
421.617	93.81
421.839	96.81
422.062	96.81
422.285	99.81
422.507	108.81
422.73	109.81
422.953	99.81
423.175	76.81
423.398	85.81
423.621	92.81
423.843	80.81
424.066	86.81
424.288	96.81
424.511	108.81
424.733	119.81
424.956	123.81
425.178	129.81
425.401	104.81
425.623	115.81
425.846	93.81
426.068	105.81
426.291	90.81
426.513	96.81
426.735	96.81
426.958	116.81
427.18	141.81
427.402	201.81
427.625	288.81
427.847	279.81
428.069	256.81
428.292	146.81
428.514	98.81
428.736	99.81
428.958	88.81
429.181	92.81
429.403	95.81
429.625	98.81
429.847	113.81
430.069	125.81
430.292	88.81
430.514	88.81
430.736	89.81
430.958	77.81
431.18	91.81
431.402	72.81
431.624	72.81
431.846	98.81
432.068	96.81
432.29	91.81
432.512	93.81
432.734	88.81
432.956	101.81
433.178	108.81
433.4	111.81
433.622	84.81
433.844	100.81
434.066	90.81
434.287	90.81
434.509	77.81
434.731	88.81
434.953	91.81
435.175	102.81
435.397	108.81
435.618	94.81
435.84	108.81
436.062	143.81
436.284	133.81
436.505	108.81
436.727	102.81
436.949	87.81
437.17	101.81
437.392	86.81
437.614	91.81
437.835	135.81
438.057	158.81
438.278	145.81
438.5	116.81
438.721	141.81
438.943	115.81
439.165	87.81
439.386	93.81
439.608	104.81
439.829	110.81
440.05	155.81
440.272	206.81
440.493	110.81
440.715	89.81
440.936	85.81
441.158	93.81
441.379	86.81
441.6	114.81
441.822	115.81
442.043	95.81
442.264	120.81
442.486	133.81
442.707	120.81
442.928	130.81
443.149	197.81
443.371	196.81
443.592	141.81
443.813	140.81
444.034	147.81
444.255	90.81
444.476	91.81
444.698	76.81
444.919	101.81
445.14	142.81
445.361	142.81
445.582	132.81
445.803	207.81
446.024	182.81
446.245	181.81
446.466	139.81
446.687	104.81
446.908	98.81
447.129	98.81
447.35	94.81
447.571	81.81
447.792	96.81
448.013	121.81
448.234	129.81
448.455	133.81
448.675	139.81
448.896	147.81
449.117	123.81
449.338	115.81
449.559	148.81
449.779	161.81
450	97.81
450.221	96.81
450.442	85.81
450.662	127.81
450.883	155.81
451.104	137.81
451.324	103.81
451.545	93.81
451.766	96.81
451.986	78.81
452.207	99.81
452.428	109.81
452.648	109.81
452.869	129.81
453.089	147.81
453.31	152.81
453.53	95.81
453.751	99.81
453.971	124.81
454.192	141.81
454.412	100.81
454.633	91.81
454.853	89.81
455.073	84.81
455.294	97.81
455.514	110.81
455.734	91.81
455.955	88.81
456.175	84.81
456.395	88.81
456.616	85.81
456.836	82.81
457.056	74.81
457.276	85.81
457.497	96.81
457.717	75.81
457.937	89.81
458.157	87.81
458.377	100.81
458.598	128.81
458.818	229.81
459.038	258.81
459.258	159.81
459.478	101.81
459.698	79.81
459.918	88.81
460.138	90.81
460.358	84.81
460.578	92.81
460.798	86.81
461.018	84.81
461.238	93.81
461.458	91.81
461.678	77.81
461.898	81.81
462.118	94.81
462.338	86.81
462.558	98.81
462.777	88.81
462.997	113.81
463.217	117.81
463.437	123.81
463.657	91.81
463.876	93.81
464.096	97.81
464.316	103.81
464.536	112.81
464.755	108.81
464.975	115.81
465.195	267.81
465.414	251.81
465.634	115.81
465.854	95.81
466.073	101.81
466.293	92.81
466.512	107.81
466.732	102.81
466.951	107.81
467.171	99.81
467.391	117.81
467.61	188.81
467.829	312.81
468.049	855.81
468.268	1405.81
468.488	334.81
468.707	136.81
468.927	99.81
469.146	105.81
469.365	110.81
469.585	108.81
469.804	116.81
470.023	135.81
470.243	112.81
470.462	119.81
470.681	140.81
470.901	104.81
471.12	120.81
471.339	125.81
471.558	141.81
471.777	200.81
471.997	409.81
472.216	1671.81
472.435	4086.81
472.654	923.81
472.873	224.81
473.092	126.81
473.311	111.81
473.53	113.81
473.749	106.81
473.968	115.81
474.187	150.81
474.406	119.81
474.625	94.81
474.844	88.81
475.063	87.81
475.282	95.81
475.501	101.81
475.72	91.81
475.939	89.81
476.158	84.81
476.377	87.81
476.596	93.81
476.814	100.81
477.033	104.81
477.252	98.81
477.471	101.81
477.69	92.81
477.908	102.81
478.127	107.81
478.346	101.81
478.564	104.81
478.783	124.81
479.002	126.81
479.22	117.81
479.439	138.81
479.658	156.81
479.876	143.81
480.095	123.81
480.313	156.81
480.532	182.81
480.751	386.81
480.969	1491.81
481.188	6648.81
481.406	3998.81
481.624	539.81
481.843	177.81
482.061	123.81
482.28	99.81
482.498	129.81
482.717	91.81
482.935	99.81
483.153	87.81
483.372	87.81
483.59	100.81
483.808	100.81
484.027	99.81
484.245	101.81
484.463	97.81
484.681	114.81
484.9	113.81
485.118	101.81
485.336	100.81
485.554	96.81
485.772	112.81
485.99	118.81
486.209	108.81
486.427	113.81
486.645	133.81
486.863	130.81
487.081	109.81
487.299	95.81
487.517	91.81
487.735	81.81
487.953	90.81
488.171	109.81
488.389	101.81
488.607	95.81
488.825	98.81
489.043	100.81
489.261	104.81
489.479	99.81
489.696	101.81
489.914	84.81
490.132	100.81
490.35	95.81
490.568	93.81
490.786	85.81
491.003	97.81
491.221	96.81
491.439	101.81
491.657	95.81
491.874	101.81
492.092	94.81
492.31	91.81
492.527	102.81
492.745	121.81
492.963	98.81
493.18	102.81
493.398	99.81
493.615	102.81
493.833	97.81
494.05	98.81
494.268	99.81
494.485	103.81
494.703	81.81
494.92	98.81
495.138	95.81
495.355	89.81
495.573	105.81
495.79	103.81
496.008	84.81
496.225	93.81
496.442	94.81
496.66	99.81
496.877	95.81
497.094	85.81
497.312	92.81
497.529	94.81
497.746	87.81
497.963	80.81
498.181	102.81
498.398	100.81
498.615	120.81
498.832	110.81
499.049	104.81
499.267	83.81
499.484	91.81
499.701	108.81
499.918	93.81
500.135	92.81
500.352	97.81
500.569	101.81
500.786	109.81
501.003	91.81
501.22	96.81
501.437	102.81
501.654	119.81
501.871	141.81
502.088	98.81
502.305	97.81
502.522	88.81
502.739	101.81
502.956	94.81
503.172	100.81
503.389	102.81
503.606	134.81
503.823	119.81
504.04	96.81
504.256	101.81
504.473	99.81
504.69	102.81
504.907	92.81
505.123	86.81
505.34	91.81
505.557	92.81
505.773	92.81
505.99	92.81
506.207	99.81
506.423	100.81
506.64	105.81
506.856	84.81
507.073	85.81
507.289	112.81
507.506	107.81
507.722	136.81
507.939	146.81
508.155	103.81
508.372	107.81
508.588	92.81
508.805	91.81
509.021	112.81
509.238	114.81
509.454	106.81
509.67	109.81
509.887	115.81
510.103	162.81
510.319	254.81
510.536	1043.81
510.752	3687.81
510.968	1046.81
511.184	204.81
511.401	141.81
511.617	113.81
511.833	137.81
512.049	101.81
512.265	99.81
