Data from Circ_2023_H10_HRD10591_00090.txt Node
Date: Wed Jan 03 09:50:49 EST 2024
User: Yrep
Spectrometer: HR+D1059
Trigger mode: 1
Integration Time (sec): 1.000000E-1
Scans to average: 1
Electric dark correction enabled: true
Nonlinearity correction enabled: false
Boxcar width: 0
XAxis mode: Wavelengths
Number of Pixels in Spectrum: 2048
>>>>>Begin Spectral Data<<<<<
223.165	-22.25
223.4	-22.25
223.635	-22.25
223.869	-23.25
224.104	-11.25
224.338	-17.25
224.573	-3.25
224.808	-10.25
225.042	15.75
225.277	-7.25
225.511	-2.25
225.746	-4.25
225.98	-1.25
226.215	12.75
226.449	22.75
226.683	15.75
226.918	14.75
227.152	20.75
227.387	36.75
227.621	32.75
227.856	39.75
228.09	40.75
228.324	55.75
228.559	51.75
228.793	65.75
229.027	76.75
229.262	67.75
229.496	77.75
229.73	96.75
229.964	94.75
230.199	62.75
230.433	77.75
230.667	83.75
230.901	73.75
231.136	61.75
231.37	84.75
231.604	85.75
231.838	82.75
232.072	81.75
232.306	83.75
232.541	69.75
232.775	82.75
233.009	76.75
233.243	81.75
233.477	80.75
233.711	76.75
233.945	71.75
234.179	72.75
234.413	86.75
234.647	90.75
234.881	82.75
235.115	79.75
235.349	70.75
235.583	72.75
235.817	88.75
236.051	84.75
236.285	83.75
236.519	81.75
236.753	78.75
236.987	83.75
237.221	99.75
237.455	100.75
237.689	69.75
237.922	80.75
238.156	76.75
238.39	74.75
238.624	61.75
238.858	96.75
239.091	69.75
239.325	86.75
239.559	92.75
239.793	74.75
240.027	80.75
240.26	94.75
240.494	87.75
240.728	66.75
240.961	72.75
241.195	77.75
241.429	73.75
241.662	69.75
241.896	98.75
242.13	71.75
242.363	63.75
242.597	72.75
242.83	83.75
243.064	85.75
243.298	81.75
243.531	61.75
243.765	77.75
243.998	70.75
244.232	87.75
244.465	85.75
244.699	78.75
244.932	62.75
245.166	77.75
245.399	91.75
245.633	67.75
245.866	78.75
246.099	85.75
246.333	95.75
246.566	88.75
246.8	82.75
247.033	91.75
247.266	77.75
247.5	77.75
247.733	87.75
247.966	89.75
248.2	91.75
248.433	91.75
248.666	72.75
248.899	92.75
249.133	100.75
249.366	102.75
249.599	110.75
249.832	88.75
250.066	87.75
250.299	82.75
250.532	94.75
250.765	82.75
250.998	73.75
251.231	61.75
251.465	68.75
251.698	87.75
251.931	89.75
252.164	88.75
252.397	84.75
252.63	79.75
252.863	74.75
253.096	75.75
253.329	73.75
253.562	77.75
253.795	88.75
254.028	80.75
254.261	79.75
254.494	90.75
254.727	93.75
254.96	77.75
255.193	95.75
255.426	84.75
255.659	80.75
255.892	104.75
256.124	117.75
256.357	92.75
256.59	92.75
256.823	82.75
257.056	99.75
257.289	99.75
257.521	86.75
257.754	84.75
257.987	87.75
258.22	86.75
258.452	104.75
258.685	91.75
258.918	95.75
259.151	87.75
259.383	77.75
259.616	81.75
259.849	76.75
260.081	86.75
260.314	95.75
260.547	86.75
260.779	111.75
261.012	107.75
261.244	132.75
261.477	100.75
261.71	107.75
261.942	134.75
262.175	149.75
262.407	96.75
262.64	92.75
262.872	87.75
263.105	95.75
263.337	98.75
263.57	79.75
263.802	89.75
264.035	91.75
264.267	84.75
264.499	76.75
264.732	73.75
264.964	85.75
265.197	73.75
265.429	82.75
265.661	63.75
265.894	77.75
266.126	72.75
266.358	78.75
266.591	83.75
266.823	93.75
267.055	77.75
267.287	82.75
267.52	99.75
267.752	85.75
267.984	86.75
268.216	84.75
268.448	94.75
268.681	94.75
268.913	89.75
269.145	89.75
269.377	83.75
269.609	84.75
269.841	85.75
270.073	85.75
270.306	96.75
270.538	93.75
270.77	77.75
271.002	96.75
271.234	84.75
271.466	102.75
271.698	104.75
271.93	81.75
272.162	87.75
272.394	90.75
272.626	88.75
272.858	70.75
273.09	82.75
273.322	94.75
273.553	82.75
273.785	75.75
274.017	83.75
274.249	74.75
274.481	92.75
274.713	84.75
274.945	103.75
275.176	107.75
275.408	123.75
275.64	129.75
275.872	146.75
276.104	104.75
276.335	101.75
276.567	122.75
276.799	166.75
277.031	204.75
277.262	271.75
277.494	189.75
277.726	125.75
277.957	97.75
278.189	102.75
278.421	92.75
278.652	92.75
278.884	97.75
279.115	85.75
279.347	105.75
279.579	103.75
279.81	170.75
280.042	261.75
280.273	375.75
280.505	257.75
280.736	114.75
280.968	93.75
281.199	101.75
281.431	80.75
281.662	81.75
281.894	93.75
282.125	112.75
282.356	141.75
282.588	168.75
282.819	138.75
283.051	91.75
283.282	95.75
283.513	91.75
283.745	100.75
283.976	100.75
284.207	103.75
284.439	91.75
284.67	85.75
284.901	88.75
285.132	89.75
285.364	87.75
285.595	76.75
285.826	79.75
286.057	85.75
286.288	83.75
286.52	85.75
286.751	95.75
286.982	96.75
287.213	92.75
287.444	106.75
287.675	74.75
287.906	102.75
288.138	90.75
288.369	99.75
288.6	81.75
288.831	88.75
289.062	78.75
289.293	78.75
289.524	94.75
289.755	95.75
289.986	84.75
290.217	95.75
290.448	86.75
290.679	79.75
290.91	86.75
291.141	86.75
291.371	95.75
291.602	81.75
291.833	93.75
292.064	73.75
292.295	109.75
292.526	84.75
292.757	99.75
292.987	89.75
293.218	79.75
293.449	92.75
293.68	90.75
293.91	76.75
294.141	91.75
294.372	84.75
294.603	91.75
294.833	94.75
295.064	89.75
295.295	92.75
295.525	91.75
295.756	99.75
295.987	133.75
296.217	175.75
296.448	159.75
296.679	101.75
296.909	88.75
297.14	90.75
297.37	94.75
297.601	77.75
297.831	80.75
298.062	94.75
298.292	87.75
298.523	85.75
298.753	92.75
298.984	81.75
299.214	94.75
299.445	90.75
299.675	97.75
299.905	96.75
300.136	92.75
300.366	83.75
300.597	77.75
300.827	92.75
301.057	99.75
301.288	111.75
301.518	95.75
301.748	91.75
301.979	113.75
302.209	101.75
302.439	110.75
302.669	88.75
302.9	93.75
303.13	100.75
303.36	123.75
303.59	146.75
303.82	182.75
304.051	112.75
304.281	79.75
304.511	91.75
304.741	84.75
304.971	84.75
305.201	88.75
305.431	93.75
305.661	82.75
305.891	93.75
306.121	94.75
306.352	109.75
306.582	111.75
306.812	101.75
307.042	134.75
307.272	205.75
307.502	219.75
307.731	204.75
307.961	146.75
308.191	104.75
308.421	94.75
308.651	111.75
308.881	88.75
309.111	97.75
309.341	101.75
309.571	102.75
309.8	100.75
310.03	107.75
310.26	118.75
310.49	107.75
310.72	124.75
310.949	132.75
311.179	111.75
311.409	110.75
311.639	98.75
311.868	104.75
312.098	113.75
312.328	102.75
312.557	109.75
312.787	113.75
313.017	122.75
313.246	97.75
313.476	96.75
313.706	109.75
313.935	107.75
314.165	104.75
314.394	123.75
314.624	109.75
314.853	105.75
315.083	100.75
315.312	99.75
315.542	103.75
315.771	97.75
316.001	91.75
316.23	95.75
316.46	86.75
316.689	101.75
316.919	104.75
317.148	110.75
317.377	107.75
317.607	99.75
317.836	113.75
318.065	104.75
318.295	98.75
318.524	96.75
318.753	94.75
318.983	88.75
319.212	111.75
319.441	125.75
319.67	136.75
319.9	96.75
320.129	89.75
320.358	99.75
320.587	94.75
320.816	100.75
321.046	101.75
321.275	108.75
321.504	101.75
321.733	88.75
321.962	102.75
322.191	110.75
322.42	127.75
322.649	126.75
322.878	124.75
323.108	131.75
323.337	151.75
323.566	157.75
323.795	187.75
324.024	259.75
324.253	567.75
324.482	1188.75
324.71	2407.75
324.939	3240.75
325.168	1160.75
325.397	327.75
325.626	187.75
325.855	160.75
326.084	152.75
326.313	177.75
326.542	196.75
326.77	309.75
326.999	615.75
327.228	1240.75
327.457	2294.75
327.686	1867.75
327.914	692.75
328.143	710.75
328.372	977.75
328.6	542.75
328.829	221.75
329.058	208.75
329.287	243.75
329.515	216.75
329.744	327.75
329.972	715.75
330.201	1504.75
330.43	2193.75
330.658	977.75
330.887	365.75
331.115	244.75
331.344	150.75
331.572	131.75
331.801	147.75
332.03	151.75
332.258	132.75
332.486	113.75
332.715	107.75
332.943	135.75
333.172	150.75
333.4	165.75
333.629	192.75
333.857	287.75
334.085	577.75
334.314	1320.75
334.542	2684.75
334.771	2575.75
334.999	641.75
335.227	215.75
335.455	147.75
335.684	117.75
335.912	110.75
336.14	115.75
336.369	112.75
336.597	117.75
336.825	109.75
337.053	92.75
337.281	108.75
337.51	102.75
337.738	87.75
337.966	101.75
338.194	110.75
338.422	109.75
338.65	97.75
338.878	96.75
339.106	88.75
339.334	96.75
339.562	92.75
339.79	95.75
340.018	104.75
340.246	96.75
340.474	100.75
340.702	104.75
340.93	93.75
341.158	90.75
341.386	95.75
341.614	117.75
341.842	94.75
342.07	94.75
342.298	97.75
342.526	101.75
342.754	91.75
342.981	92.75
343.209	83.75
343.437	117.75
343.665	97.75
343.893	81.75
344.12	102.75
344.348	90.75
344.576	87.75
344.804	96.75
345.031	95.75
345.259	112.75
345.487	105.75
345.714	88.75
345.942	107.75
346.17	107.75
346.397	94.75
346.625	110.75
346.853	94.75
347.08	96.75
347.308	97.75
347.535	125.75
347.763	109.75
347.99	103.75
348.218	107.75
348.445	133.75
348.673	112.75
348.9	81.75
349.128	90.75
349.355	96.75
349.583	104.75
349.81	102.75
350.037	103.75
350.265	106.75
350.492	107.75
350.72	94.75
350.947	98.75
351.174	119.75
351.402	137.75
351.629	110.75
351.856	123.75
352.083	115.75
352.311	127.75
352.538	142.75
352.765	141.75
352.992	135.75
353.22	135.75
353.447	106.75
353.674	109.75
353.901	96.75
354.128	91.75
354.355	84.75
354.583	105.75
354.81	92.75
355.037	100.75
355.264	84.75
355.491	91.75
355.718	101.75
355.945	84.75
356.172	102.75
356.399	91.75
356.626	102.75
356.853	95.75
357.08	86.75
357.307	94.75
357.534	80.75
357.761	71.75
357.988	86.75
358.215	101.75
358.441	92.75
358.668	103.75
358.895	79.75
359.122	96.75
359.349	89.75
359.576	103.75
359.802	112.75
360.029	158.75
360.256	161.75
360.483	134.75
360.709	86.75
360.936	85.75
361.163	108.75
361.39	110.75
361.616	117.75
361.843	109.75
362.07	104.75
362.296	102.75
362.523	89.75
362.749	109.75
362.976	104.75
363.203	88.75
363.429	98.75
363.656	88.75
363.882	87.75
364.109	104.75
364.335	96.75
364.562	108.75
364.788	95.75
365.015	109.75
365.241	117.75
365.468	120.75
365.694	108.75
365.92	112.75
366.147	105.75
366.373	91.75
366.599	90.75
366.826	89.75
367.052	78.75
367.278	100.75
367.505	86.75
367.731	100.75
367.957	103.75
368.184	86.75
368.41	96.75
368.636	129.75
368.862	133.75
369.089	126.75
369.315	121.75
369.541	96.75
369.767	96.75
369.993	104.75
370.219	104.75
370.445	91.75
370.672	83.75
370.898	92.75
371.124	89.75
371.35	97.75
371.576	80.75
371.802	90.75
372.028	96.75
372.254	89.75
372.48	79.75
372.706	91.75
372.932	89.75
373.158	63.75
373.384	94.75
373.61	102.75
373.835	95.75
374.061	88.75
374.287	95.75
374.513	91.75
374.739	93.75
374.965	85.75
375.191	82.75
375.416	86.75
375.642	88.75
375.868	87.75
376.094	84.75
376.319	82.75
376.545	80.75
376.771	95.75
376.997	81.75
377.222	86.75
377.448	90.75
377.674	92.75
377.899	83.75
378.125	104.75
378.35	101.75
378.576	96.75
378.802	89.75
379.027	81.75
379.253	89.75
379.478	79.75
379.704	86.75
379.929	102.75
380.155	98.75
380.38	87.75
380.606	94.75
380.831	90.75
381.057	80.75
381.282	95.75
381.507	94.75
381.733	104.75
381.958	105.75
382.184	95.75
382.409	102.75
382.634	102.75
382.86	96.75
383.085	91.75
383.31	83.75
383.535	99.75
383.761	97.75
383.986	83.75
384.211	93.75
384.436	81.75
384.662	87.75
384.887	96.75
385.112	93.75
385.337	99.75
385.562	92.75
385.787	103.75
386.013	117.75
386.238	124.75
386.463	109.75
386.688	94.75
386.913	92.75
387.138	100.75
387.363	103.75
387.588	90.75
387.813	109.75
388.038	94.75
388.263	96.75
388.488	98.75
388.713	102.75
388.938	93.75
389.163	101.75
389.387	96.75
389.612	83.75
389.837	85.75
390.062	96.75
390.287	84.75
390.512	87.75
390.736	97.75
390.961	89.75
391.186	96.75
391.411	76.75
391.636	86.75
391.86	86.75
392.085	80.75
392.31	92.75
392.534	81.75
392.759	87.75
392.984	76.75
393.208	73.75
393.433	92.75
393.658	86.75
393.882	95.75
394.107	100.75
394.331	81.75
394.556	85.75
394.78	79.75
395.005	84.75
395.229	93.75
395.454	88.75
395.678	91.75
395.903	94.75
396.127	94.75
396.352	83.75
396.576	85.75
396.801	81.75
397.025	104.75
397.249	87.75
397.474	83.75
397.698	83.75
397.922	86.75
398.147	87.75
398.371	86.75
398.595	88.75
398.82	92.75
399.044	103.75
399.268	86.75
399.492	78.75
399.717	93.75
399.941	88.75
400.165	97.75
400.389	98.75
400.613	105.75
400.837	86.75
401.062	97.75
401.286	86.75
401.51	91.75
401.734	102.75
401.958	109.75
402.182	149.75
402.406	208.75
402.63	142.75
402.854	111.75
403.078	95.75
403.302	88.75
403.526	68.75
403.75	96.75
403.974	91.75
404.198	88.75
404.422	89.75
404.645	108.75
404.869	90.75
405.093	125.75
405.317	162.75
405.541	154.75
405.765	119.75
405.988	155.75
406.212	231.75
406.436	342.75
406.66	218.75
406.883	133.75
407.107	122.75
407.331	87.75
407.555	122.75
407.778	111.75
408.002	92.75
408.226	97.75
408.449	94.75
408.673	95.75
408.896	97.75
409.12	104.75
409.344	97.75
409.567	83.75
409.791	82.75
410.014	96.75
410.238	90.75
410.461	75.75
410.685	110.75
410.908	94.75
411.132	116.75
411.355	100.75
411.578	91.75
411.802	79.75
412.025	86.75
412.249	99.75
412.472	121.75
412.695	165.75
412.919	123.75
413.142	105.75
413.365	86.75
413.589	89.75
413.812	92.75
414.035	99.75
414.258	73.75
414.482	87.75
414.705	90.75
414.928	93.75
415.151	101.75
415.374	90.75
415.597	86.75
415.821	82.75
416.044	93.75
416.267	96.75
416.49	97.75
416.713	75.75
416.936	94.75
417.159	87.75
417.382	99.75
417.605	124.75
417.828	123.75
418.051	108.75
418.274	95.75
418.497	97.75
418.72	96.75
418.943	86.75
419.166	92.75
419.389	83.75
419.611	88.75
419.834	90.75
420.057	101.75
420.28	99.75
420.503	84.75
420.726	95.75
420.948	93.75
421.171	106.75
421.394	102.75
421.617	95.75
421.839	82.75
422.062	95.75
422.285	94.75
422.507	98.75
422.73	120.75
422.953	95.75
423.175	103.75
423.398	99.75
423.621	89.75
423.843	88.75
424.066	97.75
424.288	85.75
424.511	86.75
424.733	95.75
424.956	113.75
425.178	111.75
425.401	110.75
425.623	108.75
425.846	100.75
426.068	111.75
426.291	94.75
426.513	108.75
426.735	95.75
426.958	104.75
427.18	140.75
427.402	218.75
427.625	290.75
427.847	279.75
428.069	278.75
428.292	139.75
428.514	94.75
428.736	84.75
428.958	69.75
429.181	93.75
429.403	87.75
429.625	96.75
429.847	107.75
430.069	111.75
430.292	111.75
430.514	97.75
430.736	79.75
430.958	98.75
431.18	96.75
431.402	83.75
431.624	79.75
431.846	81.75
432.068	87.75
432.29	91.75
432.512	87.75
432.734	73.75
432.956	93.75
433.178	110.75
433.4	102.75
433.622	97.75
433.844	78.75
434.066	95.75
434.287	103.75
434.509	79.75
434.731	88.75
434.953	89.75
435.175	87.75
435.397	77.75
435.618	91.75
435.84	119.75
436.062	143.75
436.284	145.75
436.505	119.75
436.727	102.75
436.949	105.75
437.17	90.75
437.392	97.75
437.614	98.75
437.835	128.75
438.057	164.75
438.278	153.75
438.5	121.75
438.721	146.75
438.943	117.75
439.165	103.75
439.386	83.75
439.608	89.75
439.829	122.75
440.05	164.75
440.272	208.75
440.493	132.75
440.715	92.75
440.936	99.75
441.158	82.75
441.379	92.75
441.6	112.75
441.822	94.75
442.043	96.75
442.264	127.75
442.486	123.75
442.707	110.75
442.928	132.75
443.149	182.75
443.371	182.75
443.592	142.75
443.813	140.75
444.034	136.75
444.255	102.75
444.476	74.75
444.698	96.75
444.919	80.75
445.14	128.75
445.361	143.75
445.582	152.75
445.803	217.75
446.024	188.75
446.245	176.75
446.466	144.75
446.687	107.75
446.908	111.75
447.129	99.75
447.35	93.75
447.571	100.75
447.792	104.75
448.013	97.75
448.234	129.75
448.455	109.75
448.675	151.75
448.896	158.75
449.117	123.75
449.338	112.75
449.559	152.75
449.779	178.75
450	108.75
450.221	104.75
450.442	95.75
450.662	113.75
450.883	116.75
451.104	126.75
451.324	107.75
451.545	84.75
451.766	77.75
451.986	77.75
452.207	95.75
452.428	95.75
452.648	103.75
452.869	127.75
453.089	136.75
453.31	158.75
453.53	97.75
453.751	93.75
453.971	121.75
454.192	143.75
454.412	110.75
454.633	101.75
454.853	86.75
455.073	87.75
455.294	88.75
455.514	125.75
455.734	89.75
455.955	100.75
456.175	96.75
456.395	95.75
456.616	93.75
456.836	99.75
457.056	83.75
457.276	76.75
457.497	87.75
457.717	86.75
457.937	104.75
458.157	95.75
458.377	102.75
458.598	147.75
458.818	219.75
459.038	244.75
459.258	162.75
459.478	103.75
459.698	97.75
459.918	88.75
460.138	94.75
460.358	92.75
460.578	98.75
460.798	101.75
461.018	87.75
461.238	97.75
461.458	80.75
461.678	79.75
461.898	95.75
462.118	83.75
462.338	80.75
462.558	75.75
462.777	95.75
462.997	97.75
463.217	123.75
463.437	103.75
463.657	109.75
463.876	94.75
464.096	101.75
464.316	103.75
464.536	103.75
464.755	112.75
464.975	133.75
465.195	253.75
465.414	276.75
465.634	123.75
465.854	111.75
466.073	97.75
466.293	89.75
466.512	76.75
466.732	95.75
466.951	83.75
467.171	117.75
467.391	115.75
467.61	181.75
467.829	271.75
468.049	841.75
468.268	1353.75
468.488	305.75
468.707	131.75
468.927	113.75
469.146	92.75
469.365	94.75
469.585	112.75
469.804	115.75
470.023	121.75
470.243	101.75
470.462	136.75
470.681	149.75
470.901	130.75
471.12	131.75
471.339	111.75
471.558	149.75
471.777	190.75
471.997	394.75
472.216	1598.75
472.435	3907.75
472.654	911.75
472.873	190.75
473.092	120.75
473.311	104.75
473.53	101.75
473.749	85.75
473.968	114.75
474.187	133.75
474.406	117.75
474.625	96.75
474.844	88.75
475.063	91.75
475.282	102.75
475.501	90.75
475.72	81.75
475.939	64.75
476.158	85.75
476.377	104.75
476.596	97.75
476.814	109.75
477.033	108.75
477.252	107.75
477.471	86.75
477.69	100.75
477.908	85.75
478.127	103.75
478.346	99.75
478.564	91.75
478.783	107.75
479.002	123.75
479.22	131.75
479.439	147.75
479.658	140.75
479.876	127.75
480.095	137.75
480.313	154.75
480.532	188.75
480.751	365.75
480.969	1404.75
481.188	6291.75
481.406	3878.75
481.624	533.75
481.843	165.75
482.061	121.75
482.28	120.75
482.498	86.75
482.717	89.75
482.935	87.75
483.153	111.75
483.372	89.75
483.59	97.75
483.808	95.75
484.027	91.75
484.245	89.75
484.463	105.75
484.681	104.75
484.9	97.75
485.118	88.75
485.336	98.75
485.554	98.75
485.772	92.75
485.99	99.75
486.209	107.75
486.427	113.75
486.645	128.75
486.863	145.75
487.081	121.75
487.299	94.75
487.517	98.75
487.735	107.75
487.953	88.75
488.171	93.75
488.389	112.75
488.607	114.75
488.825	101.75
489.043	89.75
489.261	93.75
489.479	92.75
489.696	104.75
489.914	88.75
490.132	90.75
490.35	97.75
490.568	105.75
490.786	101.75
491.003	87.75
491.221	90.75
491.439	109.75
491.657	112.75
491.874	80.75
492.092	90.75
492.31	95.75
492.527	104.75
492.745	110.75
492.963	105.75
493.18	98.75
493.398	91.75
493.615	102.75
493.833	87.75
494.05	91.75
494.268	87.75
494.485	94.75
494.703	84.75
494.92	86.75
495.138	77.75
495.355	89.75
495.573	91.75
495.79	108.75
496.008	100.75
496.225	91.75
496.442	86.75
496.66	102.75
496.877	98.75
497.094	93.75
497.312	88.75
497.529	103.75
497.746	82.75
497.963	89.75
498.181	95.75
498.398	116.75
498.615	131.75
498.832	113.75
499.049	103.75
499.267	91.75
499.484	92.75
499.701	97.75
499.918	104.75
500.135	75.75
500.352	95.75
500.569	103.75
500.786	120.75
501.003	96.75
501.22	98.75
501.437	92.75
501.654	109.75
501.871	123.75
502.088	99.75
502.305	89.75
502.522	112.75
502.739	107.75
502.956	92.75
503.172	112.75
503.389	117.75
503.606	132.75
503.823	107.75
504.04	90.75
504.256	107.75
504.473	88.75
504.69	89.75
504.907	94.75
505.123	95.75
505.34	91.75
505.557	94.75
505.773	90.75
505.99	93.75
506.207	102.75
506.423	96.75
506.64	86.75
506.856	96.75
507.073	89.75
507.289	88.75
507.506	97.75
507.722	147.75
507.939	156.75
508.155	127.75
508.372	92.75
508.588	114.75
508.805	108.75
509.021	95.75
509.238	92.75
509.454	99.75
509.67	104.75
509.887	113.75
510.103	153.75
510.319	279.75
510.536	1024.75
510.752	3697.75
510.968	1028.75
511.184	202.75
511.401	137.75
511.617	117.75
511.833	131.75
512.049	117.75
512.265	96.75
