Data from Circ_2023_H10_HRD10591_00083.txt Node
Date: Wed Jan 03 09:50:47 EST 2024
User: Yrep
Spectrometer: HR+D1059
Trigger mode: 1
Integration Time (sec): 1.000000E-1
Scans to average: 1
Electric dark correction enabled: true
Nonlinearity correction enabled: false
Boxcar width: 0
XAxis mode: Wavelengths
Number of Pixels in Spectrum: 2048
>>>>>Begin Spectral Data<<<<<
223.165	-17.44
223.4	-17.44
223.635	-17.44
223.869	-17.44
224.104	-10.44
224.338	-18.44
224.573	-13.44
224.808	-12.44
225.042	-14.44
225.277	-5.44
225.511	-0.44
225.746	1.56
225.98	0.56
226.215	22.56
226.449	15.56
226.683	17.56
226.918	28.56
227.152	23.56
227.387	27.56
227.621	47.56
227.856	36.56
228.09	40.56
228.324	42.56
228.559	45.56
228.793	60.56
229.027	68.56
229.262	82.56
229.496	65.56
229.73	88.56
229.964	95.56
230.199	83.56
230.433	85.56
230.667	85.56
230.901	76.56
231.136	76.56
231.37	68.56
231.604	88.56
231.838	77.56
232.072	75.56
232.306	81.56
232.541	83.56
232.775	76.56
233.009	79.56
233.243	76.56
233.477	72.56
233.711	72.56
233.945	70.56
234.179	63.56
234.413	73.56
234.647	73.56
234.881	87.56
235.115	81.56
235.349	78.56
235.583	82.56
235.817	80.56
236.051	68.56
236.285	81.56
236.519	73.56
236.753	83.56
236.987	78.56
237.221	82.56
237.455	102.56
237.689	79.56
237.922	82.56
238.156	77.56
238.39	75.56
238.624	76.56
238.858	77.56
239.091	65.56
239.325	77.56
239.559	72.56
239.793	87.56
240.027	73.56
240.26	82.56
240.494	81.56
240.728	81.56
240.961	78.56
241.195	69.56
241.429	75.56
241.662	82.56
241.896	77.56
242.13	83.56
242.363	79.56
242.597	80.56
242.83	72.56
243.064	70.56
243.298	84.56
243.531	65.56
243.765	62.56
243.998	77.56
244.232	72.56
244.465	84.56
244.699	88.56
244.932	57.56
245.166	67.56
245.399	69.56
245.633	78.56
245.866	76.56
246.099	79.56
246.333	87.56
246.566	80.56
246.8	65.56
247.033	69.56
247.266	78.56
247.5	77.56
247.733	69.56
247.966	86.56
248.2	77.56
248.433	83.56
248.666	93.56
248.899	85.56
249.133	88.56
249.366	104.56
249.599	88.56
249.832	80.56
250.066	82.56
250.299	82.56
250.532	83.56
250.765	92.56
250.998	79.56
251.231	78.56
251.465	87.56
251.698	73.56
251.931	92.56
252.164	87.56
252.397	76.56
252.63	64.56
252.863	74.56
253.096	89.56
253.329	88.56
253.562	82.56
253.795	80.56
254.028	72.56
254.261	85.56
254.494	90.56
254.727	83.56
254.96	87.56
255.193	80.56
255.426	80.56
255.659	88.56
255.892	79.56
256.124	96.56
256.357	75.56
256.59	83.56
256.823	76.56
257.056	92.56
257.289	79.56
257.521	78.56
257.754	93.56
257.987	84.56
258.22	84.56
258.452	95.56
258.685	89.56
258.918	87.56
259.151	99.56
259.383	72.56
259.616	74.56
259.849	59.56
260.081	85.56
260.314	77.56
260.547	101.56
260.779	76.56
261.012	126.56
261.244	124.56
261.477	121.56
261.71	110.56
261.942	132.56
262.175	145.56
262.407	88.56
262.64	93.56
262.872	99.56
263.105	70.56
263.337	76.56
263.57	93.56
263.802	75.56
264.035	76.56
264.267	92.56
264.499	87.56
264.732	72.56
264.964	88.56
265.197	75.56
265.429	79.56
265.661	80.56
265.894	82.56
266.126	80.56
266.358	81.56
266.591	70.56
266.823	85.56
267.055	80.56
267.287	95.56
267.52	88.56
267.752	101.56
267.984	83.56
268.216	82.56
268.448	75.56
268.681	89.56
268.913	91.56
269.145	87.56
269.377	75.56
269.609	71.56
269.841	74.56
270.073	72.56
270.306	94.56
270.538	79.56
270.77	94.56
271.002	92.56
271.234	102.56
271.466	103.56
271.698	100.56
271.93	76.56
272.162	83.56
272.394	79.56
272.626	80.56
272.858	84.56
273.09	85.56
273.322	93.56
273.553	74.56
273.785	90.56
274.017	76.56
274.249	91.56
274.481	84.56
274.713	93.56
274.945	95.56
275.176	91.56
275.408	96.56
275.64	114.56
275.872	136.56
276.104	122.56
276.335	96.56
276.567	127.56
276.799	153.56
277.031	181.56
277.262	212.56
277.494	167.56
277.726	128.56
277.957	102.56
278.189	92.56
278.421	103.56
278.652	83.56
278.884	91.56
279.115	82.56
279.347	87.56
279.579	96.56
279.81	139.56
280.042	205.56
280.273	326.56
280.505	224.56
280.736	118.56
280.968	88.56
281.199	81.56
281.431	65.56
281.662	84.56
281.894	98.56
282.125	106.56
282.356	133.56
282.588	164.56
282.819	128.56
283.051	91.56
283.282	93.56
283.513	77.56
283.745	93.56
283.976	85.56
284.207	80.56
284.439	86.56
284.67	90.56
284.901	95.56
285.132	82.56
285.364	84.56
285.595	85.56
285.826	89.56
286.057	82.56
286.288	80.56
286.52	81.56
286.751	83.56
286.982	77.56
287.213	84.56
287.444	94.56
287.675	97.56
287.906	93.56
288.138	95.56
288.369	88.56
288.6	90.56
288.831	77.56
289.062	77.56
289.293	94.56
289.524	72.56
289.755	91.56
289.986	92.56
290.217	92.56
290.448	74.56
290.679	87.56
290.91	81.56
291.141	84.56
291.371	87.56
291.602	91.56
291.833	84.56
292.064	92.56
292.295	89.56
292.526	93.56
292.757	79.56
292.987	92.56
293.218	87.56
293.449	85.56
293.68	78.56
293.91	92.56
294.141	104.56
294.372	81.56
294.603	90.56
294.833	94.56
295.064	72.56
295.295	95.56
295.525	96.56
295.756	114.56
295.987	124.56
296.217	155.56
296.448	145.56
296.679	101.56
296.909	87.56
297.14	93.56
297.37	80.56
297.601	82.56
297.831	91.56
298.062	83.56
298.292	84.56
298.523	94.56
298.753	108.56
298.984	88.56
299.214	85.56
299.445	81.56
299.675	94.56
299.905	91.56
300.136	92.56
300.366	98.56
300.597	93.56
300.827	88.56
301.057	86.56
301.288	107.56
301.518	108.56
301.748	109.56
301.979	123.56
302.209	93.56
302.439	91.56
302.669	80.56
302.9	102.56
303.13	91.56
303.36	109.56
303.59	131.56
303.82	156.56
304.051	115.56
304.281	99.56
304.511	103.56
304.741	92.56
304.971	95.56
305.201	85.56
305.431	95.56
305.661	100.56
305.891	93.56
306.121	86.56
306.352	113.56
306.582	122.56
306.812	121.56
307.042	138.56
307.272	177.56
307.502	175.56
307.731	171.56
307.961	133.56
308.191	95.56
308.421	103.56
308.651	97.56
308.881	90.56
309.111	84.56
309.341	90.56
309.571	91.56
309.8	100.56
310.03	108.56
310.26	100.56
310.49	94.56
310.72	107.56
310.949	113.56
311.179	105.56
311.409	95.56
311.639	94.56
311.868	99.56
312.098	102.56
312.328	92.56
312.557	115.56
312.787	119.56
313.017	112.56
313.246	92.56
313.476	108.56
313.706	91.56
313.935	98.56
314.165	103.56
314.394	95.56
314.624	108.56
314.853	103.56
315.083	90.56
315.312	100.56
315.542	100.56
315.771	93.56
316.001	84.56
316.23	76.56
316.46	82.56
316.689	92.56
316.919	91.56
317.148	101.56
317.377	72.56
317.607	97.56
317.836	104.56
318.065	84.56
318.295	93.56
318.524	91.56
318.753	90.56
318.983	96.56
319.212	103.56
319.441	112.56
319.67	115.56
319.9	94.56
320.129	91.56
320.358	89.56
320.587	96.56
320.816	96.56
321.046	95.56
321.275	113.56
321.504	87.56
321.733	91.56
321.962	98.56
322.191	114.56
322.42	115.56
322.649	130.56
322.878	132.56
323.108	133.56
323.337	144.56
323.566	170.56
323.795	183.56
324.024	238.56
324.253	479.56
324.482	1074.56
324.71	2238.56
324.939	2951.56
325.168	1059.56
325.397	313.56
325.626	173.56
325.855	165.56
326.084	142.56
326.313	155.56
326.542	173.56
326.77	293.56
326.999	572.56
327.228	1215.56
327.457	2197.56
327.686	1801.56
327.914	619.56
328.143	612.56
328.372	816.56
328.6	452.56
328.829	205.56
329.058	191.56
329.287	206.56
329.515	199.56
329.744	297.56
329.972	598.56
330.201	1240.56
330.43	1826.56
330.658	797.56
330.887	317.56
331.115	182.56
331.344	125.56
331.572	130.56
331.801	123.56
332.03	128.56
332.258	136.56
332.486	110.56
332.715	107.56
332.943	118.56
333.172	122.56
333.4	145.56
333.629	173.56
333.857	264.56
334.085	519.56
334.314	1120.56
334.542	2249.56
334.771	2143.56
334.999	542.56
335.227	215.56
335.455	143.56
335.684	128.56
335.912	99.56
336.14	99.56
336.369	105.56
336.597	114.56
336.825	104.56
337.053	109.56
337.281	107.56
337.51	92.56
337.738	95.56
337.966	88.56
338.194	94.56
338.422	98.56
338.65	93.56
338.878	95.56
339.106	87.56
339.334	93.56
339.562	98.56
339.79	90.56
340.018	88.56
340.246	103.56
340.474	92.56
340.702	98.56
340.93	97.56
341.158	101.56
341.386	99.56
341.614	116.56
341.842	103.56
342.07	92.56
342.298	94.56
342.526	90.56
342.754	88.56
342.981	94.56
343.209	89.56
343.437	97.56
343.665	95.56
343.893	91.56
344.12	97.56
344.348	100.56
344.576	98.56
344.804	96.56
345.031	107.56
345.259	103.56
345.487	98.56
345.714	98.56
345.942	94.56
346.17	87.56
346.397	94.56
346.625	85.56
346.853	110.56
347.08	88.56
347.308	107.56
347.535	109.56
347.763	100.56
347.99	93.56
348.218	108.56
348.445	123.56
348.673	121.56
348.9	92.56
349.128	99.56
349.355	100.56
349.583	82.56
349.81	84.56
350.037	95.56
350.265	102.56
350.492	97.56
350.72	85.56
350.947	103.56
351.174	116.56
351.402	146.56
351.629	95.56
351.856	100.56
352.083	108.56
352.311	112.56
352.538	121.56
352.765	130.56
352.992	111.56
353.22	109.56
353.447	104.56
353.674	105.56
353.901	89.56
354.128	101.56
354.355	96.56
354.583	104.56
354.81	101.56
355.037	92.56
355.264	79.56
355.491	72.56
355.718	105.56
355.945	79.56
356.172	88.56
356.399	101.56
356.626	101.56
356.853	99.56
357.08	101.56
357.307	93.56
357.534	83.56
357.761	77.56
357.988	85.56
358.215	103.56
358.441	85.56
358.668	101.56
358.895	82.56
359.122	91.56
359.349	93.56
359.576	100.56
359.802	116.56
360.029	148.56
360.256	132.56
360.483	116.56
360.709	95.56
360.936	92.56
361.163	104.56
361.39	95.56
361.616	102.56
361.843	100.56
362.07	108.56
362.296	101.56
362.523	91.56
362.749	102.56
362.976	110.56
363.203	91.56
363.429	85.56
363.656	100.56
363.882	107.56
364.109	94.56
364.335	99.56
364.562	94.56
364.788	103.56
365.015	105.56
365.241	117.56
365.468	115.56
365.694	98.56
365.92	99.56
366.147	90.56
366.373	97.56
366.599	93.56
366.826	100.56
367.052	103.56
367.278	93.56
367.505	86.56
367.731	88.56
367.957	97.56
368.184	98.56
368.41	101.56
368.636	121.56
368.862	126.56
369.089	112.56
369.315	88.56
369.541	103.56
369.767	89.56
369.993	89.56
370.219	110.56
370.445	77.56
370.672	88.56
370.898	87.56
371.124	89.56
371.35	98.56
371.576	85.56
371.802	89.56
372.028	73.56
372.254	94.56
372.48	85.56
372.706	92.56
372.932	92.56
373.158	88.56
373.384	94.56
373.61	93.56
373.835	84.56
374.061	86.56
374.287	88.56
374.513	82.56
374.739	78.56
374.965	88.56
375.191	92.56
375.416	65.56
375.642	92.56
375.868	95.56
376.094	89.56
376.319	94.56
376.545	95.56
376.771	82.56
376.997	95.56
377.222	93.56
377.448	88.56
377.674	85.56
377.899	91.56
378.125	85.56
378.35	86.56
378.576	92.56
378.802	104.56
379.027	95.56
379.253	83.56
379.478	86.56
379.704	94.56
379.929	107.56
380.155	96.56
380.38	83.56
380.606	86.56
380.831	79.56
381.057	84.56
381.282	95.56
381.507	89.56
381.733	93.56
381.958	82.56
382.184	90.56
382.409	85.56
382.634	92.56
382.86	97.56
383.085	95.56
383.31	108.56
383.535	104.56
383.761	91.56
383.986	88.56
384.211	93.56
384.436	103.56
384.662	86.56
384.887	100.56
385.112	100.56
385.337	95.56
385.562	99.56
385.787	103.56
386.013	103.56
386.238	113.56
386.463	95.56
386.688	101.56
386.913	101.56
387.138	102.56
387.363	98.56
387.588	93.56
387.813	91.56
388.038	94.56
388.263	102.56
388.488	100.56
388.713	85.56
388.938	79.56
389.163	93.56
389.387	96.56
389.612	97.56
389.837	100.56
390.062	95.56
390.287	93.56
390.512	86.56
390.736	88.56
390.961	94.56
391.186	80.56
391.411	82.56
391.636	87.56
391.86	91.56
392.085	88.56
392.31	91.56
392.534	88.56
392.759	83.56
392.984	94.56
393.208	98.56
393.433	87.56
393.658	84.56
393.882	101.56
394.107	98.56
394.331	73.56
394.556	76.56
394.78	94.56
395.005	78.56
395.229	84.56
395.454	96.56
395.678	80.56
395.903	87.56
396.127	77.56
396.352	89.56
396.576	85.56
396.801	82.56
397.025	93.56
397.249	87.56
397.474	84.56
397.698	87.56
397.922	88.56
398.147	97.56
398.371	83.56
398.595	91.56
398.82	95.56
399.044	88.56
399.268	86.56
399.492	89.56
399.717	109.56
399.941	107.56
400.165	89.56
400.389	86.56
400.613	83.56
400.837	81.56
401.062	90.56
401.286	78.56
401.51	91.56
401.734	86.56
401.958	94.56
402.182	136.56
402.406	177.56
402.63	140.56
402.854	89.56
403.078	86.56
403.302	95.56
403.526	94.56
403.75	89.56
403.974	76.56
404.198	98.56
404.422	101.56
404.645	99.56
404.869	99.56
405.093	127.56
405.317	151.56
405.541	152.56
405.765	131.56
405.988	132.56
406.212	195.56
406.436	272.56
406.66	184.56
406.883	127.56
407.107	111.56
407.331	94.56
407.555	120.56
407.778	118.56
408.002	84.56
408.226	88.56
408.449	101.56
408.673	110.56
408.896	98.56
409.12	108.56
409.344	94.56
409.567	88.56
409.791	85.56
410.014	91.56
410.238	104.56
410.461	90.56
410.685	96.56
410.908	119.56
411.132	100.56
411.355	107.56
411.578	92.56
411.802	83.56
412.025	104.56
412.249	102.56
412.472	145.56
412.695	157.56
412.919	116.56
413.142	101.56
413.365	90.56
413.589	80.56
413.812	93.56
414.035	87.56
414.258	93.56
414.482	82.56
414.705	100.56
414.928	95.56
415.151	85.56
415.374	84.56
415.597	90.56
415.821	89.56
416.044	104.56
416.267	98.56
416.49	82.56
416.713	92.56
416.936	84.56
417.159	92.56
417.382	94.56
417.605	117.56
417.828	121.56
418.051	86.56
418.274	83.56
418.497	79.56
418.72	80.56
418.943	91.56
419.166	93.56
419.389	94.56
419.611	107.56
419.834	100.56
420.057	98.56
420.28	99.56
420.503	90.56
420.726	98.56
420.948	91.56
421.171	101.56
421.394	106.56
421.617	84.56
421.839	85.56
422.062	84.56
422.285	94.56
422.507	111.56
422.73	111.56
422.953	80.56
423.175	95.56
423.398	81.56
423.621	81.56
423.843	94.56
424.066	75.56
424.288	89.56
424.511	105.56
424.733	104.56
424.956	130.56
425.178	112.56
425.401	104.56
425.623	113.56
425.846	95.56
426.068	96.56
426.291	101.56
426.513	92.56
426.735	100.56
426.958	112.56
427.18	123.56
427.402	178.56
427.625	264.56
427.847	255.56
428.069	236.56
428.292	133.56
428.514	97.56
428.736	104.56
428.958	85.56
429.181	97.56
429.403	86.56
429.625	95.56
429.847	110.56
430.069	112.56
430.292	99.56
430.514	91.56
430.736	80.56
430.958	73.56
431.18	79.56
431.402	88.56
431.624	93.56
431.846	103.56
432.068	94.56
432.29	95.56
432.512	84.56
432.734	81.56
432.956	83.56
433.178	97.56
433.4	116.56
433.622	91.56
433.844	89.56
434.066	100.56
434.287	93.56
434.509	93.56
434.731	92.56
434.953	109.56
435.175	104.56
435.397	91.56
435.618	99.56
435.84	113.56
436.062	148.56
436.284	139.56
436.505	106.56
436.727	108.56
436.949	85.56
437.17	102.56
437.392	95.56
437.614	96.56
437.835	125.56
438.057	141.56
438.278	139.56
438.5	131.56
438.721	155.56
438.943	125.56
439.165	104.56
439.386	91.56
439.608	98.56
439.829	110.56
440.05	159.56
440.272	193.56
440.493	115.56
440.715	95.56
440.936	91.56
441.158	93.56
441.379	101.56
441.6	109.56
441.822	102.56
442.043	92.56
442.264	119.56
442.486	129.56
442.707	107.56
442.928	116.56
443.149	155.56
443.371	171.56
443.592	142.56
443.813	145.56
444.034	123.56
444.255	97.56
444.476	81.56
444.698	98.56
444.919	92.56
445.14	123.56
445.361	136.56
445.582	153.56
445.803	194.56
446.024	175.56
446.245	163.56
446.466	143.56
446.687	101.56
446.908	102.56
447.129	85.56
447.35	92.56
447.571	105.56
447.792	103.56
448.013	110.56
448.234	121.56
448.455	105.56
448.675	137.56
448.896	157.56
449.117	90.56
449.338	104.56
449.559	156.56
449.779	173.56
450	102.56
450.221	79.56
450.442	86.56
450.662	100.56
450.883	122.56
451.104	139.56
451.324	105.56
451.545	92.56
451.766	79.56
451.986	94.56
452.207	90.56
452.428	92.56
452.648	102.56
452.869	119.56
453.089	119.56
453.31	124.56
453.53	85.56
453.751	98.56
453.971	124.56
454.192	128.56
454.412	100.56
454.633	99.56
454.853	77.56
455.073	85.56
455.294	93.56
455.514	125.56
455.734	82.56
455.955	80.56
456.175	96.56
456.395	84.56
456.616	101.56
456.836	101.56
457.056	84.56
457.276	81.56
457.497	84.56
457.717	95.56
457.937	85.56
458.157	82.56
458.377	100.56
458.598	124.56
458.818	188.56
459.038	217.56
459.258	143.56
459.478	106.56
459.698	85.56
459.918	96.56
460.138	98.56
460.358	82.56
460.578	83.56
460.798	87.56
461.018	80.56
461.238	85.56
461.458	76.56
461.678	88.56
461.898	80.56
462.118	78.56
462.338	85.56
462.558	89.56
462.777	96.56
462.997	100.56
463.217	109.56
463.437	98.56
463.657	88.56
463.876	93.56
464.096	91.56
464.316	91.56
464.536	87.56
464.755	102.56
464.975	122.56
465.195	210.56
465.414	220.56
465.634	121.56
465.854	101.56
466.073	85.56
466.293	93.56
466.512	103.56
466.732	95.56
466.951	82.56
467.171	97.56
467.391	114.56
467.61	157.56
467.829	227.56
468.049	667.56
468.268	1094.56
468.488	273.56
468.707	118.56
468.927	100.56
469.146	109.56
469.365	90.56
469.585	101.56
469.804	105.56
470.023	109.56
470.243	89.56
470.462	113.56
470.681	144.56
470.901	107.56
471.12	101.56
471.339	111.56
471.558	129.56
471.777	183.56
471.997	357.56
472.216	1361.56
472.435	3195.56
472.654	792.56
472.873	187.56
473.092	98.56
473.311	112.56
473.53	107.56
473.749	92.56
473.968	104.56
474.187	115.56
474.406	115.56
474.625	91.56
474.844	94.56
475.063	78.56
475.282	91.56
475.501	85.56
475.72	103.56
475.939	80.56
476.158	95.56
476.377	86.56
476.596	99.56
476.814	105.56
477.033	95.56
477.252	115.56
477.471	88.56
477.69	96.56
477.908	117.56
478.127	94.56
478.346	95.56
478.564	99.56
478.783	121.56
479.002	110.56
479.22	97.56
479.439	123.56
479.658	140.56
479.876	133.56
480.095	116.56
480.313	142.56
480.532	188.56
480.751	323.56
480.969	1196.56
481.188	5202.56
481.406	3223.56
481.624	450.56
481.843	144.56
482.061	119.56
482.28	101.56
482.498	81.56
482.717	91.56
482.935	94.56
483.153	102.56
483.372	103.56
483.59	92.56
483.808	80.56
484.027	102.56
484.245	97.56
484.463	116.56
484.681	115.56
484.9	89.56
485.118	97.56
485.336	111.56
485.554	107.56
485.772	117.56
485.99	101.56
486.209	107.56
486.427	93.56
486.645	126.56
486.863	141.56
487.081	98.56
487.299	96.56
487.517	100.56
487.735	112.56
487.953	98.56
488.171	88.56
488.389	97.56
488.607	104.56
488.825	88.56
489.043	74.56
489.261	85.56
489.479	88.56
489.696	98.56
489.914	90.56
490.132	94.56
490.35	97.56
490.568	90.56
490.786	107.56
491.003	93.56
491.221	87.56
491.439	100.56
491.657	95.56
491.874	86.56
492.092	87.56
492.31	98.56
492.527	106.56
492.745	103.56
492.963	91.56
493.18	103.56
493.398	109.56
493.615	104.56
493.833	88.56
494.05	96.56
494.268	96.56
494.485	91.56
494.703	88.56
494.92	85.56
495.138	86.56
495.355	107.56
495.573	94.56
495.79	85.56
496.008	101.56
496.225	95.56
496.442	87.56
496.66	94.56
496.877	97.56
497.094	96.56
497.312	96.56
497.529	88.56
497.746	89.56
497.963	94.56
498.181	95.56
498.398	114.56
498.615	126.56
498.832	120.56
499.049	96.56
499.267	90.56
499.484	84.56
499.701	73.56
499.918	88.56
500.135	100.56
500.352	87.56
500.569	100.56
500.786	102.56
501.003	79.56
501.22	83.56
501.437	75.56
501.654	88.56
501.871	118.56
502.088	97.56
502.305	93.56
502.522	92.56
502.739	93.56
502.956	88.56
503.172	92.56
503.389	100.56
503.606	117.56
503.823	103.56
504.04	88.56
504.256	101.56
504.473	88.56
504.69	75.56
504.907	95.56
505.123	78.56
505.34	112.56
505.557	81.56
505.773	100.56
505.99	91.56
506.207	94.56
506.423	81.56
506.64	92.56
506.856	92.56
507.073	98.56
507.289	93.56
507.506	97.56
507.722	140.56
507.939	127.56
508.155	87.56
508.372	92.56
508.588	91.56
508.805	105.56
509.021	102.56
509.238	100.56
509.454	109.56
509.67	93.56
509.887	102.56
510.103	113.56
510.319	210.56
510.536	821.56
510.752	2883.56
510.968	836.56
511.184	175.56
511.401	118.56
511.617	106.56
511.833	124.56
512.049	99.56
512.265	102.56
512.481	98.56
512.698	98.56
512.914	84.56
513.13	89.56
