Data from Circ_2023_H10_HRD10591_00080.txt Node
Date: Wed Jan 03 09:50:47 EST 2024
User: Yrep
Spectrometer: HR+D1059
Trigger mode: 1
Integration Time (sec): 1.000000E-1
Scans to average: 1
Electric dark correction enabled: true
Nonlinearity correction enabled: false
Boxcar width: 0
XAxis mode: Wavelengths
Number of Pixels in Spectrum: 2048
>>>>>Begin Spectral Data<<<<<
223.165	-13.56
223.4	-13.56
223.635	-13.56
223.869	-16.56
224.104	-14.56
224.338	-8.56
224.573	-12.56
224.808	-21.56
225.042	-0.56
225.277	-11.56
225.511	-15.56
225.746	11.44
225.98	-0.56
226.215	9.44
226.449	22.44
226.683	21.44
226.918	18.44
227.152	32.44
227.387	27.44
227.621	25.44
227.856	37.44
228.09	39.44
228.324	48.44
228.559	43.44
228.793	55.44
229.027	48.44
229.262	59.44
229.496	75.44
229.73	97.44
229.964	101.44
230.199	69.44
230.433	72.44
230.667	91.44
230.901	67.44
231.136	73.44
231.37	85.44
231.604	73.44
231.838	70.44
232.072	78.44
232.306	74.44
232.541	77.44
232.775	77.44
233.009	82.44
233.243	67.44
233.477	73.44
233.711	72.44
233.945	70.44
234.179	84.44
234.413	80.44
234.647	73.44
234.881	79.44
235.115	82.44
235.349	61.44
235.583	82.44
235.817	66.44
236.051	74.44
236.285	76.44
236.519	88.44
236.753	74.44
236.987	80.44
237.221	89.44
237.455	93.44
237.689	65.44
237.922	81.44
238.156	82.44
238.39	72.44
238.624	62.44
238.858	70.44
239.091	62.44
239.325	88.44
239.559	86.44
239.793	78.44
240.027	66.44
240.26	78.44
240.494	88.44
240.728	77.44
240.961	88.44
241.195	68.44
241.429	96.44
241.662	69.44
241.896	63.44
242.13	55.44
242.363	73.44
242.597	72.44
242.83	74.44
243.064	80.44
243.298	76.44
243.531	82.44
243.765	76.44
243.998	81.44
244.232	78.44
244.465	94.44
244.699	79.44
244.932	65.44
245.166	89.44
245.399	68.44
245.633	70.44
245.866	85.44
246.099	76.44
246.333	75.44
246.566	93.44
246.8	84.44
247.033	78.44
247.266	78.44
247.5	76.44
247.733	98.44
247.966	83.44
248.2	82.44
248.433	87.44
248.666	89.44
248.899	91.44
249.133	91.44
249.366	118.44
249.599	100.44
249.832	80.44
250.066	76.44
250.299	94.44
250.532	91.44
250.765	77.44
250.998	76.44
251.231	62.44
251.465	71.44
251.698	84.44
251.931	105.44
252.164	95.44
252.397	83.44
252.63	93.44
252.863	88.44
253.096	80.44
253.329	79.44
253.562	76.44
253.795	79.44
254.028	86.44
254.261	83.44
254.494	83.44
254.727	82.44
254.96	71.44
255.193	82.44
255.426	88.44
255.659	84.44
255.892	112.44
256.124	104.44
256.357	94.44
256.59	89.44
256.823	81.44
257.056	84.44
257.289	94.44
257.521	82.44
257.754	91.44
257.987	92.44
258.22	99.44
258.452	96.44
258.685	92.44
258.918	93.44
259.151	95.44
259.383	82.44
259.616	86.44
259.849	76.44
260.081	78.44
260.314	73.44
260.547	96.44
260.779	104.44
261.012	111.44
261.244	126.44
261.477	94.44
261.71	99.44
261.942	113.44
262.175	142.44
262.407	99.44
262.64	76.44
262.872	101.44
263.105	68.44
263.337	77.44
263.57	84.44
263.802	77.44
264.035	75.44
264.267	82.44
264.499	88.44
264.732	84.44
264.964	86.44
265.197	88.44
265.429	81.44
265.661	90.44
265.894	76.44
266.126	92.44
266.358	89.44
266.591	74.44
266.823	78.44
267.055	92.44
267.287	81.44
267.52	65.44
267.752	87.44
267.984	92.44
268.216	99.44
268.448	95.44
268.681	94.44
268.913	88.44
269.145	77.44
269.377	82.44
269.609	101.44
269.841	76.44
270.073	93.44
270.306	85.44
270.538	84.44
270.77	79.44
271.002	81.44
271.234	95.44
271.466	107.44
271.698	89.44
271.93	78.44
272.162	91.44
272.394	87.44
272.626	84.44
272.858	88.44
273.09	74.44
273.322	86.44
273.553	85.44
273.785	101.44
274.017	96.44
274.249	83.44
274.481	78.44
274.713	85.44
274.945	81.44
275.176	96.44
275.408	98.44
275.64	123.44
275.872	141.44
276.104	125.44
276.335	111.44
276.567	105.44
276.799	135.44
277.031	171.44
277.262	238.44
277.494	186.44
277.726	101.44
277.957	96.44
278.189	90.44
278.421	108.44
278.652	92.44
278.884	71.44
279.115	94.44
279.347	73.44
279.579	101.44
279.81	161.44
280.042	228.44
280.273	308.44
280.505	197.44
280.736	121.44
280.968	89.44
281.199	90.44
281.431	90.44
281.662	80.44
281.894	95.44
282.125	100.44
282.356	138.44
282.588	161.44
282.819	130.44
283.051	84.44
283.282	94.44
283.513	80.44
283.745	96.44
283.976	79.44
284.207	94.44
284.439	93.44
284.67	93.44
284.901	91.44
285.132	76.44
285.364	92.44
285.595	91.44
285.826	89.44
286.057	100.44
286.288	91.44
286.52	78.44
286.751	87.44
286.982	85.44
287.213	94.44
287.444	97.44
287.675	95.44
287.906	91.44
288.138	78.44
288.369	73.44
288.6	93.44
288.831	87.44
289.062	90.44
289.293	84.44
289.524	76.44
289.755	92.44
289.986	79.44
290.217	85.44
290.448	95.44
290.679	76.44
290.91	89.44
291.141	91.44
291.371	93.44
291.602	100.44
291.833	85.44
292.064	91.44
292.295	96.44
292.526	94.44
292.757	72.44
292.987	99.44
293.218	96.44
293.449	87.44
293.68	81.44
293.91	85.44
294.141	82.44
294.372	103.44
294.603	81.44
294.833	85.44
295.064	96.44
295.295	79.44
295.525	93.44
295.756	104.44
295.987	128.44
296.217	152.44
296.448	131.44
296.679	89.44
296.909	92.44
297.14	76.44
297.37	95.44
297.601	87.44
297.831	85.44
298.062	93.44
298.292	88.44
298.523	88.44
298.753	93.44
298.984	91.44
299.214	91.44
299.445	98.44
299.675	95.44
299.905	98.44
300.136	104.44
300.366	84.44
300.597	95.44
300.827	102.44
301.057	103.44
301.288	105.44
301.518	102.44
301.748	96.44
301.979	114.44
302.209	100.44
302.439	95.44
302.669	67.44
302.9	115.44
303.13	91.44
303.36	116.44
303.59	148.44
303.82	166.44
304.051	101.44
304.281	95.44
304.511	88.44
304.741	91.44
304.971	85.44
305.201	101.44
305.431	92.44
305.661	97.44
305.891	97.44
306.121	110.44
306.352	111.44
306.582	109.44
306.812	119.44
307.042	133.44
307.272	166.44
307.502	190.44
307.731	181.44
307.961	129.44
308.191	96.44
308.421	88.44
308.651	97.44
308.881	86.44
309.111	104.44
309.341	101.44
309.571	108.44
309.8	84.44
310.03	120.44
310.26	107.44
310.49	88.44
310.72	111.44
310.949	120.44
311.179	94.44
311.409	99.44
311.639	95.44
311.868	101.44
312.098	81.44
312.328	107.44
312.557	109.44
312.787	124.44
313.017	127.44
313.246	104.44
313.476	92.44
313.706	99.44
313.935	100.44
314.165	99.44
314.394	107.44
314.624	114.44
314.853	101.44
315.083	84.44
315.312	85.44
315.542	91.44
315.771	92.44
316.001	80.44
316.23	87.44
316.46	92.44
316.689	102.44
316.919	91.44
317.148	97.44
317.377	105.44
317.607	98.44
317.836	97.44
318.065	95.44
318.295	90.44
318.524	100.44
318.753	94.44
318.983	103.44
319.212	98.44
319.441	117.44
319.67	111.44
319.9	103.44
320.129	99.44
320.358	78.44
320.587	99.44
320.816	108.44
321.046	100.44
321.275	91.44
321.504	112.44
321.733	101.44
321.962	81.44
322.191	109.44
322.42	112.44
322.649	116.44
322.878	123.44
323.108	129.44
323.337	151.44
323.566	146.44
323.795	166.44
324.024	253.44
324.253	459.44
324.482	963.44
324.71	1929.44
324.939	2518.44
325.168	937.44
325.397	296.44
325.626	160.44
325.855	150.44
326.084	135.44
326.313	153.44
326.542	149.44
326.77	252.44
326.999	491.44
327.228	1014.44
327.457	1843.44
327.686	1554.44
327.914	562.44
328.143	585.44
328.372	794.44
328.6	443.44
328.829	206.44
329.058	189.44
329.287	213.44
329.515	186.44
329.744	281.44
329.972	575.44
330.201	1211.44
330.43	1783.44
330.658	800.44
330.887	311.44
331.115	200.44
331.344	138.44
331.572	119.44
331.801	142.44
332.03	132.44
332.258	117.44
332.486	118.44
332.715	105.44
332.943	137.44
333.172	121.44
333.4	129.44
333.629	167.44
333.857	253.44
334.085	514.44
334.314	1101.44
334.542	2207.44
334.771	2116.44
334.999	536.44
335.227	205.44
335.455	137.44
335.684	124.44
335.912	124.44
336.14	116.44
336.369	118.44
336.597	109.44
336.825	105.44
337.053	113.44
337.281	95.44
337.51	103.44
337.738	92.44
337.966	97.44
338.194	100.44
338.422	96.44
338.65	95.44
338.878	95.44
339.106	82.44
339.334	90.44
339.562	90.44
339.79	84.44
340.018	82.44
340.246	108.44
340.474	100.44
340.702	94.44
340.93	86.44
341.158	94.44
341.386	102.44
341.614	104.44
341.842	103.44
342.07	86.44
342.298	92.44
342.526	96.44
342.754	86.44
342.981	85.44
343.209	90.44
343.437	103.44
343.665	96.44
343.893	95.44
344.12	97.44
344.348	86.44
344.576	92.44
344.804	108.44
345.031	97.44
345.259	102.44
345.487	95.44
345.714	107.44
345.942	104.44
346.17	96.44
346.397	98.44
346.625	93.44
346.853	99.44
347.08	96.44
347.308	84.44
347.535	107.44
347.763	110.44
347.99	108.44
348.218	116.44
348.445	113.44
348.673	112.44
348.9	111.44
349.128	110.44
349.355	93.44
349.583	81.44
349.81	84.44
350.037	110.44
350.265	103.44
350.492	94.44
350.72	100.44
350.947	104.44
351.174	116.44
351.402	121.44
351.629	103.44
351.856	118.44
352.083	112.44
352.311	120.44
352.538	118.44
352.765	114.44
352.992	117.44
353.22	116.44
353.447	92.44
353.674	99.44
353.901	73.44
354.128	82.44
354.355	94.44
354.583	97.44
354.81	98.44
355.037	88.44
355.264	92.44
355.491	87.44
355.718	80.44
355.945	85.44
356.172	94.44
356.399	109.44
356.626	111.44
356.853	89.44
357.08	95.44
357.307	83.44
357.534	92.44
357.761	91.44
357.988	98.44
358.215	101.44
358.441	88.44
358.668	88.44
358.895	81.44
359.122	87.44
359.349	90.44
359.576	95.44
359.802	109.44
360.029	127.44
360.256	133.44
360.483	136.44
360.709	101.44
360.936	104.44
361.163	90.44
361.39	97.44
361.616	102.44
361.843	86.44
362.07	95.44
362.296	100.44
362.523	103.44
362.749	104.44
362.976	97.44
363.203	78.44
363.429	84.44
363.656	100.44
363.882	102.44
364.109	81.44
364.335	108.44
364.562	92.44
364.788	79.44
365.015	94.44
365.241	103.44
365.468	114.44
365.694	113.44
365.92	112.44
366.147	96.44
366.373	107.44
366.599	97.44
366.826	96.44
367.052	84.44
367.278	93.44
367.505	99.44
367.731	101.44
367.957	87.44
368.184	102.44
368.41	121.44
368.636	132.44
368.862	119.44
369.089	123.44
369.315	102.44
369.541	105.44
369.767	87.44
369.993	87.44
370.219	95.44
370.445	89.44
370.672	100.44
370.898	88.44
371.124	71.44
371.35	88.44
371.576	88.44
371.802	85.44
372.028	93.44
372.254	88.44
372.48	86.44
372.706	87.44
372.932	91.44
373.158	80.44
373.384	92.44
373.61	86.44
373.835	102.44
374.061	97.44
374.287	97.44
374.513	91.44
374.739	84.44
374.965	75.44
375.191	79.44
375.416	84.44
375.642	92.44
375.868	80.44
376.094	83.44
376.319	101.44
376.545	82.44
376.771	81.44
376.997	87.44
377.222	83.44
377.448	83.44
377.674	93.44
377.899	87.44
378.125	84.44
378.35	80.44
378.576	92.44
378.802	88.44
379.027	66.44
379.253	96.44
379.478	83.44
379.704	101.44
379.929	78.44
380.155	96.44
380.38	80.44
380.606	81.44
380.831	86.44
381.057	88.44
381.282	84.44
381.507	85.44
381.733	104.44
381.958	78.44
382.184	97.44
382.409	107.44
382.634	104.44
382.86	112.44
383.085	109.44
383.31	119.44
383.535	82.44
383.761	94.44
383.986	86.44
384.211	83.44
384.436	101.44
384.662	85.44
384.887	100.44
385.112	99.44
385.337	96.44
385.562	87.44
385.787	105.44
386.013	115.44
386.238	113.44
386.463	95.44
386.688	90.44
386.913	80.44
387.138	108.44
387.363	96.44
387.588	92.44
387.813	102.44
388.038	104.44
388.263	97.44
388.488	108.44
388.713	98.44
388.938	92.44
389.163	83.44
389.387	111.44
389.612	94.44
389.837	102.44
390.062	101.44
390.287	96.44
390.512	102.44
390.736	97.44
390.961	97.44
391.186	88.44
391.411	95.44
391.636	81.44
391.86	94.44
392.085	91.44
392.31	74.44
392.534	94.44
392.759	92.44
392.984	110.44
393.208	81.44
393.433	86.44
393.658	83.44
393.882	83.44
394.107	78.44
394.331	76.44
394.556	94.44
394.78	81.44
395.005	86.44
395.229	88.44
395.454	83.44
395.678	80.44
395.903	91.44
396.127	85.44
396.352	89.44
396.576	96.44
396.801	88.44
397.025	96.44
397.249	83.44
397.474	85.44
397.698	95.44
397.922	81.44
398.147	87.44
398.371	85.44
398.595	86.44
398.82	87.44
399.044	98.44
399.268	87.44
399.492	79.44
399.717	84.44
399.941	93.44
400.165	95.44
400.389	90.44
400.613	90.44
400.837	102.44
401.062	90.44
401.286	95.44
401.51	98.44
401.734	103.44
401.958	110.44
402.182	135.44
402.406	183.44
402.63	142.44
402.854	91.44
403.078	86.44
403.302	90.44
403.526	84.44
403.75	78.44
403.974	82.44
404.198	93.44
404.422	86.44
404.645	81.44
404.869	96.44
405.093	122.44
405.317	148.44
405.541	145.44
405.765	124.44
405.988	142.44
406.212	200.44
406.436	289.44
406.66	192.44
406.883	126.44
407.107	111.44
407.331	88.44
407.555	115.44
407.778	102.44
408.002	91.44
408.226	77.44
408.449	88.44
408.673	88.44
408.896	94.44
409.12	97.44
409.344	96.44
409.567	93.44
409.791	91.44
410.014	103.44
410.238	94.44
410.461	79.44
410.685	103.44
410.908	119.44
411.132	100.44
411.355	113.44
411.578	99.44
411.802	86.44
412.025	91.44
412.249	98.44
412.472	134.44
412.695	137.44
412.919	112.44
413.142	86.44
413.365	93.44
413.589	76.44
413.812	83.44
414.035	87.44
414.258	96.44
414.482	86.44
414.705	81.44
414.928	84.44
415.151	70.44
415.374	90.44
415.597	79.44
415.821	86.44
416.044	96.44
416.267	98.44
416.49	81.44
416.713	87.44
416.936	98.44
417.159	86.44
417.382	102.44
417.605	94.44
417.828	120.44
418.051	103.44
418.274	77.44
418.497	99.44
418.72	82.44
418.943	76.44
419.166	100.44
419.389	99.44
419.611	85.44
419.834	91.44
420.057	95.44
420.28	103.44
420.503	103.44
420.726	92.44
420.948	89.44
421.171	97.44
421.394	100.44
421.617	102.44
421.839	94.44
422.062	94.44
422.285	84.44
422.507	98.44
422.73	123.44
422.953	80.44
423.175	77.44
423.398	91.44
423.621	80.44
423.843	88.44
424.066	77.44
424.288	95.44
424.511	106.44
424.733	107.44
424.956	113.44
425.178	120.44
425.401	110.44
425.623	124.44
425.846	95.44
426.068	99.44
426.291	92.44
426.513	98.44
426.735	96.44
426.958	105.44
427.18	128.44
427.402	192.44
427.625	253.44
427.847	242.44
428.069	211.44
428.292	108.44
428.514	85.44
428.736	88.44
428.958	86.44
429.181	84.44
429.403	86.44
429.625	95.44
429.847	106.44
430.069	119.44
430.292	99.44
430.514	91.44
430.736	84.44
430.958	88.44
431.18	82.44
431.402	88.44
431.624	78.44
431.846	84.44
432.068	86.44
432.29	93.44
432.512	93.44
432.734	94.44
432.956	99.44
433.178	112.44
433.4	115.44
433.622	93.44
433.844	98.44
434.066	86.44
434.287	78.44
434.509	98.44
434.731	84.44
434.953	86.44
435.175	88.44
435.397	102.44
435.618	108.44
435.84	99.44
436.062	138.44
436.284	118.44
436.505	104.44
436.727	107.44
436.949	107.44
437.17	84.44
437.392	85.44
437.614	91.44
437.835	126.44
438.057	140.44
438.278	126.44
438.5	121.44
438.721	141.44
438.943	102.44
439.165	80.44
439.386	94.44
439.608	91.44
439.829	112.44
440.05	135.44
440.272	182.44
440.493	104.44
440.715	83.44
440.936	96.44
441.158	91.44
441.379	93.44
441.6	108.44
441.822	88.44
442.043	88.44
442.264	122.44
442.486	102.44
442.707	99.44
442.928	119.44
443.149	174.44
443.371	151.44
443.592	141.44
443.813	126.44
444.034	131.44
444.255	98.44
444.476	85.44
444.698	91.44
444.919	96.44
445.14	143.44
445.361	137.44
445.582	141.44
445.803	182.44
446.024	177.44
446.245	171.44
446.466	124.44
446.687	101.44
446.908	75.44
447.129	86.44
447.35	88.44
447.571	101.44
447.792	99.44
448.013	96.44
448.234	110.44
448.455	105.44
448.675	135.44
448.896	130.44
449.117	95.44
449.338	107.44
449.559	142.44
449.779	162.44
450	83.44
450.221	88.44
450.442	90.44
450.662	97.44
450.883	114.44
451.104	146.44
451.324	104.44
451.545	97.44
451.766	77.44
451.986	81.44
452.207	85.44
452.428	93.44
452.648	119.44
452.869	119.44
453.089	113.44
453.31	134.44
453.53	93.44
453.751	93.44
453.971	117.44
454.192	127.44
454.412	107.44
454.633	86.44
454.853	77.44
455.073	78.44
455.294	93.44
455.514	111.44
455.734	89.44
455.955	90.44
456.175	97.44
456.395	91.44
456.616	94.44
456.836	103.44
457.056	86.44
457.276	86.44
457.497	91.44
457.717	84.44
457.937	85.44
458.157	92.44
458.377	98.44
458.598	105.44
458.818	196.44
459.038	237.44
459.258	171.44
459.478	105.44
459.698	80.44
459.918	85.44
460.138	75.44
460.358	90.44
460.578	89.44
460.798	84.44
461.018	97.44
461.238	87.44
461.458	91.44
461.678	89.44
461.898	79.44
462.118	88.44
462.338	71.44
462.558	84.44
462.777	88.44
462.997	100.44
463.217	113.44
463.437	105.44
463.657	92.44
463.876	78.44
464.096	96.44
464.316	94.44
464.536	119.44
464.755	104.44
464.975	119.44
465.195	231.44
465.414	225.44
465.634	111.44
465.854	86.44
466.073	91.44
466.293	97.44
466.512	92.44
466.732	98.44
466.951	84.44
467.171	94.44
467.391	123.44
467.61	145.44
467.829	225.44
468.049	666.44
468.268	1078.44
468.488	263.44
468.707	119.44
468.927	94.44
469.146	92.44
469.365	103.44
469.585	102.44
469.804	95.44
470.023	98.44
470.243	111.44
470.462	117.44
470.681	128.44
470.901	104.44
471.12	102.44
471.339	115.44
471.558	127.44
471.777	174.44
471.997	335.44
472.216	1292.44
472.435	3111.44
472.654	745.44
472.873	191.44
473.092	86.44
473.311	99.44
473.53	87.44
473.749	92.44
473.968	108.44
474.187	119.44
474.406	103.44
474.625	81.44
474.844	95.44
475.063	93.44
475.282	94.44
475.501	95.44
475.72	81.44
475.939	81.44
476.158	91.44
476.377	96.44
476.596	78.44
476.814	113.44
477.033	107.44
477.252	97.44
477.471	91.44
477.69	94.44
477.908	90.44
478.127	103.44
478.346	90.44
478.564	87.44
478.783	102.44
479.002	104.44
479.22	119.44
479.439	117.44
479.658	138.44
479.876	136.44
480.095	135.44
480.313	141.44
480.532	172.44
480.751	315.44
480.969	1196.44
481.188	5058.44
481.406	3187.44
481.624	433.44
481.843	147.44
482.061	119.44
482.28	96.44
482.498	92.44
482.717	88.44
482.935	79.44
483.153	82.44
483.372	86.44
483.59	95.44
483.808	88.44
484.027	78.44
484.245	94.44
484.463	113.44
484.681	101.44
484.9	92.44
485.118	88.44
485.336	98.44
485.554	96.44
485.772	109.44
485.99	100.44
486.209	110.44
486.427	109.44
486.645	119.44
486.863	120.44
487.081	116.44
487.299	99.44
487.517	107.44
487.735	100.44
487.953	104.44
488.171	89.44
488.389	107.44
488.607	97.44
488.825	97.44
489.043	92.44
489.261	86.44
489.479	76.44
489.696	80.44
489.914	90.44
490.132	92.44
490.35	77.44
490.568	93.44
490.786	89.44
491.003	86.44
491.221	104.44
491.439	112.44
491.657	92.44
491.874	99.44
492.092	98.44
492.31	104.44
492.527	94.44
492.745	112.44
492.963	102.44
493.18	97.44
493.398	90.44
493.615	89.44
493.833	88.44
494.05	77.44
494.268	97.44
494.485	86.44
494.703	94.44
494.92	93.44
495.138	108.44
495.355	95.44
495.573	88.44
495.79	96.44
496.008	97.44
496.225	82.44
496.442	104.44
496.66	100.44
496.877	99.44
497.094	95.44
497.312	92.44
497.529	98.44
497.746	88.44
497.963	71.44
498.181	85.44
498.398	99.44
498.615	123.44
498.832	92.44
499.049	90.44
499.267	89.44
499.484	90.44
499.701	92.44
499.918	79.44
500.135	97.44
500.352	82.44
500.569	107.44
500.786	110.44
501.003	90.44
501.22	82.44
501.437	92.44
501.654	97.44
501.871	120.44
502.088	92.44
502.305	98.44
502.522	93.44
502.739	86.44
502.956	96.44
503.172	94.44
503.389	107.44
503.606	126.44
503.823	103.44
504.04	103.44
504.256	77.44
504.473	93.44
504.69	95.44
504.907	86.44
505.123	93.44
505.34	99.44
505.557	83.44
505.773	101.44
505.99	98.44
506.207	89.44
506.423	79.44
506.64	84.44
506.856	96.44
507.073	97.44
507.289	81.44
507.506	101.44
507.722	151.44
507.939	149.44
508.155	108.44
508.372	107.44
508.588	84.44
508.805	99.44
509.021	94.44
509.238	101.44
509.454	100.44
509.67	89.44
509.887	111.44
510.103	142.44
510.319	244.44
510.536	876.44
510.752	3094.44
510.968	899.44
511.184	187.44
511.401	126.44
511.617	128.44
511.833	117.44
512.049	101.44
512.265	92.44
512.481	98.44
512.698	100.44
512.914	88.44
513.13	88.44
513.346	100.44
