Data from Circ_2023_H10_HRD10591_00004.txt Node
Date: Wed Jan 03 09:50:31 EST 2024
User: Yrep
Spectrometer: HR+D1059
Trigger mode: 1
Integration Time (sec): 1.000000E-1
Scans to average: 1
Electric dark correction enabled: true
Nonlinearity correction enabled: false
Boxcar width: 0
XAxis mode: Wavelengths
Number of Pixels in Spectrum: 2048
>>>>>Begin Spectral Data<<<<<
223.165	-28.94
223.4	-28.94
223.635	-28.94
223.869	-27.94
224.104	-16.94
224.338	-21.94
224.573	-15.94
224.808	-10.94
225.042	-3.94
225.277	2.06
225.511	-15.94
225.746	18.06
225.98	17.06
226.215	2.06
226.449	21.06
226.683	20.06
226.918	26.06
227.152	36.06
227.387	26.06
227.621	63.06
227.856	48.06
228.09	45.06
228.324	60.06
228.559	66.06
228.793	45.06
229.027	63.06
229.262	52.06
229.496	60.06
229.73	82.06
229.964	85.06
230.199	87.06
230.433	67.06
230.667	83.06
230.901	65.06
231.136	73.06
231.37	79.06
231.604	77.06
231.838	90.06
232.072	72.06
232.306	84.06
232.541	80.06
232.775	82.06
233.009	80.06
233.243	83.06
233.477	86.06
233.711	72.06
233.945	63.06
234.179	92.06
234.413	88.06
234.647	84.06
234.881	79.06
235.115	87.06
235.349	85.06
235.583	83.06
235.817	76.06
236.051	79.06
236.285	87.06
236.519	87.06
236.753	72.06
236.987	78.06
237.221	83.06
237.455	95.06
237.689	75.06
237.922	62.06
238.156	83.06
238.39	81.06
238.624	81.06
238.858	75.06
239.091	94.06
239.325	84.06
239.559	80.06
239.793	81.06
240.027	66.06
240.26	75.06
240.494	78.06
240.728	75.06
240.961	88.06
241.195	96.06
241.429	73.06
241.662	84.06
241.896	77.06
242.13	67.06
242.363	91.06
242.597	75.06
242.83	84.06
243.064	91.06
243.298	81.06
243.531	86.06
243.765	73.06
243.998	90.06
244.232	74.06
244.465	82.06
244.699	84.06
244.932	84.06
245.166	83.06
245.399	76.06
245.633	88.06
245.866	72.06
246.099	79.06
246.333	81.06
246.566	96.06
246.8	84.06
247.033	88.06
247.266	76.06
247.5	67.06
247.733	79.06
247.966	77.06
248.2	79.06
248.433	100.06
248.666	88.06
248.899	88.06
249.133	91.06
249.366	114.06
249.599	101.06
249.832	74.06
250.066	84.06
250.299	81.06
250.532	83.06
250.765	88.06
250.998	87.06
251.231	84.06
251.465	78.06
251.698	86.06
251.931	69.06
252.164	75.06
252.397	72.06
252.63	79.06
252.863	88.06
253.096	73.06
253.329	77.06
253.562	99.06
253.795	75.06
254.028	80.06
254.261	85.06
254.494	100.06
254.727	85.06
254.96	83.06
255.193	77.06
255.426	79.06
255.659	80.06
255.892	99.06
256.124	96.06
256.357	89.06
256.59	88.06
256.823	75.06
257.056	87.06
257.289	92.06
257.521	92.06
257.754	79.06
257.987	84.06
258.22	90.06
258.452	95.06
258.685	84.06
258.918	84.06
259.151	75.06
259.383	80.06
259.616	68.06
259.849	78.06
260.081	90.06
260.314	77.06
260.547	86.06
260.779	99.06
261.012	100.06
261.244	82.06
261.477	99.06
261.71	101.06
261.942	117.06
262.175	145.06
262.407	95.06
262.64	76.06
262.872	93.06
263.105	74.06
263.337	79.06
263.57	87.06
263.802	88.06
264.035	85.06
264.267	96.06
264.499	97.06
264.732	101.06
264.964	84.06
265.197	79.06
265.429	67.06
265.661	79.06
265.894	91.06
266.126	90.06
266.358	95.06
266.591	83.06
266.823	92.06
267.055	90.06
267.287	89.06
267.52	85.06
267.752	86.06
267.984	80.06
268.216	79.06
268.448	75.06
268.681	85.06
268.913	85.06
269.145	98.06
269.377	88.06
269.609	78.06
269.841	89.06
270.073	92.06
270.306	92.06
270.538	90.06
270.77	90.06
271.002	90.06
271.234	79.06
271.466	88.06
271.698	91.06
271.93	82.06
272.162	84.06
272.394	90.06
272.626	90.06
272.858	85.06
273.09	89.06
273.322	114.06
273.553	96.06
273.785	85.06
274.017	84.06
274.249	86.06
274.481	84.06
274.713	88.06
274.945	93.06
275.176	84.06
275.408	97.06
275.64	100.06
275.872	112.06
276.104	88.06
276.335	111.06
276.567	103.06
276.799	141.06
277.031	132.06
277.262	136.06
277.494	111.06
277.726	88.06
277.957	88.06
278.189	85.06
278.421	84.06
278.652	90.06
278.884	96.06
279.115	97.06
279.347	102.06
279.579	95.06
279.81	104.06
280.042	130.06
280.273	179.06
280.505	147.06
280.736	103.06
280.968	85.06
281.199	93.06
281.431	95.06
281.662	87.06
281.894	87.06
282.125	106.06
282.356	132.06
282.588	160.06
282.819	110.06
283.051	96.06
283.282	81.06
283.513	81.06
283.745	84.06
283.976	88.06
284.207	87.06
284.439	88.06
284.67	89.06
284.901	75.06
285.132	80.06
285.364	97.06
285.595	93.06
285.826	90.06
286.057	91.06
286.288	81.06
286.52	83.06
286.751	87.06
286.982	106.06
287.213	93.06
287.444	96.06
287.675	88.06
287.906	98.06
288.138	105.06
288.369	99.06
288.6	92.06
288.831	92.06
289.062	91.06
289.293	98.06
289.524	96.06
289.755	96.06
289.986	92.06
290.217	80.06
290.448	73.06
290.679	80.06
290.91	101.06
291.141	92.06
291.371	106.06
291.602	95.06
291.833	91.06
292.064	116.06
292.295	75.06
292.526	81.06
292.757	96.06
292.987	95.06
293.218	85.06
293.449	83.06
293.68	92.06
293.91	92.06
294.141	102.06
294.372	84.06
294.603	84.06
294.833	90.06
295.064	88.06
295.295	91.06
295.525	106.06
295.756	99.06
295.987	131.06
296.217	165.06
296.448	144.06
296.679	97.06
296.909	82.06
297.14	83.06
297.37	90.06
297.601	84.06
297.831	96.06
298.062	108.06
298.292	90.06
298.523	94.06
298.753	105.06
298.984	98.06
299.214	72.06
299.445	103.06
299.675	95.06
299.905	108.06
300.136	102.06
300.366	91.06
300.597	89.06
300.827	108.06
301.057	103.06
301.288	98.06
301.518	91.06
301.748	95.06
301.979	104.06
302.209	97.06
302.439	85.06
302.669	89.06
302.9	87.06
303.13	100.06
303.36	100.06
303.59	108.06
303.82	123.06
304.051	97.06
304.281	94.06
304.511	90.06
304.741	82.06
304.971	78.06
305.201	96.06
305.431	75.06
305.661	85.06
305.891	97.06
306.121	104.06
306.352	101.06
306.582	113.06
306.812	115.06
307.042	105.06
307.272	115.06
307.502	141.06
307.731	151.06
307.961	114.06
308.191	93.06
308.421	96.06
308.651	102.06
308.881	91.06
309.111	103.06
309.341	101.06
309.571	95.06
309.8	100.06
310.03	101.06
310.26	100.06
310.49	86.06
310.72	100.06
310.949	102.06
311.179	115.06
311.409	101.06
311.639	96.06
311.868	92.06
312.098	96.06
312.328	100.06
312.557	105.06
312.787	103.06
313.017	97.06
313.246	99.06
313.476	100.06
313.706	104.06
313.935	100.06
314.165	113.06
314.394	116.06
314.624	102.06
314.853	95.06
315.083	92.06
315.312	105.06
315.542	97.06
315.771	91.06
316.001	87.06
316.23	99.06
316.46	84.06
316.689	77.06
316.919	104.06
317.148	96.06
317.377	105.06
317.607	119.06
317.836	103.06
318.065	92.06
318.295	87.06
318.524	86.06
318.753	100.06
318.983	111.06
319.212	99.06
319.441	133.06
319.67	112.06
319.9	111.06
320.129	88.06
320.358	93.06
320.587	96.06
320.816	105.06
321.046	112.06
321.275	113.06
321.504	98.06
321.733	100.06
321.962	98.06
322.191	94.06
322.42	114.06
322.649	113.06
322.878	130.06
323.108	125.06
323.337	145.06
323.566	144.06
323.795	156.06
324.024	258.06
324.253	465.06
324.482	1000.06
324.71	2036.06
324.939	2737.06
325.168	1040.06
325.397	296.06
325.626	187.06
325.855	142.06
326.084	145.06
326.313	146.06
326.542	170.06
326.77	277.06
326.999	556.06
327.228	1105.06
327.457	2098.06
327.686	1669.06
327.914	504.06
328.143	374.06
328.372	431.06
328.6	259.06
328.829	168.06
329.058	170.06
329.287	156.06
329.515	139.06
329.744	165.06
329.972	320.06
330.201	556.06
330.43	773.06
330.658	398.06
330.887	216.06
331.115	171.06
331.344	114.06
331.572	114.06
331.801	119.06
332.03	110.06
332.258	118.06
332.486	114.06
332.715	100.06
332.943	102.06
333.172	108.06
333.4	111.06
333.629	161.06
333.857	184.06
334.085	294.06
334.314	541.06
334.542	1020.06
334.771	909.06
334.999	275.06
335.227	141.06
335.455	111.06
335.684	100.06
335.912	100.06
336.14	110.06
336.369	88.06
336.597	118.06
336.825	118.06
337.053	108.06
337.281	110.06
337.51	100.06
337.738	97.06
337.966	96.06
338.194	121.06
338.422	113.06
338.65	108.06
338.878	95.06
339.106	105.06
339.334	118.06
339.562	96.06
339.79	95.06
340.018	87.06
340.246	89.06
340.474	96.06
340.702	92.06
340.93	90.06
341.158	102.06
341.386	91.06
341.614	92.06
341.842	103.06
342.07	93.06
342.298	89.06
342.526	95.06
342.754	104.06
342.981	95.06
343.209	88.06
343.437	93.06
343.665	105.06
343.893	107.06
344.12	88.06
344.348	90.06
344.576	90.06
344.804	94.06
345.031	111.06
345.259	109.06
345.487	103.06
345.714	97.06
345.942	95.06
346.17	89.06
346.397	95.06
346.625	93.06
346.853	97.06
347.08	94.06
347.308	112.06
347.535	97.06
347.763	115.06
347.99	115.06
348.218	104.06
348.445	109.06
348.673	105.06
348.9	109.06
349.128	94.06
349.355	93.06
349.583	88.06
349.81	100.06
350.037	97.06
350.265	92.06
350.492	98.06
350.72	115.06
350.947	122.06
351.174	115.06
351.402	124.06
351.629	107.06
351.856	103.06
352.083	99.06
352.311	101.06
352.538	114.06
352.765	113.06
352.992	123.06
353.22	108.06
353.447	115.06
353.674	105.06
353.901	93.06
354.128	106.06
354.355	99.06
354.583	103.06
354.81	92.06
355.037	97.06
355.264	93.06
355.491	93.06
355.718	105.06
355.945	105.06
356.172	92.06
356.399	98.06
356.626	96.06
356.853	92.06
357.08	87.06
357.307	96.06
357.534	102.06
357.761	102.06
357.988	103.06
358.215	96.06
358.441	94.06
358.668	91.06
358.895	90.06
359.122	100.06
359.349	99.06
359.576	101.06
359.802	119.06
360.029	143.06
360.256	111.06
360.483	108.06
360.709	94.06
360.936	98.06
361.163	105.06
361.39	103.06
361.616	95.06
361.843	94.06
362.07	100.06
362.296	109.06
362.523	110.06
362.749	97.06
362.976	91.06
363.203	101.06
363.429	106.06
363.656	75.06
363.882	99.06
364.109	98.06
364.335	107.06
364.562	105.06
364.788	94.06
365.015	99.06
365.241	95.06
365.468	128.06
365.694	96.06
365.92	103.06
366.147	97.06
366.373	92.06
366.599	96.06
366.826	100.06
367.052	99.06
367.278	91.06
367.505	90.06
367.731	93.06
367.957	88.06
368.184	108.06
368.41	116.06
368.636	127.06
368.862	133.06
369.089	127.06
369.315	101.06
369.541	104.06
369.767	107.06
369.993	103.06
370.219	92.06
370.445	96.06
370.672	90.06
370.898	82.06
371.124	91.06
371.35	87.06
371.576	98.06
371.802	81.06
372.028	89.06
372.254	100.06
372.48	78.06
372.706	80.06
372.932	74.06
373.158	81.06
373.384	102.06
373.61	93.06
373.835	97.06
374.061	91.06
374.287	98.06
374.513	91.06
374.739	88.06
374.965	76.06
375.191	103.06
375.416	86.06
375.642	99.06
375.868	98.06
376.094	86.06
376.319	81.06
376.545	97.06
376.771	90.06
376.997	81.06
377.222	96.06
377.448	93.06
377.674	87.06
377.899	77.06
378.125	85.06
378.35	97.06
378.576	88.06
378.802	107.06
379.027	107.06
379.253	91.06
379.478	91.06
379.704	99.06
379.929	88.06
380.155	103.06
380.38	92.06
380.606	116.06
380.831	88.06
381.057	95.06
381.282	95.06
381.507	89.06
381.733	97.06
381.958	86.06
382.184	89.06
382.409	91.06
382.634	91.06
382.86	105.06
383.085	90.06
383.31	92.06
383.535	96.06
383.761	99.06
383.986	88.06
384.211	84.06
384.436	105.06
384.662	90.06
384.887	103.06
385.112	114.06
385.337	99.06
385.562	94.06
385.787	95.06
386.013	107.06
386.238	108.06
386.463	108.06
386.688	97.06
386.913	101.06
387.138	102.06
387.363	104.06
387.588	113.06
387.813	101.06
388.038	115.06
388.263	92.06
388.488	103.06
388.713	98.06
388.938	95.06
389.163	90.06
389.387	104.06
389.612	88.06
389.837	106.06
390.062	96.06
390.287	105.06
390.512	103.06
390.736	99.06
390.961	82.06
391.186	95.06
391.411	86.06
391.636	87.06
391.86	104.06
392.085	99.06
392.31	75.06
392.534	83.06
392.759	91.06
392.984	90.06
393.208	94.06
393.433	97.06
393.658	98.06
393.882	95.06
394.107	92.06
394.331	88.06
394.556	79.06
394.78	101.06
395.005	91.06
395.229	91.06
395.454	103.06
395.678	90.06
395.903	93.06
396.127	94.06
396.352	83.06
396.576	83.06
396.801	83.06
397.025	97.06
397.249	92.06
397.474	95.06
397.698	91.06
397.922	91.06
398.147	89.06
398.371	88.06
398.595	88.06
398.82	89.06
399.044	80.06
399.268	81.06
399.492	85.06
399.717	97.06
399.941	84.06
400.165	90.06
400.389	101.06
400.613	84.06
400.837	101.06
401.062	104.06
401.286	88.06
401.51	91.06
401.734	108.06
401.958	107.06
402.182	140.06
402.406	186.06
402.63	132.06
402.854	117.06
403.078	91.06
403.302	89.06
403.526	76.06
403.75	93.06
403.974	92.06
404.198	85.06
404.422	91.06
404.645	96.06
404.869	92.06
405.093	120.06
405.317	135.06
405.541	121.06
405.765	104.06
405.988	145.06
406.212	210.06
406.436	300.06
406.66	188.06
406.883	101.06
407.107	107.06
407.331	109.06
407.555	112.06
407.778	95.06
408.002	100.06
408.226	102.06
408.449	114.06
408.673	82.06
408.896	92.06
409.12	98.06
409.344	103.06
409.567	75.06
409.791	88.06
410.014	95.06
410.238	87.06
410.461	96.06
410.685	96.06
410.908	98.06
411.132	114.06
411.355	101.06
411.578	91.06
411.802	79.06
412.025	81.06
412.249	103.06
412.472	125.06
412.695	133.06
412.919	97.06
413.142	97.06
413.365	106.06
413.589	85.06
413.812	94.06
414.035	107.06
414.258	100.06
414.482	80.06
414.705	91.06
414.928	93.06
415.151	93.06
415.374	83.06
415.597	87.06
415.821	74.06
416.044	98.06
416.267	95.06
416.49	80.06
416.713	89.06
416.936	91.06
417.159	80.06
417.382	96.06
417.605	90.06
417.828	105.06
418.051	99.06
418.274	82.06
418.497	95.06
418.72	88.06
418.943	87.06
419.166	88.06
419.389	84.06
419.611	88.06
419.834	84.06
420.057	98.06
420.28	102.06
420.503	87.06
420.726	81.06
420.948	77.06
421.171	97.06
421.394	85.06
421.617	88.06
421.839	78.06
422.062	97.06
422.285	90.06
422.507	115.06
422.73	111.06
422.953	99.06
423.175	83.06
423.398	83.06
423.621	94.06
423.843	99.06
424.066	92.06
424.288	97.06
424.511	105.06
424.733	114.06
424.956	120.06
425.178	112.06
425.401	106.06
425.623	104.06
425.846	109.06
426.068	105.06
426.291	97.06
426.513	107.06
426.735	87.06
426.958	99.06
427.18	111.06
427.402	165.06
427.625	239.06
427.847	213.06
428.069	193.06
428.292	128.06
428.514	102.06
428.736	77.06
428.958	73.06
429.181	93.06
429.403	82.06
429.625	90.06
429.847	98.06
430.069	101.06
430.292	91.06
430.514	98.06
430.736	90.06
430.958	80.06
431.18	83.06
431.402	93.06
431.624	92.06
431.846	97.06
432.068	77.06
432.29	93.06
432.512	88.06
432.734	86.06
432.956	98.06
433.178	94.06
433.4	93.06
433.622	83.06
433.844	100.06
434.066	95.06
434.287	101.06
434.509	85.06
434.731	85.06
434.953	84.06
435.175	90.06
435.397	89.06
435.618	96.06
435.84	111.06
436.062	135.06
436.284	137.06
436.505	103.06
436.727	102.06
436.949	82.06
437.17	100.06
437.392	84.06
437.614	98.06
437.835	116.06
438.057	131.06
438.278	122.06
438.5	104.06
438.721	144.06
438.943	114.06
439.165	102.06
439.386	93.06
439.608	96.06
439.829	111.06
440.05	135.06
440.272	160.06
440.493	121.06
440.715	99.06
440.936	103.06
441.158	89.06
441.379	88.06
441.6	97.06
441.822	108.06
442.043	101.06
442.264	106.06
442.486	115.06
442.707	93.06
442.928	104.06
443.149	149.06
443.371	156.06
443.592	116.06
443.813	127.06
444.034	118.06
444.255	110.06
444.476	86.06
444.698	84.06
444.919	97.06
445.14	130.06
445.361	130.06
445.582	143.06
445.803	159.06
446.024	166.06
446.245	156.06
446.466	136.06
446.687	103.06
446.908	100.06
447.129	89.06
447.35	88.06
447.571	100.06
447.792	101.06
448.013	115.06
448.234	127.06
448.455	109.06
448.675	123.06
448.896	155.06
449.117	99.06
449.338	123.06
449.559	147.06
449.779	163.06
450	99.06
450.221	89.06
450.442	89.06
450.662	103.06
450.883	114.06
451.104	128.06
451.324	97.06
451.545	93.06
451.766	102.06
451.986	100.06
452.207	101.06
452.428	84.06
452.648	108.06
452.869	99.06
453.089	116.06
453.31	138.06
453.53	104.06
453.751	94.06
453.971	115.06
454.192	123.06
454.412	96.06
454.633	99.06
454.853	89.06
455.073	99.06
455.294	93.06
455.514	88.06
455.734	101.06
455.955	84.06
456.175	87.06
456.395	92.06
456.616	83.06
456.836	71.06
457.056	101.06
457.276	96.06
457.497	81.06
457.717	84.06
457.937	93.06
458.157	88.06
458.377	105.06
458.598	118.06
458.818	172.06
459.038	203.06
459.258	125.06
459.478	111.06
459.698	74.06
459.918	88.06
460.138	90.06
460.358	86.06
460.578	111.06
460.798	95.06
461.018	86.06
461.238	82.06
461.458	99.06
461.678	76.06
461.898	87.06
462.118	79.06
462.338	94.06
462.558	81.06
462.777	94.06
462.997	97.06
463.217	97.06
463.437	95.06
463.657	74.06
463.876	104.06
464.096	95.06
464.316	114.06
464.536	100.06
464.755	93.06
464.975	123.06
465.195	215.06
465.414	194.06
465.634	105.06
465.854	88.06
466.073	84.06
466.293	81.06
466.512	88.06
466.732	99.06
466.951	90.06
467.171	81.06
467.391	108.06
467.61	111.06
467.829	167.06
468.049	330.06
468.268	464.06
468.488	163.06
468.707	104.06
468.927	91.06
469.146	96.06
469.365	88.06
469.585	113.06
469.804	96.06
470.023	105.06
470.243	99.06
470.462	118.06
470.681	133.06
470.901	101.06
471.12	79.06
471.339	108.06
471.558	119.06
471.777	127.06
471.997	200.06
472.216	610.06
472.435	1331.06
472.654	357.06
472.873	138.06
473.092	104.06
473.311	93.06
473.53	97.06
473.749	92.06
473.968	94.06
474.187	128.06
474.406	101.06
474.625	81.06
474.844	98.06
475.063	91.06
475.282	113.06
475.501	77.06
475.72	105.06
475.939	88.06
476.158	106.06
476.377	85.06
476.596	85.06
476.814	103.06
477.033	100.06
477.252	105.06
477.471	104.06
477.69	87.06
477.908	84.06
478.127	102.06
478.346	107.06
478.564	99.06
478.783	100.06
479.002	101.06
479.22	98.06
479.439	116.06
479.658	125.06
479.876	115.06
480.095	111.06
480.313	140.06
480.532	134.06
480.751	210.06
480.969	547.06
481.188	2267.06
481.406	1388.06
481.624	244.06
481.843	105.06
482.061	90.06
482.28	86.06
482.498	103.06
482.717	92.06
482.935	74.06
483.153	89.06
483.372	85.06
483.59	76.06
483.808	96.06
484.027	91.06
484.245	89.06
484.463	90.06
484.681	102.06
484.9	99.06
485.118	102.06
485.336	89.06
485.554	88.06
485.772	95.06
485.99	107.06
486.209	108.06
486.427	112.06
486.645	122.06
486.863	129.06
487.081	111.06
487.299	103.06
487.517	103.06
487.735	109.06
487.953	90.06
488.171	101.06
488.389	104.06
488.607	88.06
488.825	88.06
489.043	91.06
489.261	94.06
489.479	86.06
489.696	88.06
489.914	98.06
490.132	74.06
490.35	85.06
490.568	92.06
490.786	83.06
491.003	113.06
491.221	87.06
491.439	93.06
491.657	104.06
491.874	84.06
492.092	82.06
492.31	91.06
492.527	95.06
492.745	115.06
492.963	94.06
493.18	97.06
493.398	104.06
493.615	97.06
493.833	88.06
494.05	112.06
494.268	96.06
494.485	76.06
494.703	80.06
494.92	90.06
495.138	105.06
495.355	91.06
495.573	91.06
495.79	93.06
496.008	99.06
496.225	87.06
496.442	90.06
496.66	93.06
496.877	82.06
497.094	99.06
497.312	91.06
497.529	88.06
497.746	92.06
497.963	91.06
498.181	84.06
498.398	99.06
498.615	108.06
498.832	111.06
499.049	103.06
499.267	87.06
499.484	97.06
499.701	90.06
499.918	86.06
500.135	102.06
500.352	105.06
500.569	88.06
500.786	112.06
501.003	105.06
501.22	99.06
501.437	92.06
501.654	90.06
501.871	100.06
502.088	101.06
502.305	94.06
502.522	90.06
502.739	88.06
502.956	112.06
503.172	85.06
503.389	108.06
503.606	114.06
503.823	98.06
504.04	99.06
504.256	97.06
504.473	90.06
504.69	93.06
504.907	102.06
505.123	91.06
505.34	100.06
505.557	115.06
505.773	92.06
505.99	101.06
506.207	95.06
506.423	102.06
506.64	103.06
506.856	100.06
507.073	107.06
507.289	99.06
507.506	100.06
507.722	140.06
507.939	117.06
508.155	115.06
508.372	109.06
508.588	93.06
508.805	98.06
509.021	94.06
509.238	82.06
509.454	111.06
509.67	97.06
509.887	104.06
510.103	139.06
510.319	250.06
510.536	899.06
510.752	3033.06
510.968	868.06
511.184	185.06
511.401	119.06
511.617	115.06
511.833	112.06
512.049	97.06
512.265	105.06
512.481	111.06
512.698	102.06
512.914	96.06
