Data from Circ_2023_H10_HRD10591_00062.txt Node
Date: Wed Jan 03 09:50:43 EST 2024
User: Yrep
Spectrometer: HR+D1059
Trigger mode: 1
Integration Time (sec): 1.000000E-1
Scans to average: 1
Electric dark correction enabled: true
Nonlinearity correction enabled: false
Boxcar width: 0
XAxis mode: Wavelengths
Number of Pixels in Spectrum: 2048
>>>>>Begin Spectral Data<<<<<
223.165	-26.12
223.4	-26.12
223.635	-26.12
223.869	-8.12
224.104	-22.12
224.338	-25.12
224.573	-11.12
224.808	-23.12
225.042	-4.12
225.277	-4.12
225.511	-12.12
225.746	7.88
225.98	7.88
226.215	18.88
226.449	6.88
226.683	23.88
226.918	29.88
227.152	40.88
227.387	31.88
227.621	29.88
227.856	51.88
228.09	54.88
228.324	56.88
228.559	64.88
228.793	61.88
229.027	62.88
229.262	73.88
229.496	87.88
229.73	105.88
229.964	87.88
230.199	72.88
230.433	84.88
230.667	73.88
230.901	67.88
231.136	84.88
231.37	76.88
231.604	80.88
231.838	79.88
232.072	69.88
232.306	73.88
232.541	67.88
232.775	72.88
233.009	85.88
233.243	85.88
233.477	80.88
233.711	92.88
233.945	72.88
234.179	73.88
234.413	80.88
234.647	72.88
234.881	87.88
235.115	67.88
235.349	84.88
235.583	79.88
235.817	78.88
236.051	63.88
236.285	78.88
236.519	76.88
236.753	75.88
236.987	76.88
237.221	94.88
237.455	91.88
237.689	84.88
237.922	70.88
238.156	69.88
238.39	81.88
238.624	84.88
238.858	80.88
239.091	77.88
239.325	89.88
239.559	89.88
239.793	69.88
240.027	100.88
240.26	91.88
240.494	87.88
240.728	76.88
240.961	77.88
241.195	86.88
241.429	89.88
241.662	79.88
241.896	67.88
242.13	75.88
242.363	69.88
242.597	82.88
242.83	81.88
243.064	80.88
243.298	71.88
243.531	87.88
243.765	80.88
243.998	68.88
244.232	86.88
244.465	92.88
244.699	86.88
244.932	79.88
245.166	73.88
245.399	74.88
245.633	66.88
245.866	73.88
246.099	85.88
246.333	79.88
246.566	80.88
246.8	99.88
247.033	74.88
247.266	67.88
247.5	83.88
247.733	78.88
247.966	84.88
248.2	74.88
248.433	66.88
248.666	83.88
248.899	77.88
249.133	86.88
249.366	111.88
249.599	109.88
249.832	79.88
250.066	69.88
250.299	81.88
250.532	90.88
250.765	86.88
250.998	84.88
251.231	93.88
251.465	88.88
251.698	68.88
251.931	81.88
252.164	83.88
252.397	92.88
252.63	84.88
252.863	82.88
253.096	80.88
253.329	83.88
253.562	89.88
253.795	69.88
254.028	79.88
254.261	95.88
254.494	80.88
254.727	84.88
254.96	78.88
255.193	89.88
255.426	76.88
255.659	96.88
255.892	101.88
256.124	80.88
256.357	94.88
256.59	83.88
256.823	72.88
257.056	86.88
257.289	82.88
257.521	83.88
257.754	83.88
257.987	82.88
258.22	109.88
258.452	98.88
258.685	109.88
258.918	95.88
259.151	89.88
259.383	80.88
259.616	68.88
259.849	77.88
260.081	83.88
260.314	73.88
260.547	111.88
260.779	107.88
261.012	119.88
261.244	120.88
261.477	100.88
261.71	104.88
261.942	121.88
262.175	149.88
262.407	88.88
262.64	88.88
262.872	80.88
263.105	81.88
263.337	85.88
263.57	90.88
263.802	78.88
264.035	95.88
264.267	71.88
264.499	80.88
264.732	76.88
264.964	80.88
265.197	89.88
265.429	83.88
265.661	78.88
265.894	92.88
266.126	70.88
266.358	87.88
266.591	84.88
266.823	83.88
267.055	98.88
267.287	91.88
267.52	79.88
267.752	94.88
267.984	92.88
268.216	62.88
268.448	87.88
268.681	84.88
268.913	80.88
269.145	87.88
269.377	89.88
269.609	82.88
269.841	81.88
270.073	83.88
270.306	82.88
270.538	91.88
270.77	96.88
271.002	85.88
271.234	94.88
271.466	81.88
271.698	69.88
271.93	81.88
272.162	97.88
272.394	85.88
272.626	83.88
272.858	92.88
273.09	81.88
273.322	75.88
273.553	69.88
273.785	83.88
274.017	76.88
274.249	71.88
274.481	91.88
274.713	83.88
274.945	86.88
275.176	109.88
275.408	98.88
275.64	116.88
275.872	123.88
276.104	119.88
276.335	105.88
276.567	107.88
276.799	141.88
277.031	180.88
277.262	216.88
277.494	165.88
277.726	109.88
277.957	87.88
278.189	86.88
278.421	99.88
278.652	93.88
278.884	98.88
279.115	87.88
279.347	83.88
279.579	94.88
279.81	143.88
280.042	210.88
280.273	312.88
280.505	214.88
280.736	101.88
280.968	98.88
281.199	91.88
281.431	81.88
281.662	93.88
281.894	85.88
282.125	108.88
282.356	136.88
282.588	171.88
282.819	133.88
283.051	93.88
283.282	88.88
283.513	85.88
283.745	77.88
283.976	87.88
284.207	84.88
284.439	95.88
284.67	85.88
284.901	93.88
285.132	84.88
285.364	93.88
285.595	85.88
285.826	85.88
286.057	94.88
286.288	82.88
286.52	88.88
286.751	86.88
286.982	84.88
287.213	92.88
287.444	93.88
287.675	79.88
287.906	86.88
288.138	88.88
288.369	91.88
288.6	85.88
288.831	86.88
289.062	92.88
289.293	80.88
289.524	92.88
289.755	69.88
289.986	70.88
290.217	98.88
290.448	86.88
290.679	91.88
290.91	86.88
291.141	83.88
291.371	101.88
291.602	89.88
291.833	98.88
292.064	85.88
292.295	88.88
292.526	94.88
292.757	80.88
292.987	84.88
293.218	81.88
293.449	87.88
293.68	88.88
293.91	99.88
294.141	80.88
294.372	93.88
294.603	88.88
294.833	91.88
295.064	87.88
295.295	79.88
295.525	87.88
295.756	104.88
295.987	142.88
296.217	153.88
296.448	151.88
296.679	105.88
296.909	95.88
297.14	85.88
297.37	82.88
297.601	78.88
297.831	82.88
298.062	89.88
298.292	84.88
298.523	96.88
298.753	84.88
298.984	94.88
299.214	96.88
299.445	101.88
299.675	81.88
299.905	96.88
300.136	76.88
300.366	82.88
300.597	82.88
300.827	101.88
301.057	99.88
301.288	94.88
301.518	109.88
301.748	100.88
301.979	112.88
302.209	107.88
302.439	97.88
302.669	100.88
302.9	96.88
303.13	95.88
303.36	95.88
303.59	140.88
303.82	152.88
304.051	117.88
304.281	103.88
304.511	103.88
304.741	95.88
304.971	99.88
305.201	88.88
305.431	89.88
305.661	89.88
305.891	101.88
306.121	85.88
306.352	112.88
306.582	117.88
306.812	103.88
307.042	139.88
307.272	160.88
307.502	187.88
307.731	158.88
307.961	118.88
308.191	91.88
308.421	93.88
308.651	99.88
308.881	95.88
309.111	94.88
309.341	91.88
309.571	98.88
309.8	110.88
310.03	103.88
310.26	100.88
310.49	104.88
310.72	112.88
310.949	111.88
311.179	124.88
311.409	92.88
311.639	103.88
311.868	97.88
312.098	113.88
312.328	102.88
312.557	121.88
312.787	123.88
313.017	104.88
313.246	95.88
313.476	94.88
313.706	89.88
313.935	85.88
314.165	96.88
314.394	113.88
314.624	105.88
314.853	105.88
315.083	96.88
315.312	85.88
315.542	102.88
315.771	110.88
316.001	100.88
316.23	98.88
316.46	97.88
316.689	87.88
316.919	93.88
317.148	106.88
317.377	106.88
317.607	107.88
317.836	93.88
318.065	92.88
318.295	93.88
318.524	89.88
318.753	107.88
318.983	94.88
319.212	95.88
319.441	109.88
319.67	116.88
319.9	114.88
320.129	79.88
320.358	92.88
320.587	104.88
320.816	98.88
321.046	111.88
321.275	97.88
321.504	93.88
321.733	107.88
321.962	93.88
322.191	113.88
322.42	112.88
322.649	125.88
322.878	126.88
323.108	129.88
323.337	141.88
323.566	148.88
323.795	163.88
324.024	227.88
324.253	484.88
324.482	1046.88
324.71	2107.88
324.939	2804.88
325.168	1028.88
325.397	301.88
325.626	175.88
325.855	149.88
326.084	129.88
326.313	150.88
326.542	171.88
326.77	280.88
326.999	539.88
327.228	1122.88
327.457	2071.88
327.686	1682.88
327.914	574.88
328.143	597.88
328.372	766.88
328.6	445.88
328.829	179.88
329.058	205.88
329.287	210.88
329.515	175.88
329.744	277.88
329.972	558.88
330.201	1143.88
330.43	1752.88
330.658	753.88
330.887	308.88
331.115	200.88
331.344	123.88
331.572	138.88
331.801	119.88
332.03	132.88
332.258	96.88
332.486	111.88
332.715	111.88
332.943	125.88
333.172	135.88
333.4	144.88
333.629	184.88
333.857	261.88
334.085	493.88
334.314	1065.88
334.542	2165.88
334.771	2074.88
334.999	520.88
335.227	206.88
335.455	133.88
335.684	123.88
335.912	102.88
336.14	101.88
336.369	121.88
336.597	108.88
336.825	107.88
337.053	113.88
337.281	93.88
337.51	103.88
337.738	109.88
337.966	106.88
338.194	122.88
338.422	113.88
338.65	85.88
338.878	80.88
339.106	89.88
339.334	85.88
339.562	93.88
339.79	91.88
340.018	92.88
340.246	97.88
340.474	98.88
340.702	95.88
340.93	114.88
341.158	87.88
341.386	119.88
341.614	107.88
341.842	99.88
342.07	101.88
342.298	84.88
342.526	94.88
342.754	89.88
342.981	90.88
343.209	103.88
343.437	102.88
343.665	87.88
343.893	96.88
344.12	89.88
344.348	79.88
344.576	92.88
344.804	94.88
345.031	106.88
345.259	117.88
345.487	102.88
345.714	92.88
345.942	104.88
346.17	94.88
346.397	107.88
346.625	103.88
346.853	94.88
347.08	84.88
347.308	108.88
347.535	123.88
347.763	118.88
347.99	97.88
348.218	103.88
348.445	103.88
348.673	112.88
348.9	88.88
349.128	100.88
349.355	87.88
349.583	95.88
349.81	89.88
350.037	93.88
350.265	98.88
350.492	103.88
350.72	93.88
350.947	88.88
351.174	119.88
351.402	127.88
351.629	96.88
351.856	100.88
352.083	108.88
352.311	126.88
352.538	114.88
352.765	119.88
352.992	118.88
353.22	134.88
353.447	99.88
353.674	102.88
353.901	98.88
354.128	93.88
354.355	82.88
354.583	86.88
354.81	116.88
355.037	88.88
355.264	93.88
355.491	99.88
355.718	95.88
355.945	93.88
356.172	92.88
356.399	95.88
356.626	92.88
356.853	98.88
357.08	95.88
357.307	92.88
357.534	101.88
357.761	81.88
357.988	94.88
358.215	79.88
358.441	87.88
358.668	93.88
358.895	76.88
359.122	108.88
359.349	91.88
359.576	101.88
359.802	109.88
360.029	139.88
360.256	147.88
360.483	128.88
360.709	99.88
360.936	96.88
361.163	104.88
361.39	124.88
361.616	99.88
361.843	97.88
362.07	109.88
362.296	100.88
362.523	102.88
362.749	90.88
362.976	93.88
363.203	93.88
363.429	83.88
363.656	90.88
363.882	95.88
364.109	91.88
364.335	91.88
364.562	84.88
364.788	106.88
365.015	100.88
365.241	100.88
365.468	126.88
365.694	123.88
365.92	86.88
366.147	86.88
366.373	94.88
366.599	96.88
366.826	88.88
367.052	97.88
367.278	83.88
367.505	85.88
367.731	100.88
367.957	101.88
368.184	90.88
368.41	99.88
368.636	123.88
368.862	127.88
369.089	125.88
369.315	106.88
369.541	89.88
369.767	89.88
369.993	91.88
370.219	104.88
370.445	92.88
370.672	90.88
370.898	79.88
371.124	83.88
371.35	88.88
371.576	85.88
371.802	89.88
372.028	93.88
372.254	100.88
372.48	96.88
372.706	85.88
372.932	68.88
373.158	84.88
373.384	96.88
373.61	83.88
373.835	93.88
374.061	82.88
374.287	104.88
374.513	89.88
374.739	93.88
374.965	84.88
375.191	79.88
375.416	83.88
375.642	89.88
375.868	91.88
376.094	96.88
376.319	94.88
376.545	91.88
376.771	89.88
376.997	96.88
377.222	100.88
377.448	93.88
377.674	95.88
377.899	88.88
378.125	80.88
378.35	97.88
378.576	79.88
378.802	96.88
379.027	102.88
379.253	83.88
379.478	91.88
379.704	79.88
379.929	92.88
380.155	97.88
380.38	109.88
380.606	99.88
380.831	93.88
381.057	91.88
381.282	88.88
381.507	102.88
381.733	84.88
381.958	85.88
382.184	87.88
382.409	92.88
382.634	94.88
382.86	82.88
383.085	88.88
383.31	109.88
383.535	91.88
383.761	93.88
383.986	97.88
384.211	98.88
384.436	101.88
384.662	98.88
384.887	94.88
385.112	96.88
385.337	96.88
385.562	99.88
385.787	96.88
386.013	112.88
386.238	99.88
386.463	102.88
386.688	95.88
386.913	102.88
387.138	107.88
387.363	96.88
387.588	92.88
387.813	93.88
388.038	94.88
388.263	96.88
388.488	88.88
388.713	85.88
388.938	88.88
389.163	94.88
389.387	85.88
389.612	89.88
389.837	87.88
390.062	95.88
390.287	87.88
390.512	69.88
390.736	104.88
390.961	76.88
391.186	94.88
391.411	105.88
391.636	99.88
391.86	87.88
392.085	92.88
392.31	79.88
392.534	77.88
392.759	82.88
392.984	86.88
393.208	79.88
393.433	76.88
393.658	91.88
393.882	92.88
394.107	96.88
394.331	78.88
394.556	95.88
394.78	91.88
395.005	81.88
395.229	82.88
395.454	91.88
395.678	92.88
395.903	92.88
396.127	95.88
396.352	79.88
396.576	76.88
396.801	93.88
397.025	84.88
397.249	91.88
397.474	78.88
397.698	78.88
397.922	88.88
398.147	93.88
398.371	94.88
398.595	67.88
398.82	99.88
399.044	83.88
399.268	86.88
399.492	95.88
399.717	84.88
399.941	85.88
400.165	110.88
400.389	100.88
400.613	98.88
400.837	87.88
401.062	89.88
401.286	96.88
401.51	106.88
401.734	107.88
401.958	94.88
402.182	135.88
402.406	194.88
402.63	137.88
402.854	117.88
403.078	91.88
403.302	79.88
403.526	94.88
403.75	103.88
403.974	99.88
404.198	73.88
404.422	89.88
404.645	95.88
404.869	101.88
405.093	117.88
405.317	146.88
405.541	144.88
405.765	143.88
405.988	128.88
406.212	209.88
406.436	286.88
406.66	210.88
406.883	127.88
407.107	98.88
407.331	107.88
407.555	113.88
407.778	105.88
408.002	101.88
408.226	81.88
408.449	93.88
408.673	102.88
408.896	95.88
409.12	107.88
409.344	94.88
409.567	81.88
409.791	96.88
410.014	95.88
410.238	80.88
410.461	90.88
410.685	93.88
410.908	92.88
411.132	114.88
411.355	92.88
411.578	97.88
411.802	88.88
412.025	95.88
412.249	116.88
412.472	121.88
412.695	150.88
412.919	130.88
413.142	93.88
413.365	89.88
413.589	100.88
413.812	92.88
414.035	96.88
414.258	84.88
414.482	91.88
414.705	98.88
414.928	99.88
415.151	72.88
415.374	101.88
415.597	102.88
415.821	73.88
416.044	83.88
416.267	89.88
416.49	65.88
416.713	83.88
416.936	84.88
417.159	85.88
417.382	81.88
417.605	108.88
417.828	115.88
418.051	105.88
418.274	78.88
418.497	96.88
418.72	87.88
418.943	104.88
419.166	78.88
419.389	87.88
419.611	83.88
419.834	94.88
420.057	102.88
420.28	107.88
420.503	85.88
420.726	97.88
420.948	92.88
421.171	113.88
421.394	89.88
421.617	93.88
421.839	84.88
422.062	82.88
422.285	116.88
422.507	106.88
422.73	103.88
422.953	89.88
423.175	86.88
423.398	77.88
423.621	80.88
423.843	85.88
424.066	75.88
424.288	80.88
424.511	91.88
424.733	128.88
424.956	127.88
425.178	100.88
425.401	92.88
425.623	97.88
425.846	99.88
426.068	98.88
426.291	91.88
426.513	82.88
426.735	82.88
426.958	100.88
427.18	121.88
427.402	182.88
427.625	254.88
427.847	251.88
428.069	241.88
428.292	147.88
428.514	100.88
428.736	104.88
428.958	82.88
429.181	83.88
429.403	100.88
429.625	95.88
429.847	97.88
430.069	110.88
430.292	95.88
430.514	96.88
430.736	86.88
430.958	88.88
431.18	91.88
431.402	72.88
431.624	85.88
431.846	83.88
432.068	79.88
432.29	87.88
432.512	88.88
432.734	89.88
432.956	93.88
433.178	92.88
433.4	101.88
433.622	93.88
433.844	83.88
434.066	101.88
434.287	92.88
434.509	88.88
434.731	86.88
434.953	75.88
435.175	86.88
435.397	86.88
435.618	99.88
435.84	108.88
436.062	157.88
436.284	128.88
436.505	110.88
436.727	104.88
436.949	86.88
437.17	90.88
437.392	92.88
437.614	102.88
437.835	119.88
438.057	147.88
438.278	133.88
438.5	125.88
438.721	145.88
438.943	122.88
439.165	111.88
439.386	99.88
439.608	96.88
439.829	103.88
440.05	150.88
440.272	182.88
440.493	115.88
440.715	99.88
440.936	89.88
441.158	94.88
441.379	103.88
441.6	110.88
441.822	106.88
442.043	97.88
442.264	115.88
442.486	117.88
442.707	108.88
442.928	127.88
443.149	177.88
443.371	168.88
443.592	134.88
443.813	130.88
444.034	135.88
444.255	87.88
444.476	98.88
444.698	90.88
444.919	80.88
445.14	135.88
445.361	143.88
445.582	134.88
445.803	183.88
446.024	172.88
446.245	180.88
446.466	131.88
446.687	101.88
446.908	92.88
447.129	93.88
447.35	105.88
447.571	109.88
447.792	97.88
448.013	92.88
448.234	108.88
448.455	117.88
448.675	136.88
448.896	153.88
449.117	120.88
449.338	112.88
449.559	143.88
449.779	172.88
450	100.88
450.221	78.88
450.442	83.88
450.662	95.88
450.883	116.88
451.104	125.88
451.324	99.88
451.545	91.88
451.766	102.88
451.986	99.88
452.207	93.88
452.428	94.88
452.648	110.88
452.869	128.88
453.089	139.88
453.31	152.88
453.53	95.88
453.751	95.88
453.971	110.88
454.192	135.88
454.412	91.88
454.633	78.88
454.853	77.88
455.073	89.88
455.294	94.88
455.514	116.88
455.734	95.88
455.955	93.88
456.175	87.88
456.395	102.88
456.616	98.88
456.836	101.88
457.056	88.88
457.276	81.88
457.497	89.88
457.717	94.88
457.937	85.88
458.157	95.88
458.377	94.88
458.598	127.88
458.818	194.88
459.038	229.88
459.258	150.88
459.478	96.88
459.698	94.88
459.918	98.88
460.138	83.88
460.358	97.88
460.578	94.88
460.798	103.88
461.018	95.88
461.238	92.88
461.458	95.88
461.678	101.88
461.898	78.88
462.118	81.88
462.338	81.88
462.558	79.88
462.777	80.88
462.997	79.88
463.217	114.88
463.437	98.88
463.657	87.88
463.876	96.88
464.096	89.88
464.316	90.88
464.536	117.88
464.755	111.88
464.975	121.88
465.195	224.88
465.414	227.88
465.634	100.88
465.854	90.88
466.073	111.88
466.293	108.88
466.512	82.88
466.732	83.88
466.951	100.88
467.171	109.88
467.391	114.88
467.61	141.88
467.829	234.88
468.049	621.88
468.268	1009.88
468.488	247.88
468.707	132.88
468.927	104.88
469.146	100.88
469.365	94.88
469.585	102.88
469.804	125.88
470.023	123.88
470.243	108.88
470.462	123.88
470.681	135.88
470.901	120.88
471.12	100.88
471.339	111.88
471.558	113.88
471.777	174.88
471.997	339.88
472.216	1285.88
472.435	3007.88
472.654	745.88
472.873	182.88
473.092	113.88
473.311	89.88
473.53	99.88
473.749	84.88
473.968	119.88
474.187	126.88
474.406	110.88
474.625	103.88
474.844	102.88
475.063	89.88
475.282	100.88
475.501	95.88
475.72	100.88
475.939	97.88
476.158	99.88
476.377	85.88
476.596	88.88
476.814	100.88
477.033	97.88
477.252	109.88
477.471	88.88
477.69	104.88
477.908	79.88
478.127	78.88
478.346	93.88
478.564	95.88
478.783	110.88
479.002	107.88
479.22	110.88
479.439	115.88
479.658	142.88
479.876	127.88
480.095	125.88
480.313	156.88
480.532	167.88
480.751	304.88
480.969	1127.88
481.188	4955.88
481.406	3106.88
481.624	416.88
481.843	154.88
482.061	111.88
482.28	124.88
482.498	99.88
482.717	106.88
482.935	95.88
483.153	93.88
483.372	110.88
483.59	99.88
483.808	100.88
484.027	86.88
484.245	98.88
484.463	91.88
484.681	106.88
484.9	94.88
485.118	101.88
485.336	106.88
485.554	90.88
485.772	107.88
485.99	98.88
486.209	123.88
486.427	103.88
486.645	138.88
486.863	131.88
487.081	100.88
487.299	96.88
487.517	77.88
487.735	104.88
487.953	105.88
488.171	95.88
488.389	111.88
488.607	101.88
488.825	91.88
489.043	99.88
489.261	104.88
489.479	79.88
489.696	87.88
489.914	93.88
490.132	99.88
490.35	86.88
490.568	86.88
490.786	103.88
491.003	100.88
491.221	117.88
491.439	95.88
491.657	103.88
491.874	101.88
492.092	92.88
492.31	91.88
492.527	105.88
492.745	106.88
492.963	101.88
493.18	99.88
493.398	96.88
493.615	91.88
493.833	101.88
494.05	88.88
494.268	103.88
494.485	85.88
494.703	73.88
494.92	96.88
495.138	74.88
495.355	93.88
495.573	102.88
495.79	104.88
496.008	95.88
496.225	96.88
496.442	94.88
496.66	76.88
496.877	88.88
497.094	88.88
497.312	101.88
497.529	98.88
497.746	83.88
497.963	81.88
498.181	97.88
498.398	102.88
498.615	120.88
498.832	129.88
499.049	95.88
499.267	103.88
499.484	91.88
499.701	90.88
499.918	72.88
500.135	104.88
500.352	90.88
500.569	107.88
500.786	91.88
501.003	92.88
501.22	72.88
501.437	86.88
501.654	89.88
501.871	126.88
502.088	115.88
502.305	83.88
502.522	80.88
502.739	94.88
502.956	92.88
503.172	106.88
503.389	107.88
503.606	116.88
503.823	108.88
504.04	104.88
504.256	98.88
504.473	82.88
504.69	83.88
504.907	101.88
505.123	97.88
505.34	93.88
505.557	99.88
505.773	94.88
505.99	95.88
506.207	87.88
506.423	92.88
506.64	97.88
506.856	94.88
507.073	91.88
507.289	104.88
507.506	94.88
507.722	113.88
507.939	139.88
508.155	107.88
508.372	102.88
508.588	79.88
508.805	106.88
509.021	103.88
509.238	111.88
509.454	112.88
509.67	112.88
509.887	110.88
510.103	130.88
510.319	232.88
510.536	923.88
510.752	3232.88
510.968	931.88
511.184	213.88
511.401	125.88
511.617	111.88
511.833	125.88
512.049	104.88
512.265	93.88
512.481	105.88
512.698	95.88
512.914	85.88
