Data from Circ_2023_H10_HRD10591_00001.txt Node
Date: Wed Jan 03 09:50:31 EST 2024
User: Yrep
Spectrometer: HR+D1059
Trigger mode: 1
Integration Time (sec): 1.000000E-1
Scans to average: 1
Electric dark correction enabled: true
Nonlinearity correction enabled: false
Boxcar width: 0
XAxis mode: Wavelengths
Number of Pixels in Spectrum: 2048
>>>>>Begin Spectral Data<<<<<
223.165	-11.75
223.4	-11.75
223.635	-11.75
223.869	-17.75
224.104	-21.75
224.338	-24.75
224.573	-16.75
224.808	-19.75
225.042	-10.75
225.277	-3.75
225.511	-1.75
225.746	-3.75
225.98	9.25
226.215	24.25
226.449	22.25
226.683	23.25
226.918	24.25
227.152	29.25
227.387	27.25
227.621	20.25
227.856	40.25
228.09	44.25
228.324	56.25
228.559	64.25
228.793	65.25
229.027	71.25
229.262	58.25
229.496	80.25
229.73	90.25
229.964	85.25
230.199	71.25
230.433	77.25
230.667	68.25
230.901	68.25
231.136	67.25
231.37	72.25
231.604	77.25
231.838	69.25
232.072	91.25
232.306	80.25
232.541	90.25
232.775	87.25
233.009	69.25
233.243	71.25
233.477	78.25
233.711	72.25
233.945	86.25
234.179	78.25
234.413	83.25
234.647	76.25
234.881	65.25
235.115	85.25
235.349	63.25
235.583	86.25
235.817	80.25
236.051	89.25
236.285	83.25
236.519	78.25
236.753	81.25
236.987	75.25
237.221	92.25
237.455	96.25
237.689	74.25
237.922	77.25
238.156	72.25
238.39	77.25
238.624	67.25
238.858	88.25
239.091	62.25
239.325	72.25
239.559	77.25
239.793	88.25
240.027	60.25
240.26	90.25
240.494	81.25
240.728	78.25
240.961	79.25
241.195	76.25
241.429	69.25
241.662	61.25
241.896	61.25
242.13	80.25
242.363	75.25
242.597	68.25
242.83	66.25
243.064	72.25
243.298	74.25
243.531	69.25
243.765	84.25
243.998	67.25
244.232	70.25
244.465	92.25
244.699	76.25
244.932	67.25
245.166	68.25
245.399	80.25
245.633	75.25
245.866	67.25
246.099	73.25
246.333	87.25
246.566	80.25
246.8	82.25
247.033	48.25
247.266	72.25
247.5	71.25
247.733	77.25
247.966	73.25
248.2	92.25
248.433	87.25
248.666	89.25
248.899	72.25
249.133	92.25
249.366	94.25
249.599	103.25
249.832	86.25
250.066	86.25
250.299	76.25
250.532	87.25
250.765	84.25
250.998	88.25
251.231	91.25
251.465	75.25
251.698	89.25
251.931	67.25
252.164	79.25
252.397	77.25
252.63	87.25
252.863	98.25
253.096	70.25
253.329	76.25
253.562	72.25
253.795	73.25
254.028	88.25
254.261	72.25
254.494	87.25
254.727	92.25
254.96	78.25
255.193	75.25
255.426	82.25
255.659	88.25
255.892	84.25
256.124	96.25
256.357	92.25
256.59	71.25
256.823	72.25
257.056	81.25
257.289	86.25
257.521	97.25
257.754	80.25
257.987	80.25
258.22	75.25
258.452	95.25
258.685	94.25
258.918	92.25
259.151	102.25
259.383	82.25
259.616	77.25
259.849	86.25
260.081	87.25
260.314	103.25
260.547	77.25
260.779	104.25
261.012	79.25
261.244	101.25
261.477	94.25
261.71	114.25
261.942	111.25
262.175	143.25
262.407	86.25
262.64	76.25
262.872	80.25
263.105	69.25
263.337	79.25
263.57	66.25
263.802	81.25
264.035	85.25
264.267	79.25
264.499	86.25
264.732	92.25
264.964	83.25
265.197	82.25
265.429	78.25
265.661	83.25
265.894	81.25
266.126	89.25
266.358	80.25
266.591	71.25
266.823	74.25
267.055	76.25
267.287	84.25
267.52	93.25
267.752	68.25
267.984	86.25
268.216	82.25
268.448	88.25
268.681	91.25
268.913	79.25
269.145	89.25
269.377	72.25
269.609	91.25
269.841	101.25
270.073	93.25
270.306	83.25
270.538	93.25
270.77	90.25
271.002	78.25
271.234	85.25
271.466	93.25
271.698	100.25
271.93	86.25
272.162	97.25
272.394	75.25
272.626	74.25
272.858	72.25
273.09	87.25
273.322	81.25
273.553	77.25
273.785	79.25
274.017	81.25
274.249	90.25
274.481	78.25
274.713	87.25
274.945	91.25
275.176	79.25
275.408	100.25
275.64	91.25
275.872	110.25
276.104	110.25
276.335	93.25
276.567	133.25
276.799	142.25
277.031	149.25
277.262	183.25
277.494	128.25
277.726	101.25
277.957	93.25
278.189	87.25
278.421	89.25
278.652	75.25
278.884	78.25
279.115	90.25
279.347	93.25
279.579	100.25
279.81	123.25
280.042	184.25
280.273	238.25
280.505	172.25
280.736	106.25
280.968	90.25
281.199	95.25
281.431	88.25
281.662	90.25
281.894	85.25
282.125	117.25
282.356	134.25
282.588	153.25
282.819	136.25
283.051	85.25
283.282	84.25
283.513	82.25
283.745	68.25
283.976	97.25
284.207	109.25
284.439	95.25
284.67	96.25
284.901	92.25
285.132	83.25
285.364	86.25
285.595	86.25
285.826	93.25
286.057	92.25
286.288	96.25
286.52	89.25
286.751	79.25
286.982	78.25
287.213	88.25
287.444	85.25
287.675	103.25
287.906	91.25
288.138	82.25
288.369	89.25
288.6	86.25
288.831	92.25
289.062	86.25
289.293	90.25
289.524	65.25
289.755	85.25
289.986	83.25
290.217	83.25
290.448	85.25
290.679	87.25
290.91	82.25
291.141	91.25
291.371	87.25
291.602	83.25
291.833	103.25
292.064	92.25
292.295	87.25
292.526	95.25
292.757	88.25
292.987	92.25
293.218	91.25
293.449	79.25
293.68	98.25
293.91	83.25
294.141	83.25
294.372	95.25
294.603	100.25
294.833	96.25
295.064	85.25
295.295	87.25
295.525	82.25
295.756	106.25
295.987	131.25
296.217	148.25
296.448	139.25
296.679	104.25
296.909	78.25
297.14	89.25
297.37	94.25
297.601	101.25
297.831	99.25
298.062	89.25
298.292	88.25
298.523	78.25
298.753	82.25
298.984	103.25
299.214	84.25
299.445	95.25
299.675	94.25
299.905	99.25
300.136	87.25
300.366	95.25
300.597	99.25
300.827	99.25
301.057	102.25
301.288	101.25
301.518	107.25
301.748	83.25
301.979	109.25
302.209	94.25
302.439	87.25
302.669	83.25
302.9	93.25
303.13	107.25
303.36	117.25
303.59	119.25
303.82	121.25
304.051	111.25
304.281	86.25
304.511	97.25
304.741	86.25
304.971	78.25
305.201	77.25
305.431	87.25
305.661	93.25
305.891	92.25
306.121	96.25
306.352	123.25
306.582	99.25
306.812	102.25
307.042	107.25
307.272	156.25
307.502	183.25
307.731	135.25
307.961	109.25
308.191	93.25
308.421	87.25
308.651	87.25
308.881	99.25
309.111	106.25
309.341	100.25
309.571	104.25
309.8	106.25
310.03	104.25
310.26	104.25
310.49	101.25
310.72	105.25
310.949	121.25
311.179	117.25
311.409	87.25
311.639	86.25
311.868	117.25
312.098	93.25
312.328	83.25
312.557	112.25
312.787	127.25
313.017	116.25
313.246	97.25
313.476	101.25
313.706	105.25
313.935	102.25
314.165	108.25
314.394	127.25
314.624	101.25
314.853	113.25
315.083	91.25
315.312	87.25
315.542	90.25
315.771	78.25
316.001	83.25
316.23	94.25
316.46	81.25
316.689	96.25
316.919	106.25
317.148	103.25
317.377	103.25
317.607	97.25
317.836	86.25
318.065	90.25
318.295	93.25
318.524	85.25
318.753	76.25
318.983	95.25
319.212	117.25
319.441	112.25
319.67	106.25
319.9	96.25
320.129	107.25
320.358	102.25
320.587	102.25
320.816	107.25
321.046	110.25
321.275	105.25
321.504	110.25
321.733	100.25
321.962	99.25
322.191	80.25
322.42	107.25
322.649	126.25
322.878	142.25
323.108	145.25
323.337	156.25
323.566	170.25
323.795	181.25
324.024	250.25
324.253	518.25
324.482	1166.25
324.71	2423.25
324.939	3255.25
325.168	1170.25
325.397	335.25
325.626	174.25
325.855	160.25
326.084	136.25
326.313	148.25
326.542	175.25
326.77	302.25
326.999	645.25
327.228	1294.25
327.457	2401.25
327.686	1991.25
327.914	606.25
328.143	506.25
328.372	637.25
328.6	365.25
328.829	202.25
329.058	199.25
329.287	213.25
329.515	177.25
329.744	252.25
329.972	449.25
330.201	944.25
330.43	1389.25
330.658	624.25
330.887	276.25
331.115	194.25
331.344	125.25
331.572	124.25
331.801	129.25
332.03	124.25
332.258	124.25
332.486	112.25
332.715	90.25
332.943	142.25
333.172	122.25
333.4	122.25
333.629	159.25
333.857	240.25
334.085	439.25
334.314	914.25
334.542	1740.25
334.771	1642.25
334.999	439.25
335.227	186.25
335.455	141.25
335.684	116.25
335.912	100.25
336.14	97.25
336.369	108.25
336.597	96.25
336.825	109.25
337.053	95.25
337.281	109.25
337.51	94.25
337.738	99.25
337.966	102.25
338.194	92.25
338.422	112.25
338.65	103.25
338.878	97.25
339.106	88.25
339.334	94.25
339.562	99.25
339.79	86.25
340.018	92.25
340.246	97.25
340.474	102.25
340.702	100.25
340.93	104.25
341.158	105.25
341.386	84.25
341.614	99.25
341.842	96.25
342.07	91.25
342.298	84.25
342.526	87.25
342.754	94.25
342.981	79.25
343.209	94.25
343.437	86.25
343.665	92.25
343.893	86.25
344.12	93.25
344.348	95.25
344.576	95.25
344.804	101.25
345.031	110.25
345.259	108.25
345.487	102.25
345.714	87.25
345.942	87.25
346.17	95.25
346.397	91.25
346.625	100.25
346.853	108.25
347.08	90.25
347.308	86.25
347.535	98.25
347.763	111.25
347.99	94.25
348.218	118.25
348.445	120.25
348.673	123.25
348.9	86.25
349.128	100.25
349.355	102.25
349.583	95.25
349.81	104.25
350.037	96.25
350.265	83.25
350.492	106.25
350.72	94.25
350.947	115.25
351.174	115.25
351.402	113.25
351.629	122.25
351.856	111.25
352.083	110.25
352.311	109.25
352.538	128.25
352.765	122.25
352.992	126.25
353.22	116.25
353.447	109.25
353.674	110.25
353.901	88.25
354.128	100.25
354.355	100.25
354.583	91.25
354.81	101.25
355.037	110.25
355.264	92.25
355.491	91.25
355.718	101.25
355.945	91.25
356.172	87.25
356.399	99.25
356.626	74.25
356.853	85.25
357.08	104.25
357.307	79.25
357.534	90.25
357.761	81.25
357.988	97.25
358.215	79.25
358.441	114.25
358.668	87.25
358.895	92.25
359.122	85.25
359.349	90.25
359.576	92.25
359.802	110.25
360.029	148.25
360.256	147.25
360.483	123.25
360.709	103.25
360.936	81.25
361.163	103.25
361.39	105.25
361.616	105.25
361.843	104.25
362.07	112.25
362.296	108.25
362.523	93.25
362.749	101.25
362.976	94.25
363.203	83.25
363.429	101.25
363.656	79.25
363.882	91.25
364.109	90.25
364.335	89.25
364.562	93.25
364.788	91.25
365.015	95.25
365.241	80.25
365.468	118.25
365.694	112.25
365.92	114.25
366.147	88.25
366.373	88.25
366.599	86.25
366.826	83.25
367.052	94.25
367.278	103.25
367.505	90.25
367.731	110.25
367.957	101.25
368.184	94.25
368.41	99.25
368.636	130.25
368.862	122.25
369.089	99.25
369.315	101.25
369.541	86.25
369.767	100.25
369.993	96.25
370.219	106.25
370.445	92.25
370.672	89.25
370.898	84.25
371.124	100.25
371.35	81.25
371.576	85.25
371.802	84.25
372.028	94.25
372.254	95.25
372.48	86.25
372.706	75.25
372.932	79.25
373.158	84.25
373.384	85.25
373.61	91.25
373.835	85.25
374.061	85.25
374.287	92.25
374.513	94.25
374.739	86.25
374.965	84.25
375.191	77.25
375.416	90.25
375.642	82.25
375.868	90.25
376.094	88.25
376.319	85.25
376.545	76.25
376.771	84.25
376.997	89.25
377.222	101.25
377.448	91.25
377.674	77.25
377.899	87.25
378.125	95.25
378.35	85.25
378.576	80.25
378.802	92.25
379.027	88.25
379.253	93.25
379.478	99.25
379.704	91.25
379.929	97.25
380.155	100.25
380.38	75.25
380.606	79.25
380.831	96.25
381.057	99.25
381.282	91.25
381.507	89.25
381.733	98.25
381.958	93.25
382.184	95.25
382.409	86.25
382.634	102.25
382.86	93.25
383.085	95.25
383.31	91.25
383.535	95.25
383.761	87.25
383.986	97.25
384.211	88.25
384.436	80.25
384.662	80.25
384.887	95.25
385.112	86.25
385.337	90.25
385.562	103.25
385.787	113.25
386.013	113.25
386.238	126.25
386.463	96.25
386.688	97.25
386.913	93.25
387.138	97.25
387.363	89.25
387.588	89.25
387.813	87.25
388.038	87.25
388.263	107.25
388.488	95.25
388.713	101.25
388.938	75.25
389.163	93.25
389.387	99.25
389.612	84.25
389.837	82.25
390.062	89.25
390.287	93.25
390.512	87.25
390.736	90.25
390.961	98.25
391.186	93.25
391.411	85.25
391.636	83.25
391.86	74.25
392.085	85.25
392.31	94.25
392.534	74.25
392.759	90.25
392.984	80.25
393.208	85.25
393.433	96.25
393.658	95.25
393.882	84.25
394.107	78.25
394.331	84.25
394.556	89.25
394.78	91.25
395.005	81.25
395.229	85.25
395.454	81.25
395.678	77.25
395.903	77.25
396.127	94.25
396.352	76.25
396.576	78.25
396.801	96.25
397.025	88.25
397.249	95.25
397.474	99.25
397.698	102.25
397.922	93.25
398.147	93.25
398.371	73.25
398.595	88.25
398.82	81.25
399.044	92.25
399.268	83.25
399.492	89.25
399.717	78.25
399.941	93.25
400.165	98.25
400.389	98.25
400.613	82.25
400.837	86.25
401.062	94.25
401.286	81.25
401.51	98.25
401.734	91.25
401.958	110.25
402.182	158.25
402.406	189.25
402.63	149.25
402.854	105.25
403.078	86.25
403.302	67.25
403.526	76.25
403.75	106.25
403.974	78.25
404.198	85.25
404.422	99.25
404.645	92.25
404.869	96.25
405.093	136.25
405.317	158.25
405.541	158.25
405.765	128.25
405.988	140.25
406.212	213.25
406.436	300.25
406.66	196.25
406.883	121.25
407.107	109.25
407.331	102.25
407.555	103.25
407.778	115.25
408.002	91.25
408.226	95.25
408.449	73.25
408.673	85.25
408.896	103.25
409.12	110.25
409.344	94.25
409.567	81.25
409.791	80.25
410.014	102.25
410.238	97.25
410.461	94.25
410.685	107.25
410.908	91.25
411.132	117.25
411.355	112.25
411.578	92.25
411.802	96.25
412.025	110.25
412.249	109.25
412.472	119.25
412.695	147.25
412.919	112.25
413.142	99.25
413.365	93.25
413.589	79.25
413.812	97.25
414.035	85.25
414.258	93.25
414.482	85.25
414.705	100.25
414.928	91.25
415.151	80.25
415.374	103.25
415.597	91.25
415.821	94.25
416.044	90.25
416.267	87.25
416.49	97.25
416.713	87.25
416.936	80.25
417.159	70.25
417.382	99.25
417.605	102.25
417.828	102.25
418.051	94.25
418.274	99.25
418.497	90.25
418.72	84.25
418.943	94.25
419.166	97.25
419.389	95.25
419.611	88.25
419.834	84.25
420.057	98.25
420.28	99.25
420.503	91.25
420.726	90.25
420.948	80.25
421.171	104.25
421.394	95.25
421.617	102.25
421.839	87.25
422.062	79.25
422.285	96.25
422.507	88.25
422.73	112.25
422.953	96.25
423.175	96.25
423.398	99.25
423.621	94.25
423.843	103.25
424.066	70.25
424.288	97.25
424.511	92.25
424.733	102.25
424.956	129.25
425.178	117.25
425.401	115.25
425.623	124.25
425.846	83.25
426.068	97.25
426.291	84.25
426.513	87.25
426.735	87.25
426.958	103.25
427.18	122.25
427.402	200.25
427.625	294.25
427.847	260.25
428.069	238.25
428.292	132.25
428.514	84.25
428.736	100.25
428.958	68.25
429.181	87.25
429.403	91.25
429.625	80.25
429.847	97.25
430.069	113.25
430.292	109.25
430.514	81.25
430.736	92.25
430.958	101.25
431.18	96.25
431.402	92.25
431.624	74.25
431.846	99.25
432.068	83.25
432.29	79.25
432.512	82.25
432.734	73.25
432.956	101.25
433.178	115.25
433.4	124.25
433.622	87.25
433.844	105.25
434.066	88.25
434.287	98.25
434.509	99.25
434.731	88.25
434.953	92.25
435.175	90.25
435.397	94.25
435.618	72.25
435.84	116.25
436.062	155.25
436.284	144.25
436.505	123.25
436.727	111.25
436.949	96.25
437.17	88.25
437.392	104.25
437.614	87.25
437.835	134.25
438.057	158.25
438.278	152.25
438.5	126.25
438.721	172.25
438.943	126.25
439.165	99.25
439.386	88.25
439.608	111.25
439.829	127.25
440.05	171.25
440.272	204.25
440.493	110.25
440.715	82.25
440.936	88.25
441.158	88.25
441.379	85.25
441.6	102.25
441.822	109.25
442.043	110.25
442.264	142.25
442.486	134.25
442.707	123.25
442.928	139.25
443.149	184.25
443.371	189.25
443.592	128.25
443.813	136.25
444.034	157.25
444.255	101.25
444.476	97.25
444.698	86.25
444.919	87.25
445.14	142.25
445.361	137.25
445.582	160.25
445.803	223.25
446.024	192.25
446.245	194.25
446.466	140.25
446.687	100.25
446.908	89.25
447.129	79.25
447.35	89.25
447.571	90.25
447.792	102.25
448.013	112.25
448.234	124.25
448.455	126.25
448.675	148.25
448.896	154.25
449.117	107.25
449.338	120.25
449.559	158.25
449.779	181.25
450	106.25
450.221	96.25
450.442	92.25
450.662	111.25
450.883	139.25
451.104	138.25
451.324	98.25
451.545	100.25
451.766	82.25
451.986	96.25
452.207	77.25
452.428	99.25
452.648	92.25
452.869	118.25
453.089	128.25
453.31	145.25
453.53	102.25
453.751	99.25
453.971	117.25
454.192	146.25
454.412	107.25
454.633	80.25
454.853	91.25
455.073	88.25
455.294	92.25
455.514	114.25
455.734	103.25
455.955	103.25
456.175	89.25
456.395	95.25
456.616	90.25
456.836	81.25
457.056	78.25
457.276	87.25
457.497	83.25
457.717	79.25
457.937	79.25
458.157	87.25
458.377	87.25
458.598	134.25
458.818	222.25
459.038	254.25
459.258	174.25
459.478	104.25
459.698	90.25
459.918	79.25
460.138	87.25
460.358	93.25
460.578	116.25
460.798	94.25
461.018	106.25
461.238	91.25
461.458	90.25
461.678	79.25
461.898	91.25
462.118	77.25
462.338	87.25
462.558	89.25
462.777	85.25
462.997	76.25
463.217	100.25
463.437	108.25
463.657	90.25
463.876	98.25
464.096	93.25
464.316	107.25
464.536	95.25
464.755	93.25
464.975	115.25
465.195	251.25
465.414	259.25
465.634	128.25
465.854	97.25
466.073	86.25
466.293	82.25
466.512	96.25
466.732	99.25
466.951	91.25
467.171	83.25
467.391	106.25
467.61	131.25
467.829	199.25
468.049	477.25
468.268	736.25
468.488	203.25
468.707	119.25
468.927	80.25
469.146	90.25
469.365	86.25
469.585	88.25
469.804	119.25
470.023	120.25
470.243	112.25
470.462	123.25
470.681	131.25
470.901	105.25
471.12	97.25
471.339	88.25
471.558	115.25
471.777	143.25
471.997	256.25
472.216	946.25
472.435	2208.25
472.654	560.25
472.873	154.25
473.092	109.25
473.311	115.25
473.53	90.25
473.749	90.25
473.968	102.25
474.187	125.25
474.406	99.25
474.625	99.25
474.844	86.25
475.063	80.25
475.282	90.25
475.501	91.25
475.72	83.25
475.939	106.25
476.158	89.25
476.377	99.25
476.596	85.25
476.814	94.25
477.033	100.25
477.252	98.25
477.471	85.25
477.69	93.25
477.908	96.25
478.127	98.25
478.346	94.25
478.564	112.25
478.783	101.25
479.002	106.25
479.22	120.25
479.439	129.25
479.658	132.25
479.876	126.25
480.095	108.25
480.313	120.25
480.532	143.25
480.751	249.25
480.969	868.25
481.188	3749.25
481.406	2342.25
481.624	347.25
481.843	135.25
482.061	112.25
482.28	102.25
482.498	100.25
482.717	93.25
482.935	79.25
483.153	88.25
483.372	79.25
483.59	87.25
483.808	83.25
484.027	95.25
484.245	93.25
484.463	82.25
484.681	84.25
484.9	109.25
485.118	96.25
485.336	101.25
485.554	97.25
485.772	111.25
485.99	116.25
486.209	106.25
486.427	102.25
486.645	127.25
486.863	113.25
487.081	99.25
487.299	100.25
487.517	97.25
487.735	79.25
487.953	96.25
488.171	107.25
488.389	82.25
488.607	99.25
488.825	91.25
489.043	89.25
489.261	95.25
489.479	98.25
489.696	92.25
489.914	83.25
490.132	86.25
490.35	88.25
490.568	77.25
490.786	101.25
491.003	92.25
491.221	87.25
491.439	90.25
491.657	91.25
491.874	96.25
492.092	87.25
492.31	93.25
492.527	85.25
492.745	93.25
492.963	92.25
493.18	103.25
493.398	111.25
493.615	96.25
493.833	102.25
494.05	81.25
494.268	84.25
494.485	95.25
494.703	81.25
494.92	77.25
495.138	92.25
495.355	96.25
495.573	90.25
495.79	84.25
496.008	92.25
496.225	92.25
496.442	76.25
496.66	105.25
496.877	82.25
497.094	91.25
497.312	88.25
497.529	105.25
497.746	86.25
497.963	88.25
498.181	109.25
498.398	116.25
498.615	94.25
498.832	111.25
499.049	93.25
499.267	81.25
499.484	91.25
499.701	101.25
499.918	104.25
500.135	98.25
500.352	90.25
500.569	99.25
500.786	91.25
501.003	80.25
501.22	93.25
501.437	91.25
501.654	85.25
501.871	130.25
502.088	99.25
502.305	92.25
502.522	92.25
502.739	86.25
502.956	100.25
503.172	79.25
503.389	82.25
503.606	131.25
503.823	113.25
504.04	103.25
504.256	93.25
504.473	95.25
504.69	94.25
504.907	87.25
505.123	99.25
505.34	86.25
505.557	87.25
505.773	89.25
505.99	87.25
506.207	90.25
506.423	79.25
506.64	78.25
506.856	99.25
507.073	100.25
507.289	94.25
507.506	106.25
507.722	128.25
507.939	137.25
508.155	108.25
508.372	90.25
508.588	95.25
508.805	103.25
509.021	110.25
509.238	110.25
509.454	106.25
509.67	101.25
509.887	102.25
510.103	131.25
510.319	234.25
510.536	913.25
510.752	3171.25
510.968	909.25
511.184	190.25
511.401	127.25
511.617	95.25
511.833	98.25
512.049	96.25
512.265	92.25
512.481	92.25
512.698	96.25
512.914	98.25
513.13	91.25
513.346	99.25
