Data from Circ_2023_H10_HRD10591_00037.txt Node
Date: Wed Jan 03 09:50:38 EST 2024
User: Yrep
Spectrometer: HR+D1059
Trigger mode: 1
Integration Time (sec): 1.000000E-1
Scans to average: 1
Electric dark correction enabled: true
Nonlinearity correction enabled: false
Boxcar width: 0
XAxis mode: Wavelengths
Number of Pixels in Spectrum: 2048
>>>>>Begin Spectral Data<<<<<
223.165	-20.88
223.4	-20.88
223.635	-20.88
223.869	-15.88
224.104	-23.88
224.338	-4.88
224.573	-18.88
224.808	-8.88
225.042	-2.88
225.277	-3.88
225.511	-4.88
225.746	6.12
225.98	1.12
226.215	0.12
226.449	16.12
226.683	29.12
226.918	23.12
227.152	29.12
227.387	41.12
227.621	46.12
227.856	48.12
228.09	52.12
228.324	41.12
228.559	52.12
228.793	54.12
229.027	74.12
229.262	72.12
229.496	79.12
229.73	100.12
229.964	107.12
230.199	69.12
230.433	76.12
230.667	93.12
230.901	90.12
231.136	78.12
231.37	84.12
231.604	76.12
231.838	86.12
232.072	88.12
232.306	75.12
232.541	82.12
232.775	82.12
233.009	90.12
233.243	87.12
233.477	72.12
233.711	86.12
233.945	94.12
234.179	73.12
234.413	80.12
234.647	72.12
234.881	84.12
235.115	93.12
235.349	78.12
235.583	94.12
235.817	82.12
236.051	89.12
236.285	85.12
236.519	80.12
236.753	72.12
236.987	82.12
237.221	101.12
237.455	83.12
237.689	75.12
237.922	84.12
238.156	82.12
238.39	84.12
238.624	88.12
238.858	80.12
239.091	73.12
239.325	88.12
239.559	81.12
239.793	74.12
240.027	75.12
240.26	103.12
240.494	76.12
240.728	80.12
240.961	87.12
241.195	84.12
241.429	82.12
241.662	73.12
241.896	76.12
242.13	75.12
242.363	79.12
242.597	84.12
242.83	86.12
243.064	76.12
243.298	101.12
243.531	66.12
243.765	76.12
243.998	82.12
244.232	83.12
244.465	103.12
244.699	65.12
244.932	89.12
245.166	85.12
245.399	83.12
245.633	88.12
245.866	89.12
246.099	84.12
246.333	71.12
246.566	81.12
246.8	89.12
247.033	78.12
247.266	68.12
247.5	77.12
247.733	89.12
247.966	79.12
248.2	100.12
248.433	89.12
248.666	87.12
248.899	86.12
249.133	99.12
249.366	92.12
249.599	113.12
249.832	97.12
250.066	93.12
250.299	97.12
250.532	94.12
250.765	91.12
250.998	80.12
251.231	85.12
251.465	83.12
251.698	91.12
251.931	76.12
252.164	89.12
252.397	79.12
252.63	75.12
252.863	76.12
253.096	70.12
253.329	74.12
253.562	90.12
253.795	86.12
254.028	80.12
254.261	86.12
254.494	96.12
254.727	89.12
254.96	81.12
255.193	86.12
255.426	81.12
255.659	90.12
255.892	94.12
256.124	108.12
256.357	99.12
256.59	93.12
256.823	76.12
257.056	86.12
257.289	97.12
257.521	97.12
257.754	97.12
257.987	80.12
258.22	107.12
258.452	112.12
258.685	96.12
258.918	85.12
259.151	91.12
259.383	96.12
259.616	102.12
259.849	82.12
260.081	93.12
260.314	85.12
260.547	89.12
260.779	107.12
261.012	106.12
261.244	127.12
261.477	107.12
261.71	109.12
261.942	133.12
262.175	151.12
262.407	104.12
262.64	98.12
262.872	85.12
263.105	76.12
263.337	91.12
263.57	82.12
263.802	77.12
264.035	90.12
264.267	83.12
264.499	92.12
264.732	82.12
264.964	81.12
265.197	74.12
265.429	97.12
265.661	94.12
265.894	98.12
266.126	95.12
266.358	87.12
266.591	96.12
266.823	83.12
267.055	101.12
267.287	84.12
267.52	90.12
267.752	78.12
267.984	81.12
268.216	82.12
268.448	83.12
268.681	107.12
268.913	94.12
269.145	79.12
269.377	78.12
269.609	81.12
269.841	70.12
270.073	90.12
270.306	78.12
270.538	94.12
270.77	89.12
271.002	102.12
271.234	88.12
271.466	96.12
271.698	88.12
271.93	78.12
272.162	87.12
272.394	105.12
272.626	97.12
272.858	78.12
273.09	99.12
273.322	99.12
273.553	82.12
273.785	90.12
274.017	82.12
274.249	82.12
274.481	98.12
274.713	94.12
274.945	93.12
275.176	105.12
275.408	117.12
275.64	120.12
275.872	141.12
276.104	120.12
276.335	111.12
276.567	140.12
276.799	158.12
277.031	186.12
277.262	218.12
277.494	163.12
277.726	119.12
277.957	92.12
278.189	88.12
278.421	92.12
278.652	89.12
278.884	90.12
279.115	89.12
279.347	104.12
279.579	106.12
279.81	137.12
280.042	212.12
280.273	302.12
280.505	197.12
280.736	125.12
280.968	105.12
281.199	95.12
281.431	102.12
281.662	85.12
281.894	100.12
282.125	116.12
282.356	153.12
282.588	186.12
282.819	139.12
283.051	83.12
283.282	86.12
283.513	90.12
283.745	86.12
283.976	107.12
284.207	100.12
284.439	99.12
284.67	100.12
284.901	98.12
285.132	96.12
285.364	88.12
285.595	93.12
285.826	84.12
286.057	78.12
286.288	76.12
286.52	97.12
286.751	105.12
286.982	89.12
287.213	81.12
287.444	87.12
287.675	97.12
287.906	107.12
288.138	90.12
288.369	106.12
288.6	102.12
288.831	87.12
289.062	86.12
289.293	86.12
289.524	95.12
289.755	86.12
289.986	104.12
290.217	103.12
290.448	87.12
290.679	96.12
290.91	90.12
291.141	82.12
291.371	89.12
291.602	96.12
291.833	94.12
292.064	87.12
292.295	79.12
292.526	104.12
292.757	95.12
292.987	105.12
293.218	68.12
293.449	87.12
293.68	96.12
293.91	84.12
294.141	91.12
294.372	84.12
294.603	87.12
294.833	99.12
295.064	91.12
295.295	88.12
295.525	91.12
295.756	118.12
295.987	130.12
296.217	174.12
296.448	158.12
296.679	105.12
296.909	88.12
297.14	100.12
297.37	93.12
297.601	82.12
297.831	84.12
298.062	94.12
298.292	91.12
298.523	92.12
298.753	79.12
298.984	74.12
299.214	90.12
299.445	106.12
299.675	101.12
299.905	106.12
300.136	109.12
300.366	97.12
300.597	101.12
300.827	107.12
301.057	105.12
301.288	120.12
301.518	98.12
301.748	98.12
301.979	131.12
302.209	104.12
302.439	101.12
302.669	86.12
302.9	100.12
303.13	99.12
303.36	108.12
303.59	151.12
303.82	177.12
304.051	109.12
304.281	105.12
304.511	101.12
304.741	87.12
304.971	103.12
305.201	104.12
305.431	87.12
305.661	93.12
305.891	93.12
306.121	92.12
306.352	106.12
306.582	117.12
306.812	104.12
307.042	134.12
307.272	169.12
307.502	181.12
307.731	188.12
307.961	136.12
308.191	101.12
308.421	100.12
308.651	97.12
308.881	99.12
309.111	90.12
309.341	100.12
309.571	101.12
309.8	120.12
310.03	112.12
310.26	104.12
310.49	97.12
310.72	105.12
310.949	135.12
311.179	114.12
311.409	125.12
311.639	115.12
311.868	105.12
312.098	106.12
312.328	114.12
312.557	128.12
312.787	139.12
313.017	106.12
313.246	124.12
313.476	95.12
313.706	99.12
313.935	107.12
314.165	136.12
314.394	120.12
314.624	115.12
314.853	101.12
315.083	114.12
315.312	94.12
315.542	116.12
315.771	88.12
316.001	105.12
316.23	94.12
316.46	101.12
316.689	92.12
316.919	104.12
317.148	104.12
317.377	111.12
317.607	103.12
317.836	106.12
318.065	107.12
318.295	113.12
318.524	97.12
318.753	90.12
318.983	90.12
319.212	120.12
319.441	125.12
319.67	119.12
319.9	104.12
320.129	101.12
320.358	99.12
320.587	95.12
320.816	103.12
321.046	116.12
321.275	108.12
321.504	90.12
321.733	102.12
321.962	104.12
322.191	108.12
322.42	113.12
322.649	126.12
322.878	120.12
323.108	143.12
323.337	148.12
323.566	166.12
323.795	216.12
324.024	263.12
324.253	506.12
324.482	1117.12
324.71	2325.12
324.939	3021.12
325.168	1118.12
325.397	318.12
325.626	193.12
325.855	154.12
326.084	161.12
326.313	169.12
326.542	184.12
326.77	288.12
326.999	597.12
327.228	1210.12
327.457	2259.12
327.686	1776.12
327.914	615.12
328.143	611.12
328.372	765.12
328.6	443.12
328.829	204.12
329.058	208.12
329.287	222.12
329.515	208.12
329.744	281.12
329.972	565.12
330.201	1147.12
330.43	1720.12
330.658	786.12
330.887	331.12
331.115	220.12
331.344	136.12
331.572	147.12
331.801	135.12
332.03	147.12
332.258	114.12
332.486	120.12
332.715	130.12
332.943	131.12
333.172	146.12
333.4	148.12
333.629	169.12
333.857	278.12
334.085	498.12
334.314	1058.12
334.542	2129.12
334.771	2036.12
334.999	521.12
335.227	198.12
335.455	140.12
335.684	130.12
335.912	122.12
336.14	112.12
336.369	128.12
336.597	119.12
336.825	120.12
337.053	95.12
337.281	101.12
337.51	111.12
337.738	107.12
337.966	113.12
338.194	104.12
338.422	112.12
338.65	92.12
338.878	104.12
339.106	100.12
339.334	91.12
339.562	95.12
339.79	95.12
340.018	102.12
340.246	94.12
340.474	103.12
340.702	108.12
340.93	98.12
341.158	109.12
341.386	110.12
341.614	119.12
341.842	112.12
342.07	92.12
342.298	100.12
342.526	106.12
342.754	96.12
342.981	98.12
343.209	105.12
343.437	100.12
343.665	74.12
343.893	92.12
344.12	77.12
344.348	93.12
344.576	102.12
344.804	107.12
345.031	113.12
345.259	116.12
345.487	99.12
345.714	105.12
345.942	81.12
346.17	94.12
346.397	99.12
346.625	99.12
346.853	110.12
347.08	105.12
347.308	118.12
347.535	107.12
347.763	122.12
347.99	116.12
348.218	120.12
348.445	131.12
348.673	114.12
348.9	105.12
349.128	95.12
349.355	95.12
349.583	90.12
349.81	90.12
350.037	96.12
350.265	94.12
350.492	99.12
350.72	116.12
350.947	124.12
351.174	120.12
351.402	152.12
351.629	125.12
351.856	119.12
352.083	108.12
352.311	118.12
352.538	134.12
352.765	130.12
352.992	129.12
353.22	133.12
353.447	122.12
353.674	109.12
353.901	72.12
354.128	101.12
354.355	112.12
354.583	92.12
354.81	107.12
355.037	106.12
355.264	100.12
355.491	91.12
355.718	96.12
355.945	95.12
356.172	100.12
356.399	96.12
356.626	97.12
356.853	107.12
357.08	92.12
357.307	106.12
357.534	97.12
357.761	97.12
357.988	105.12
358.215	84.12
358.441	106.12
358.668	98.12
358.895	86.12
359.122	93.12
359.349	108.12
359.576	103.12
359.802	127.12
360.029	147.12
360.256	151.12
360.483	127.12
360.709	107.12
360.936	108.12
361.163	114.12
361.39	116.12
361.616	120.12
361.843	91.12
362.07	118.12
362.296	129.12
362.523	107.12
362.749	103.12
362.976	94.12
363.203	94.12
363.429	100.12
363.656	82.12
363.882	105.12
364.109	99.12
364.335	94.12
364.562	92.12
364.788	99.12
365.015	100.12
365.241	103.12
365.468	133.12
365.694	122.12
365.92	115.12
366.147	103.12
366.373	100.12
366.599	94.12
366.826	116.12
367.052	82.12
367.278	94.12
367.505	87.12
367.731	99.12
367.957	119.12
368.184	106.12
368.41	130.12
368.636	147.12
368.862	149.12
369.089	132.12
369.315	92.12
369.541	99.12
369.767	104.12
369.993	93.12
370.219	93.12
370.445	94.12
370.672	88.12
370.898	95.12
371.124	102.12
371.35	79.12
371.576	95.12
371.802	87.12
372.028	89.12
372.254	100.12
372.48	97.12
372.706	94.12
372.932	95.12
373.158	92.12
373.384	85.12
373.61	84.12
373.835	100.12
374.061	98.12
374.287	91.12
374.513	95.12
374.739	87.12
374.965	87.12
375.191	103.12
375.416	89.12
375.642	94.12
375.868	90.12
376.094	90.12
376.319	90.12
376.545	92.12
376.771	86.12
376.997	90.12
377.222	92.12
377.448	108.12
377.674	85.12
377.899	98.12
378.125	100.12
378.35	85.12
378.576	86.12
378.802	85.12
379.027	72.12
379.253	84.12
379.478	97.12
379.704	100.12
379.929	96.12
380.155	110.12
380.38	94.12
380.606	105.12
380.831	106.12
381.057	97.12
381.282	95.12
381.507	90.12
381.733	92.12
381.958	98.12
382.184	109.12
382.409	105.12
382.634	101.12
382.86	93.12
383.085	99.12
383.31	106.12
383.535	93.12
383.761	89.12
383.986	93.12
384.211	99.12
384.436	94.12
384.662	107.12
384.887	106.12
385.112	90.12
385.337	97.12
385.562	102.12
385.787	89.12
386.013	121.12
386.238	126.12
386.463	112.12
386.688	110.12
386.913	110.12
387.138	109.12
387.363	106.12
387.588	106.12
387.813	103.12
388.038	93.12
388.263	106.12
388.488	97.12
388.713	81.12
388.938	91.12
389.163	92.12
389.387	95.12
389.612	116.12
389.837	120.12
390.062	100.12
390.287	92.12
390.512	110.12
390.736	82.12
390.961	103.12
391.186	97.12
391.411	102.12
391.636	97.12
391.86	97.12
392.085	89.12
392.31	93.12
392.534	106.12
392.759	93.12
392.984	81.12
393.208	91.12
393.433	86.12
393.658	97.12
393.882	82.12
394.107	86.12
394.331	86.12
394.556	93.12
394.78	87.12
395.005	77.12
395.229	104.12
395.454	78.12
395.678	105.12
395.903	85.12
396.127	84.12
396.352	91.12
396.576	95.12
396.801	82.12
397.025	84.12
397.249	104.12
397.474	94.12
397.698	84.12
397.922	106.12
398.147	85.12
398.371	90.12
398.595	84.12
398.82	89.12
399.044	90.12
399.268	91.12
399.492	91.12
399.717	83.12
399.941	98.12
400.165	94.12
400.389	97.12
400.613	100.12
400.837	82.12
401.062	92.12
401.286	116.12
401.51	91.12
401.734	85.12
401.958	108.12
402.182	164.12
402.406	213.12
402.63	165.12
402.854	115.12
403.078	107.12
403.302	102.12
403.526	84.12
403.75	98.12
403.974	77.12
404.198	109.12
404.422	98.12
404.645	116.12
404.869	124.12
405.093	140.12
405.317	168.12
405.541	151.12
405.765	130.12
405.988	159.12
406.212	221.12
406.436	328.12
406.66	230.12
406.883	120.12
407.107	112.12
407.331	118.12
407.555	113.12
407.778	126.12
408.002	118.12
408.226	104.12
408.449	98.12
408.673	97.12
408.896	93.12
409.12	110.12
409.344	93.12
409.567	84.12
409.791	100.12
410.014	91.12
410.238	93.12
410.461	93.12
410.685	97.12
410.908	100.12
411.132	112.12
411.355	104.12
411.578	86.12
411.802	90.12
412.025	102.12
412.249	121.12
412.472	125.12
412.695	155.12
412.919	122.12
413.142	105.12
413.365	88.12
413.589	82.12
413.812	95.12
414.035	90.12
414.258	86.12
414.482	105.12
414.705	97.12
414.928	94.12
415.151	91.12
415.374	92.12
415.597	99.12
415.821	102.12
416.044	89.12
416.267	103.12
416.49	100.12
416.713	93.12
416.936	98.12
417.159	103.12
417.382	117.12
417.605	100.12
417.828	128.12
418.051	114.12
418.274	111.12
418.497	92.12
418.72	93.12
418.943	95.12
419.166	88.12
419.389	83.12
419.611	97.12
419.834	111.12
420.057	93.12
420.28	92.12
420.503	101.12
420.726	106.12
420.948	98.12
421.171	104.12
421.394	103.12
421.617	105.12
421.839	90.12
422.062	77.12
422.285	94.12
422.507	101.12
422.73	112.12
422.953	104.12
423.175	101.12
423.398	91.12
423.621	103.12
423.843	93.12
424.066	104.12
424.288	101.12
424.511	109.12
424.733	112.12
424.956	139.12
425.178	125.12
425.401	119.12
425.623	106.12
425.846	91.12
426.068	99.12
426.291	108.12
426.513	94.12
426.735	104.12
426.958	114.12
427.18	131.12
427.402	201.12
427.625	290.12
427.847	278.12
428.069	253.12
428.292	140.12
428.514	104.12
428.736	85.12
428.958	100.12
429.181	84.12
429.403	91.12
429.625	107.12
429.847	107.12
430.069	115.12
430.292	101.12
430.514	87.12
430.736	84.12
430.958	100.12
431.18	89.12
431.402	91.12
431.624	91.12
431.846	96.12
432.068	101.12
432.29	86.12
432.512	90.12
432.734	79.12
432.956	100.12
433.178	112.12
433.4	98.12
433.622	94.12
433.844	96.12
434.066	93.12
434.287	91.12
434.509	99.12
434.731	89.12
434.953	104.12
435.175	88.12
435.397	83.12
435.618	104.12
435.84	128.12
436.062	162.12
436.284	145.12
436.505	122.12
436.727	113.12
436.949	102.12
437.17	98.12
437.392	90.12
437.614	109.12
437.835	121.12
438.057	162.12
438.278	149.12
438.5	136.12
438.721	155.12
438.943	115.12
439.165	102.12
439.386	105.12
439.608	104.12
439.829	135.12
440.05	159.12
440.272	215.12
440.493	106.12
440.715	106.12
440.936	101.12
441.158	93.12
441.379	105.12
441.6	97.12
441.822	120.12
442.043	128.12
442.264	149.12
442.486	128.12
442.707	120.12
442.928	120.12
443.149	172.12
443.371	190.12
443.592	150.12
443.813	143.12
444.034	136.12
444.255	105.12
444.476	105.12
444.698	86.12
444.919	121.12
445.14	133.12
445.361	149.12
445.582	161.12
445.803	203.12
446.024	217.12
446.245	183.12
446.466	138.12
446.687	98.12
446.908	97.12
447.129	88.12
447.35	102.12
447.571	99.12
447.792	95.12
448.013	103.12
448.234	124.12
448.455	126.12
448.675	143.12
448.896	157.12
449.117	115.12
449.338	129.12
449.559	162.12
449.779	170.12
450	118.12
450.221	93.12
450.442	91.12
450.662	112.12
450.883	132.12
451.104	170.12
451.324	106.12
451.545	104.12
451.766	92.12
451.986	94.12
452.207	107.12
452.428	97.12
452.648	106.12
452.869	130.12
453.089	164.12
453.31	151.12
453.53	94.12
453.751	94.12
453.971	128.12
454.192	148.12
454.412	109.12
454.633	103.12
454.853	85.12
455.073	103.12
455.294	102.12
455.514	136.12
455.734	105.12
455.955	101.12
456.175	83.12
456.395	84.12
456.616	78.12
456.836	93.12
457.056	87.12
457.276	70.12
457.497	79.12
457.717	92.12
457.937	100.12
458.157	95.12
458.377	111.12
458.598	140.12
458.818	220.12
459.038	250.12
459.258	174.12
459.478	121.12
459.698	97.12
459.918	90.12
460.138	91.12
460.358	97.12
460.578	99.12
460.798	104.12
461.018	98.12
461.238	96.12
461.458	94.12
461.678	93.12
461.898	89.12
462.118	96.12
462.338	82.12
462.558	98.12
462.777	80.12
462.997	94.12
463.217	110.12
463.437	115.12
463.657	101.12
463.876	94.12
464.096	97.12
464.316	125.12
464.536	107.12
464.755	112.12
464.975	135.12
465.195	262.12
465.414	283.12
465.634	124.12
465.854	92.12
466.073	99.12
466.293	93.12
466.512	91.12
466.732	98.12
466.951	97.12
467.171	109.12
467.391	123.12
467.61	166.12
467.829	259.12
468.049	606.12
468.268	960.12
468.488	252.12
468.707	120.12
468.927	93.12
469.146	109.12
469.365	93.12
469.585	106.12
469.804	123.12
470.023	117.12
470.243	109.12
470.462	136.12
470.681	166.12
470.901	129.12
471.12	127.12
471.339	109.12
471.558	128.12
471.777	168.12
471.997	313.12
472.216	1196.12
472.435	2946.12
472.654	706.12
472.873	186.12
473.092	114.12
473.311	105.12
473.53	105.12
473.749	105.12
473.968	112.12
474.187	132.12
474.406	112.12
474.625	101.12
474.844	95.12
475.063	109.12
475.282	88.12
475.501	97.12
475.72	98.12
475.939	90.12
476.158	97.12
476.377	94.12
476.596	103.12
476.814	104.12
477.033	110.12
477.252	104.12
477.471	72.12
477.69	102.12
477.908	113.12
478.127	108.12
478.346	105.12
478.564	107.12
478.783	118.12
479.002	101.12
479.22	118.12
479.439	135.12
479.658	144.12
479.876	132.12
480.095	127.12
480.313	141.12
480.532	173.12
480.751	301.12
480.969	1111.12
481.188	4785.12
481.406	3020.12
481.624	432.12
481.843	152.12
482.061	119.12
482.28	120.12
482.498	108.12
482.717	92.12
482.935	98.12
483.153	96.12
483.372	103.12
483.59	98.12
483.808	101.12
484.027	114.12
484.245	112.12
484.463	96.12
484.681	97.12
484.9	95.12
485.118	97.12
485.336	98.12
485.554	113.12
485.772	102.12
485.99	96.12
486.209	114.12
486.427	110.12
486.645	128.12
486.863	145.12
487.081	109.12
487.299	84.12
487.517	97.12
487.735	101.12
487.953	97.12
488.171	97.12
488.389	101.12
488.607	116.12
488.825	98.12
489.043	86.12
489.261	83.12
489.479	101.12
489.696	91.12
489.914	105.12
490.132	93.12
490.35	96.12
490.568	98.12
490.786	97.12
491.003	90.12
491.221	99.12
491.439	108.12
491.657	101.12
491.874	94.12
492.092	106.12
492.31	95.12
492.527	106.12
492.745	104.12
492.963	102.12
493.18	104.12
493.398	109.12
493.615	100.12
493.833	99.12
494.05	97.12
494.268	100.12
494.485	105.12
494.703	106.12
494.92	96.12
495.138	94.12
495.355	94.12
495.573	101.12
495.79	78.12
496.008	103.12
496.225	101.12
496.442	90.12
496.66	93.12
496.877	99.12
497.094	86.12
497.312	102.12
497.529	92.12
497.746	99.12
497.963	102.12
498.181	93.12
498.398	108.12
498.615	134.12
498.832	116.12
499.049	104.12
499.267	94.12
499.484	104.12
499.701	93.12
499.918	105.12
500.135	83.12
500.352	106.12
500.569	97.12
500.786	97.12
501.003	87.12
501.22	96.12
501.437	104.12
501.654	106.12
501.871	130.12
502.088	122.12
502.305	95.12
502.522	106.12
502.739	89.12
502.956	102.12
503.172	95.12
503.389	104.12
503.606	136.12
503.823	112.12
504.04	97.12
504.256	106.12
504.473	100.12
504.69	114.12
504.907	100.12
505.123	91.12
505.34	102.12
505.557	91.12
505.773	85.12
505.99	92.12
506.207	77.12
506.423	98.12
506.64	97.12
506.856	76.12
507.073	91.12
507.289	101.12
507.506	106.12
507.722	143.12
507.939	150.12
508.155	110.12
508.372	97.12
508.588	106.12
508.805	101.12
509.021	109.12
509.238	93.12
509.454	115.12
509.67	108.12
509.887	126.12
510.103	152.12
510.319	246.12
510.536	973.12
510.752	3515.12
