Data from Circ_2023_H10_HRD10591_00009.txt Node
Date: Wed Jan 03 09:50:32 EST 2024
User: Yrep
Spectrometer: HR+D1059
Trigger mode: 1
Integration Time (sec): 1.000000E-1
Scans to average: 1
Electric dark correction enabled: true
Nonlinearity correction enabled: false
Boxcar width: 0
XAxis mode: Wavelengths
Number of Pixels in Spectrum: 2048
>>>>>Begin Spectral Data<<<<<
223.165	-13.5
223.4	-13.5
223.635	-13.5
223.869	-19.5
224.104	-11.5
224.338	-10.5
224.573	-13.5
224.808	-24.5
225.042	-11.5
225.277	-0.5
225.511	-8.5
225.746	7.5
225.98	0.5
226.215	10.5
226.449	17.5
226.683	29.5
226.918	22.5
227.152	25.5
227.387	48.5
227.621	47.5
227.856	57.5
228.09	43.5
228.324	41.5
228.559	63.5
228.793	51.5
229.027	56.5
229.262	67.5
229.496	73.5
229.73	88.5
229.964	89.5
230.199	74.5
230.433	60.5
230.667	96.5
230.901	77.5
231.136	81.5
231.37	83.5
231.604	93.5
231.838	69.5
232.072	77.5
232.306	79.5
232.541	87.5
232.775	80.5
233.009	88.5
233.243	85.5
233.477	85.5
233.711	77.5
233.945	83.5
234.179	87.5
234.413	103.5
234.647	91.5
234.881	83.5
235.115	85.5
235.349	79.5
235.583	80.5
235.817	87.5
236.051	71.5
236.285	83.5
236.519	87.5
236.753	88.5
236.987	73.5
237.221	106.5
237.455	97.5
237.689	83.5
237.922	86.5
238.156	76.5
238.39	78.5
238.624	71.5
238.858	72.5
239.091	77.5
239.325	74.5
239.559	80.5
239.793	83.5
240.027	85.5
240.26	91.5
240.494	89.5
240.728	79.5
240.961	84.5
241.195	75.5
241.429	77.5
241.662	81.5
241.896	80.5
242.13	68.5
242.363	76.5
242.597	74.5
242.83	86.5
243.064	77.5
243.298	81.5
243.531	78.5
243.765	65.5
243.998	73.5
244.232	68.5
244.465	91.5
244.699	83.5
244.932	73.5
245.166	78.5
245.399	74.5
245.633	75.5
245.866	93.5
246.099	93.5
246.333	84.5
246.566	96.5
246.8	98.5
247.033	71.5
247.266	95.5
247.5	74.5
247.733	75.5
247.966	85.5
248.2	90.5
248.433	77.5
248.666	79.5
248.899	72.5
249.133	85.5
249.366	117.5
249.599	99.5
249.832	71.5
250.066	82.5
250.299	80.5
250.532	88.5
250.765	74.5
250.998	75.5
251.231	72.5
251.465	76.5
251.698	91.5
251.931	82.5
252.164	83.5
252.397	80.5
252.63	74.5
252.863	81.5
253.096	92.5
253.329	75.5
253.562	84.5
253.795	84.5
254.028	86.5
254.261	82.5
254.494	89.5
254.727	87.5
254.96	86.5
255.193	85.5
255.426	85.5
255.659	88.5
255.892	89.5
256.124	100.5
256.357	90.5
256.59	81.5
256.823	90.5
257.056	84.5
257.289	72.5
257.521	84.5
257.754	96.5
257.987	81.5
258.22	92.5
258.452	76.5
258.685	86.5
258.918	82.5
259.151	72.5
259.383	90.5
259.616	83.5
259.849	76.5
260.081	101.5
260.314	92.5
260.547	82.5
260.779	96.5
261.012	92.5
261.244	96.5
261.477	90.5
261.71	100.5
261.942	111.5
262.175	113.5
262.407	92.5
262.64	85.5
262.872	77.5
263.105	93.5
263.337	83.5
263.57	78.5
263.802	81.5
264.035	81.5
264.267	88.5
264.499	90.5
264.732	83.5
264.964	85.5
265.197	90.5
265.429	90.5
265.661	95.5
265.894	89.5
266.126	84.5
266.358	87.5
266.591	96.5
266.823	77.5
267.055	74.5
267.287	102.5
267.52	91.5
267.752	82.5
267.984	83.5
268.216	96.5
268.448	93.5
268.681	90.5
268.913	85.5
269.145	101.5
269.377	97.5
269.609	73.5
269.841	82.5
270.073	82.5
270.306	91.5
270.538	85.5
270.77	89.5
271.002	90.5
271.234	86.5
271.466	85.5
271.698	92.5
271.93	96.5
272.162	90.5
272.394	92.5
272.626	96.5
272.858	85.5
273.09	94.5
273.322	87.5
273.553	98.5
273.785	96.5
274.017	88.5
274.249	90.5
274.481	89.5
274.713	87.5
274.945	91.5
275.176	92.5
275.408	97.5
275.64	104.5
275.872	95.5
276.104	87.5
276.335	93.5
276.567	96.5
276.799	117.5
277.031	132.5
277.262	135.5
277.494	117.5
277.726	90.5
277.957	94.5
278.189	86.5
278.421	93.5
278.652	90.5
278.884	103.5
279.115	82.5
279.347	84.5
279.579	101.5
279.81	109.5
280.042	132.5
280.273	176.5
280.505	116.5
280.736	87.5
280.968	87.5
281.199	76.5
281.431	100.5
281.662	95.5
281.894	101.5
282.125	98.5
282.356	127.5
282.588	157.5
282.819	111.5
283.051	80.5
283.282	83.5
283.513	92.5
283.745	100.5
283.976	79.5
284.207	83.5
284.439	95.5
284.67	90.5
284.901	89.5
285.132	101.5
285.364	86.5
285.595	84.5
285.826	97.5
286.057	102.5
286.288	97.5
286.52	80.5
286.751	98.5
286.982	89.5
287.213	82.5
287.444	88.5
287.675	93.5
287.906	95.5
288.138	78.5
288.369	82.5
288.6	95.5
288.831	106.5
289.062	98.5
289.293	85.5
289.524	102.5
289.755	96.5
289.986	97.5
290.217	98.5
290.448	105.5
290.679	81.5
290.91	73.5
291.141	99.5
291.371	93.5
291.602	90.5
291.833	100.5
292.064	84.5
292.295	111.5
292.526	95.5
292.757	92.5
292.987	84.5
293.218	99.5
293.449	96.5
293.68	87.5
293.91	108.5
294.141	91.5
294.372	82.5
294.603	90.5
294.833	83.5
295.064	92.5
295.295	89.5
295.525	98.5
295.756	104.5
295.987	112.5
296.217	135.5
296.448	140.5
296.679	102.5
296.909	95.5
297.14	102.5
297.37	98.5
297.601	93.5
297.831	77.5
298.062	95.5
298.292	102.5
298.523	104.5
298.753	75.5
298.984	79.5
299.214	97.5
299.445	100.5
299.675	109.5
299.905	99.5
300.136	87.5
300.366	108.5
300.597	87.5
300.827	99.5
301.057	106.5
301.288	107.5
301.518	100.5
301.748	88.5
301.979	100.5
302.209	81.5
302.439	90.5
302.669	89.5
302.9	97.5
303.13	91.5
303.36	101.5
303.59	112.5
303.82	136.5
304.051	104.5
304.281	93.5
304.511	104.5
304.741	80.5
304.971	86.5
305.201	90.5
305.431	91.5
305.661	95.5
305.891	97.5
306.121	104.5
306.352	96.5
306.582	106.5
306.812	96.5
307.042	110.5
307.272	131.5
307.502	135.5
307.731	132.5
307.961	107.5
308.191	104.5
308.421	93.5
308.651	94.5
308.881	106.5
309.111	94.5
309.341	99.5
309.571	99.5
309.8	99.5
310.03	105.5
310.26	106.5
310.49	100.5
310.72	107.5
310.949	107.5
311.179	105.5
311.409	101.5
311.639	96.5
311.868	95.5
312.098	110.5
312.328	89.5
312.557	102.5
312.787	119.5
313.017	92.5
313.246	106.5
313.476	94.5
313.706	83.5
313.935	94.5
314.165	106.5
314.394	107.5
314.624	112.5
314.853	115.5
315.083	107.5
315.312	92.5
315.542	97.5
315.771	101.5
316.001	76.5
316.23	95.5
316.46	104.5
316.689	82.5
316.919	87.5
317.148	101.5
317.377	76.5
317.607	99.5
317.836	88.5
318.065	90.5
318.295	79.5
318.524	98.5
318.753	108.5
318.983	95.5
319.212	91.5
319.441	104.5
319.67	119.5
319.9	114.5
320.129	102.5
320.358	85.5
320.587	91.5
320.816	96.5
321.046	87.5
321.275	87.5
321.504	95.5
321.733	91.5
321.962	99.5
322.191	117.5
322.42	107.5
322.649	104.5
322.878	119.5
323.108	127.5
323.337	136.5
323.566	144.5
323.795	168.5
324.024	229.5
324.253	423.5
324.482	913.5
324.71	1854.5
324.939	2437.5
325.168	900.5
325.397	267.5
325.626	166.5
325.855	138.5
326.084	112.5
326.313	131.5
326.542	151.5
326.77	258.5
326.999	532.5
327.228	1071.5
327.457	1862.5
327.686	1515.5
327.914	484.5
328.143	333.5
328.372	407.5
328.6	241.5
328.829	149.5
329.058	154.5
329.287	156.5
329.515	151.5
329.744	180.5
329.972	292.5
330.201	565.5
330.43	793.5
330.658	407.5
330.887	212.5
331.115	161.5
331.344	123.5
331.572	107.5
331.801	104.5
332.03	113.5
332.258	105.5
332.486	93.5
332.715	95.5
332.943	104.5
333.172	107.5
333.4	123.5
333.629	136.5
333.857	186.5
334.085	280.5
334.314	522.5
334.542	964.5
334.771	935.5
334.999	299.5
335.227	144.5
335.455	115.5
335.684	113.5
335.912	106.5
336.14	100.5
336.369	109.5
336.597	120.5
336.825	112.5
337.053	100.5
337.281	109.5
337.51	96.5
337.738	112.5
337.966	94.5
338.194	99.5
338.422	106.5
338.65	94.5
338.878	98.5
339.106	93.5
339.334	91.5
339.562	81.5
339.79	106.5
340.018	98.5
340.246	87.5
340.474	106.5
340.702	91.5
340.93	97.5
341.158	107.5
341.386	93.5
341.614	104.5
341.842	97.5
342.07	105.5
342.298	98.5
342.526	99.5
342.754	94.5
342.981	102.5
343.209	97.5
343.437	111.5
343.665	90.5
343.893	106.5
344.12	94.5
344.348	85.5
344.576	90.5
344.804	84.5
345.031	101.5
345.259	115.5
345.487	97.5
345.714	90.5
345.942	99.5
346.17	102.5
346.397	92.5
346.625	95.5
346.853	89.5
347.08	95.5
347.308	92.5
347.535	94.5
347.763	105.5
347.99	101.5
348.218	105.5
348.445	112.5
348.673	90.5
348.9	100.5
349.128	98.5
349.355	87.5
349.583	103.5
349.81	113.5
350.037	92.5
350.265	99.5
350.492	103.5
350.72	104.5
350.947	96.5
351.174	90.5
351.402	107.5
351.629	103.5
351.856	98.5
352.083	102.5
352.311	130.5
352.538	118.5
352.765	100.5
352.992	106.5
353.22	95.5
353.447	114.5
353.674	100.5
353.901	85.5
354.128	101.5
354.355	96.5
354.583	96.5
354.81	92.5
355.037	89.5
355.264	95.5
355.491	89.5
355.718	96.5
355.945	86.5
356.172	88.5
356.399	104.5
356.626	89.5
356.853	92.5
357.08	102.5
357.307	92.5
357.534	89.5
357.761	93.5
357.988	97.5
358.215	99.5
358.441	100.5
358.668	88.5
358.895	91.5
359.122	85.5
359.349	99.5
359.576	89.5
359.802	106.5
360.029	106.5
360.256	108.5
360.483	106.5
360.709	96.5
360.936	83.5
361.163	90.5
361.39	91.5
361.616	93.5
361.843	95.5
362.07	98.5
362.296	98.5
362.523	96.5
362.749	89.5
362.976	99.5
363.203	104.5
363.429	84.5
363.656	99.5
363.882	93.5
364.109	109.5
364.335	97.5
364.562	95.5
364.788	95.5
365.015	106.5
365.241	87.5
365.468	111.5
365.694	108.5
365.92	101.5
366.147	99.5
366.373	95.5
366.599	104.5
366.826	88.5
367.052	81.5
367.278	91.5
367.505	79.5
367.731	104.5
367.957	99.5
368.184	97.5
368.41	104.5
368.636	106.5
368.862	121.5
369.089	118.5
369.315	98.5
369.541	110.5
369.767	98.5
369.993	88.5
370.219	92.5
370.445	91.5
370.672	100.5
370.898	96.5
371.124	95.5
371.35	95.5
371.576	100.5
371.802	103.5
372.028	100.5
372.254	87.5
372.48	92.5
372.706	90.5
372.932	77.5
373.158	100.5
373.384	103.5
373.61	90.5
373.835	79.5
374.061	95.5
374.287	98.5
374.513	90.5
374.739	88.5
374.965	91.5
375.191	93.5
375.416	96.5
375.642	97.5
375.868	95.5
376.094	98.5
376.319	88.5
376.545	81.5
376.771	99.5
376.997	97.5
377.222	101.5
377.448	108.5
377.674	99.5
377.899	86.5
378.125	88.5
378.35	91.5
378.576	76.5
378.802	89.5
379.027	76.5
379.253	93.5
379.478	104.5
379.704	112.5
379.929	104.5
380.155	81.5
380.38	88.5
380.606	84.5
380.831	96.5
381.057	103.5
381.282	95.5
381.507	105.5
381.733	101.5
381.958	97.5
382.184	105.5
382.409	94.5
382.634	100.5
382.86	99.5
383.085	104.5
383.31	109.5
383.535	90.5
383.761	97.5
383.986	85.5
384.211	89.5
384.436	86.5
384.662	98.5
384.887	104.5
385.112	98.5
385.337	84.5
385.562	94.5
385.787	105.5
386.013	103.5
386.238	111.5
386.463	98.5
386.688	114.5
386.913	112.5
387.138	85.5
387.363	91.5
387.588	107.5
387.813	102.5
388.038	108.5
388.263	105.5
388.488	125.5
388.713	93.5
388.938	96.5
389.163	101.5
389.387	98.5
389.612	95.5
389.837	88.5
390.062	92.5
390.287	92.5
390.512	95.5
390.736	113.5
390.961	106.5
391.186	88.5
391.411	93.5
391.636	104.5
391.86	73.5
392.085	90.5
392.31	78.5
392.534	86.5
392.759	83.5
392.984	82.5
393.208	101.5
393.433	100.5
393.658	85.5
393.882	89.5
394.107	90.5
394.331	88.5
394.556	93.5
394.78	96.5
395.005	102.5
395.229	86.5
395.454	87.5
395.678	81.5
395.903	73.5
396.127	85.5
396.352	88.5
396.576	79.5
396.801	100.5
397.025	96.5
397.249	92.5
397.474	91.5
397.698	84.5
397.922	76.5
398.147	102.5
398.371	87.5
398.595	92.5
398.82	85.5
399.044	106.5
399.268	88.5
399.492	92.5
399.717	90.5
399.941	99.5
400.165	103.5
400.389	87.5
400.613	90.5
400.837	95.5
401.062	80.5
401.286	95.5
401.51	72.5
401.734	89.5
401.958	100.5
402.182	132.5
402.406	172.5
402.63	124.5
402.854	90.5
403.078	101.5
403.302	91.5
403.526	85.5
403.75	96.5
403.974	85.5
404.198	96.5
404.422	92.5
404.645	91.5
404.869	101.5
405.093	105.5
405.317	123.5
405.541	123.5
405.765	109.5
405.988	145.5
406.212	186.5
406.436	243.5
406.66	160.5
406.883	112.5
407.107	95.5
407.331	99.5
407.555	89.5
407.778	107.5
408.002	81.5
408.226	89.5
408.449	97.5
408.673	111.5
408.896	103.5
409.12	90.5
409.344	98.5
409.567	77.5
409.791	91.5
410.014	106.5
410.238	99.5
410.461	98.5
410.685	88.5
410.908	106.5
411.132	100.5
411.355	112.5
411.578	90.5
411.802	104.5
412.025	102.5
412.249	92.5
412.472	128.5
412.695	128.5
412.919	108.5
413.142	98.5
413.365	93.5
413.589	97.5
413.812	76.5
414.035	87.5
414.258	77.5
414.482	86.5
414.705	92.5
414.928	90.5
415.151	105.5
415.374	96.5
415.597	91.5
415.821	108.5
416.044	92.5
416.267	78.5
416.49	86.5
416.713	77.5
416.936	81.5
417.159	89.5
417.382	96.5
417.605	95.5
417.828	103.5
418.051	90.5
418.274	95.5
418.497	87.5
418.72	96.5
418.943	87.5
419.166	97.5
419.389	97.5
419.611	89.5
419.834	89.5
420.057	99.5
420.28	86.5
420.503	84.5
420.726	88.5
420.948	90.5
421.171	113.5
421.394	97.5
421.617	88.5
421.839	102.5
422.062	94.5
422.285	80.5
422.507	104.5
422.73	108.5
422.953	105.5
423.175	95.5
423.398	112.5
423.621	94.5
423.843	77.5
424.066	95.5
424.288	95.5
424.511	105.5
424.733	107.5
424.956	92.5
425.178	106.5
425.401	108.5
425.623	114.5
425.846	95.5
426.068	95.5
426.291	88.5
426.513	100.5
426.735	100.5
426.958	104.5
427.18	108.5
427.402	163.5
427.625	213.5
427.847	199.5
428.069	195.5
428.292	115.5
428.514	94.5
428.736	100.5
428.958	85.5
429.181	91.5
429.403	96.5
429.625	84.5
429.847	89.5
430.069	100.5
430.292	107.5
430.514	81.5
430.736	104.5
430.958	90.5
431.18	82.5
431.402	100.5
431.624	84.5
431.846	74.5
432.068	87.5
432.29	85.5
432.512	95.5
432.734	87.5
432.956	91.5
433.178	102.5
433.4	117.5
433.622	100.5
433.844	96.5
434.066	97.5
434.287	91.5
434.509	81.5
434.731	96.5
434.953	92.5
435.175	92.5
435.397	95.5
435.618	100.5
435.84	113.5
436.062	132.5
436.284	119.5
436.505	106.5
436.727	105.5
436.949	77.5
437.17	89.5
437.392	102.5
437.614	93.5
437.835	106.5
438.057	115.5
438.278	122.5
438.5	111.5
438.721	131.5
438.943	131.5
439.165	89.5
439.386	91.5
439.608	107.5
439.829	114.5
440.05	131.5
440.272	179.5
440.493	106.5
440.715	95.5
440.936	90.5
441.158	88.5
441.379	69.5
441.6	85.5
441.822	101.5
442.043	95.5
442.264	121.5
442.486	104.5
442.707	100.5
442.928	114.5
443.149	152.5
443.371	133.5
443.592	134.5
443.813	131.5
444.034	114.5
444.255	95.5
444.476	81.5
444.698	102.5
444.919	87.5
445.14	131.5
445.361	124.5
445.582	129.5
445.803	149.5
446.024	165.5
446.245	148.5
446.466	121.5
446.687	92.5
446.908	88.5
447.129	82.5
447.35	83.5
447.571	106.5
447.792	93.5
448.013	102.5
448.234	106.5
448.455	108.5
448.675	115.5
448.896	124.5
449.117	104.5
449.338	114.5
449.559	136.5
449.779	148.5
450	102.5
450.221	95.5
450.442	104.5
450.662	101.5
450.883	109.5
451.104	122.5
451.324	104.5
451.545	93.5
451.766	78.5
451.986	91.5
452.207	102.5
452.428	104.5
452.648	110.5
452.869	116.5
453.089	117.5
453.31	120.5
453.53	98.5
453.751	79.5
453.971	107.5
454.192	111.5
454.412	102.5
454.633	87.5
454.853	82.5
455.073	87.5
455.294	98.5
455.514	117.5
455.734	99.5
455.955	93.5
456.175	91.5
456.395	75.5
456.616	104.5
456.836	85.5
457.056	101.5
457.276	91.5
457.497	76.5
457.717	84.5
457.937	98.5
458.157	91.5
458.377	88.5
458.598	98.5
458.818	166.5
459.038	181.5
459.258	133.5
459.478	95.5
459.698	79.5
459.918	93.5
460.138	91.5
460.358	86.5
460.578	92.5
460.798	93.5
461.018	91.5
461.238	99.5
461.458	88.5
461.678	96.5
461.898	87.5
462.118	89.5
462.338	88.5
462.558	84.5
462.777	94.5
462.997	95.5
463.217	95.5
463.437	88.5
463.657	92.5
463.876	92.5
464.096	90.5
464.316	105.5
464.536	94.5
464.755	104.5
464.975	125.5
465.195	187.5
465.414	171.5
465.634	98.5
465.854	87.5
466.073	82.5
466.293	112.5
466.512	114.5
466.732	89.5
466.951	94.5
467.171	91.5
467.391	100.5
467.61	128.5
467.829	157.5
468.049	348.5
468.268	491.5
468.488	154.5
468.707	93.5
468.927	93.5
469.146	91.5
469.365	88.5
469.585	110.5
469.804	98.5
470.023	105.5
470.243	88.5
470.462	109.5
470.681	116.5
470.901	105.5
471.12	93.5
471.339	110.5
471.558	104.5
471.777	143.5
471.997	193.5
472.216	625.5
472.435	1384.5
472.654	372.5
472.873	133.5
473.092	101.5
473.311	93.5
473.53	99.5
473.749	90.5
473.968	90.5
474.187	112.5
474.406	102.5
474.625	98.5
474.844	80.5
475.063	91.5
475.282	80.5
475.501	83.5
475.72	98.5
475.939	75.5
476.158	86.5
476.377	99.5
476.596	80.5
476.814	92.5
477.033	111.5
477.252	104.5
477.471	92.5
477.69	91.5
477.908	99.5
478.127	106.5
478.346	89.5
478.564	98.5
478.783	100.5
479.002	108.5
479.22	104.5
479.439	137.5
479.658	117.5
479.876	117.5
480.095	114.5
480.313	117.5
480.532	130.5
480.751	203.5
480.969	614.5
481.188	2321.5
481.406	1455.5
481.624	252.5
481.843	115.5
482.061	85.5
482.28	102.5
482.498	100.5
482.717	93.5
482.935	94.5
483.153	99.5
483.372	95.5
483.59	95.5
483.808	97.5
484.027	107.5
484.245	116.5
484.463	99.5
484.681	113.5
484.9	90.5
485.118	92.5
485.336	111.5
485.554	96.5
485.772	122.5
485.99	106.5
486.209	117.5
486.427	100.5
486.645	107.5
486.863	127.5
487.081	111.5
487.299	94.5
487.517	102.5
487.735	97.5
487.953	96.5
488.171	104.5
488.389	91.5
488.607	100.5
488.825	97.5
489.043	87.5
489.261	91.5
489.479	94.5
489.696	91.5
489.914	99.5
490.132	97.5
490.35	91.5
490.568	95.5
490.786	85.5
491.003	98.5
491.221	107.5
491.439	92.5
491.657	95.5
491.874	85.5
492.092	78.5
492.31	77.5
492.527	93.5
492.745	88.5
492.963	94.5
493.18	93.5
493.398	92.5
493.615	109.5
493.833	93.5
494.05	92.5
494.268	98.5
494.485	90.5
494.703	103.5
494.92	89.5
495.138	102.5
495.355	105.5
495.573	111.5
495.79	101.5
496.008	88.5
496.225	94.5
496.442	89.5
496.66	95.5
496.877	85.5
497.094	95.5
497.312	83.5
497.529	89.5
497.746	93.5
497.963	88.5
498.181	96.5
498.398	98.5
498.615	113.5
498.832	124.5
499.049	111.5
499.267	92.5
499.484	96.5
499.701	79.5
499.918	85.5
500.135	84.5
500.352	98.5
500.569	99.5
500.786	99.5
501.003	93.5
501.22	100.5
501.437	93.5
501.654	96.5
501.871	106.5
502.088	101.5
502.305	102.5
502.522	87.5
502.739	89.5
502.956	92.5
503.172	98.5
503.389	111.5
503.606	118.5
503.823	104.5
504.04	87.5
504.256	95.5
504.473	87.5
504.69	99.5
504.907	87.5
505.123	83.5
505.34	96.5
505.557	98.5
505.773	96.5
505.99	82.5
506.207	84.5
506.423	92.5
506.64	105.5
506.856	91.5
507.073	96.5
507.289	99.5
507.506	104.5
507.722	132.5
507.939	126.5
508.155	108.5
508.372	100.5
508.588	90.5
508.805	74.5
509.021	103.5
509.238	101.5
509.454	106.5
509.67	109.5
509.887	124.5
510.103	154.5
510.319	212.5
510.536	767.5
510.752	2430.5
510.968	717.5
511.184	164.5
511.401	110.5
511.617	100.5
511.833	113.5
512.049	91.5
512.265	92.5
512.481	93.5
512.698	104.5
512.914	95.5
513.13	98.5
513.346	99.5
513.562	99.5
513.778	92.5
513.994	99.5
514.21	106.5
514.426	131.5
514.642	147.5
514.858	136.5
515.074	174.5
515.29	511.5
515.506	1755.5
515.721	659.5
515.937	175.5
516.153	130.5
516.369	100.5
516.585	89.5
516.801	91.5
517.016	89.5
517.232	102.5
517.448	110.5
517.664	100.5
517.879	99.5
518.095	105.5
518.311	112.5
518.527	97.5
518.742	97.5
518.958	102.5
519.173	106.5
519.389	91.5
519.605	90.5
519.82	96.5
520.036	110.5
520.251	127.5
520.467	111.5
520.682	109.5
520.898	100.5
521.113	138.5
521.329	152.5
521.544	229.5
521.76	628.5
521.975	2853.5
522.19	1795.5
522.406	383.5
522.621	158.5
522.836	106.5
523.052	97.5
523.267	109.5
523.482	94.5
523.698	117.5
523.913	125.5
524.128	108.5
524.343	101.5
524.559	111.5
524.774	100.5
524.989	107.5
525.204	111.5
525.419	110.5
525.634	105.5
525.849	99.5
526.064	89.5
526.28	76.5
526.495	91.5
526.71	92.5
526.925	96.5
527.14	96.5
527.355	86.5
527.57	93.5
527.785	98.5
527.999	104.5
528.214	97.5
528.429	93.5
528.644	100.5
528.859	92.5
529.074	94.5
529.289	147.5
529.503	203.5
529.718	125.5
529.933	104.5
530.148	98.5
530.363	104.5
530.577	94.5
530.792	95.5
531.007	92.5
531.221	89.5
531.436	84.5
531.651	98.5
531.865	100.5
532.08	89.5
532.295	89.5
