Data from Circ_2023_H10_HRD10591_00039.txt Node
Date: Wed Jan 03 09:50:38 EST 2024
User: Yrep
Spectrometer: HR+D1059
Trigger mode: 1
Integration Time (sec): 1.000000E-1
Scans to average: 1
Electric dark correction enabled: true
Nonlinearity correction enabled: false
Boxcar width: 0
XAxis mode: Wavelengths
Number of Pixels in Spectrum: 2048
>>>>>Begin Spectral Data<<<<<
223.165	-2.38
223.4	-2.38
223.635	-2.38
223.869	-26.38
224.104	-26.38
224.338	-20.38
224.573	-9.38
224.808	-20.38
225.042	-5.38
225.277	-3.38
225.511	-4.38
225.746	1.62
225.98	11.62
226.215	11.62
226.449	14.62
226.683	20.62
226.918	29.62
227.152	28.62
227.387	33.62
227.621	42.62
227.856	45.62
228.09	52.62
228.324	50.62
228.559	51.62
228.793	45.62
229.027	66.62
229.262	76.62
229.496	66.62
229.73	92.62
229.964	98.62
230.199	85.62
230.433	92.62
230.667	83.62
230.901	78.62
231.136	80.62
231.37	92.62
231.604	80.62
231.838	89.62
232.072	87.62
232.306	78.62
232.541	76.62
232.775	75.62
233.009	83.62
233.243	64.62
233.477	84.62
233.711	92.62
233.945	77.62
234.179	73.62
234.413	85.62
234.647	84.62
234.881	88.62
235.115	84.62
235.349	93.62
235.583	77.62
235.817	94.62
236.051	74.62
236.285	76.62
236.519	82.62
236.753	80.62
236.987	73.62
237.221	90.62
237.455	88.62
237.689	77.62
237.922	82.62
238.156	86.62
238.39	78.62
238.624	88.62
238.858	94.62
239.091	90.62
239.325	86.62
239.559	85.62
239.793	81.62
240.027	78.62
240.26	78.62
240.494	83.62
240.728	72.62
240.961	86.62
241.195	86.62
241.429	79.62
241.662	85.62
241.896	74.62
242.13	68.62
242.363	82.62
242.597	73.62
242.83	91.62
243.064	76.62
243.298	77.62
243.531	68.62
243.765	76.62
243.998	67.62
244.232	77.62
244.465	100.62
244.699	87.62
244.932	74.62
245.166	83.62
245.399	78.62
245.633	86.62
245.866	84.62
246.099	85.62
246.333	90.62
246.566	72.62
246.8	96.62
247.033	74.62
247.266	86.62
247.5	85.62
247.733	91.62
247.966	77.62
248.2	74.62
248.433	89.62
248.666	79.62
248.899	88.62
249.133	80.62
249.366	94.62
249.599	101.62
249.832	96.62
250.066	94.62
250.299	88.62
250.532	94.62
250.765	72.62
250.998	67.62
251.231	73.62
251.465	93.62
251.698	85.62
251.931	97.62
252.164	77.62
252.397	69.62
252.63	89.62
252.863	91.62
253.096	82.62
253.329	74.62
253.562	73.62
253.795	83.62
254.028	94.62
254.261	83.62
254.494	80.62
254.727	86.62
254.96	84.62
255.193	88.62
255.426	101.62
255.659	83.62
255.892	97.62
256.124	106.62
256.357	106.62
256.59	71.62
256.823	86.62
257.056	96.62
257.289	99.62
257.521	93.62
257.754	86.62
257.987	80.62
258.22	84.62
258.452	103.62
258.685	104.62
258.918	93.62
259.151	88.62
259.383	74.62
259.616	80.62
259.849	90.62
260.081	89.62
260.314	91.62
260.547	90.62
260.779	107.62
261.012	115.62
261.244	107.62
261.477	90.62
261.71	110.62
261.942	132.62
262.175	141.62
262.407	98.62
262.64	92.62
262.872	73.62
263.105	102.62
263.337	87.62
263.57	88.62
263.802	72.62
264.035	85.62
264.267	74.62
264.499	92.62
264.732	92.62
264.964	90.62
265.197	91.62
265.429	89.62
265.661	70.62
265.894	82.62
266.126	89.62
266.358	88.62
266.591	80.62
266.823	85.62
267.055	82.62
267.287	93.62
267.52	89.62
267.752	78.62
267.984	83.62
268.216	88.62
268.448	99.62
268.681	86.62
268.913	93.62
269.145	78.62
269.377	90.62
269.609	103.62
269.841	85.62
270.073	86.62
270.306	107.62
270.538	86.62
270.77	94.62
271.002	94.62
271.234	97.62
271.466	102.62
271.698	88.62
271.93	91.62
272.162	90.62
272.394	75.62
272.626	88.62
272.858	69.62
273.09	92.62
273.322	93.62
273.553	81.62
273.785	81.62
274.017	92.62
274.249	88.62
274.481	91.62
274.713	80.62
274.945	85.62
275.176	88.62
275.408	105.62
275.64	127.62
275.872	127.62
276.104	105.62
276.335	101.62
276.567	113.62
276.799	157.62
277.031	185.62
277.262	201.62
277.494	156.62
277.726	106.62
277.957	106.62
278.189	109.62
278.421	92.62
278.652	99.62
278.884	89.62
279.115	88.62
279.347	104.62
279.579	102.62
279.81	153.62
280.042	194.62
280.273	265.62
280.505	178.62
280.736	108.62
280.968	98.62
281.199	91.62
281.431	90.62
281.662	91.62
281.894	97.62
282.125	99.62
282.356	134.62
282.588	167.62
282.819	125.62
283.051	100.62
283.282	77.62
283.513	83.62
283.745	90.62
283.976	71.62
284.207	81.62
284.439	108.62
284.67	76.62
284.901	84.62
285.132	92.62
285.364	77.62
285.595	91.62
285.826	81.62
286.057	83.62
286.288	107.62
286.52	94.62
286.751	81.62
286.982	101.62
287.213	81.62
287.444	103.62
287.675	92.62
287.906	84.62
288.138	106.62
288.369	88.62
288.6	82.62
288.831	85.62
289.062	97.62
289.293	89.62
289.524	101.62
289.755	85.62
289.986	85.62
290.217	78.62
290.448	78.62
290.679	96.62
290.91	95.62
291.141	97.62
291.371	91.62
291.602	89.62
291.833	85.62
292.064	97.62
292.295	92.62
292.526	88.62
292.757	101.62
292.987	103.62
293.218	89.62
293.449	100.62
293.68	101.62
293.91	102.62
294.141	103.62
294.372	91.62
294.603	105.62
294.833	101.62
295.064	85.62
295.295	99.62
295.525	103.62
295.756	116.62
295.987	150.62
296.217	174.62
296.448	142.62
296.679	110.62
296.909	82.62
297.14	88.62
297.37	86.62
297.601	86.62
297.831	105.62
298.062	99.62
298.292	93.62
298.523	83.62
298.753	78.62
298.984	91.62
299.214	88.62
299.445	80.62
299.675	76.62
299.905	101.62
300.136	103.62
300.366	98.62
300.597	84.62
300.827	93.62
301.057	106.62
301.288	100.62
301.518	96.62
301.748	119.62
301.979	118.62
302.209	100.62
302.439	106.62
302.669	88.62
302.9	78.62
303.13	91.62
303.36	115.62
303.59	124.62
303.82	150.62
304.051	113.62
304.281	107.62
304.511	109.62
304.741	97.62
304.971	84.62
305.201	102.62
305.431	94.62
305.661	87.62
305.891	92.62
306.121	109.62
306.352	108.62
306.582	122.62
306.812	128.62
307.042	122.62
307.272	156.62
307.502	194.62
307.731	161.62
307.961	138.62
308.191	97.62
308.421	97.62
308.651	88.62
308.881	95.62
309.111	108.62
309.341	93.62
309.571	121.62
309.8	101.62
310.03	116.62
310.26	114.62
310.49	117.62
310.72	104.62
310.949	116.62
311.179	114.62
311.409	112.62
311.639	115.62
311.868	110.62
312.098	95.62
312.328	95.62
312.557	112.62
312.787	121.62
313.017	111.62
313.246	101.62
313.476	102.62
313.706	86.62
313.935	98.62
314.165	98.62
314.394	121.62
314.624	105.62
314.853	104.62
315.083	93.62
315.312	116.62
315.542	90.62
315.771	93.62
316.001	102.62
316.23	93.62
316.46	91.62
316.689	97.62
316.919	99.62
317.148	103.62
317.377	107.62
317.607	105.62
317.836	98.62
318.065	96.62
318.295	89.62
318.524	94.62
318.753	85.62
318.983	109.62
319.212	114.62
319.441	118.62
319.67	106.62
319.9	88.62
320.129	101.62
320.358	116.62
320.587	105.62
320.816	110.62
321.046	122.62
321.275	105.62
321.504	104.62
321.733	128.62
321.962	100.62
322.191	110.62
322.42	119.62
322.649	121.62
322.878	126.62
323.108	116.62
323.337	138.62
323.566	154.62
323.795	164.62
324.024	248.62
324.253	508.62
324.482	1043.62
324.71	2140.62
324.939	2816.62
325.168	1055.62
325.397	292.62
325.626	176.62
325.855	142.62
326.084	135.62
326.313	143.62
326.542	186.62
326.77	277.62
326.999	536.62
327.228	1136.62
327.457	2091.62
327.686	1722.62
327.914	588.62
328.143	542.62
328.372	703.62
328.6	410.62
328.829	206.62
329.058	199.62
329.287	221.62
329.515	194.62
329.744	262.62
329.972	500.62
330.201	997.62
330.43	1491.62
330.658	681.62
330.887	298.62
331.115	189.62
331.344	126.62
331.572	121.62
331.801	122.62
332.03	132.62
332.258	123.62
332.486	116.62
332.715	110.62
332.943	108.62
333.172	131.62
333.4	146.62
333.629	166.62
333.857	224.62
334.085	436.62
334.314	905.62
334.542	1836.62
334.771	1792.62
334.999	485.62
335.227	182.62
335.455	132.62
335.684	115.62
335.912	111.62
336.14	117.62
336.369	115.62
336.597	125.62
336.825	110.62
337.053	101.62
337.281	109.62
337.51	87.62
337.738	116.62
337.966	111.62
338.194	125.62
338.422	105.62
338.65	97.62
338.878	90.62
339.106	91.62
339.334	91.62
339.562	96.62
339.79	108.62
340.018	99.62
340.246	106.62
340.474	98.62
340.702	102.62
340.93	86.62
341.158	109.62
341.386	102.62
341.614	96.62
341.842	99.62
342.07	106.62
342.298	105.62
342.526	81.62
342.754	87.62
342.981	87.62
343.209	81.62
343.437	103.62
343.665	93.62
343.893	97.62
344.12	86.62
344.348	78.62
344.576	73.62
344.804	119.62
345.031	96.62
345.259	110.62
345.487	113.62
345.714	104.62
345.942	98.62
346.17	97.62
346.397	102.62
346.625	106.62
346.853	101.62
347.08	99.62
347.308	97.62
347.535	105.62
347.763	121.62
347.99	114.62
348.218	120.62
348.445	123.62
348.673	113.62
348.9	104.62
349.128	113.62
349.355	86.62
349.583	103.62
349.81	96.62
350.037	102.62
350.265	98.62
350.492	107.62
350.72	92.62
350.947	113.62
351.174	109.62
351.402	104.62
351.629	123.62
351.856	104.62
352.083	128.62
352.311	120.62
352.538	121.62
352.765	127.62
352.992	115.62
353.22	129.62
353.447	105.62
353.674	101.62
353.901	104.62
354.128	99.62
354.355	92.62
354.583	113.62
354.81	76.62
355.037	86.62
355.264	111.62
355.491	101.62
355.718	85.62
355.945	83.62
356.172	98.62
356.399	89.62
356.626	105.62
356.853	101.62
357.08	100.62
357.307	83.62
357.534	100.62
357.761	89.62
357.988	90.62
358.215	91.62
358.441	103.62
358.668	86.62
358.895	86.62
359.122	86.62
359.349	101.62
359.576	91.62
359.802	118.62
360.029	140.62
360.256	148.62
360.483	117.62
360.709	89.62
360.936	93.62
361.163	101.62
361.39	112.62
361.616	116.62
361.843	104.62
362.07	100.62
362.296	106.62
362.523	109.62
362.749	91.62
362.976	97.62
363.203	97.62
363.429	101.62
363.656	103.62
363.882	81.62
364.109	108.62
364.335	116.62
364.562	101.62
364.788	94.62
365.015	109.62
365.241	109.62
365.468	121.62
365.694	99.62
365.92	113.62
366.147	86.62
366.373	92.62
366.599	101.62
366.826	90.62
367.052	98.62
367.278	97.62
367.505	95.62
367.731	115.62
367.957	89.62
368.184	105.62
368.41	115.62
368.636	124.62
368.862	136.62
369.089	118.62
369.315	109.62
369.541	112.62
369.767	92.62
369.993	101.62
370.219	102.62
370.445	94.62
370.672	91.62
370.898	88.62
371.124	89.62
371.35	97.62
371.576	96.62
371.802	92.62
372.028	100.62
372.254	96.62
372.48	91.62
372.706	93.62
372.932	95.62
373.158	92.62
373.384	99.62
373.61	97.62
373.835	100.62
374.061	101.62
374.287	98.62
374.513	78.62
374.739	95.62
374.965	82.62
375.191	89.62
375.416	85.62
375.642	83.62
375.868	91.62
376.094	96.62
376.319	88.62
376.545	97.62
376.771	96.62
376.997	90.62
377.222	103.62
377.448	92.62
377.674	87.62
377.899	86.62
378.125	97.62
378.35	94.62
378.576	100.62
378.802	95.62
379.027	76.62
379.253	90.62
379.478	102.62
379.704	98.62
379.929	104.62
380.155	100.62
380.38	92.62
380.606	107.62
380.831	98.62
381.057	104.62
381.282	107.62
381.507	92.62
381.733	106.62
381.958	98.62
382.184	86.62
382.409	104.62
382.634	112.62
382.86	93.62
383.085	97.62
383.31	95.62
383.535	99.62
383.761	87.62
383.986	102.62
384.211	102.62
384.436	81.62
384.662	83.62
384.887	96.62
385.112	102.62
385.337	119.62
385.562	96.62
385.787	102.62
386.013	112.62
386.238	109.62
386.463	116.62
386.688	113.62
386.913	100.62
387.138	118.62
387.363	113.62
387.588	98.62
387.813	104.62
388.038	120.62
388.263	89.62
388.488	79.62
388.713	106.62
388.938	96.62
389.163	116.62
389.387	107.62
389.612	98.62
389.837	93.62
390.062	88.62
390.287	95.62
390.512	87.62
390.736	102.62
390.961	95.62
391.186	103.62
391.411	99.62
391.636	99.62
391.86	82.62
392.085	89.62
392.31	89.62
392.534	99.62
392.759	97.62
392.984	97.62
393.208	88.62
393.433	91.62
393.658	93.62
393.882	96.62
394.107	90.62
394.331	78.62
394.556	105.62
394.78	100.62
395.005	97.62
395.229	76.62
395.454	72.62
395.678	93.62
395.903	76.62
396.127	88.62
396.352	87.62
396.576	81.62
396.801	99.62
397.025	89.62
397.249	88.62
397.474	103.62
397.698	96.62
397.922	109.62
398.147	91.62
398.371	93.62
398.595	96.62
398.82	81.62
399.044	99.62
399.268	74.62
399.492	96.62
399.717	90.62
399.941	88.62
400.165	99.62
400.389	88.62
400.613	93.62
400.837	111.62
401.062	105.62
401.286	98.62
401.51	97.62
401.734	96.62
401.958	113.62
402.182	146.62
402.406	186.62
402.63	146.62
402.854	87.62
403.078	91.62
403.302	98.62
403.526	84.62
403.75	92.62
403.974	99.62
404.198	94.62
404.422	99.62
404.645	96.62
404.869	130.62
405.093	136.62
405.317	152.62
405.541	151.62
405.765	118.62
405.988	140.62
406.212	220.62
406.436	290.62
406.66	203.62
406.883	107.62
407.107	107.62
407.331	108.62
407.555	112.62
407.778	116.62
408.002	101.62
408.226	86.62
408.449	95.62
408.673	91.62
408.896	90.62
409.12	99.62
409.344	102.62
409.567	84.62
409.791	76.62
410.014	106.62
410.238	101.62
410.461	102.62
410.685	106.62
410.908	102.62
411.132	124.62
411.355	101.62
411.578	80.62
411.802	93.62
412.025	98.62
412.249	101.62
412.472	129.62
412.695	147.62
412.919	113.62
413.142	96.62
413.365	88.62
413.589	106.62
413.812	88.62
414.035	91.62
414.258	98.62
414.482	97.62
414.705	88.62
414.928	87.62
415.151	100.62
415.374	103.62
415.597	104.62
415.821	96.62
416.044	93.62
416.267	104.62
416.49	91.62
416.713	98.62
416.936	82.62
417.159	87.62
417.382	105.62
417.605	123.62
417.828	122.62
418.051	100.62
418.274	99.62
418.497	95.62
418.72	93.62
418.943	87.62
419.166	99.62
419.389	107.62
419.611	99.62
419.834	91.62
420.057	92.62
420.28	126.62
420.503	102.62
420.726	105.62
420.948	95.62
421.171	104.62
421.394	106.62
421.617	92.62
421.839	89.62
422.062	90.62
422.285	98.62
422.507	123.62
422.73	122.62
422.953	102.62
423.175	93.62
423.398	98.62
423.621	107.62
423.843	97.62
424.066	104.62
424.288	92.62
424.511	87.62
424.733	110.62
424.956	123.62
425.178	116.62
425.401	93.62
425.623	112.62
425.846	93.62
426.068	97.62
426.291	96.62
426.513	93.62
426.735	93.62
426.958	105.62
427.18	139.62
427.402	192.62
427.625	270.62
427.847	264.62
428.069	246.62
428.292	143.62
428.514	117.62
428.736	103.62
428.958	86.62
429.181	109.62
429.403	97.62
429.625	90.62
429.847	94.62
430.069	119.62
430.292	89.62
430.514	89.62
430.736	88.62
430.958	90.62
431.18	86.62
431.402	88.62
431.624	83.62
431.846	107.62
432.068	102.62
432.29	97.62
432.512	107.62
432.734	91.62
432.956	99.62
433.178	107.62
433.4	105.62
433.622	101.62
433.844	94.62
434.066	97.62
434.287	101.62
434.509	92.62
434.731	97.62
434.953	81.62
435.175	88.62
435.397	92.62
435.618	100.62
435.84	108.62
436.062	136.62
436.284	137.62
436.505	115.62
436.727	114.62
436.949	107.62
437.17	98.62
437.392	96.62
437.614	98.62
437.835	120.62
438.057	140.62
438.278	155.62
438.5	143.62
438.721	155.62
438.943	132.62
439.165	81.62
439.386	100.62
439.608	98.62
439.829	120.62
440.05	170.62
440.272	192.62
440.493	115.62
440.715	73.62
440.936	91.62
441.158	92.62
441.379	96.62
441.6	105.62
441.822	102.62
442.043	119.62
442.264	128.62
442.486	117.62
442.707	91.62
442.928	125.62
443.149	187.62
443.371	180.62
443.592	122.62
443.813	129.62
444.034	142.62
444.255	96.62
444.476	101.62
444.698	92.62
444.919	95.62
445.14	132.62
445.361	137.62
445.582	137.62
445.803	194.62
446.024	194.62
446.245	172.62
446.466	134.62
446.687	109.62
446.908	84.62
447.129	95.62
447.35	105.62
447.571	92.62
447.792	110.62
448.013	105.62
448.234	136.62
448.455	114.62
448.675	147.62
448.896	136.62
449.117	99.62
449.338	118.62
449.559	155.62
449.779	173.62
450	109.62
450.221	89.62
450.442	96.62
450.662	106.62
450.883	126.62
451.104	132.62
451.324	115.62
451.545	99.62
451.766	83.62
451.986	97.62
452.207	93.62
452.428	100.62
452.648	109.62
452.869	112.62
453.089	155.62
453.31	136.62
453.53	105.62
453.751	100.62
453.971	127.62
454.192	146.62
454.412	97.62
454.633	91.62
454.853	97.62
455.073	97.62
455.294	110.62
455.514	117.62
455.734	105.62
455.955	95.62
456.175	90.62
456.395	101.62
456.616	90.62
456.836	82.62
457.056	94.62
457.276	85.62
457.497	88.62
457.717	83.62
457.937	86.62
458.157	91.62
458.377	96.62
458.598	130.62
458.818	208.62
459.038	236.62
459.258	163.62
459.478	100.62
459.698	101.62
459.918	99.62
460.138	103.62
460.358	85.62
460.578	93.62
460.798	88.62
461.018	101.62
461.238	95.62
461.458	98.62
461.678	97.62
461.898	95.62
462.118	82.62
462.338	94.62
462.558	96.62
462.777	107.62
462.997	99.62
463.217	110.62
463.437	96.62
463.657	109.62
463.876	92.62
464.096	89.62
464.316	98.62
464.536	116.62
464.755	116.62
464.975	113.62
465.195	227.62
465.414	228.62
465.634	107.62
465.854	90.62
466.073	97.62
466.293	95.62
466.512	99.62
466.732	92.62
466.951	109.62
467.171	112.62
467.391	124.62
467.61	157.62
467.829	208.62
468.049	537.62
468.268	882.62
468.488	237.62
468.707	138.62
468.927	104.62
469.146	104.62
469.365	91.62
469.585	101.62
469.804	105.62
470.023	121.62
470.243	107.62
470.462	116.62
470.681	145.62
470.901	116.62
471.12	107.62
471.339	122.62
471.558	130.62
471.777	153.62
471.997	282.62
472.216	1047.62
472.435	2548.62
472.654	646.62
472.873	180.62
473.092	107.62
473.311	78.62
473.53	92.62
473.749	96.62
473.968	114.62
474.187	127.62
474.406	119.62
474.625	87.62
474.844	98.62
475.063	98.62
475.282	104.62
475.501	102.62
475.72	95.62
475.939	83.62
476.158	88.62
476.377	87.62
476.596	95.62
476.814	102.62
477.033	104.62
477.252	102.62
477.471	94.62
477.69	98.62
477.908	106.62
478.127	97.62
478.346	105.62
478.564	97.62
478.783	113.62
479.002	119.62
479.22	110.62
479.439	137.62
479.658	130.62
479.876	114.62
480.095	135.62
480.313	131.62
480.532	167.62
480.751	280.62
480.969	968.62
481.188	4233.62
481.406	2657.62
481.624	382.62
481.843	151.62
482.061	110.62
482.28	119.62
482.498	102.62
482.717	110.62
482.935	100.62
483.153	97.62
483.372	95.62
483.59	89.62
483.808	85.62
484.027	100.62
484.245	106.62
484.463	93.62
484.681	106.62
484.9	101.62
485.118	101.62
485.336	105.62
485.554	101.62
485.772	108.62
485.99	106.62
486.209	116.62
486.427	101.62
486.645	117.62
486.863	126.62
487.081	111.62
487.299	93.62
487.517	112.62
487.735	93.62
487.953	83.62
488.171	100.62
488.389	108.62
488.607	103.62
488.825	99.62
489.043	88.62
489.261	93.62
489.479	102.62
489.696	99.62
489.914	93.62
490.132	97.62
490.35	88.62
490.568	91.62
490.786	98.62
491.003	96.62
491.221	100.62
491.439	99.62
491.657	110.62
491.874	111.62
492.092	108.62
492.31	96.62
492.527	101.62
492.745	107.62
492.963	106.62
493.18	94.62
493.398	97.62
493.615	93.62
493.833	106.62
494.05	82.62
494.268	91.62
494.485	95.62
494.703	100.62
494.92	83.62
495.138	104.62
495.355	104.62
495.573	88.62
495.79	93.62
496.008	100.62
496.225	103.62
496.442	88.62
496.66	97.62
496.877	99.62
497.094	93.62
497.312	92.62
497.529	70.62
497.746	86.62
497.963	107.62
498.181	96.62
498.398	100.62
498.615	114.62
498.832	114.62
499.049	97.62
499.267	93.62
499.484	95.62
499.701	98.62
499.918	87.62
500.135	102.62
500.352	107.62
500.569	107.62
500.786	114.62
501.003	98.62
501.22	98.62
501.437	86.62
501.654	91.62
501.871	133.62
502.088	96.62
502.305	101.62
502.522	91.62
502.739	98.62
502.956	84.62
503.172	94.62
503.389	117.62
503.606	119.62
503.823	113.62
504.04	113.62
504.256	104.62
504.473	99.62
504.69	101.62
504.907	100.62
505.123	94.62
505.34	101.62
505.557	90.62
505.773	97.62
505.99	99.62
506.207	92.62
506.423	96.62
506.64	91.62
506.856	91.62
507.073	88.62
507.289	111.62
507.506	109.62
507.722	123.62
507.939	127.62
508.155	98.62
508.372	105.62
508.588	96.62
508.805	112.62
509.021	88.62
509.238	96.62
509.454	107.62
509.67	105.62
509.887	106.62
510.103	156.62
510.319	233.62
510.536	918.62
510.752	3122.62
510.968	908.62
511.184	205.62
511.401	121.62
