Data from Circ_2023_H10_HRD10591_00029.txt Node
Date: Wed Jan 03 09:50:36 EST 2024
User: Yrep
Spectrometer: HR+D1059
Trigger mode: 1
Integration Time (sec): 1.000000E-1
Scans to average: 1
Electric dark correction enabled: true
Nonlinearity correction enabled: false
Boxcar width: 0
XAxis mode: Wavelengths
Number of Pixels in Spectrum: 2048
>>>>>Begin Spectral Data<<<<<
223.165	-26.69
223.4	-26.69
223.635	-26.69
223.869	-30.69
224.104	-15.69
224.338	-23.69
224.573	-10.69
224.808	-3.69
225.042	-13.69
225.277	-6.69
225.511	-4.69
225.746	16.31
225.98	21.31
226.215	16.31
226.449	12.31
226.683	16.31
226.918	21.31
227.152	32.31
227.387	43.31
227.621	38.31
227.856	43.31
228.09	51.31
228.324	62.31
228.559	48.31
228.793	66.31
229.027	58.31
229.262	72.31
229.496	97.31
229.73	92.31
229.964	95.31
230.199	81.31
230.433	76.31
230.667	72.31
230.901	73.31
231.136	72.31
231.37	74.31
231.604	77.31
231.838	91.31
232.072	78.31
232.306	81.31
232.541	79.31
232.775	69.31
233.009	96.31
233.243	69.31
233.477	75.31
233.711	80.31
233.945	78.31
234.179	90.31
234.413	78.31
234.647	81.31
234.881	61.31
235.115	74.31
235.349	68.31
235.583	77.31
235.817	84.31
236.051	87.31
236.285	78.31
236.519	72.31
236.753	68.31
236.987	76.31
237.221	72.31
237.455	99.31
237.689	61.31
237.922	71.31
238.156	70.31
238.39	73.31
238.624	86.31
238.858	73.31
239.091	73.31
239.325	85.31
239.559	86.31
239.793	88.31
240.027	79.31
240.26	84.31
240.494	84.31
240.728	87.31
240.961	70.31
241.195	70.31
241.429	84.31
241.662	77.31
241.896	66.31
242.13	71.31
242.363	68.31
242.597	66.31
242.83	75.31
243.064	74.31
243.298	84.31
243.531	74.31
243.765	73.31
243.998	81.31
244.232	74.31
244.465	80.31
244.699	80.31
244.932	88.31
245.166	77.31
245.399	65.31
245.633	78.31
245.866	71.31
246.099	83.31
246.333	68.31
246.566	91.31
246.8	93.31
247.033	87.31
247.266	91.31
247.5	71.31
247.733	85.31
247.966	88.31
248.2	75.31
248.433	80.31
248.666	87.31
248.899	95.31
249.133	79.31
249.366	97.31
249.599	113.31
249.832	64.31
250.066	91.31
250.299	86.31
250.532	82.31
250.765	72.31
250.998	59.31
251.231	69.31
251.465	71.31
251.698	85.31
251.931	97.31
252.164	89.31
252.397	83.31
252.63	86.31
252.863	80.31
253.096	79.31
253.329	73.31
253.562	88.31
253.795	67.31
254.028	85.31
254.261	83.31
254.494	73.31
254.727	91.31
254.96	78.31
255.193	64.31
255.426	83.31
255.659	84.31
255.892	92.31
256.124	116.31
256.357	84.31
256.59	90.31
256.823	89.31
257.056	79.31
257.289	101.31
257.521	82.31
257.754	72.31
257.987	84.31
258.22	87.31
258.452	104.31
258.685	87.31
258.918	92.31
259.151	73.31
259.383	97.31
259.616	80.31
259.849	92.31
260.081	88.31
260.314	84.31
260.547	93.31
260.779	93.31
261.012	110.31
261.244	111.31
261.477	98.31
261.71	100.31
261.942	130.31
262.175	163.31
262.407	101.31
262.64	90.31
262.872	81.31
263.105	93.31
263.337	102.31
263.57	84.31
263.802	93.31
264.035	78.31
264.267	83.31
264.499	87.31
264.732	85.31
264.964	75.31
265.197	97.31
265.429	95.31
265.661	77.31
265.894	86.31
266.126	87.31
266.358	84.31
266.591	67.31
266.823	74.31
267.055	73.31
267.287	85.31
267.52	88.31
267.752	89.31
267.984	80.31
268.216	83.31
268.448	82.31
268.681	86.31
268.913	95.31
269.145	73.31
269.377	72.31
269.609	73.31
269.841	83.31
270.073	67.31
270.306	81.31
270.538	87.31
270.77	82.31
271.002	72.31
271.234	89.31
271.466	93.31
271.698	89.31
271.93	92.31
272.162	94.31
272.394	93.31
272.626	88.31
272.858	89.31
273.09	84.31
273.322	86.31
273.553	88.31
273.785	73.31
274.017	91.31
274.249	97.31
274.481	88.31
274.713	91.31
274.945	79.31
275.176	89.31
275.408	101.31
275.64	110.31
275.872	124.31
276.104	102.31
276.335	104.31
276.567	108.31
276.799	142.31
277.031	191.31
277.262	210.31
277.494	153.31
277.726	89.31
277.957	91.31
278.189	90.31
278.421	93.31
278.652	79.31
278.884	92.31
279.115	108.31
279.347	86.31
279.579	107.31
279.81	123.31
280.042	200.31
280.273	256.31
280.505	187.31
280.736	101.31
280.968	94.31
281.199	94.31
281.431	77.31
281.662	96.31
281.894	76.31
282.125	122.31
282.356	136.31
282.588	199.31
282.819	140.31
283.051	99.31
283.282	95.31
283.513	99.31
283.745	87.31
283.976	87.31
284.207	91.31
284.439	96.31
284.67	97.31
284.901	83.31
285.132	96.31
285.364	78.31
285.595	87.31
285.826	81.31
286.057	88.31
286.288	89.31
286.52	91.31
286.751	86.31
286.982	87.31
287.213	72.31
287.444	88.31
287.675	99.31
287.906	86.31
288.138	82.31
288.369	86.31
288.6	99.31
288.831	78.31
289.062	84.31
289.293	96.31
289.524	81.31
289.755	89.31
289.986	84.31
290.217	74.31
290.448	83.31
290.679	91.31
290.91	97.31
291.141	95.31
291.371	96.31
291.602	93.31
291.833	96.31
292.064	78.31
292.295	101.31
292.526	83.31
292.757	79.31
292.987	86.31
293.218	93.31
293.449	66.31
293.68	98.31
293.91	86.31
294.141	83.31
294.372	90.31
294.603	95.31
294.833	107.31
295.064	95.31
295.295	82.31
295.525	93.31
295.756	100.31
295.987	126.31
296.217	168.31
296.448	132.31
296.679	110.31
296.909	95.31
297.14	83.31
297.37	84.31
297.601	82.31
297.831	84.31
298.062	99.31
298.292	85.31
298.523	92.31
298.753	86.31
298.984	94.31
299.214	96.31
299.445	101.31
299.675	111.31
299.905	102.31
300.136	93.31
300.366	95.31
300.597	90.31
300.827	110.31
301.057	105.31
301.288	126.31
301.518	101.31
301.748	99.31
301.979	124.31
302.209	98.31
302.439	105.31
302.669	103.31
302.9	107.31
303.13	92.31
303.36	115.31
303.59	135.31
303.82	151.31
304.051	108.31
304.281	98.31
304.511	100.31
304.741	83.31
304.971	79.31
305.201	75.31
305.431	92.31
305.661	96.31
305.891	84.31
306.121	96.31
306.352	110.31
306.582	112.31
306.812	108.31
307.042	119.31
307.272	171.31
307.502	177.31
307.731	172.31
307.961	120.31
308.191	93.31
308.421	86.31
308.651	91.31
308.881	100.31
309.111	92.31
309.341	114.31
309.571	107.31
309.8	96.31
310.03	111.31
310.26	107.31
310.49	89.31
310.72	103.31
310.949	120.31
311.179	134.31
311.409	102.31
311.639	98.31
311.868	101.31
312.098	97.31
312.328	99.31
312.557	105.31
312.787	130.31
313.017	109.31
313.246	104.31
313.476	86.31
313.706	94.31
313.935	115.31
314.165	101.31
314.394	129.31
314.624	130.31
314.853	93.31
315.083	92.31
315.312	108.31
315.542	88.31
315.771	96.31
316.001	87.31
316.23	87.31
316.46	91.31
316.689	84.31
316.919	97.31
317.148	112.31
317.377	92.31
317.607	92.31
317.836	76.31
318.065	100.31
318.295	88.31
318.524	86.31
318.753	86.31
318.983	109.31
319.212	97.31
319.441	121.31
319.67	130.31
319.9	85.31
320.129	82.31
320.358	94.31
320.587	99.31
320.816	103.31
321.046	103.31
321.275	103.31
321.504	107.31
321.733	97.31
321.962	110.31
322.191	93.31
322.42	99.31
322.649	127.31
322.878	134.31
323.108	158.31
323.337	131.31
323.566	157.31
323.795	191.31
324.024	253.31
324.253	517.31
324.482	1100.31
324.71	2301.31
324.939	3105.31
325.168	1135.31
325.397	330.31
325.626	169.31
325.855	157.31
326.084	136.31
326.313	167.31
326.542	184.31
326.77	294.31
326.999	614.31
327.228	1164.31
327.457	2210.31
327.686	1764.31
327.914	579.31
328.143	532.31
328.372	700.31
328.6	394.31
328.829	208.31
329.058	198.31
329.287	212.31
329.515	160.31
329.744	271.31
329.972	486.31
330.201	1007.31
330.43	1479.31
330.658	673.31
330.887	325.31
331.115	215.31
331.344	149.31
331.572	134.31
331.801	139.31
332.03	123.31
332.258	111.31
332.486	103.31
332.715	109.31
332.943	127.31
333.172	120.31
333.4	127.31
333.629	171.31
333.857	245.31
334.085	444.31
334.314	937.31
334.542	1798.31
334.771	1800.31
334.999	453.31
335.227	189.31
335.455	140.31
335.684	105.31
335.912	101.31
336.14	94.31
336.369	101.31
336.597	112.31
336.825	106.31
337.053	103.31
337.281	96.31
337.51	91.31
337.738	110.31
337.966	115.31
338.194	99.31
338.422	116.31
338.65	90.31
338.878	92.31
339.106	87.31
339.334	85.31
339.562	97.31
339.79	89.31
340.018	85.31
340.246	106.31
340.474	99.31
340.702	97.31
340.93	101.31
341.158	94.31
341.386	103.31
341.614	95.31
341.842	107.31
342.07	97.31
342.298	94.31
342.526	91.31
342.754	82.31
342.981	99.31
343.209	93.31
343.437	96.31
343.665	89.31
343.893	80.31
344.12	93.31
344.348	89.31
344.576	112.31
344.804	98.31
345.031	103.31
345.259	113.31
345.487	96.31
345.714	95.31
345.942	98.31
346.17	104.31
346.397	99.31
346.625	112.31
346.853	101.31
347.08	105.31
347.308	93.31
347.535	112.31
347.763	110.31
347.99	115.31
348.218	110.31
348.445	118.31
348.673	118.31
348.9	103.31
349.128	90.31
349.355	76.31
349.583	93.31
349.81	96.31
350.037	95.31
350.265	94.31
350.492	91.31
350.72	92.31
350.947	108.31
351.174	111.31
351.402	123.31
351.629	107.31
351.856	112.31
352.083	107.31
352.311	125.31
352.538	139.31
352.765	129.31
352.992	126.31
353.22	112.31
353.447	101.31
353.674	100.31
353.901	95.31
354.128	111.31
354.355	99.31
354.583	97.31
354.81	94.31
355.037	93.31
355.264	92.31
355.491	82.31
355.718	84.31
355.945	73.31
356.172	101.31
356.399	97.31
356.626	86.31
356.853	87.31
357.08	93.31
357.307	88.31
357.534	98.31
357.761	99.31
357.988	109.31
358.215	101.31
358.441	88.31
358.668	86.31
358.895	100.31
359.122	109.31
359.349	83.31
359.576	84.31
359.802	127.31
360.029	150.31
360.256	139.31
360.483	120.31
360.709	88.31
360.936	95.31
361.163	95.31
361.39	98.31
361.616	100.31
361.843	95.31
362.07	113.31
362.296	118.31
362.523	109.31
362.749	106.31
362.976	89.31
363.203	95.31
363.429	93.31
363.656	90.31
363.882	92.31
364.109	89.31
364.335	91.31
364.562	97.31
364.788	103.31
365.015	98.31
365.241	102.31
365.468	120.31
365.694	110.31
365.92	102.31
366.147	91.31
366.373	87.31
366.599	99.31
366.826	92.31
367.052	91.31
367.278	83.31
367.505	90.31
367.731	99.31
367.957	94.31
368.184	82.31
368.41	100.31
368.636	136.31
368.862	128.31
369.089	96.31
369.315	120.31
369.541	89.31
369.767	91.31
369.993	87.31
370.219	94.31
370.445	80.31
370.672	83.31
370.898	84.31
371.124	82.31
371.35	90.31
371.576	94.31
371.802	98.31
372.028	90.31
372.254	93.31
372.48	75.31
372.706	84.31
372.932	83.31
373.158	92.31
373.384	80.31
373.61	85.31
373.835	91.31
374.061	86.31
374.287	79.31
374.513	87.31
374.739	93.31
374.965	86.31
375.191	86.31
375.416	79.31
375.642	97.31
375.868	95.31
376.094	85.31
376.319	90.31
376.545	91.31
376.771	74.31
376.997	103.31
377.222	80.31
377.448	81.31
377.674	89.31
377.899	81.31
378.125	85.31
378.35	93.31
378.576	95.31
378.802	75.31
379.027	84.31
379.253	91.31
379.478	81.31
379.704	91.31
379.929	97.31
380.155	96.31
380.38	89.31
380.606	111.31
380.831	91.31
381.057	92.31
381.282	95.31
381.507	94.31
381.733	95.31
381.958	100.31
382.184	95.31
382.409	99.31
382.634	100.31
382.86	91.31
383.085	85.31
383.31	112.31
383.535	94.31
383.761	76.31
383.986	87.31
384.211	73.31
384.436	92.31
384.662	102.31
384.887	86.31
385.112	85.31
385.337	107.31
385.562	83.31
385.787	100.31
386.013	100.31
386.238	120.31
386.463	119.31
386.688	112.31
386.913	108.31
387.138	109.31
387.363	102.31
387.588	88.31
387.813	91.31
388.038	104.31
388.263	111.31
388.488	99.31
388.713	78.31
388.938	87.31
389.163	87.31
389.387	92.31
389.612	95.31
389.837	88.31
390.062	94.31
390.287	98.31
390.512	92.31
390.736	91.31
390.961	75.31
391.186	81.31
391.411	84.31
391.636	92.31
391.86	80.31
392.085	83.31
392.31	82.31
392.534	81.31
392.759	86.31
392.984	84.31
393.208	88.31
393.433	81.31
393.658	89.31
393.882	80.31
394.107	76.31
394.331	85.31
394.556	72.31
394.78	93.31
395.005	84.31
395.229	91.31
395.454	91.31
395.678	81.31
395.903	82.31
396.127	97.31
396.352	77.31
396.576	95.31
396.801	89.31
397.025	74.31
397.249	91.31
397.474	81.31
397.698	80.31
397.922	88.31
398.147	91.31
398.371	85.31
398.595	64.31
398.82	80.31
399.044	82.31
399.268	75.31
399.492	69.31
399.717	81.31
399.941	89.31
400.165	86.31
400.389	89.31
400.613	88.31
400.837	89.31
401.062	90.31
401.286	98.31
401.51	96.31
401.734	105.31
401.958	118.31
402.182	159.31
402.406	205.31
402.63	164.31
402.854	99.31
403.078	84.31
403.302	81.31
403.526	84.31
403.75	94.31
403.974	93.31
404.198	89.31
404.422	87.31
404.645	91.31
404.869	103.31
405.093	122.31
405.317	147.31
405.541	145.31
405.765	126.31
405.988	145.31
406.212	227.31
406.436	356.31
406.66	216.31
406.883	135.31
407.107	109.31
407.331	93.31
407.555	127.31
407.778	103.31
408.002	101.31
408.226	99.31
408.449	92.31
408.673	90.31
408.896	91.31
409.12	109.31
409.344	94.31
409.567	104.31
409.791	97.31
410.014	88.31
410.238	83.31
410.461	100.31
410.685	91.31
410.908	107.31
411.132	108.31
411.355	96.31
411.578	97.31
411.802	90.31
412.025	89.31
412.249	105.31
412.472	134.31
412.695	156.31
412.919	112.31
413.142	107.31
413.365	92.31
413.589	88.31
413.812	89.31
414.035	89.31
414.258	92.31
414.482	78.31
414.705	83.31
414.928	88.31
415.151	87.31
415.374	82.31
415.597	92.31
415.821	100.31
416.044	90.31
416.267	94.31
416.49	81.31
416.713	95.31
416.936	88.31
417.159	91.31
417.382	97.31
417.605	113.31
417.828	111.31
418.051	94.31
418.274	88.31
418.497	91.31
418.72	86.31
418.943	86.31
419.166	94.31
419.389	102.31
419.611	101.31
419.834	91.31
420.057	103.31
420.28	95.31
420.503	101.31
420.726	92.31
420.948	90.31
421.171	115.31
421.394	102.31
421.617	86.31
421.839	85.31
422.062	102.31
422.285	93.31
422.507	111.31
422.73	107.31
422.953	98.31
423.175	106.31
423.398	93.31
423.621	100.31
423.843	81.31
424.066	97.31
424.288	81.31
424.511	94.31
424.733	97.31
424.956	130.31
425.178	89.31
425.401	97.31
425.623	127.31
425.846	89.31
426.068	107.31
426.291	107.31
426.513	97.31
426.735	96.31
426.958	99.31
427.18	135.31
427.402	199.31
427.625	286.31
427.847	225.31
428.069	223.31
428.292	133.31
428.514	104.31
428.736	90.31
428.958	85.31
429.181	72.31
429.403	72.31
429.625	102.31
429.847	117.31
430.069	133.31
430.292	113.31
430.514	87.31
430.736	78.31
430.958	92.31
431.18	95.31
431.402	83.31
431.624	80.31
431.846	88.31
432.068	89.31
432.29	83.31
432.512	90.31
432.734	93.31
432.956	78.31
433.178	97.31
433.4	96.31
433.622	94.31
433.844	77.31
434.066	98.31
434.287	88.31
434.509	107.31
434.731	102.31
434.953	92.31
435.175	85.31
435.397	81.31
435.618	87.31
435.84	97.31
436.062	150.31
436.284	139.31
436.505	110.31
436.727	97.31
436.949	103.31
437.17	80.31
437.392	83.31
437.614	89.31
437.835	128.31
438.057	159.31
438.278	145.31
438.5	125.31
438.721	139.31
438.943	118.31
439.165	87.31
439.386	85.31
439.608	87.31
439.829	121.31
440.05	162.31
440.272	211.31
440.493	126.31
440.715	95.31
440.936	96.31
441.158	92.31
441.379	88.31
441.6	96.31
441.822	100.31
442.043	111.31
442.264	127.31
442.486	125.31
442.707	101.31
442.928	118.31
443.149	177.31
443.371	180.31
443.592	153.31
443.813	137.31
444.034	137.31
444.255	89.31
444.476	88.31
444.698	89.31
444.919	101.31
445.14	133.31
445.361	133.31
445.582	156.31
445.803	200.31
446.024	181.31
446.245	174.31
446.466	134.31
446.687	100.31
446.908	92.31
447.129	83.31
447.35	94.31
447.571	99.31
447.792	105.31
448.013	104.31
448.234	122.31
448.455	102.31
448.675	131.31
448.896	159.31
449.117	115.31
449.338	131.31
449.559	165.31
449.779	173.31
450	108.31
450.221	88.31
450.442	99.31
450.662	115.31
450.883	138.31
451.104	125.31
451.324	92.31
451.545	93.31
451.766	93.31
451.986	80.31
452.207	73.31
452.428	85.31
452.648	107.31
452.869	137.31
453.089	146.31
453.31	156.31
453.53	101.31
453.751	92.31
453.971	127.31
454.192	151.31
454.412	114.31
454.633	91.31
454.853	80.31
455.073	90.31
455.294	100.31
455.514	120.31
455.734	84.31
455.955	86.31
456.175	83.31
456.395	76.31
456.616	88.31
456.836	97.31
457.056	74.31
457.276	93.31
457.497	84.31
457.717	98.31
457.937	83.31
458.157	94.31
458.377	101.31
458.598	139.31
458.818	213.31
459.038	249.31
459.258	170.31
459.478	102.31
459.698	89.31
459.918	86.31
460.138	88.31
460.358	77.31
460.578	85.31
460.798	98.31
461.018	77.31
461.238	81.31
461.458	97.31
461.678	76.31
461.898	83.31
462.118	81.31
462.338	86.31
462.558	85.31
462.777	85.31
462.997	104.31
463.217	115.31
463.437	90.31
463.657	90.31
463.876	88.31
464.096	105.31
464.316	99.31
464.536	96.31
464.755	99.31
464.975	116.31
465.195	257.31
465.414	261.31
465.634	94.31
465.854	103.31
466.073	99.31
466.293	89.31
466.512	91.31
466.732	96.31
466.951	103.31
467.171	90.31
467.391	112.31
467.61	150.31
467.829	219.31
468.049	555.31
468.268	872.31
468.488	242.31
468.707	108.31
468.927	102.31
469.146	109.31
469.365	79.31
469.585	118.31
469.804	110.31
470.023	104.31
470.243	115.31
470.462	135.31
470.681	152.31
470.901	100.31
471.12	98.31
471.339	105.31
471.558	125.31
471.777	162.31
471.997	269.31
472.216	1037.31
472.435	2576.31
472.654	619.31
472.873	164.31
473.092	115.31
473.311	94.31
473.53	101.31
473.749	98.31
473.968	114.31
474.187	127.31
474.406	119.31
474.625	89.31
474.844	104.31
475.063	82.31
475.282	85.31
475.501	89.31
475.72	92.31
475.939	91.31
476.158	86.31
476.377	69.31
476.596	95.31
476.814	86.31
477.033	103.31
477.252	93.31
477.471	100.31
477.69	99.31
477.908	102.31
478.127	101.31
478.346	94.31
478.564	98.31
478.783	104.31
479.002	97.31
479.22	104.31
479.439	129.31
479.658	126.31
479.876	135.31
480.095	125.31
480.313	140.31
480.532	171.31
480.751	283.31
480.969	947.31
481.188	4132.31
481.406	2600.31
481.624	377.31
481.843	134.31
482.061	99.31
482.28	76.31
482.498	92.31
482.717	95.31
482.935	80.31
483.153	91.31
483.372	89.31
483.59	82.31
483.808	104.31
484.027	95.31
484.245	91.31
484.463	95.31
484.681	111.31
484.9	98.31
485.118	89.31
485.336	93.31
485.554	101.31
485.772	107.31
485.99	90.31
486.209	85.31
486.427	115.31
486.645	97.31
486.863	134.31
487.081	120.31
487.299	128.31
487.517	100.31
487.735	98.31
487.953	94.31
488.171	85.31
488.389	87.31
488.607	104.31
488.825	83.31
489.043	92.31
489.261	88.31
489.479	96.31
489.696	95.31
489.914	98.31
490.132	105.31
490.35	88.31
490.568	84.31
490.786	86.31
491.003	98.31
491.221	104.31
491.439	92.31
491.657	104.31
491.874	97.31
492.092	87.31
492.31	95.31
492.527	108.31
492.745	96.31
492.963	101.31
493.18	87.31
493.398	80.31
493.615	93.31
493.833	98.31
494.05	103.31
494.268	87.31
494.485	108.31
494.703	91.31
494.92	102.31
495.138	84.31
495.355	82.31
495.573	92.31
495.79	87.31
496.008	100.31
496.225	105.31
496.442	83.31
496.66	91.31
496.877	97.31
497.094	89.31
497.312	81.31
497.529	98.31
497.746	91.31
497.963	79.31
498.181	100.31
498.398	102.31
498.615	125.31
498.832	111.31
499.049	82.31
499.267	87.31
499.484	80.31
499.701	100.31
499.918	97.31
500.135	85.31
500.352	86.31
500.569	100.31
500.786	90.31
501.003	88.31
501.22	78.31
501.437	86.31
501.654	97.31
501.871	144.31
502.088	95.31
502.305	93.31
502.522	102.31
502.739	94.31
502.956	88.31
503.172	96.31
503.389	111.31
503.606	120.31
503.823	111.31
504.04	96.31
504.256	102.31
504.473	94.31
504.69	96.31
504.907	96.31
505.123	82.31
505.34	107.31
505.557	96.31
505.773	96.31
505.99	93.31
506.207	82.31
506.423	80.31
506.64	76.31
506.856	84.31
507.073	91.31
507.289	87.31
507.506	100.31
507.722	134.31
507.939	146.31
508.155	120.31
508.372	111.31
508.588	110.31
508.805	118.31
509.021	105.31
509.238	100.31
509.454	91.31
509.67	121.31
509.887	133.31
510.103	149.31
510.319	264.31
510.536	984.31
510.752	3544.31
510.968	995.31
511.184	194.31
511.401	135.31
511.617	123.31
511.833	102.31
512.049	109.31
512.265	98.31
512.481	87.31
512.698	95.31
512.914	97.31
513.13	100.31
