Data from Circ_2023_H10_HRD10591_00063.txt Node
Date: Wed Jan 03 09:50:43 EST 2024
User: Yrep
Spectrometer: HR+D1059
Trigger mode: 1
Integration Time (sec): 1.000000E-1
Scans to average: 1
Electric dark correction enabled: true
Nonlinearity correction enabled: false
Boxcar width: 0
XAxis mode: Wavelengths
Number of Pixels in Spectrum: 2048
>>>>>Begin Spectral Data<<<<<
223.165	-20.88
223.4	-20.88
223.635	-20.88
223.869	-23.88
224.104	-26.88
224.338	0.12
224.573	-11.88
224.808	-15.88
225.042	5.12
225.277	-5.88
225.511	-5.88
225.746	-2.88
225.98	6.12
226.215	-1.88
226.449	5.12
226.683	31.12
226.918	36.12
227.152	32.12
227.387	34.12
227.621	32.12
227.856	33.12
228.09	37.12
228.324	35.12
228.559	55.12
228.793	74.12
229.027	72.12
229.262	61.12
229.496	79.12
229.73	95.12
229.964	103.12
230.199	71.12
230.433	72.12
230.667	82.12
230.901	84.12
231.136	76.12
231.37	83.12
231.604	88.12
231.838	95.12
232.072	83.12
232.306	67.12
232.541	84.12
232.775	88.12
233.009	84.12
233.243	78.12
233.477	82.12
233.711	75.12
233.945	70.12
234.179	75.12
234.413	68.12
234.647	79.12
234.881	94.12
235.115	85.12
235.349	88.12
235.583	80.12
235.817	86.12
236.051	75.12
236.285	88.12
236.519	84.12
236.753	88.12
236.987	87.12
237.221	88.12
237.455	104.12
237.689	72.12
237.922	86.12
238.156	83.12
238.39	73.12
238.624	73.12
238.858	60.12
239.091	87.12
239.325	84.12
239.559	97.12
239.793	90.12
240.027	94.12
240.26	88.12
240.494	81.12
240.728	92.12
240.961	91.12
241.195	80.12
241.429	67.12
241.662	69.12
241.896	85.12
242.13	76.12
242.363	62.12
242.597	74.12
242.83	69.12
243.064	86.12
243.298	79.12
243.531	88.12
243.765	83.12
243.998	87.12
244.232	83.12
244.465	85.12
244.699	92.12
244.932	80.12
245.166	103.12
245.399	85.12
245.633	79.12
245.866	91.12
246.099	90.12
246.333	92.12
246.566	80.12
246.8	67.12
247.033	72.12
247.266	81.12
247.5	73.12
247.733	81.12
247.966	94.12
248.2	95.12
248.433	79.12
248.666	79.12
248.899	96.12
249.133	87.12
249.366	102.12
249.599	116.12
249.832	95.12
250.066	72.12
250.299	89.12
250.532	91.12
250.765	93.12
250.998	88.12
251.231	66.12
251.465	89.12
251.698	95.12
251.931	91.12
252.164	75.12
252.397	86.12
252.63	78.12
252.863	91.12
253.096	83.12
253.329	84.12
253.562	83.12
253.795	91.12
254.028	81.12
254.261	79.12
254.494	91.12
254.727	87.12
254.96	95.12
255.193	84.12
255.426	76.12
255.659	85.12
255.892	103.12
256.124	100.12
256.357	89.12
256.59	85.12
256.823	103.12
257.056	79.12
257.289	75.12
257.521	94.12
257.754	76.12
257.987	91.12
258.22	97.12
258.452	110.12
258.685	94.12
258.918	96.12
259.151	76.12
259.383	83.12
259.616	82.12
259.849	81.12
260.081	84.12
260.314	94.12
260.547	91.12
260.779	107.12
261.012	117.12
261.244	119.12
261.477	102.12
261.71	113.12
261.942	130.12
262.175	155.12
262.407	92.12
262.64	86.12
262.872	85.12
263.105	89.12
263.337	91.12
263.57	84.12
263.802	73.12
264.035	61.12
264.267	80.12
264.499	84.12
264.732	92.12
264.964	94.12
265.197	87.12
265.429	83.12
265.661	87.12
265.894	92.12
266.126	79.12
266.358	94.12
266.591	82.12
266.823	74.12
267.055	82.12
267.287	86.12
267.52	89.12
267.752	87.12
267.984	83.12
268.216	87.12
268.448	98.12
268.681	84.12
268.913	95.12
269.145	93.12
269.377	98.12
269.609	86.12
269.841	78.12
270.073	85.12
270.306	85.12
270.538	100.12
270.77	90.12
271.002	78.12
271.234	85.12
271.466	93.12
271.698	99.12
271.93	85.12
272.162	78.12
272.394	85.12
272.626	87.12
272.858	97.12
273.09	84.12
273.322	90.12
273.553	85.12
273.785	95.12
274.017	105.12
274.249	82.12
274.481	70.12
274.713	89.12
274.945	92.12
275.176	96.12
275.408	114.12
275.64	126.12
275.872	134.12
276.104	117.12
276.335	110.12
276.567	132.12
276.799	176.12
277.031	207.12
277.262	249.12
277.494	191.12
277.726	112.12
277.957	91.12
278.189	99.12
278.421	90.12
278.652	96.12
278.884	90.12
279.115	97.12
279.347	93.12
279.579	126.12
279.81	152.12
280.042	240.12
280.273	324.12
280.505	206.12
280.736	103.12
280.968	98.12
281.199	100.12
281.431	103.12
281.662	92.12
281.894	81.12
282.125	114.12
282.356	135.12
282.588	180.12
282.819	137.12
283.051	111.12
283.282	82.12
283.513	90.12
283.745	98.12
283.976	83.12
284.207	86.12
284.439	81.12
284.67	94.12
284.901	87.12
285.132	92.12
285.364	79.12
285.595	84.12
285.826	90.12
286.057	95.12
286.288	91.12
286.52	81.12
286.751	87.12
286.982	92.12
287.213	88.12
287.444	72.12
287.675	90.12
287.906	94.12
288.138	99.12
288.369	98.12
288.6	98.12
288.831	84.12
289.062	102.12
289.293	94.12
289.524	88.12
289.755	101.12
289.986	88.12
290.217	74.12
290.448	97.12
290.679	100.12
290.91	94.12
291.141	98.12
291.371	80.12
291.602	90.12
291.833	90.12
292.064	88.12
292.295	87.12
292.526	91.12
292.757	90.12
292.987	91.12
293.218	89.12
293.449	91.12
293.68	90.12
293.91	87.12
294.141	97.12
294.372	105.12
294.603	100.12
294.833	100.12
295.064	92.12
295.295	89.12
295.525	114.12
295.756	96.12
295.987	134.12
296.217	175.12
296.448	164.12
296.679	104.12
296.909	83.12
297.14	80.12
297.37	91.12
297.601	83.12
297.831	105.12
298.062	86.12
298.292	92.12
298.523	87.12
298.753	93.12
298.984	96.12
299.214	87.12
299.445	102.12
299.675	98.12
299.905	116.12
300.136	82.12
300.366	111.12
300.597	88.12
300.827	96.12
301.057	119.12
301.288	110.12
301.518	87.12
301.748	96.12
301.979	116.12
302.209	100.12
302.439	90.12
302.669	95.12
302.9	87.12
303.13	104.12
303.36	113.12
303.59	146.12
303.82	171.12
304.051	112.12
304.281	82.12
304.511	94.12
304.741	83.12
304.971	87.12
305.201	102.12
305.431	97.12
305.661	91.12
305.891	97.12
306.121	99.12
306.352	123.12
306.582	122.12
306.812	125.12
307.042	132.12
307.272	185.12
307.502	220.12
307.731	195.12
307.961	131.12
308.191	115.12
308.421	110.12
308.651	94.12
308.881	95.12
309.111	97.12
309.341	96.12
309.571	115.12
309.8	121.12
310.03	118.12
310.26	107.12
310.49	107.12
310.72	123.12
310.949	130.12
311.179	115.12
311.409	99.12
311.639	111.12
311.868	103.12
312.098	100.12
312.328	111.12
312.557	121.12
312.787	139.12
313.017	113.12
313.246	92.12
313.476	99.12
313.706	103.12
313.935	100.12
314.165	118.12
314.394	118.12
314.624	98.12
314.853	99.12
315.083	108.12
315.312	109.12
315.542	90.12
315.771	93.12
316.001	91.12
316.23	95.12
316.46	97.12
316.689	94.12
316.919	80.12
317.148	99.12
317.377	111.12
317.607	110.12
317.836	105.12
318.065	90.12
318.295	97.12
318.524	96.12
318.753	91.12
318.983	98.12
319.212	110.12
319.441	124.12
319.67	121.12
319.9	96.12
320.129	95.12
320.358	91.12
320.587	96.12
320.816	121.12
321.046	115.12
321.275	111.12
321.504	106.12
321.733	101.12
321.962	108.12
322.191	112.12
322.42	134.12
322.649	126.12
322.878	130.12
323.108	151.12
323.337	152.12
323.566	155.12
323.795	197.12
324.024	256.12
324.253	534.12
324.482	1146.12
324.71	2326.12
324.939	3050.12
325.168	1132.12
325.397	298.12
325.626	182.12
325.855	154.12
326.084	138.12
326.313	161.12
326.542	191.12
326.77	284.12
326.999	592.12
327.228	1202.12
327.457	2184.12
327.686	1780.12
327.914	639.12
328.143	649.12
328.372	870.12
328.6	469.12
328.829	243.12
329.058	209.12
329.287	216.12
329.515	213.12
329.744	319.12
329.972	626.12
330.201	1301.12
330.43	1974.12
330.658	867.12
330.887	342.12
331.115	224.12
331.344	149.12
331.572	130.12
331.801	130.12
332.03	144.12
332.258	128.12
332.486	112.12
332.715	123.12
332.943	116.12
333.172	135.12
333.4	158.12
333.629	199.12
333.857	282.12
334.085	563.12
334.314	1187.12
334.542	2331.12
334.771	2272.12
334.999	551.12
335.227	208.12
335.455	148.12
335.684	133.12
335.912	120.12
336.14	123.12
336.369	115.12
336.597	104.12
336.825	125.12
337.053	104.12
337.281	94.12
337.51	99.12
337.738	96.12
337.966	105.12
338.194	99.12
338.422	114.12
338.65	99.12
338.878	104.12
339.106	99.12
339.334	95.12
339.562	106.12
339.79	103.12
340.018	106.12
340.246	113.12
340.474	110.12
340.702	116.12
340.93	91.12
341.158	104.12
341.386	105.12
341.614	113.12
341.842	117.12
342.07	106.12
342.298	107.12
342.526	75.12
342.754	82.12
342.981	96.12
343.209	77.12
343.437	94.12
343.665	102.12
343.893	85.12
344.12	95.12
344.348	102.12
344.576	98.12
344.804	112.12
345.031	105.12
345.259	120.12
345.487	115.12
345.714	112.12
345.942	101.12
346.17	100.12
346.397	105.12
346.625	98.12
346.853	94.12
347.08	94.12
347.308	104.12
347.535	117.12
347.763	126.12
347.99	115.12
348.218	127.12
348.445	130.12
348.673	118.12
348.9	101.12
349.128	96.12
349.355	88.12
349.583	101.12
349.81	92.12
350.037	96.12
350.265	104.12
350.492	92.12
350.72	100.12
350.947	113.12
351.174	127.12
351.402	131.12
351.629	114.12
351.856	105.12
352.083	112.12
352.311	121.12
352.538	126.12
352.765	127.12
352.992	139.12
353.22	128.12
353.447	117.12
353.674	113.12
353.901	101.12
354.128	103.12
354.355	94.12
354.583	98.12
354.81	103.12
355.037	89.12
355.264	91.12
355.491	96.12
355.718	103.12
355.945	95.12
356.172	102.12
356.399	106.12
356.626	91.12
356.853	88.12
357.08	93.12
357.307	95.12
357.534	95.12
357.761	89.12
357.988	90.12
358.215	85.12
358.441	83.12
358.668	82.12
358.895	99.12
359.122	87.12
359.349	86.12
359.576	75.12
359.802	119.12
360.029	158.12
360.256	139.12
360.483	128.12
360.709	99.12
360.936	95.12
361.163	112.12
361.39	108.12
361.616	112.12
361.843	102.12
362.07	107.12
362.296	103.12
362.523	113.12
362.749	98.12
362.976	97.12
363.203	91.12
363.429	91.12
363.656	100.12
363.882	97.12
364.109	95.12
364.335	95.12
364.562	98.12
364.788	110.12
365.015	114.12
365.241	108.12
365.468	126.12
365.694	116.12
365.92	118.12
366.147	102.12
366.373	124.12
366.599	103.12
366.826	107.12
367.052	102.12
367.278	72.12
367.505	90.12
367.731	110.12
367.957	100.12
368.184	108.12
368.41	124.12
368.636	123.12
368.862	157.12
369.089	131.12
369.315	124.12
369.541	91.12
369.767	97.12
369.993	91.12
370.219	92.12
370.445	98.12
370.672	106.12
370.898	96.12
371.124	91.12
371.35	91.12
371.576	91.12
371.802	88.12
372.028	85.12
372.254	99.12
372.48	90.12
372.706	95.12
372.932	92.12
373.158	95.12
373.384	95.12
373.61	86.12
373.835	102.12
374.061	92.12
374.287	103.12
374.513	90.12
374.739	101.12
374.965	100.12
375.191	73.12
375.416	92.12
375.642	89.12
375.868	90.12
376.094	99.12
376.319	82.12
376.545	91.12
376.771	97.12
376.997	92.12
377.222	75.12
377.448	93.12
377.674	82.12
377.899	87.12
378.125	104.12
378.35	111.12
378.576	90.12
378.802	90.12
379.027	95.12
379.253	98.12
379.478	83.12
379.704	83.12
379.929	88.12
380.155	93.12
380.38	107.12
380.606	94.12
380.831	89.12
381.057	98.12
381.282	103.12
381.507	84.12
381.733	90.12
381.958	92.12
382.184	95.12
382.409	98.12
382.634	104.12
382.86	92.12
383.085	91.12
383.31	100.12
383.535	96.12
383.761	106.12
383.986	101.12
384.211	96.12
384.436	93.12
384.662	107.12
384.887	96.12
385.112	95.12
385.337	108.12
385.562	94.12
385.787	97.12
386.013	101.12
386.238	126.12
386.463	98.12
386.688	104.12
386.913	81.12
387.138	90.12
387.363	87.12
387.588	95.12
387.813	84.12
388.038	101.12
388.263	108.12
388.488	99.12
388.713	98.12
388.938	98.12
389.163	101.12
389.387	99.12
389.612	106.12
389.837	102.12
390.062	103.12
390.287	90.12
390.512	90.12
390.736	89.12
390.961	91.12
391.186	95.12
391.411	83.12
391.636	94.12
391.86	96.12
392.085	88.12
392.31	99.12
392.534	91.12
392.759	90.12
392.984	74.12
393.208	90.12
393.433	95.12
393.658	88.12
393.882	94.12
394.107	91.12
394.331	84.12
394.556	87.12
394.78	106.12
395.005	84.12
395.229	89.12
395.454	90.12
395.678	90.12
395.903	83.12
396.127	110.12
396.352	95.12
396.576	82.12
396.801	83.12
397.025	91.12
397.249	94.12
397.474	86.12
397.698	98.12
397.922	90.12
398.147	81.12
398.371	87.12
398.595	86.12
398.82	90.12
399.044	85.12
399.268	98.12
399.492	74.12
399.717	99.12
399.941	98.12
400.165	103.12
400.389	103.12
400.613	88.12
400.837	94.12
401.062	91.12
401.286	86.12
401.51	107.12
401.734	107.12
401.958	116.12
402.182	160.12
402.406	213.12
402.63	162.12
402.854	99.12
403.078	99.12
403.302	101.12
403.526	84.12
403.75	77.12
403.974	98.12
404.198	86.12
404.422	103.12
404.645	91.12
404.869	119.12
405.093	126.12
405.317	154.12
405.541	147.12
405.765	118.12
405.988	142.12
406.212	234.12
406.436	351.12
406.66	228.12
406.883	158.12
407.107	104.12
407.331	104.12
407.555	102.12
407.778	99.12
408.002	95.12
408.226	100.12
408.449	106.12
408.673	98.12
408.896	106.12
409.12	92.12
409.344	97.12
409.567	84.12
409.791	98.12
410.014	96.12
410.238	94.12
410.461	83.12
410.685	86.12
410.908	110.12
411.132	92.12
411.355	110.12
411.578	103.12
411.802	90.12
412.025	111.12
412.249	86.12
412.472	137.12
412.695	139.12
412.919	130.12
413.142	100.12
413.365	100.12
413.589	104.12
413.812	89.12
414.035	110.12
414.258	86.12
414.482	99.12
414.705	92.12
414.928	91.12
415.151	91.12
415.374	89.12
415.597	96.12
415.821	87.12
416.044	83.12
416.267	90.12
416.49	97.12
416.713	101.12
416.936	100.12
417.159	95.12
417.382	103.12
417.605	103.12
417.828	122.12
418.051	93.12
418.274	100.12
418.497	99.12
418.72	90.12
418.943	96.12
419.166	98.12
419.389	82.12
419.611	106.12
419.834	96.12
420.057	101.12
420.28	90.12
420.503	104.12
420.726	112.12
420.948	106.12
421.171	117.12
421.394	97.12
421.617	99.12
421.839	96.12
422.062	96.12
422.285	104.12
422.507	112.12
422.73	111.12
422.953	114.12
423.175	95.12
423.398	97.12
423.621	102.12
423.843	89.12
424.066	83.12
424.288	104.12
424.511	106.12
424.733	104.12
424.956	136.12
425.178	102.12
425.401	119.12
425.623	126.12
425.846	104.12
426.068	104.12
426.291	97.12
426.513	88.12
426.735	108.12
426.958	99.12
427.18	119.12
427.402	174.12
427.625	286.12
427.847	276.12
428.069	238.12
428.292	157.12
428.514	105.12
428.736	87.12
428.958	88.12
429.181	89.12
429.403	77.12
429.625	96.12
429.847	105.12
430.069	106.12
430.292	93.12
430.514	79.12
430.736	96.12
430.958	86.12
431.18	86.12
431.402	89.12
431.624	104.12
431.846	91.12
432.068	95.12
432.29	91.12
432.512	89.12
432.734	88.12
432.956	105.12
433.178	100.12
433.4	107.12
433.622	91.12
433.844	102.12
434.066	84.12
434.287	99.12
434.509	88.12
434.731	90.12
434.953	95.12
435.175	86.12
435.397	100.12
435.618	103.12
435.84	120.12
436.062	150.12
436.284	124.12
436.505	115.12
436.727	114.12
436.949	85.12
437.17	99.12
437.392	100.12
437.614	94.12
437.835	132.12
438.057	156.12
438.278	141.12
438.5	131.12
438.721	144.12
438.943	112.12
439.165	96.12
439.386	97.12
439.608	98.12
439.829	115.12
440.05	170.12
440.272	205.12
440.493	113.12
440.715	100.12
440.936	99.12
441.158	106.12
441.379	100.12
441.6	114.12
441.822	111.12
442.043	118.12
442.264	121.12
442.486	126.12
442.707	109.12
442.928	136.12
443.149	191.12
443.371	191.12
443.592	147.12
443.813	135.12
444.034	116.12
444.255	102.12
444.476	90.12
444.698	83.12
444.919	102.12
445.14	140.12
445.361	147.12
445.582	131.12
445.803	193.12
446.024	195.12
446.245	190.12
446.466	143.12
446.687	103.12
446.908	99.12
447.129	97.12
447.35	87.12
447.571	98.12
447.792	92.12
448.013	118.12
448.234	136.12
448.455	127.12
448.675	125.12
448.896	138.12
449.117	109.12
449.338	115.12
449.559	151.12
449.779	159.12
450	99.12
450.221	94.12
450.442	95.12
450.662	118.12
450.883	147.12
451.104	159.12
451.324	114.12
451.545	96.12
451.766	90.12
451.986	92.12
452.207	88.12
452.428	111.12
452.648	124.12
452.869	123.12
453.089	146.12
453.31	144.12
453.53	122.12
453.751	108.12
453.971	130.12
454.192	146.12
454.412	98.12
454.633	97.12
454.853	100.12
455.073	91.12
455.294	80.12
455.514	114.12
455.734	86.12
455.955	92.12
456.175	91.12
456.395	90.12
456.616	80.12
456.836	92.12
457.056	97.12
457.276	84.12
457.497	81.12
457.717	92.12
457.937	88.12
458.157	84.12
458.377	96.12
458.598	130.12
458.818	225.12
459.038	267.12
459.258	163.12
459.478	96.12
459.698	98.12
459.918	100.12
460.138	93.12
460.358	101.12
460.578	80.12
460.798	82.12
461.018	84.12
461.238	95.12
461.458	100.12
461.678	91.12
461.898	99.12
462.118	90.12
462.338	95.12
462.558	94.12
462.777	106.12
462.997	107.12
463.217	130.12
463.437	96.12
463.657	79.12
463.876	97.12
464.096	106.12
464.316	107.12
464.536	102.12
464.755	104.12
464.975	140.12
465.195	264.12
465.414	267.12
465.634	130.12
465.854	96.12
466.073	102.12
466.293	76.12
466.512	85.12
466.732	84.12
466.951	86.12
467.171	101.12
467.391	115.12
467.61	171.12
467.829	265.12
468.049	745.12
468.268	1151.12
468.488	293.12
468.707	139.12
468.927	108.12
469.146	90.12
469.365	91.12
469.585	81.12
469.804	104.12
470.023	112.12
470.243	104.12
470.462	136.12
470.681	138.12
470.901	118.12
471.12	111.12
471.339	114.12
471.558	144.12
471.777	197.12
471.997	358.12
472.216	1434.12
472.435	3442.12
472.654	783.12
472.873	201.12
473.092	104.12
473.311	110.12
473.53	104.12
473.749	101.12
473.968	112.12
474.187	119.12
474.406	110.12
474.625	97.12
474.844	97.12
475.063	84.12
475.282	99.12
475.501	101.12
475.72	90.12
475.939	99.12
476.158	86.12
476.377	100.12
476.596	89.12
476.814	98.12
477.033	117.12
477.252	87.12
477.471	101.12
477.69	87.12
477.908	111.12
478.127	108.12
478.346	96.12
478.564	98.12
478.783	118.12
479.002	128.12
479.22	110.12
479.439	129.12
479.658	149.12
479.876	138.12
480.095	131.12
480.313	158.12
480.532	198.12
480.751	337.12
480.969	1238.12
481.188	5564.12
481.406	3395.12
481.624	452.12
481.843	159.12
482.061	126.12
482.28	103.12
482.498	115.12
482.717	110.12
482.935	99.12
483.153	103.12
483.372	90.12
483.59	94.12
483.808	102.12
484.027	112.12
484.245	105.12
484.463	111.12
484.681	97.12
484.9	96.12
485.118	91.12
485.336	80.12
485.554	106.12
485.772	102.12
485.99	105.12
486.209	117.12
486.427	122.12
486.645	129.12
486.863	129.12
487.081	117.12
487.299	95.12
487.517	103.12
487.735	100.12
487.953	105.12
488.171	110.12
488.389	103.12
488.607	97.12
488.825	92.12
489.043	92.12
489.261	83.12
489.479	84.12
489.696	86.12
489.914	95.12
490.132	93.12
490.35	102.12
490.568	85.12
490.786	97.12
491.003	94.12
491.221	99.12
491.439	105.12
491.657	97.12
491.874	93.12
492.092	80.12
492.31	103.12
492.527	101.12
492.745	116.12
492.963	114.12
493.18	96.12
493.398	87.12
493.615	100.12
493.833	82.12
494.05	88.12
494.268	102.12
494.485	94.12
494.703	88.12
494.92	84.12
495.138	84.12
495.355	97.12
495.573	96.12
495.79	90.12
496.008	99.12
496.225	102.12
496.442	99.12
496.66	81.12
496.877	96.12
497.094	104.12
497.312	95.12
497.529	91.12
497.746	99.12
497.963	93.12
498.181	115.12
498.398	116.12
498.615	120.12
498.832	106.12
499.049	112.12
499.267	92.12
499.484	100.12
499.701	99.12
499.918	93.12
500.135	95.12
500.352	90.12
500.569	96.12
500.786	106.12
501.003	100.12
501.22	97.12
501.437	87.12
501.654	107.12
501.871	133.12
502.088	109.12
502.305	103.12
502.522	89.12
502.739	95.12
502.956	91.12
503.172	102.12
503.389	102.12
503.606	135.12
503.823	105.12
504.04	81.12
504.256	86.12
504.473	94.12
504.69	103.12
504.907	107.12
505.123	107.12
505.34	106.12
505.557	79.12
505.773	94.12
505.99	99.12
506.207	86.12
506.423	110.12
506.64	76.12
506.856	88.12
507.073	104.12
507.289	100.12
507.506	90.12
507.722	140.12
507.939	150.12
508.155	95.12
508.372	100.12
508.588	110.12
508.805	101.12
509.021	113.12
509.238	116.12
509.454	86.12
509.67	96.12
509.887	120.12
510.103	169.12
510.319	262.12
510.536	1045.12
510.752	3716.12
510.968	1006.12
511.184	218.12
511.401	139.12
511.617	114.12
