Data from Circ_2023_H10_HRD10591_00064.txt Node
Date: Wed Jan 03 09:50:43 EST 2024
User: Yrep
Spectrometer: HR+D1059
Trigger mode: 1
Integration Time (sec): 1.000000E-1
Scans to average: 1
Electric dark correction enabled: true
Nonlinearity correction enabled: false
Boxcar width: 0
XAxis mode: Wavelengths
Number of Pixels in Spectrum: 2048
>>>>>Begin Spectral Data<<<<<
223.165	-3.12
223.4	-3.12
223.635	-3.12
223.869	-14.12
224.104	-25.12
224.338	-18.12
224.573	-24.12
224.808	-22.12
225.042	-7.12
225.277	-4.12
225.511	-4.12
225.746	2.88
225.98	3.88
226.215	-4.12
226.449	16.88
226.683	29.88
226.918	45.88
227.152	26.88
227.387	35.88
227.621	23.88
227.856	51.88
228.09	37.88
228.324	46.88
228.559	47.88
228.793	50.88
229.027	75.88
229.262	67.88
229.496	76.88
229.73	105.88
229.964	83.88
230.199	74.88
230.433	86.88
230.667	85.88
230.901	71.88
231.136	84.88
231.37	84.88
231.604	98.88
231.838	77.88
232.072	85.88
232.306	79.88
232.541	69.88
232.775	64.88
233.009	88.88
233.243	84.88
233.477	77.88
233.711	65.88
233.945	76.88
234.179	87.88
234.413	86.88
234.647	76.88
234.881	85.88
235.115	74.88
235.349	83.88
235.583	73.88
235.817	85.88
236.051	71.88
236.285	78.88
236.519	93.88
236.753	87.88
236.987	86.88
237.221	105.88
237.455	99.88
237.689	84.88
237.922	95.88
238.156	73.88
238.39	83.88
238.624	83.88
238.858	66.88
239.091	81.88
239.325	74.88
239.559	76.88
239.793	79.88
240.027	87.88
240.26	78.88
240.494	69.88
240.728	74.88
240.961	85.88
241.195	72.88
241.429	88.88
241.662	80.88
241.896	81.88
242.13	85.88
242.363	71.88
242.597	78.88
242.83	69.88
243.064	77.88
243.298	68.88
243.531	76.88
243.765	77.88
243.998	86.88
244.232	81.88
244.465	83.88
244.699	93.88
244.932	75.88
245.166	101.88
245.399	79.88
245.633	82.88
245.866	93.88
246.099	81.88
246.333	78.88
246.566	91.88
246.8	92.88
247.033	86.88
247.266	83.88
247.5	79.88
247.733	80.88
247.966	88.88
248.2	75.88
248.433	88.88
248.666	88.88
248.899	85.88
249.133	89.88
249.366	123.88
249.599	87.88
249.832	59.88
250.066	88.88
250.299	80.88
250.532	76.88
250.765	84.88
250.998	87.88
251.231	76.88
251.465	87.88
251.698	75.88
251.931	77.88
252.164	82.88
252.397	92.88
252.63	87.88
252.863	73.88
253.096	89.88
253.329	89.88
253.562	77.88
253.795	81.88
254.028	79.88
254.261	81.88
254.494	80.88
254.727	79.88
254.96	96.88
255.193	84.88
255.426	82.88
255.659	88.88
255.892	86.88
256.124	106.88
256.357	92.88
256.59	85.88
256.823	79.88
257.056	83.88
257.289	90.88
257.521	78.88
257.754	101.88
257.987	87.88
258.22	99.88
258.452	95.88
258.685	103.88
258.918	88.88
259.151	77.88
259.383	86.88
259.616	74.88
259.849	84.88
260.081	75.88
260.314	75.88
260.547	86.88
260.779	96.88
261.012	105.88
261.244	98.88
261.477	104.88
261.71	88.88
261.942	122.88
262.175	129.88
262.407	97.88
262.64	99.88
262.872	73.88
263.105	75.88
263.337	85.88
263.57	86.88
263.802	83.88
264.035	72.88
264.267	89.88
264.499	87.88
264.732	80.88
264.964	76.88
265.197	76.88
265.429	84.88
265.661	61.88
265.894	98.88
266.126	79.88
266.358	78.88
266.591	98.88
266.823	88.88
267.055	93.88
267.287	98.88
267.52	96.88
267.752	83.88
267.984	94.88
268.216	77.88
268.448	96.88
268.681	82.88
268.913	85.88
269.145	86.88
269.377	86.88
269.609	74.88
269.841	68.88
270.073	82.88
270.306	96.88
270.538	94.88
270.77	95.88
271.002	81.88
271.234	97.88
271.466	93.88
271.698	95.88
271.93	79.88
272.162	98.88
272.394	89.88
272.626	86.88
272.858	82.88
273.09	95.88
273.322	83.88
273.553	86.88
273.785	80.88
274.017	95.88
274.249	105.88
274.481	106.88
274.713	80.88
274.945	85.88
275.176	93.88
275.408	103.88
275.64	93.88
275.872	132.88
276.104	112.88
276.335	104.88
276.567	117.88
276.799	137.88
277.031	165.88
277.262	197.88
277.494	153.88
277.726	109.88
277.957	93.88
278.189	99.88
278.421	91.88
278.652	101.88
278.884	91.88
279.115	103.88
279.347	97.88
279.579	99.88
279.81	122.88
280.042	187.88
280.273	262.88
280.505	178.88
280.736	127.88
280.968	93.88
281.199	82.88
281.431	86.88
281.662	99.88
281.894	106.88
282.125	101.88
282.356	133.88
282.588	187.88
282.819	128.88
283.051	103.88
283.282	90.88
283.513	86.88
283.745	97.88
283.976	81.88
284.207	73.88
284.439	98.88
284.67	92.88
284.901	91.88
285.132	84.88
285.364	82.88
285.595	89.88
285.826	83.88
286.057	99.88
286.288	77.88
286.52	91.88
286.751	95.88
286.982	95.88
287.213	80.88
287.444	85.88
287.675	94.88
287.906	94.88
288.138	112.88
288.369	86.88
288.6	96.88
288.831	75.88
289.062	94.88
289.293	86.88
289.524	90.88
289.755	86.88
289.986	93.88
290.217	106.88
290.448	83.88
290.679	94.88
290.91	93.88
291.141	89.88
291.371	94.88
291.602	90.88
291.833	74.88
292.064	70.88
292.295	99.88
292.526	90.88
292.757	101.88
292.987	89.88
293.218	87.88
293.449	85.88
293.68	79.88
293.91	95.88
294.141	100.88
294.372	94.88
294.603	84.88
294.833	79.88
295.064	93.88
295.295	81.88
295.525	90.88
295.756	131.88
295.987	113.88
296.217	166.88
296.448	147.88
296.679	102.88
296.909	101.88
297.14	97.88
297.37	86.88
297.601	79.88
297.831	115.88
298.062	74.88
298.292	87.88
298.523	85.88
298.753	104.88
298.984	94.88
299.214	80.88
299.445	91.88
299.675	91.88
299.905	91.88
300.136	87.88
300.366	73.88
300.597	87.88
300.827	97.88
301.057	101.88
301.288	100.88
301.518	101.88
301.748	90.88
301.979	104.88
302.209	88.88
302.439	95.88
302.669	95.88
302.9	89.88
303.13	98.88
303.36	109.88
303.59	147.88
303.82	137.88
304.051	104.88
304.281	101.88
304.511	107.88
304.741	93.88
304.971	98.88
305.201	89.88
305.431	89.88
305.661	89.88
305.891	74.88
306.121	102.88
306.352	97.88
306.582	117.88
306.812	112.88
307.042	128.88
307.272	170.88
307.502	176.88
307.731	158.88
307.961	135.88
308.191	100.88
308.421	87.88
308.651	98.88
308.881	93.88
309.111	94.88
309.341	92.88
309.571	96.88
309.8	84.88
310.03	84.88
310.26	93.88
310.49	102.88
310.72	111.88
310.949	125.88
311.179	116.88
311.409	112.88
311.639	82.88
311.868	101.88
312.098	120.88
312.328	100.88
312.557	106.88
312.787	113.88
313.017	88.88
313.246	95.88
313.476	99.88
313.706	91.88
313.935	100.88
314.165	111.88
314.394	118.88
314.624	107.88
314.853	108.88
315.083	108.88
315.312	80.88
315.542	90.88
315.771	92.88
316.001	101.88
316.23	87.88
316.46	91.88
316.689	86.88
316.919	101.88
317.148	114.88
317.377	99.88
317.607	99.88
317.836	94.88
318.065	86.88
318.295	89.88
318.524	87.88
318.753	99.88
318.983	93.88
319.212	103.88
319.441	117.88
319.67	105.88
319.9	87.88
320.129	104.88
320.358	97.88
320.587	97.88
320.816	89.88
321.046	101.88
321.275	87.88
321.504	101.88
321.733	101.88
321.962	120.88
322.191	117.88
322.42	114.88
322.649	125.88
322.878	133.88
323.108	122.88
323.337	114.88
323.566	146.88
323.795	175.88
324.024	227.88
324.253	420.88
324.482	919.88
324.71	1788.88
324.939	2329.88
325.168	897.88
325.397	278.88
325.626	173.88
325.855	137.88
326.084	140.88
326.313	145.88
326.542	169.88
326.77	235.88
326.999	483.88
327.228	949.88
327.457	1698.88
327.686	1372.88
327.914	509.88
328.143	506.88
328.372	702.88
328.6	377.88
328.829	198.88
329.058	178.88
329.287	199.88
329.515	181.88
329.744	250.88
329.972	499.88
330.201	970.88
330.43	1431.88
330.658	650.88
330.887	270.88
331.115	191.88
331.344	134.88
331.572	104.88
331.801	132.88
332.03	125.88
332.258	121.88
332.486	113.88
332.715	116.88
332.943	112.88
333.172	118.88
333.4	123.88
333.629	150.88
333.857	229.88
334.085	435.88
334.314	893.88
334.542	1789.88
334.771	1690.88
334.999	449.88
335.227	176.88
335.455	129.88
335.684	100.88
335.912	109.88
336.14	103.88
336.369	111.88
336.597	101.88
336.825	116.88
337.053	107.88
337.281	95.88
337.51	101.88
337.738	107.88
337.966	100.88
338.194	111.88
338.422	90.88
338.65	78.88
338.878	98.88
339.106	91.88
339.334	102.88
339.562	85.88
339.79	98.88
340.018	98.88
340.246	83.88
340.474	97.88
340.702	96.88
340.93	96.88
341.158	100.88
341.386	103.88
341.614	104.88
341.842	98.88
342.07	99.88
342.298	86.88
342.526	98.88
342.754	89.88
342.981	86.88
343.209	93.88
343.437	93.88
343.665	79.88
343.893	97.88
344.12	90.88
344.348	98.88
344.576	98.88
344.804	97.88
345.031	91.88
345.259	96.88
345.487	102.88
345.714	88.88
345.942	92.88
346.17	88.88
346.397	98.88
346.625	94.88
346.853	104.88
347.08	89.88
347.308	97.88
347.535	106.88
347.763	126.88
347.99	99.88
348.218	112.88
348.445	113.88
348.673	117.88
348.9	101.88
349.128	97.88
349.355	84.88
349.583	92.88
349.81	82.88
350.037	96.88
350.265	93.88
350.492	95.88
350.72	90.88
350.947	102.88
351.174	118.88
351.402	133.88
351.629	121.88
351.856	106.88
352.083	112.88
352.311	118.88
352.538	110.88
352.765	115.88
352.992	126.88
353.22	116.88
353.447	116.88
353.674	111.88
353.901	89.88
354.128	102.88
354.355	93.88
354.583	80.88
354.81	94.88
355.037	100.88
355.264	104.88
355.491	110.88
355.718	87.88
355.945	105.88
356.172	99.88
356.399	94.88
356.626	104.88
356.853	96.88
357.08	86.88
357.307	87.88
357.534	80.88
357.761	81.88
357.988	85.88
358.215	93.88
358.441	75.88
358.668	83.88
358.895	94.88
359.122	87.88
359.349	90.88
359.576	90.88
359.802	106.88
360.029	135.88
360.256	127.88
360.483	122.88
360.709	94.88
360.936	110.88
361.163	101.88
361.39	92.88
361.616	100.88
361.843	84.88
362.07	105.88
362.296	99.88
362.523	101.88
362.749	96.88
362.976	104.88
363.203	93.88
363.429	88.88
363.656	89.88
363.882	83.88
364.109	102.88
364.335	93.88
364.562	91.88
364.788	93.88
365.015	103.88
365.241	106.88
365.468	122.88
365.694	114.88
365.92	105.88
366.147	97.88
366.373	100.88
366.599	83.88
366.826	93.88
367.052	96.88
367.278	103.88
367.505	104.88
367.731	87.88
367.957	86.88
368.184	85.88
368.41	105.88
368.636	130.88
368.862	122.88
369.089	120.88
369.315	108.88
369.541	93.88
369.767	98.88
369.993	98.88
370.219	85.88
370.445	93.88
370.672	83.88
370.898	94.88
371.124	87.88
371.35	99.88
371.576	92.88
371.802	96.88
372.028	101.88
372.254	87.88
372.48	90.88
372.706	93.88
372.932	89.88
373.158	95.88
373.384	82.88
373.61	101.88
373.835	83.88
374.061	92.88
374.287	100.88
374.513	75.88
374.739	95.88
374.965	98.88
375.191	84.88
375.416	99.88
375.642	81.88
375.868	103.88
376.094	110.88
376.319	88.88
376.545	96.88
376.771	77.88
376.997	67.88
377.222	84.88
377.448	78.88
377.674	75.88
377.899	82.88
378.125	100.88
378.35	83.88
378.576	91.88
378.802	99.88
379.027	112.88
379.253	101.88
379.478	82.88
379.704	83.88
379.929	93.88
380.155	83.88
380.38	95.88
380.606	91.88
380.831	96.88
381.057	89.88
381.282	90.88
381.507	90.88
381.733	92.88
381.958	80.88
382.184	87.88
382.409	101.88
382.634	94.88
382.86	101.88
383.085	97.88
383.31	107.88
383.535	114.88
383.761	90.88
383.986	89.88
384.211	95.88
384.436	89.88
384.662	98.88
384.887	98.88
385.112	100.88
385.337	101.88
385.562	97.88
385.787	103.88
386.013	113.88
386.238	116.88
386.463	93.88
386.688	98.88
386.913	97.88
387.138	93.88
387.363	88.88
387.588	100.88
387.813	97.88
388.038	103.88
388.263	99.88
388.488	88.88
388.713	104.88
388.938	98.88
389.163	99.88
389.387	104.88
389.612	97.88
389.837	88.88
390.062	83.88
390.287	97.88
390.512	96.88
390.736	87.88
390.961	102.88
391.186	98.88
391.411	100.88
391.636	97.88
391.86	91.88
392.085	85.88
392.31	80.88
392.534	88.88
392.759	83.88
392.984	84.88
393.208	88.88
393.433	97.88
393.658	89.88
393.882	76.88
394.107	81.88
394.331	84.88
394.556	99.88
394.78	87.88
395.005	88.88
395.229	86.88
395.454	92.88
395.678	83.88
395.903	93.88
396.127	85.88
396.352	96.88
396.576	78.88
396.801	82.88
397.025	79.88
397.249	93.88
397.474	94.88
397.698	84.88
397.922	84.88
398.147	94.88
398.371	81.88
398.595	87.88
398.82	85.88
399.044	91.88
399.268	84.88
399.492	82.88
399.717	90.88
399.941	89.88
400.165	100.88
400.389	93.88
400.613	87.88
400.837	74.88
401.062	107.88
401.286	93.88
401.51	104.88
401.734	87.88
401.958	109.88
402.182	129.88
402.406	181.88
402.63	136.88
402.854	104.88
403.078	104.88
403.302	77.88
403.526	84.88
403.75	91.88
403.974	90.88
404.198	91.88
404.422	100.88
404.645	119.88
404.869	96.88
405.093	113.88
405.317	132.88
405.541	152.88
405.765	106.88
405.988	130.88
406.212	191.88
406.436	285.88
406.66	185.88
406.883	107.88
407.107	102.88
407.331	112.88
407.555	113.88
407.778	110.88
408.002	96.88
408.226	83.88
408.449	93.88
408.673	92.88
408.896	96.88
409.12	108.88
409.344	101.88
409.567	85.88
409.791	88.88
410.014	102.88
410.238	103.88
410.461	101.88
410.685	106.88
410.908	90.88
411.132	97.88
411.355	106.88
411.578	95.88
411.802	93.88
412.025	100.88
412.249	96.88
412.472	115.88
412.695	131.88
412.919	118.88
413.142	96.88
413.365	78.88
413.589	84.88
413.812	86.88
414.035	81.88
414.258	96.88
414.482	86.88
414.705	88.88
414.928	79.88
415.151	96.88
415.374	98.88
415.597	88.88
415.821	92.88
416.044	89.88
416.267	107.88
416.49	89.88
416.713	98.88
416.936	86.88
417.159	87.88
417.382	97.88
417.605	102.88
417.828	109.88
418.051	112.88
418.274	98.88
418.497	92.88
418.72	83.88
418.943	82.88
419.166	89.88
419.389	90.88
419.611	85.88
419.834	104.88
420.057	106.88
420.28	114.88
420.503	110.88
420.726	106.88
420.948	97.88
421.171	105.88
421.394	103.88
421.617	90.88
421.839	86.88
422.062	89.88
422.285	98.88
422.507	103.88
422.73	94.88
422.953	107.88
423.175	93.88
423.398	89.88
423.621	84.88
423.843	86.88
424.066	84.88
424.288	97.88
424.511	104.88
424.733	106.88
424.956	121.88
425.178	100.88
425.401	119.88
425.623	102.88
425.846	114.88
426.068	93.88
426.291	94.88
426.513	96.88
426.735	89.88
426.958	88.88
427.18	127.88
427.402	170.88
427.625	243.88
427.847	223.88
428.069	212.88
428.292	136.88
428.514	111.88
428.736	83.88
428.958	88.88
429.181	88.88
429.403	88.88
429.625	75.88
429.847	82.88
430.069	99.88
430.292	108.88
430.514	90.88
430.736	78.88
430.958	91.88
431.18	86.88
431.402	99.88
431.624	91.88
431.846	79.88
432.068	98.88
432.29	94.88
432.512	83.88
432.734	91.88
432.956	97.88
433.178	88.88
433.4	89.88
433.622	93.88
433.844	81.88
434.066	107.88
434.287	96.88
434.509	114.88
434.731	94.88
434.953	98.88
435.175	86.88
435.397	91.88
435.618	92.88
435.84	122.88
436.062	130.88
436.284	123.88
436.505	98.88
436.727	106.88
436.949	88.88
437.17	88.88
437.392	94.88
437.614	88.88
437.835	128.88
438.057	143.88
438.278	132.88
438.5	121.88
438.721	142.88
438.943	118.88
439.165	115.88
439.386	93.88
439.608	98.88
439.829	107.88
440.05	143.88
440.272	165.88
440.493	103.88
440.715	99.88
440.936	91.88
441.158	91.88
441.379	107.88
441.6	111.88
441.822	98.88
442.043	102.88
442.264	106.88
442.486	116.88
442.707	91.88
442.928	116.88
443.149	163.88
443.371	154.88
443.592	127.88
443.813	106.88
444.034	134.88
444.255	89.88
444.476	95.88
444.698	94.88
444.919	82.88
445.14	131.88
445.361	117.88
445.582	133.88
445.803	182.88
446.024	161.88
446.245	155.88
446.466	111.88
446.687	100.88
446.908	83.88
447.129	94.88
447.35	94.88
447.571	97.88
447.792	104.88
448.013	102.88
448.234	110.88
448.455	105.88
448.675	130.88
448.896	135.88
449.117	118.88
449.338	128.88
449.559	147.88
449.779	162.88
450	96.88
450.221	83.88
450.442	106.88
450.662	116.88
450.883	118.88
451.104	148.88
451.324	111.88
451.545	89.88
451.766	91.88
451.986	91.88
452.207	97.88
452.428	110.88
452.648	93.88
452.869	125.88
453.089	133.88
453.31	138.88
453.53	119.88
453.751	106.88
453.971	113.88
454.192	131.88
454.412	84.88
454.633	91.88
454.853	77.88
455.073	90.88
455.294	94.88
455.514	106.88
455.734	98.88
455.955	102.88
456.175	88.88
456.395	97.88
456.616	88.88
456.836	89.88
457.056	86.88
457.276	85.88
457.497	78.88
457.717	105.88
457.937	94.88
458.157	97.88
458.377	95.88
458.598	129.88
458.818	201.88
459.038	224.88
459.258	145.88
459.478	92.88
459.698	96.88
459.918	89.88
460.138	95.88
460.358	98.88
460.578	86.88
460.798	75.88
461.018	85.88
461.238	83.88
461.458	88.88
461.678	81.88
461.898	94.88
462.118	85.88
462.338	87.88
462.558	84.88
462.777	87.88
462.997	98.88
463.217	112.88
463.437	85.88
463.657	94.88
463.876	93.88
464.096	98.88
464.316	104.88
464.536	97.88
464.755	101.88
464.975	128.88
465.195	222.88
465.414	228.88
465.634	104.88
465.854	96.88
466.073	97.88
466.293	101.88
466.512	106.88
466.732	98.88
466.951	86.88
467.171	99.88
467.391	113.88
467.61	143.88
467.829	218.88
468.049	572.88
468.268	917.88
468.488	232.88
468.707	112.88
468.927	81.88
469.146	96.88
469.365	110.88
469.585	102.88
469.804	115.88
470.023	110.88
470.243	98.88
470.462	110.88
470.681	135.88
470.901	103.88
471.12	97.88
471.339	120.88
471.558	113.88
471.777	132.88
471.997	309.88
472.216	1089.88
472.435	2617.88
472.654	653.88
472.873	175.88
473.092	119.88
473.311	105.88
473.53	105.88
473.749	101.88
473.968	95.88
474.187	133.88
474.406	119.88
474.625	99.88
474.844	94.88
475.063	97.88
475.282	87.88
475.501	89.88
475.72	106.88
475.939	99.88
476.158	94.88
476.377	90.88
476.596	96.88
476.814	108.88
477.033	101.88
477.252	90.88
477.471	96.88
477.69	101.88
477.908	97.88
478.127	94.88
478.346	112.88
478.564	97.88
478.783	100.88
479.002	112.88
479.22	96.88
479.439	136.88
479.658	135.88
479.876	127.88
480.095	132.88
480.313	153.88
480.532	161.88
480.751	271.88
480.969	1005.88
481.188	4368.88
481.406	2703.88
481.624	396.88
481.843	143.88
482.061	109.88
482.28	94.88
482.498	100.88
482.717	108.88
482.935	91.88
483.153	88.88
483.372	94.88
483.59	105.88
483.808	100.88
484.027	101.88
484.245	94.88
484.463	104.88
484.681	106.88
484.9	105.88
485.118	96.88
485.336	110.88
485.554	104.88
485.772	109.88
485.99	111.88
486.209	117.88
486.427	112.88
486.645	101.88
486.863	134.88
487.081	111.88
487.299	92.88
487.517	104.88
487.735	97.88
487.953	106.88
488.171	104.88
488.389	102.88
488.607	114.88
488.825	103.88
489.043	89.88
489.261	91.88
489.479	81.88
489.696	100.88
489.914	91.88
490.132	82.88
490.35	91.88
490.568	73.88
490.786	96.88
491.003	90.88
491.221	96.88
491.439	110.88
491.657	99.88
491.874	105.88
492.092	95.88
492.31	93.88
492.527	106.88
492.745	97.88
492.963	104.88
493.18	101.88
493.398	82.88
493.615	95.88
493.833	93.88
494.05	85.88
494.268	87.88
494.485	86.88
494.703	87.88
494.92	96.88
495.138	84.88
495.355	85.88
495.573	85.88
495.79	106.88
496.008	83.88
496.225	101.88
496.442	105.88
496.66	98.88
496.877	95.88
497.094	90.88
497.312	91.88
497.529	95.88
497.746	93.88
497.963	92.88
498.181	93.88
498.398	114.88
498.615	109.88
498.832	112.88
499.049	102.88
499.267	83.88
499.484	83.88
499.701	96.88
499.918	95.88
500.135	97.88
500.352	100.88
500.569	93.88
500.786	116.88
501.003	93.88
501.22	86.88
501.437	87.88
501.654	93.88
501.871	125.88
502.088	96.88
502.305	101.88
502.522	91.88
502.739	87.88
502.956	84.88
503.172	97.88
503.389	112.88
503.606	121.88
503.823	110.88
504.04	94.88
504.256	94.88
504.473	92.88
504.69	88.88
504.907	105.88
505.123	101.88
505.34	85.88
505.557	90.88
505.773	95.88
505.99	90.88
506.207	80.88
506.423	103.88
506.64	94.88
506.856	102.88
507.073	111.88
507.289	100.88
507.506	99.88
507.722	115.88
507.939	132.88
508.155	111.88
508.372	100.88
508.588	93.88
508.805	111.88
509.021	103.88
509.238	105.88
509.454	93.88
509.67	108.88
509.887	104.88
510.103	152.88
510.319	230.88
510.536	899.88
510.752	3090.88
510.968	861.88
511.184	194.88
511.401	129.88
511.617	116.88
511.833	124.88
512.049	94.88
512.265	95.88
512.481	97.88
512.698	99.88
512.914	107.88
