Data from Circ_2023_H10_HRD10591_00002.txt Node
Date: Wed Jan 03 09:50:31 EST 2024
User: Yrep
Spectrometer: HR+D1059
Trigger mode: 1
Integration Time (sec): 1.000000E-1
Scans to average: 1
Electric dark correction enabled: true
Nonlinearity correction enabled: false
Boxcar width: 0
XAxis mode: Wavelengths
Number of Pixels in Spectrum: 2048
>>>>>Begin Spectral Data<<<<<
223.165	-7.19
223.4	-7.19
223.635	-7.19
223.869	-17.19
224.104	-20.19
224.338	-20.19
224.573	-14.19
224.808	-3.19
225.042	-8.19
225.277	-19.19
225.511	-2.19
225.746	0.81
225.98	0.81
226.215	19.81
226.449	5.81
226.683	27.81
226.918	21.81
227.152	34.81
227.387	35.81
227.621	36.81
227.856	37.81
228.09	46.81
228.324	42.81
228.559	55.81
228.793	51.81
229.027	63.81
229.262	51.81
229.496	67.81
229.73	86.81
229.964	87.81
230.199	65.81
230.433	81.81
230.667	78.81
230.901	67.81
231.136	65.81
231.37	79.81
231.604	71.81
231.838	76.81
232.072	60.81
232.306	80.81
232.541	81.81
232.775	84.81
233.009	88.81
233.243	73.81
233.477	71.81
233.711	70.81
233.945	91.81
234.179	67.81
234.413	77.81
234.647	66.81
234.881	81.81
235.115	77.81
235.349	72.81
235.583	91.81
235.817	68.81
236.051	59.81
236.285	71.81
236.519	72.81
236.753	84.81
236.987	85.81
237.221	91.81
237.455	85.81
237.689	72.81
237.922	72.81
238.156	77.81
238.39	65.81
238.624	63.81
238.858	82.81
239.091	78.81
239.325	87.81
239.559	85.81
239.793	83.81
240.027	67.81
240.26	65.81
240.494	88.81
240.728	84.81
240.961	69.81
241.195	82.81
241.429	72.81
241.662	76.81
241.896	87.81
242.13	81.81
242.363	81.81
242.597	64.81
242.83	81.81
243.064	89.81
243.298	65.81
243.531	88.81
243.765	77.81
243.998	85.81
244.232	72.81
244.465	88.81
244.699	88.81
244.932	80.81
245.166	73.81
245.399	96.81
245.633	65.81
245.866	65.81
246.099	82.81
246.333	83.81
246.566	72.81
246.8	74.81
247.033	92.81
247.266	83.81
247.5	83.81
247.733	59.81
247.966	84.81
248.2	80.81
248.433	87.81
248.666	79.81
248.899	79.81
249.133	91.81
249.366	79.81
249.599	94.81
249.832	83.81
250.066	89.81
250.299	92.81
250.532	69.81
250.765	77.81
250.998	89.81
251.231	71.81
251.465	76.81
251.698	78.81
251.931	95.81
252.164	85.81
252.397	73.81
252.63	68.81
252.863	87.81
253.096	83.81
253.329	78.81
253.562	87.81
253.795	79.81
254.028	76.81
254.261	70.81
254.494	86.81
254.727	87.81
254.96	87.81
255.193	93.81
255.426	83.81
255.659	92.81
255.892	85.81
256.124	82.81
256.357	90.81
256.59	81.81
256.823	80.81
257.056	80.81
257.289	91.81
257.521	95.81
257.754	74.81
257.987	79.81
258.22	85.81
258.452	93.81
258.685	98.81
258.918	87.81
259.151	93.81
259.383	84.81
259.616	70.81
259.849	91.81
260.081	92.81
260.314	99.81
260.547	96.81
260.779	84.81
261.012	95.81
261.244	104.81
261.477	93.81
261.71	105.81
261.942	123.81
262.175	142.81
262.407	110.81
262.64	72.81
262.872	86.81
263.105	79.81
263.337	85.81
263.57	87.81
263.802	81.81
264.035	81.81
264.267	82.81
264.499	77.81
264.732	91.81
264.964	81.81
265.197	72.81
265.429	87.81
265.661	93.81
265.894	76.81
266.126	70.81
266.358	76.81
266.591	73.81
266.823	67.81
267.055	75.81
267.287	77.81
267.52	91.81
267.752	80.81
267.984	76.81
268.216	80.81
268.448	85.81
268.681	90.81
268.913	71.81
269.145	77.81
269.377	84.81
269.609	80.81
269.841	74.81
270.073	76.81
270.306	85.81
270.538	73.81
270.77	73.81
271.002	76.81
271.234	71.81
271.466	88.81
271.698	89.81
271.93	73.81
272.162	87.81
272.394	80.81
272.626	98.81
272.858	84.81
273.09	87.81
273.322	87.81
273.553	83.81
273.785	107.81
274.017	84.81
274.249	87.81
274.481	95.81
274.713	71.81
274.945	85.81
275.176	98.81
275.408	91.81
275.64	96.81
275.872	105.81
276.104	92.81
276.335	96.81
276.567	123.81
276.799	131.81
277.031	145.81
277.262	149.81
277.494	118.81
277.726	68.81
277.957	86.81
278.189	89.81
278.421	90.81
278.652	96.81
278.884	88.81
279.115	85.81
279.347	93.81
279.579	100.81
279.81	107.81
280.042	139.81
280.273	186.81
280.505	149.81
280.736	107.81
280.968	93.81
281.199	86.81
281.431	91.81
281.662	89.81
281.894	104.81
282.125	103.81
282.356	129.81
282.588	158.81
282.819	134.81
283.051	90.81
283.282	69.81
283.513	77.81
283.745	80.81
283.976	84.81
284.207	89.81
284.439	85.81
284.67	96.81
284.901	82.81
285.132	95.81
285.364	86.81
285.595	86.81
285.826	79.81
286.057	78.81
286.288	81.81
286.52	92.81
286.751	83.81
286.982	85.81
287.213	87.81
287.444	89.81
287.675	82.81
287.906	91.81
288.138	102.81
288.369	72.81
288.6	103.81
288.831	91.81
289.062	88.81
289.293	80.81
289.524	81.81
289.755	92.81
289.986	97.81
290.217	85.81
290.448	91.81
290.679	86.81
290.91	76.81
291.141	92.81
291.371	85.81
291.602	98.81
291.833	86.81
292.064	92.81
292.295	85.81
292.526	87.81
292.757	77.81
292.987	75.81
293.218	97.81
293.449	84.81
293.68	94.81
293.91	85.81
294.141	89.81
294.372	85.81
294.603	89.81
294.833	90.81
295.064	80.81
295.295	84.81
295.525	80.81
295.756	93.81
295.987	127.81
296.217	156.81
296.448	141.81
296.679	92.81
296.909	88.81
297.14	109.81
297.37	93.81
297.601	92.81
297.831	86.81
298.062	85.81
298.292	89.81
298.523	98.81
298.753	81.81
298.984	79.81
299.214	97.81
299.445	88.81
299.675	110.81
299.905	94.81
300.136	85.81
300.366	86.81
300.597	90.81
300.827	97.81
301.057	101.81
301.288	103.81
301.518	82.81
301.748	92.81
301.979	99.81
302.209	92.81
302.439	93.81
302.669	99.81
302.9	89.81
303.13	74.81
303.36	96.81
303.59	103.81
303.82	125.81
304.051	98.81
304.281	91.81
304.511	112.81
304.741	84.81
304.971	87.81
305.201	90.81
305.431	94.81
305.661	88.81
305.891	107.81
306.121	113.81
306.352	108.81
306.582	102.81
306.812	94.81
307.042	96.81
307.272	137.81
307.502	151.81
307.731	149.81
307.961	115.81
308.191	89.81
308.421	85.81
308.651	94.81
308.881	81.81
309.111	93.81
309.341	96.81
309.571	92.81
309.8	97.81
310.03	107.81
310.26	84.81
310.49	113.81
310.72	114.81
310.949	98.81
311.179	114.81
311.409	85.81
311.639	94.81
311.868	108.81
312.098	104.81
312.328	112.81
312.557	109.81
312.787	120.81
313.017	96.81
313.246	90.81
313.476	98.81
313.706	96.81
313.935	92.81
314.165	117.81
314.394	101.81
314.624	105.81
314.853	116.81
315.083	96.81
315.312	84.81
315.542	84.81
315.771	103.81
316.001	89.81
316.23	100.81
316.46	82.81
316.689	89.81
316.919	89.81
317.148	104.81
317.377	103.81
317.607	99.81
317.836	84.81
318.065	88.81
318.295	79.81
318.524	82.81
318.753	86.81
318.983	104.81
319.212	101.81
319.441	113.81
319.67	101.81
319.9	97.81
320.129	96.81
320.358	88.81
320.587	92.81
320.816	97.81
321.046	107.81
321.275	103.81
321.504	89.81
321.733	86.81
321.962	113.81
322.191	95.81
322.42	108.81
322.649	104.81
322.878	97.81
323.108	114.81
323.337	125.81
323.566	146.81
323.795	159.81
324.024	243.81
324.253	463.81
324.482	997.81
324.71	2058.81
324.939	2711.81
325.168	1005.81
325.397	294.81
325.626	160.81
325.855	147.81
326.084	137.81
326.313	155.81
326.542	159.81
326.77	271.81
326.999	529.81
327.228	1111.81
327.457	2025.81
327.686	1701.81
327.914	501.81
328.143	385.81
328.372	431.81
328.6	261.81
328.829	149.81
329.058	163.81
329.287	177.81
329.515	150.81
329.744	188.81
329.972	317.81
330.201	600.81
330.43	880.81
330.658	439.81
330.887	237.81
331.115	167.81
331.344	100.81
331.572	110.81
331.801	128.81
332.03	112.81
332.258	107.81
332.486	99.81
332.715	99.81
332.943	103.81
333.172	104.81
333.4	131.81
333.629	137.81
333.857	183.81
334.085	318.81
334.314	595.81
334.542	1086.81
334.771	1082.81
334.999	316.81
335.227	144.81
335.455	111.81
335.684	109.81
335.912	96.81
336.14	89.81
336.369	78.81
336.597	107.81
336.825	107.81
337.053	103.81
337.281	83.81
337.51	94.81
337.738	97.81
337.966	102.81
338.194	112.81
338.422	91.81
338.65	101.81
338.878	104.81
339.106	91.81
339.334	104.81
339.562	81.81
339.79	98.81
340.018	92.81
340.246	102.81
340.474	98.81
340.702	97.81
340.93	98.81
341.158	108.81
341.386	105.81
341.614	107.81
341.842	91.81
342.07	97.81
342.298	100.81
342.526	102.81
342.754	91.81
342.981	81.81
343.209	92.81
343.437	109.81
343.665	94.81
343.893	101.81
344.12	81.81
344.348	92.81
344.576	100.81
344.804	97.81
345.031	88.81
345.259	108.81
345.487	97.81
345.714	84.81
345.942	85.81
346.17	72.81
346.397	86.81
346.625	94.81
346.853	94.81
347.08	84.81
347.308	91.81
347.535	94.81
347.763	100.81
347.99	108.81
348.218	111.81
348.445	118.81
348.673	103.81
348.9	100.81
349.128	89.81
349.355	85.81
349.583	87.81
349.81	97.81
350.037	86.81
350.265	99.81
350.492	98.81
350.72	95.81
350.947	105.81
351.174	112.81
351.402	128.81
351.629	99.81
351.856	121.81
352.083	101.81
352.311	108.81
352.538	104.81
352.765	115.81
352.992	110.81
353.22	107.81
353.447	108.81
353.674	94.81
353.901	86.81
354.128	82.81
354.355	104.81
354.583	98.81
354.81	86.81
355.037	97.81
355.264	98.81
355.491	112.81
355.718	87.81
355.945	82.81
356.172	90.81
356.399	98.81
356.626	96.81
356.853	101.81
357.08	102.81
357.307	89.81
357.534	68.81
357.761	94.81
357.988	80.81
358.215	110.81
358.441	99.81
358.668	82.81
358.895	81.81
359.122	83.81
359.349	98.81
359.576	94.81
359.802	107.81
360.029	127.81
360.256	141.81
360.483	116.81
360.709	95.81
360.936	98.81
361.163	100.81
361.39	108.81
361.616	102.81
361.843	90.81
362.07	106.81
362.296	102.81
362.523	87.81
362.749	99.81
362.976	89.81
363.203	100.81
363.429	101.81
363.656	103.81
363.882	73.81
364.109	97.81
364.335	97.81
364.562	88.81
364.788	87.81
365.015	121.81
365.241	93.81
365.468	116.81
365.694	113.81
365.92	97.81
366.147	93.81
366.373	99.81
366.599	96.81
366.826	84.81
367.052	93.81
367.278	88.81
367.505	85.81
367.731	92.81
367.957	103.81
368.184	102.81
368.41	97.81
368.636	126.81
368.862	131.81
369.089	132.81
369.315	88.81
369.541	100.81
369.767	98.81
369.993	86.81
370.219	92.81
370.445	94.81
370.672	81.81
370.898	94.81
371.124	86.81
371.35	79.81
371.576	86.81
371.802	68.81
372.028	85.81
372.254	89.81
372.48	86.81
372.706	79.81
372.932	95.81
373.158	96.81
373.384	97.81
373.61	91.81
373.835	99.81
374.061	103.81
374.287	83.81
374.513	88.81
374.739	88.81
374.965	97.81
375.191	92.81
375.416	83.81
375.642	75.81
375.868	97.81
376.094	95.81
376.319	87.81
376.545	91.81
376.771	86.81
376.997	80.81
377.222	88.81
377.448	95.81
377.674	86.81
377.899	91.81
378.125	87.81
378.35	90.81
378.576	86.81
378.802	98.81
379.027	82.81
379.253	85.81
379.478	96.81
379.704	91.81
379.929	109.81
380.155	92.81
380.38	85.81
380.606	92.81
380.831	107.81
381.057	84.81
381.282	88.81
381.507	95.81
381.733	89.81
381.958	88.81
382.184	100.81
382.409	88.81
382.634	82.81
382.86	97.81
383.085	103.81
383.31	105.81
383.535	84.81
383.761	88.81
383.986	100.81
384.211	95.81
384.436	81.81
384.662	92.81
384.887	94.81
385.112	83.81
385.337	91.81
385.562	91.81
385.787	97.81
386.013	97.81
386.238	110.81
386.463	105.81
386.688	94.81
386.913	86.81
387.138	87.81
387.363	101.81
387.588	96.81
387.813	115.81
388.038	101.81
388.263	100.81
388.488	97.81
388.713	78.81
388.938	89.81
389.163	89.81
389.387	93.81
389.612	96.81
389.837	98.81
390.062	86.81
390.287	100.81
390.512	102.81
390.736	85.81
390.961	91.81
391.186	96.81
391.411	102.81
391.636	102.81
391.86	79.81
392.085	85.81
392.31	94.81
392.534	90.81
392.759	84.81
392.984	72.81
393.208	99.81
393.433	85.81
393.658	96.81
393.882	71.81
394.107	81.81
394.331	86.81
394.556	86.81
394.78	86.81
395.005	94.81
395.229	78.81
395.454	86.81
395.678	101.81
395.903	88.81
396.127	100.81
396.352	71.81
396.576	99.81
396.801	94.81
397.025	88.81
397.249	86.81
397.474	92.81
397.698	84.81
397.922	75.81
398.147	89.81
398.371	81.81
398.595	79.81
398.82	93.81
399.044	76.81
399.268	92.81
399.492	88.81
399.717	92.81
399.941	85.81
400.165	110.81
400.389	96.81
400.613	93.81
400.837	79.81
401.062	81.81
401.286	98.81
401.51	111.81
401.734	91.81
401.958	109.81
402.182	149.81
402.406	184.81
402.63	151.81
402.854	100.81
403.078	102.81
403.302	102.81
403.526	87.81
403.75	100.81
403.974	93.81
404.198	107.81
404.422	82.81
404.645	91.81
404.869	87.81
405.093	118.81
405.317	139.81
405.541	127.81
405.765	116.81
405.988	115.81
406.212	205.81
406.436	295.81
406.66	179.81
406.883	107.81
407.107	100.81
407.331	107.81
407.555	101.81
407.778	101.81
408.002	91.81
408.226	85.81
408.449	80.81
408.673	94.81
408.896	85.81
409.12	100.81
409.344	86.81
409.567	82.81
409.791	90.81
410.014	90.81
410.238	90.81
410.461	89.81
410.685	106.81
410.908	105.81
411.132	107.81
411.355	102.81
411.578	84.81
411.802	90.81
412.025	97.81
412.249	91.81
412.472	100.81
412.695	120.81
412.919	113.81
413.142	105.81
413.365	85.81
413.589	94.81
413.812	79.81
414.035	96.81
414.258	89.81
414.482	89.81
414.705	98.81
414.928	102.81
415.151	87.81
415.374	91.81
415.597	91.81
415.821	84.81
416.044	107.81
416.267	102.81
416.49	87.81
416.713	92.81
416.936	94.81
417.159	82.81
417.382	89.81
417.605	92.81
417.828	92.81
418.051	82.81
418.274	99.81
418.497	92.81
418.72	100.81
418.943	86.81
419.166	78.81
419.389	86.81
419.611	92.81
419.834	93.81
420.057	89.81
420.28	89.81
420.503	86.81
420.726	88.81
420.948	80.81
421.171	99.81
421.394	88.81
421.617	83.81
421.839	92.81
422.062	104.81
422.285	97.81
422.507	101.81
422.73	121.81
422.953	106.81
423.175	83.81
423.398	94.81
423.621	89.81
423.843	90.81
424.066	70.81
424.288	65.81
424.511	89.81
424.733	96.81
424.956	116.81
425.178	106.81
425.401	124.81
425.623	112.81
425.846	92.81
426.068	100.81
426.291	99.81
426.513	95.81
426.735	84.81
426.958	118.81
427.18	122.81
427.402	167.81
427.625	231.81
427.847	212.81
428.069	196.81
428.292	131.81
428.514	85.81
428.736	82.81
428.958	77.81
429.181	95.81
429.403	82.81
429.625	89.81
429.847	100.81
430.069	108.81
430.292	88.81
430.514	83.81
430.736	73.81
430.958	79.81
431.18	80.81
431.402	76.81
431.624	88.81
431.846	104.81
432.068	84.81
432.29	82.81
432.512	89.81
432.734	80.81
432.956	86.81
433.178	95.81
433.4	98.81
433.622	86.81
433.844	94.81
434.066	96.81
434.287	103.81
434.509	85.81
434.731	101.81
434.953	92.81
435.175	93.81
435.397	91.81
435.618	94.81
435.84	112.81
436.062	137.81
436.284	111.81
436.505	103.81
436.727	107.81
436.949	107.81
437.17	98.81
437.392	86.81
437.614	95.81
437.835	125.81
438.057	131.81
438.278	131.81
438.5	115.81
438.721	128.81
438.943	85.81
439.165	75.81
439.386	107.81
439.608	100.81
439.829	89.81
440.05	145.81
440.272	200.81
440.493	94.81
440.715	85.81
440.936	78.81
441.158	93.81
441.379	92.81
441.6	91.81
441.822	103.81
442.043	93.81
442.264	117.81
442.486	115.81
442.707	110.81
442.928	124.81
443.149	159.81
443.371	181.81
443.592	133.81
443.813	134.81
444.034	120.81
444.255	95.81
444.476	95.81
444.698	96.81
444.919	93.81
445.14	141.81
445.361	125.81
445.582	128.81
445.803	160.81
446.024	167.81
446.245	156.81
446.466	112.81
446.687	95.81
446.908	101.81
447.129	89.81
447.35	82.81
447.571	85.81
447.792	95.81
448.013	119.81
448.234	107.81
448.455	123.81
448.675	119.81
448.896	138.81
449.117	89.81
449.338	107.81
449.559	161.81
449.779	147.81
450	98.81
450.221	86.81
450.442	98.81
450.662	101.81
450.883	122.81
451.104	131.81
451.324	112.81
451.545	92.81
451.766	84.81
451.986	95.81
452.207	91.81
452.428	96.81
452.648	114.81
452.869	112.81
453.089	127.81
453.31	142.81
453.53	104.81
453.751	100.81
453.971	101.81
454.192	131.81
454.412	112.81
454.633	102.81
454.853	76.81
455.073	85.81
455.294	96.81
455.514	117.81
455.734	100.81
455.955	74.81
456.175	79.81
456.395	76.81
456.616	84.81
456.836	81.81
457.056	94.81
457.276	77.81
457.497	73.81
457.717	80.81
457.937	88.81
458.157	77.81
458.377	97.81
458.598	115.81
458.818	186.81
459.038	199.81
459.258	148.81
459.478	104.81
459.698	94.81
459.918	81.81
460.138	98.81
460.358	79.81
460.578	90.81
460.798	75.81
461.018	86.81
461.238	84.81
461.458	86.81
461.678	85.81
461.898	85.81
462.118	86.81
462.338	71.81
462.558	80.81
462.777	86.81
462.997	80.81
463.217	89.81
463.437	91.81
463.657	91.81
463.876	87.81
464.096	80.81
464.316	80.81
464.536	104.81
464.755	95.81
464.975	110.81
465.195	213.81
465.414	217.81
465.634	121.81
465.854	100.81
466.073	95.81
466.293	81.81
466.512	72.81
466.732	97.81
466.951	88.81
467.171	103.81
467.391	112.81
467.61	133.81
467.829	155.81
468.049	337.81
468.268	513.81
468.488	155.81
468.707	93.81
468.927	96.81
469.146	92.81
469.365	82.81
469.585	89.81
469.804	109.81
470.023	92.81
470.243	86.81
470.462	110.81
470.681	116.81
470.901	104.81
471.12	111.81
471.339	107.81
471.558	107.81
471.777	132.81
471.997	207.81
472.216	627.81
472.435	1470.81
472.654	408.81
472.873	128.81
473.092	85.81
473.311	96.81
473.53	80.81
473.749	91.81
473.968	87.81
474.187	115.81
474.406	101.81
474.625	83.81
474.844	97.81
475.063	97.81
475.282	91.81
475.501	90.81
475.72	93.81
475.939	79.81
476.158	82.81
476.377	102.81
476.596	110.81
476.814	85.81
477.033	88.81
477.252	81.81
477.471	74.81
477.69	95.81
477.908	83.81
478.127	97.81
478.346	73.81
478.564	86.81
478.783	105.81
479.002	95.81
479.22	104.81
479.439	129.81
479.658	123.81
479.876	119.81
480.095	110.81
480.313	110.81
480.532	136.81
480.751	212.81
480.969	610.81
481.188	2470.81
481.406	1587.81
481.624	252.81
481.843	119.81
482.061	100.81
482.28	100.81
482.498	98.81
482.717	93.81
482.935	80.81
483.153	83.81
483.372	83.81
483.59	89.81
483.808	84.81
484.027	85.81
484.245	100.81
484.463	96.81
484.681	110.81
484.9	88.81
485.118	91.81
485.336	91.81
485.554	95.81
485.772	100.81
485.99	104.81
486.209	101.81
486.427	108.81
486.645	95.81
486.863	110.81
487.081	99.81
487.299	86.81
487.517	93.81
487.735	87.81
487.953	72.81
488.171	72.81
488.389	90.81
488.607	93.81
488.825	102.81
489.043	81.81
489.261	92.81
489.479	80.81
489.696	101.81
489.914	98.81
490.132	88.81
490.35	79.81
490.568	84.81
490.786	74.81
491.003	87.81
491.221	88.81
491.439	100.81
491.657	86.81
491.874	84.81
492.092	94.81
492.31	94.81
492.527	79.81
492.745	103.81
492.963	92.81
493.18	86.81
493.398	92.81
493.615	96.81
493.833	87.81
494.05	93.81
494.268	84.81
494.485	90.81
494.703	86.81
494.92	79.81
495.138	82.81
495.355	91.81
495.573	78.81
495.79	84.81
496.008	93.81
496.225	103.81
496.442	90.81
496.66	86.81
496.877	94.81
497.094	83.81
497.312	98.81
497.529	100.81
497.746	95.81
497.963	84.81
498.181	99.81
498.398	96.81
498.615	128.81
498.832	114.81
499.049	91.81
499.267	77.81
499.484	96.81
499.701	85.81
499.918	95.81
500.135	87.81
500.352	89.81
500.569	94.81
500.786	96.81
501.003	96.81
501.22	82.81
501.437	92.81
501.654	96.81
501.871	133.81
502.088	90.81
502.305	95.81
502.522	88.81
502.739	84.81
502.956	96.81
503.172	89.81
503.389	92.81
503.606	114.81
503.823	95.81
504.04	91.81
504.256	97.81
504.473	88.81
504.69	84.81
504.907	102.81
505.123	87.81
505.34	84.81
505.557	93.81
505.773	91.81
505.99	94.81
506.207	92.81
506.423	86.81
506.64	91.81
506.856	88.81
507.073	97.81
507.289	100.81
507.506	104.81
507.722	123.81
507.939	115.81
508.155	97.81
508.372	92.81
508.588	97.81
508.805	92.81
509.021	98.81
509.238	96.81
509.454	96.81
509.67	99.81
509.887	121.81
510.103	146.81
510.319	236.81
510.536	910.81
510.752	3117.81
510.968	875.81
511.184	168.81
511.401	127.81
511.617	97.81
511.833	97.81
512.049	87.81
512.265	107.81
512.481	86.81
512.698	85.81
512.914	83.81
513.13	83.81
513.346	95.81
513.562	109.81
513.778	107.81
513.994	105.81
514.21	112.81
