Data from Circ_2023_H10_HRD10591_00006.txt Node
Date: Wed Jan 03 09:50:32 EST 2024
User: Yrep
Spectrometer: HR+D1059
Trigger mode: 1
Integration Time (sec): 1.000000E-1
Scans to average: 1
Electric dark correction enabled: true
Nonlinearity correction enabled: false
Boxcar width: 0
XAxis mode: Wavelengths
Number of Pixels in Spectrum: 2048
>>>>>Begin Spectral Data<<<<<
223.165	-3.88
223.4	-3.88
223.635	-3.88
223.869	-18.88
224.104	-24.88
224.338	-19.88
224.573	-10.88
224.808	-1.88
225.042	-5.88
225.277	-3.88
225.511	-2.88
225.746	2.12
225.98	6.12
226.215	2.12
226.449	8.12
226.683	24.12
226.918	26.12
227.152	24.12
227.387	34.12
227.621	37.12
227.856	40.12
228.09	40.12
228.324	66.12
228.559	58.12
228.793	78.12
229.027	70.12
229.262	75.12
229.496	84.12
229.73	86.12
229.964	96.12
230.199	87.12
230.433	69.12
230.667	86.12
230.901	97.12
231.136	93.12
231.37	76.12
231.604	90.12
231.838	84.12
232.072	78.12
232.306	94.12
232.541	100.12
232.775	84.12
233.009	94.12
233.243	89.12
233.477	91.12
233.711	94.12
233.945	86.12
234.179	89.12
234.413	86.12
234.647	72.12
234.881	96.12
235.115	86.12
235.349	92.12
235.583	84.12
235.817	67.12
236.051	80.12
236.285	83.12
236.519	73.12
236.753	78.12
236.987	86.12
237.221	99.12
237.455	98.12
237.689	77.12
237.922	76.12
238.156	82.12
238.39	64.12
238.624	89.12
238.858	78.12
239.091	77.12
239.325	72.12
239.559	106.12
239.793	85.12
240.027	90.12
240.26	74.12
240.494	85.12
240.728	89.12
240.961	98.12
241.195	99.12
241.429	79.12
241.662	85.12
241.896	82.12
242.13	87.12
242.363	70.12
242.597	94.12
242.83	83.12
243.064	82.12
243.298	79.12
243.531	103.12
243.765	85.12
243.998	86.12
244.232	93.12
244.465	101.12
244.699	92.12
244.932	75.12
245.166	77.12
245.399	99.12
245.633	96.12
245.866	99.12
246.099	90.12
246.333	76.12
246.566	69.12
246.8	81.12
247.033	88.12
247.266	95.12
247.5	80.12
247.733	86.12
247.966	83.12
248.2	89.12
248.433	78.12
248.666	72.12
248.899	86.12
249.133	90.12
249.366	106.12
249.599	108.12
249.832	89.12
250.066	79.12
250.299	80.12
250.532	86.12
250.765	90.12
250.998	99.12
251.231	80.12
251.465	83.12
251.698	99.12
251.931	93.12
252.164	62.12
252.397	84.12
252.63	78.12
252.863	89.12
253.096	102.12
253.329	74.12
253.562	95.12
253.795	76.12
254.028	96.12
254.261	80.12
254.494	95.12
254.727	88.12
254.96	94.12
255.193	86.12
255.426	90.12
255.659	92.12
255.892	96.12
256.124	78.12
256.357	82.12
256.59	88.12
256.823	96.12
257.056	83.12
257.289	73.12
257.521	72.12
257.754	91.12
257.987	86.12
258.22	101.12
258.452	91.12
258.685	90.12
258.918	101.12
259.151	92.12
259.383	92.12
259.616	85.12
259.849	69.12
260.081	77.12
260.314	89.12
260.547	90.12
260.779	88.12
261.012	102.12
261.244	98.12
261.477	98.12
261.71	109.12
261.942	133.12
262.175	132.12
262.407	93.12
262.64	85.12
262.872	88.12
263.105	95.12
263.337	82.12
263.57	88.12
263.802	90.12
264.035	94.12
264.267	82.12
264.499	91.12
264.732	90.12
264.964	95.12
265.197	91.12
265.429	93.12
265.661	96.12
265.894	87.12
266.126	89.12
266.358	75.12
266.591	80.12
266.823	93.12
267.055	92.12
267.287	99.12
267.52	96.12
267.752	95.12
267.984	93.12
268.216	107.12
268.448	88.12
268.681	88.12
268.913	70.12
269.145	87.12
269.377	78.12
269.609	80.12
269.841	88.12
270.073	106.12
270.306	93.12
270.538	87.12
270.77	99.12
271.002	94.12
271.234	114.12
271.466	100.12
271.698	98.12
271.93	88.12
272.162	93.12
272.394	95.12
272.626	79.12
272.858	86.12
273.09	92.12
273.322	96.12
273.553	87.12
273.785	85.12
274.017	92.12
274.249	98.12
274.481	75.12
274.713	82.12
274.945	93.12
275.176	99.12
275.408	85.12
275.64	116.12
275.872	108.12
276.104	110.12
276.335	105.12
276.567	112.12
276.799	126.12
277.031	146.12
277.262	157.12
277.494	121.12
277.726	100.12
277.957	93.12
278.189	82.12
278.421	97.12
278.652	79.12
278.884	92.12
279.115	101.12
279.347	89.12
279.579	102.12
279.81	117.12
280.042	148.12
280.273	174.12
280.505	150.12
280.736	103.12
280.968	87.12
281.199	86.12
281.431	107.12
281.662	88.12
281.894	100.12
282.125	103.12
282.356	137.12
282.588	150.12
282.819	129.12
283.051	99.12
283.282	84.12
283.513	85.12
283.745	94.12
283.976	89.12
284.207	99.12
284.439	99.12
284.67	91.12
284.901	79.12
285.132	97.12
285.364	102.12
285.595	95.12
285.826	107.12
286.057	99.12
286.288	84.12
286.52	88.12
286.751	79.12
286.982	91.12
287.213	87.12
287.444	83.12
287.675	88.12
287.906	96.12
288.138	84.12
288.369	93.12
288.6	97.12
288.831	77.12
289.062	92.12
289.293	100.12
289.524	88.12
289.755	94.12
289.986	98.12
290.217	101.12
290.448	108.12
290.679	104.12
290.91	84.12
291.141	85.12
291.371	86.12
291.602	104.12
291.833	90.12
292.064	108.12
292.295	96.12
292.526	119.12
292.757	102.12
292.987	100.12
293.218	100.12
293.449	87.12
293.68	92.12
293.91	96.12
294.141	108.12
294.372	102.12
294.603	94.12
294.833	95.12
295.064	100.12
295.295	96.12
295.525	96.12
295.756	111.12
295.987	143.12
296.217	158.12
296.448	134.12
296.679	92.12
296.909	100.12
297.14	110.12
297.37	87.12
297.601	104.12
297.831	94.12
298.062	115.12
298.292	87.12
298.523	94.12
298.753	98.12
298.984	91.12
299.214	88.12
299.445	104.12
299.675	86.12
299.905	114.12
300.136	98.12
300.366	88.12
300.597	92.12
300.827	111.12
301.057	111.12
301.288	120.12
301.518	110.12
301.748	97.12
301.979	116.12
302.209	98.12
302.439	93.12
302.669	86.12
302.9	106.12
303.13	95.12
303.36	99.12
303.59	112.12
303.82	122.12
304.051	102.12
304.281	104.12
304.511	107.12
304.741	103.12
304.971	105.12
305.201	91.12
305.431	101.12
305.661	109.12
305.891	87.12
306.121	103.12
306.352	119.12
306.582	128.12
306.812	106.12
307.042	98.12
307.272	133.12
307.502	146.12
307.731	145.12
307.961	100.12
308.191	104.12
308.421	79.12
308.651	76.12
308.881	106.12
309.111	100.12
309.341	97.12
309.571	111.12
309.8	100.12
310.03	107.12
310.26	114.12
310.49	110.12
310.72	116.12
310.949	114.12
311.179	98.12
311.409	92.12
311.639	87.12
311.868	109.12
312.098	100.12
312.328	103.12
312.557	125.12
312.787	102.12
313.017	99.12
313.246	96.12
313.476	100.12
313.706	112.12
313.935	115.12
314.165	102.12
314.394	120.12
314.624	116.12
314.853	104.12
315.083	103.12
315.312	94.12
315.542	101.12
315.771	96.12
316.001	90.12
316.23	88.12
316.46	107.12
316.689	100.12
316.919	110.12
317.148	108.12
317.377	116.12
317.607	111.12
317.836	98.12
318.065	102.12
318.295	102.12
318.524	102.12
318.753	114.12
318.983	108.12
319.212	100.12
319.441	102.12
319.67	109.12
319.9	104.12
320.129	89.12
320.358	118.12
320.587	103.12
320.816	113.12
321.046	102.12
321.275	102.12
321.504	99.12
321.733	107.12
321.962	124.12
322.191	103.12
322.42	111.12
322.649	115.12
322.878	120.12
323.108	132.12
323.337	142.12
323.566	158.12
323.795	194.12
324.024	261.12
324.253	502.12
324.482	1116.12
324.71	2281.12
324.939	3017.12
325.168	1078.12
325.397	310.12
325.626	188.12
325.855	150.12
326.084	143.12
326.313	159.12
326.542	191.12
326.77	288.12
326.999	591.12
327.228	1231.12
327.457	2250.12
327.686	1827.12
327.914	539.12
328.143	394.12
328.372	470.12
328.6	285.12
328.829	176.12
329.058	184.12
329.287	166.12
329.515	146.12
329.744	219.12
329.972	341.12
330.201	637.12
330.43	926.12
330.658	446.12
330.887	241.12
331.115	160.12
331.344	126.12
331.572	132.12
331.801	134.12
332.03	132.12
332.258	120.12
332.486	105.12
332.715	105.12
332.943	119.12
333.172	127.12
333.4	118.12
333.629	154.12
333.857	194.12
334.085	311.12
334.314	618.12
334.542	1125.12
334.771	1088.12
334.999	318.12
335.227	150.12
335.455	118.12
335.684	123.12
335.912	116.12
336.14	115.12
336.369	111.12
336.597	121.12
336.825	95.12
337.053	100.12
337.281	100.12
337.51	97.12
337.738	92.12
337.966	108.12
338.194	104.12
338.422	118.12
338.65	111.12
338.878	107.12
339.106	106.12
339.334	98.12
339.562	98.12
339.79	101.12
340.018	97.12
340.246	100.12
340.474	98.12
340.702	98.12
340.93	97.12
341.158	102.12
341.386	96.12
341.614	104.12
341.842	85.12
342.07	84.12
342.298	88.12
342.526	82.12
342.754	96.12
342.981	99.12
343.209	89.12
343.437	118.12
343.665	84.12
343.893	104.12
344.12	96.12
344.348	92.12
344.576	98.12
344.804	94.12
345.031	109.12
345.259	122.12
345.487	109.12
345.714	113.12
345.942	107.12
346.17	97.12
346.397	101.12
346.625	102.12
346.853	92.12
347.08	99.12
347.308	109.12
347.535	115.12
347.763	118.12
347.99	119.12
348.218	108.12
348.445	117.12
348.673	114.12
348.9	122.12
349.128	112.12
349.355	109.12
349.583	92.12
349.81	99.12
350.037	101.12
350.265	92.12
350.492	111.12
350.72	93.12
350.947	130.12
351.174	115.12
351.402	133.12
351.629	129.12
351.856	118.12
352.083	132.12
352.311	124.12
352.538	121.12
352.765	122.12
352.992	112.12
353.22	124.12
353.447	109.12
353.674	117.12
353.901	99.12
354.128	114.12
354.355	104.12
354.583	98.12
354.81	96.12
355.037	114.12
355.264	104.12
355.491	110.12
355.718	88.12
355.945	106.12
356.172	92.12
356.399	91.12
356.626	105.12
356.853	100.12
357.08	84.12
357.307	95.12
357.534	98.12
357.761	86.12
357.988	99.12
358.215	103.12
358.441	104.12
358.668	85.12
358.895	105.12
359.122	103.12
359.349	96.12
359.576	100.12
359.802	121.12
360.029	109.12
360.256	132.12
360.483	121.12
360.709	106.12
360.936	107.12
361.163	87.12
361.39	113.12
361.616	102.12
361.843	95.12
362.07	101.12
362.296	115.12
362.523	105.12
362.749	103.12
362.976	100.12
363.203	93.12
363.429	106.12
363.656	105.12
363.882	88.12
364.109	102.12
364.335	117.12
364.562	94.12
364.788	116.12
365.015	102.12
365.241	105.12
365.468	98.12
365.694	116.12
365.92	111.12
366.147	90.12
366.373	95.12
366.599	95.12
366.826	107.12
367.052	92.12
367.278	108.12
367.505	89.12
367.731	114.12
367.957	94.12
368.184	95.12
368.41	106.12
368.636	123.12
368.862	135.12
369.089	126.12
369.315	108.12
369.541	97.12
369.767	96.12
369.993	107.12
370.219	111.12
370.445	102.12
370.672	97.12
370.898	100.12
371.124	73.12
371.35	96.12
371.576	83.12
371.802	97.12
372.028	90.12
372.254	97.12
372.48	104.12
372.706	79.12
372.932	100.12
373.158	94.12
373.384	80.12
373.61	101.12
373.835	101.12
374.061	94.12
374.287	100.12
374.513	98.12
374.739	88.12
374.965	107.12
375.191	90.12
375.416	93.12
375.642	96.12
375.868	87.12
376.094	99.12
376.319	92.12
376.545	91.12
376.771	86.12
376.997	92.12
377.222	98.12
377.448	89.12
377.674	108.12
377.899	98.12
378.125	92.12
378.35	93.12
378.576	95.12
378.802	98.12
379.027	98.12
379.253	95.12
379.478	83.12
379.704	91.12
379.929	90.12
380.155	110.12
380.38	95.12
380.606	109.12
380.831	93.12
381.057	93.12
381.282	102.12
381.507	88.12
381.733	94.12
381.958	121.12
382.184	88.12
382.409	106.12
382.634	87.12
382.86	106.12
383.085	91.12
383.31	109.12
383.535	105.12
383.761	105.12
383.986	96.12
384.211	99.12
384.436	108.12
384.662	99.12
384.887	103.12
385.112	111.12
385.337	86.12
385.562	93.12
385.787	103.12
386.013	111.12
386.238	116.12
386.463	109.12
386.688	122.12
386.913	107.12
387.138	114.12
387.363	107.12
387.588	105.12
387.813	108.12
388.038	94.12
388.263	98.12
388.488	111.12
388.713	99.12
388.938	100.12
389.163	120.12
389.387	116.12
389.612	108.12
389.837	100.12
390.062	113.12
390.287	100.12
390.512	103.12
390.736	93.12
390.961	89.12
391.186	99.12
391.411	97.12
391.636	85.12
391.86	90.12
392.085	80.12
392.31	93.12
392.534	93.12
392.759	83.12
392.984	102.12
393.208	77.12
393.433	105.12
393.658	83.12
393.882	99.12
394.107	92.12
394.331	88.12
394.556	94.12
394.78	92.12
395.005	105.12
395.229	86.12
395.454	92.12
395.678	93.12
395.903	105.12
396.127	98.12
396.352	106.12
396.576	90.12
396.801	106.12
397.025	106.12
397.249	91.12
397.474	97.12
397.698	90.12
397.922	78.12
398.147	87.12
398.371	99.12
398.595	89.12
398.82	80.12
399.044	92.12
399.268	102.12
399.492	84.12
399.717	86.12
399.941	87.12
400.165	101.12
400.389	96.12
400.613	77.12
400.837	81.12
401.062	101.12
401.286	102.12
401.51	106.12
401.734	88.12
401.958	110.12
402.182	132.12
402.406	199.12
402.63	160.12
402.854	115.12
403.078	105.12
403.302	99.12
403.526	87.12
403.75	99.12
403.974	88.12
404.198	99.12
404.422	88.12
404.645	98.12
404.869	111.12
405.093	124.12
405.317	144.12
405.541	135.12
405.765	110.12
405.988	129.12
406.212	203.12
406.436	288.12
406.66	182.12
406.883	142.12
407.107	107.12
407.331	110.12
407.555	110.12
407.778	109.12
408.002	103.12
408.226	99.12
408.449	106.12
408.673	100.12
408.896	101.12
409.12	103.12
409.344	98.12
409.567	101.12
409.791	97.12
410.014	84.12
410.238	103.12
410.461	93.12
410.685	91.12
410.908	106.12
411.132	105.12
411.355	104.12
411.578	83.12
411.802	103.12
412.025	98.12
412.249	107.12
412.472	116.12
412.695	123.12
412.919	116.12
413.142	85.12
413.365	109.12
413.589	100.12
413.812	104.12
414.035	97.12
414.258	88.12
414.482	102.12
414.705	101.12
414.928	89.12
415.151	97.12
415.374	99.12
415.597	92.12
415.821	92.12
416.044	98.12
416.267	96.12
416.49	91.12
416.713	91.12
416.936	99.12
417.159	101.12
417.382	97.12
417.605	97.12
417.828	116.12
418.051	108.12
418.274	85.12
418.497	100.12
418.72	93.12
418.943	98.12
419.166	94.12
419.389	87.12
419.611	79.12
419.834	90.12
420.057	99.12
420.28	101.12
420.503	93.12
420.726	98.12
420.948	91.12
421.171	111.12
421.394	102.12
421.617	100.12
421.839	94.12
422.062	103.12
422.285	96.12
422.507	85.12
422.73	107.12
422.953	93.12
423.175	100.12
423.398	94.12
423.621	91.12
423.843	91.12
424.066	114.12
424.288	97.12
424.511	113.12
424.733	111.12
424.956	139.12
425.178	114.12
425.401	102.12
425.623	109.12
425.846	99.12
426.068	98.12
426.291	84.12
426.513	98.12
426.735	95.12
426.958	99.12
427.18	134.12
427.402	164.12
427.625	236.12
427.847	228.12
428.069	205.12
428.292	140.12
428.514	111.12
428.736	111.12
428.958	95.12
429.181	99.12
429.403	90.12
429.625	94.12
429.847	114.12
430.069	118.12
430.292	98.12
430.514	87.12
430.736	92.12
430.958	90.12
431.18	87.12
431.402	91.12
431.624	82.12
431.846	102.12
432.068	87.12
432.29	78.12
432.512	98.12
432.734	93.12
432.956	88.12
433.178	104.12
433.4	97.12
433.622	109.12
433.844	94.12
434.066	105.12
434.287	95.12
434.509	90.12
434.731	97.12
434.953	96.12
435.175	97.12
435.397	95.12
435.618	115.12
435.84	114.12
436.062	144.12
436.284	151.12
436.505	102.12
436.727	114.12
436.949	112.12
437.17	91.12
437.392	98.12
437.614	102.12
437.835	135.12
438.057	152.12
438.278	143.12
438.5	131.12
438.721	144.12
438.943	110.12
439.165	101.12
439.386	100.12
439.608	102.12
439.829	116.12
440.05	143.12
440.272	175.12
440.493	105.12
440.715	103.12
440.936	94.12
441.158	112.12
441.379	100.12
441.6	102.12
441.822	87.12
442.043	112.12
442.264	124.12
442.486	122.12
442.707	99.12
442.928	107.12
443.149	166.12
443.371	155.12
443.592	132.12
443.813	111.12
444.034	118.12
444.255	104.12
444.476	106.12
444.698	94.12
444.919	93.12
445.14	135.12
445.361	144.12
445.582	123.12
445.803	184.12
446.024	190.12
446.245	155.12
446.466	132.12
446.687	100.12
446.908	115.12
447.129	99.12
447.35	86.12
447.571	111.12
447.792	100.12
448.013	113.12
448.234	118.12
448.455	104.12
448.675	121.12
448.896	134.12
449.117	100.12
449.338	118.12
449.559	156.12
449.779	153.12
450	109.12
450.221	93.12
450.442	101.12
450.662	95.12
450.883	133.12
451.104	138.12
451.324	117.12
451.545	91.12
451.766	94.12
451.986	98.12
452.207	104.12
452.428	98.12
452.648	106.12
452.869	118.12
453.089	132.12
453.31	130.12
453.53	109.12
453.751	100.12
453.971	126.12
454.192	122.12
454.412	101.12
454.633	88.12
454.853	90.12
455.073	85.12
455.294	92.12
455.514	123.12
455.734	96.12
455.955	84.12
456.175	97.12
456.395	97.12
456.616	91.12
456.836	111.12
457.056	100.12
457.276	114.12
457.497	101.12
457.717	94.12
457.937	99.12
458.157	90.12
458.377	110.12
458.598	131.12
458.818	182.12
459.038	202.12
459.258	144.12
459.478	107.12
459.698	101.12
459.918	83.12
460.138	110.12
460.358	87.12
460.578	79.12
460.798	91.12
461.018	91.12
461.238	94.12
461.458	85.12
461.678	102.12
461.898	98.12
462.118	94.12
462.338	104.12
462.558	82.12
462.777	106.12
462.997	102.12
463.217	92.12
463.437	98.12
463.657	100.12
463.876	90.12
464.096	95.12
464.316	92.12
464.536	107.12
464.755	110.12
464.975	128.12
465.195	198.12
465.414	198.12
465.634	113.12
465.854	109.12
466.073	112.12
466.293	86.12
466.512	102.12
466.732	103.12
466.951	83.12
467.171	102.12
467.391	112.12
467.61	146.12
467.829	157.12
468.049	406.12
468.268	556.12
468.488	171.12
468.707	103.12
468.927	92.12
469.146	91.12
469.365	95.12
469.585	103.12
469.804	97.12
470.023	106.12
470.243	99.12
470.462	130.12
470.681	134.12
470.901	112.12
471.12	114.12
471.339	102.12
471.558	99.12
471.777	118.12
471.997	224.12
472.216	710.12
472.435	1606.12
472.654	429.12
472.873	138.12
473.092	110.12
473.311	111.12
473.53	85.12
473.749	108.12
473.968	97.12
474.187	116.12
474.406	114.12
474.625	93.12
474.844	90.12
475.063	114.12
475.282	110.12
475.501	101.12
475.72	84.12
475.939	86.12
476.158	91.12
476.377	85.12
476.596	88.12
476.814	110.12
477.033	105.12
477.252	94.12
477.471	101.12
477.69	90.12
477.908	98.12
478.127	112.12
478.346	93.12
478.564	97.12
478.783	99.12
479.002	99.12
479.22	108.12
479.439	119.12
479.658	136.12
479.876	118.12
480.095	115.12
480.313	133.12
480.532	133.12
480.751	208.12
480.969	665.12
481.188	2669.12
481.406	1676.12
481.624	269.12
481.843	121.12
482.061	102.12
482.28	107.12
482.498	104.12
482.717	91.12
482.935	105.12
483.153	92.12
483.372	110.12
483.59	93.12
483.808	104.12
484.027	91.12
484.245	111.12
484.463	106.12
484.681	96.12
484.9	97.12
485.118	109.12
485.336	115.12
485.554	104.12
485.772	96.12
485.99	97.12
486.209	89.12
486.427	116.12
486.645	124.12
486.863	141.12
487.081	91.12
487.299	116.12
487.517	98.12
487.735	101.12
487.953	113.12
488.171	101.12
488.389	84.12
488.607	104.12
488.825	88.12
489.043	80.12
489.261	90.12
489.479	92.12
489.696	100.12
489.914	95.12
490.132	95.12
490.35	88.12
490.568	75.12
490.786	87.12
491.003	106.12
491.221	90.12
491.439	96.12
491.657	86.12
491.874	115.12
492.092	116.12
492.31	88.12
492.527	98.12
492.745	86.12
492.963	93.12
493.18	107.12
493.398	103.12
493.615	97.12
493.833	106.12
494.05	97.12
494.268	88.12
494.485	94.12
494.703	86.12
494.92	103.12
495.138	102.12
495.355	104.12
495.573	111.12
495.79	88.12
496.008	89.12
496.225	116.12
496.442	98.12
496.66	100.12
496.877	98.12
497.094	91.12
497.312	94.12
497.529	98.12
497.746	99.12
497.963	99.12
498.181	103.12
498.398	92.12
498.615	132.12
498.832	119.12
499.049	101.12
499.267	91.12
499.484	95.12
499.701	113.12
499.918	114.12
500.135	92.12
500.352	89.12
500.569	96.12
500.786	95.12
501.003	90.12
501.22	99.12
501.437	92.12
501.654	101.12
501.871	135.12
502.088	103.12
502.305	103.12
502.522	93.12
502.739	101.12
502.956	103.12
503.172	97.12
503.389	116.12
503.606	117.12
503.823	104.12
504.04	116.12
504.256	98.12
504.473	95.12
504.69	93.12
504.907	95.12
505.123	103.12
505.34	102.12
505.557	90.12
505.773	101.12
505.99	93.12
506.207	101.12
506.423	98.12
506.64	85.12
506.856	100.12
507.073	104.12
507.289	93.12
507.506	103.12
507.722	129.12
507.939	127.12
508.155	110.12
508.372	102.12
508.588	104.12
508.805	107.12
509.021	109.12
509.238	97.12
509.454	114.12
509.67	101.12
509.887	115.12
510.103	161.12
510.319	250.12
510.536	882.12
510.752	2880.12
510.968	838.12
