Data from Circ_2023_H10_HRD10591_00011.txt Node
Date: Wed Jan 03 09:50:33 EST 2024
User: Yrep
Spectrometer: HR+D1059
Trigger mode: 1
Integration Time (sec): 1.000000E-1
Scans to average: 1
Electric dark correction enabled: true
Nonlinearity correction enabled: false
Boxcar width: 0
XAxis mode: Wavelengths
Number of Pixels in Spectrum: 2048
>>>>>Begin Spectral Data<<<<<
223.165	-24.44
223.4	-24.44
223.635	-24.44
223.869	-13.44
224.104	-15.44
224.338	-15.44
224.573	-11.44
224.808	-12.44
225.042	-22.44
225.277	-14.44
225.511	-8.44
225.746	-2.44
225.98	21.56
226.215	17.56
226.449	17.56
226.683	11.56
226.918	36.56
227.152	35.56
227.387	25.56
227.621	32.56
227.856	41.56
228.09	58.56
228.324	66.56
228.559	50.56
228.793	66.56
229.027	76.56
229.262	67.56
229.496	75.56
229.73	82.56
229.964	91.56
230.199	81.56
230.433	62.56
230.667	90.56
230.901	88.56
231.136	79.56
231.37	104.56
231.604	81.56
231.838	90.56
232.072	72.56
232.306	84.56
232.541	71.56
232.775	90.56
233.009	79.56
233.243	88.56
233.477	71.56
233.711	97.56
233.945	79.56
234.179	96.56
234.413	97.56
234.647	89.56
234.881	73.56
235.115	86.56
235.349	73.56
235.583	83.56
235.817	75.56
236.051	76.56
236.285	81.56
236.519	78.56
236.753	73.56
236.987	84.56
237.221	99.56
237.455	99.56
237.689	86.56
237.922	75.56
238.156	74.56
238.39	75.56
238.624	81.56
238.858	81.56
239.091	87.56
239.325	76.56
239.559	76.56
239.793	90.56
240.027	87.56
240.26	96.56
240.494	74.56
240.728	64.56
240.961	86.56
241.195	79.56
241.429	74.56
241.662	77.56
241.896	76.56
242.13	67.56
242.363	74.56
242.597	86.56
242.83	73.56
243.064	71.56
243.298	84.56
243.531	73.56
243.765	86.56
243.998	78.56
244.232	72.56
244.465	101.56
244.699	81.56
244.932	85.56
245.166	82.56
245.399	75.56
245.633	75.56
245.866	82.56
246.099	74.56
246.333	78.56
246.566	86.56
246.8	68.56
247.033	92.56
247.266	82.56
247.5	84.56
247.733	75.56
247.966	74.56
248.2	82.56
248.433	71.56
248.666	63.56
248.899	80.56
249.133	86.56
249.366	95.56
249.599	80.56
249.832	106.56
250.066	80.56
250.299	99.56
250.532	88.56
250.765	88.56
250.998	83.56
251.231	87.56
251.465	86.56
251.698	89.56
251.931	75.56
252.164	75.56
252.397	69.56
252.63	82.56
252.863	79.56
253.096	68.56
253.329	85.56
253.562	95.56
253.795	86.56
254.028	91.56
254.261	97.56
254.494	84.56
254.727	86.56
254.96	80.56
255.193	83.56
255.426	93.56
255.659	83.56
255.892	87.56
256.124	100.56
256.357	89.56
256.59	77.56
256.823	83.56
257.056	89.56
257.289	90.56
257.521	86.56
257.754	84.56
257.987	75.56
258.22	83.56
258.452	100.56
258.685	87.56
258.918	81.56
259.151	95.56
259.383	89.56
259.616	82.56
259.849	90.56
260.081	101.56
260.314	88.56
260.547	84.56
260.779	85.56
261.012	83.56
261.244	101.56
261.477	90.56
261.71	94.56
261.942	132.56
262.175	138.56
262.407	99.56
262.64	87.56
262.872	93.56
263.105	87.56
263.337	79.56
263.57	70.56
263.802	74.56
264.035	95.56
264.267	84.56
264.499	94.56
264.732	87.56
264.964	83.56
265.197	80.56
265.429	75.56
265.661	86.56
265.894	81.56
266.126	78.56
266.358	84.56
266.591	76.56
266.823	91.56
267.055	92.56
267.287	97.56
267.52	86.56
267.752	94.56
267.984	82.56
268.216	94.56
268.448	88.56
268.681	84.56
268.913	82.56
269.145	85.56
269.377	92.56
269.609	85.56
269.841	93.56
270.073	91.56
270.306	77.56
270.538	97.56
270.77	80.56
271.002	82.56
271.234	103.56
271.466	102.56
271.698	92.56
271.93	100.56
272.162	88.56
272.394	78.56
272.626	85.56
272.858	82.56
273.09	86.56
273.322	84.56
273.553	84.56
273.785	85.56
274.017	86.56
274.249	83.56
274.481	84.56
274.713	86.56
274.945	72.56
275.176	84.56
275.408	103.56
275.64	97.56
275.872	118.56
276.104	102.56
276.335	107.56
276.567	113.56
276.799	129.56
277.031	129.56
277.262	155.56
277.494	125.56
277.726	102.56
277.957	86.56
278.189	75.56
278.421	86.56
278.652	84.56
278.884	93.56
279.115	100.56
279.347	97.56
279.579	98.56
279.81	126.56
280.042	169.56
280.273	189.56
280.505	158.56
280.736	108.56
280.968	96.56
281.199	87.56
281.431	87.56
281.662	100.56
281.894	93.56
282.125	102.56
282.356	97.56
282.588	164.56
282.819	133.56
283.051	97.56
283.282	91.56
283.513	90.56
283.745	91.56
283.976	92.56
284.207	89.56
284.439	91.56
284.67	87.56
284.901	94.56
285.132	95.56
285.364	85.56
285.595	86.56
285.826	81.56
286.057	64.56
286.288	86.56
286.52	92.56
286.751	89.56
286.982	95.56
287.213	97.56
287.444	85.56
287.675	73.56
287.906	92.56
288.138	89.56
288.369	87.56
288.6	76.56
288.831	93.56
289.062	80.56
289.293	92.56
289.524	86.56
289.755	90.56
289.986	89.56
290.217	97.56
290.448	86.56
290.679	94.56
290.91	90.56
291.141	86.56
291.371	102.56
291.602	83.56
291.833	81.56
292.064	76.56
292.295	72.56
292.526	89.56
292.757	85.56
292.987	78.56
293.218	81.56
293.449	83.56
293.68	81.56
293.91	90.56
294.141	79.56
294.372	87.56
294.603	91.56
294.833	91.56
295.064	94.56
295.295	91.56
295.525	107.56
295.756	99.56
295.987	109.56
296.217	159.56
296.448	127.56
296.679	90.56
296.909	101.56
297.14	101.56
297.37	100.56
297.601	78.56
297.831	86.56
298.062	95.56
298.292	86.56
298.523	100.56
298.753	86.56
298.984	86.56
299.214	109.56
299.445	94.56
299.675	116.56
299.905	104.56
300.136	93.56
300.366	94.56
300.597	79.56
300.827	99.56
301.057	114.56
301.288	115.56
301.518	100.56
301.748	101.56
301.979	105.56
302.209	98.56
302.439	112.56
302.669	83.56
302.9	99.56
303.13	110.56
303.36	106.56
303.59	129.56
303.82	118.56
304.051	101.56
304.281	94.56
304.511	106.56
304.741	103.56
304.971	83.56
305.201	94.56
305.431	81.56
305.661	82.56
305.891	83.56
306.121	106.56
306.352	101.56
306.582	116.56
306.812	109.56
307.042	128.56
307.272	140.56
307.502	147.56
307.731	148.56
307.961	114.56
308.191	108.56
308.421	98.56
308.651	90.56
308.881	99.56
309.111	105.56
309.341	109.56
309.571	106.56
309.8	112.56
310.03	94.56
310.26	102.56
310.49	90.56
310.72	100.56
310.949	101.56
311.179	112.56
311.409	99.56
311.639	105.56
311.868	105.56
312.098	105.56
312.328	92.56
312.557	106.56
312.787	104.56
313.017	117.56
313.246	102.56
313.476	90.56
313.706	98.56
313.935	104.56
314.165	111.56
314.394	99.56
314.624	105.56
314.853	118.56
315.083	92.56
315.312	99.56
315.542	90.56
315.771	81.56
316.001	95.56
316.23	95.56
316.46	76.56
316.689	91.56
316.919	103.56
317.148	108.56
317.377	99.56
317.607	86.56
317.836	79.56
318.065	113.56
318.295	83.56
318.524	94.56
318.753	91.56
318.983	102.56
319.212	121.56
319.441	113.56
319.67	112.56
319.9	92.56
320.129	103.56
320.358	94.56
320.587	96.56
320.816	107.56
321.046	113.56
321.275	97.56
321.504	112.56
321.733	105.56
321.962	94.56
322.191	99.56
322.42	105.56
322.649	129.56
322.878	118.56
323.108	123.56
323.337	138.56
323.566	132.56
323.795	182.56
324.024	226.56
324.253	488.56
324.482	1004.56
324.71	2130.56
324.939	2802.56
325.168	1029.56
325.397	291.56
325.626	177.56
325.855	146.56
326.084	153.56
326.313	143.56
326.542	170.56
326.77	292.56
326.999	571.56
327.228	1139.56
327.457	2116.56
327.686	1692.56
327.914	510.56
328.143	412.56
328.372	485.56
328.6	295.56
328.829	172.56
329.058	179.56
329.287	186.56
329.515	142.56
329.744	208.56
329.972	378.56
330.201	686.56
330.43	1030.56
330.658	490.56
330.887	239.56
331.115	169.56
331.344	110.56
331.572	118.56
331.801	126.56
332.03	117.56
332.258	117.56
332.486	97.56
332.715	106.56
332.943	99.56
333.172	98.56
333.4	122.56
333.629	140.56
333.857	200.56
334.085	340.56
334.314	684.56
334.542	1269.56
334.771	1214.56
334.999	356.56
335.227	150.56
335.455	105.56
335.684	120.56
335.912	112.56
336.14	105.56
336.369	123.56
336.597	120.56
336.825	112.56
337.053	94.56
337.281	94.56
337.51	86.56
337.738	103.56
337.966	97.56
338.194	102.56
338.422	100.56
338.65	89.56
338.878	103.56
339.106	90.56
339.334	100.56
339.562	83.56
339.79	100.56
340.018	94.56
340.246	79.56
340.474	92.56
340.702	102.56
340.93	96.56
341.158	102.56
341.386	90.56
341.614	100.56
341.842	106.56
342.07	95.56
342.298	90.56
342.526	91.56
342.754	89.56
342.981	100.56
343.209	85.56
343.437	95.56
343.665	90.56
343.893	93.56
344.12	94.56
344.348	98.56
344.576	98.56
344.804	90.56
345.031	98.56
345.259	101.56
345.487	98.56
345.714	91.56
345.942	93.56
346.17	97.56
346.397	93.56
346.625	102.56
346.853	96.56
347.08	94.56
347.308	97.56
347.535	108.56
347.763	121.56
347.99	105.56
348.218	103.56
348.445	106.56
348.673	120.56
348.9	105.56
349.128	91.56
349.355	96.56
349.583	97.56
349.81	96.56
350.037	89.56
350.265	99.56
350.492	88.56
350.72	109.56
350.947	120.56
351.174	112.56
351.402	127.56
351.629	125.56
351.856	94.56
352.083	113.56
352.311	119.56
352.538	102.56
352.765	112.56
352.992	128.56
353.22	127.56
353.447	100.56
353.674	118.56
353.901	112.56
354.128	86.56
354.355	109.56
354.583	99.56
354.81	98.56
355.037	100.56
355.264	103.56
355.491	105.56
355.718	96.56
355.945	92.56
356.172	104.56
356.399	92.56
356.626	82.56
356.853	93.56
357.08	91.56
357.307	87.56
357.534	95.56
357.761	96.56
357.988	88.56
358.215	73.56
358.441	93.56
358.668	92.56
358.895	98.56
359.122	99.56
359.349	103.56
359.576	110.56
359.802	100.56
360.029	126.56
360.256	136.56
360.483	107.56
360.709	107.56
360.936	100.56
361.163	100.56
361.39	98.56
361.616	106.56
361.843	102.56
362.07	111.56
362.296	107.56
362.523	101.56
362.749	86.56
362.976	78.56
363.203	97.56
363.429	97.56
363.656	90.56
363.882	81.56
364.109	87.56
364.335	97.56
364.562	100.56
364.788	102.56
365.015	103.56
365.241	97.56
365.468	111.56
365.694	118.56
365.92	94.56
366.147	104.56
366.373	91.56
366.599	87.56
366.826	89.56
367.052	86.56
367.278	114.56
367.505	101.56
367.731	98.56
367.957	99.56
368.184	95.56
368.41	102.56
368.636	117.56
368.862	136.56
369.089	116.56
369.315	106.56
369.541	81.56
369.767	97.56
369.993	96.56
370.219	83.56
370.445	84.56
370.672	105.56
370.898	102.56
371.124	99.56
371.35	92.56
371.576	88.56
371.802	99.56
372.028	92.56
372.254	98.56
372.48	83.56
372.706	103.56
372.932	82.56
373.158	84.56
373.384	97.56
373.61	108.56
373.835	84.56
374.061	104.56
374.287	99.56
374.513	109.56
374.739	91.56
374.965	89.56
375.191	101.56
375.416	86.56
375.642	96.56
375.868	86.56
376.094	84.56
376.319	104.56
376.545	95.56
376.771	109.56
376.997	97.56
377.222	91.56
377.448	99.56
377.674	93.56
377.899	92.56
378.125	80.56
378.35	88.56
378.576	92.56
378.802	96.56
379.027	90.56
379.253	103.56
379.478	97.56
379.704	84.56
379.929	103.56
380.155	82.56
380.38	90.56
380.606	100.56
380.831	95.56
381.057	99.56
381.282	109.56
381.507	107.56
381.733	99.56
381.958	94.56
382.184	89.56
382.409	95.56
382.634	118.56
382.86	94.56
383.085	82.56
383.31	95.56
383.535	95.56
383.761	81.56
383.986	93.56
384.211	87.56
384.436	107.56
384.662	94.56
384.887	110.56
385.112	98.56
385.337	111.56
385.562	103.56
385.787	101.56
386.013	120.56
386.238	110.56
386.463	105.56
386.688	103.56
386.913	104.56
387.138	110.56
387.363	105.56
387.588	89.56
387.813	97.56
388.038	98.56
388.263	115.56
388.488	99.56
388.713	92.56
388.938	102.56
389.163	91.56
389.387	104.56
389.612	95.56
389.837	94.56
390.062	89.56
390.287	107.56
390.512	83.56
390.736	92.56
390.961	94.56
391.186	97.56
391.411	90.56
391.636	82.56
391.86	92.56
392.085	95.56
392.31	75.56
392.534	93.56
392.759	97.56
392.984	91.56
393.208	87.56
393.433	81.56
393.658	89.56
393.882	100.56
394.107	70.56
394.331	92.56
394.556	97.56
394.78	91.56
395.005	98.56
395.229	87.56
395.454	98.56
395.678	83.56
395.903	94.56
396.127	80.56
396.352	84.56
396.576	94.56
396.801	86.56
397.025	74.56
397.249	91.56
397.474	85.56
397.698	94.56
397.922	76.56
398.147	97.56
398.371	94.56
398.595	93.56
398.82	95.56
399.044	103.56
399.268	87.56
399.492	80.56
399.717	82.56
399.941	90.56
400.165	115.56
400.389	95.56
400.613	86.56
400.837	97.56
401.062	83.56
401.286	91.56
401.51	84.56
401.734	88.56
401.958	105.56
402.182	143.56
402.406	171.56
402.63	135.56
402.854	90.56
403.078	88.56
403.302	94.56
403.526	89.56
403.75	99.56
403.974	96.56
404.198	84.56
404.422	90.56
404.645	96.56
404.869	110.56
405.093	106.56
405.317	158.56
405.541	145.56
405.765	112.56
405.988	131.56
406.212	191.56
406.436	277.56
406.66	176.56
406.883	120.56
407.107	99.56
407.331	106.56
407.555	119.56
407.778	94.56
408.002	83.56
408.226	110.56
408.449	101.56
408.673	90.56
408.896	97.56
409.12	110.56
409.344	82.56
409.567	93.56
409.791	91.56
410.014	97.56
410.238	100.56
410.461	90.56
410.685	98.56
410.908	106.56
411.132	130.56
411.355	126.56
411.578	81.56
411.802	86.56
412.025	90.56
412.249	88.56
412.472	138.56
412.695	134.56
412.919	116.56
413.142	98.56
413.365	101.56
413.589	87.56
413.812	87.56
414.035	94.56
414.258	90.56
414.482	89.56
414.705	99.56
414.928	94.56
415.151	84.56
415.374	97.56
415.597	83.56
415.821	85.56
416.044	87.56
416.267	95.56
416.49	76.56
416.713	89.56
416.936	103.56
417.159	101.56
417.382	120.56
417.605	106.56
417.828	90.56
418.051	110.56
418.274	88.56
418.497	89.56
418.72	87.56
418.943	85.56
419.166	103.56
419.389	99.56
419.611	87.56
419.834	97.56
420.057	91.56
420.28	101.56
420.503	112.56
420.726	80.56
420.948	99.56
421.171	115.56
421.394	101.56
421.617	103.56
421.839	85.56
422.062	82.56
422.285	97.56
422.507	96.56
422.73	114.56
422.953	94.56
423.175	100.56
423.398	102.56
423.621	72.56
423.843	93.56
424.066	95.56
424.288	86.56
424.511	98.56
424.733	99.56
424.956	128.56
425.178	102.56
425.401	111.56
425.623	112.56
425.846	97.56
426.068	81.56
426.291	101.56
426.513	89.56
426.735	96.56
426.958	88.56
427.18	98.56
427.402	183.56
427.625	238.56
427.847	226.56
428.069	217.56
428.292	121.56
428.514	112.56
428.736	96.56
428.958	90.56
429.181	87.56
429.403	88.56
429.625	86.56
429.847	96.56
430.069	113.56
430.292	103.56
430.514	94.56
430.736	80.56
430.958	94.56
431.18	84.56
431.402	86.56
431.624	79.56
431.846	89.56
432.068	88.56
432.29	102.56
432.512	104.56
432.734	91.56
432.956	89.56
433.178	106.56
433.4	110.56
433.622	100.56
433.844	75.56
434.066	90.56
434.287	86.56
434.509	98.56
434.731	92.56
434.953	95.56
435.175	89.56
435.397	92.56
435.618	104.56
435.84	126.56
436.062	145.56
436.284	128.56
436.505	127.56
436.727	119.56
436.949	108.56
437.17	94.56
437.392	99.56
437.614	111.56
437.835	125.56
438.057	129.56
438.278	138.56
438.5	124.56
438.721	148.56
438.943	114.56
439.165	105.56
439.386	98.56
439.608	89.56
439.829	109.56
440.05	134.56
440.272	186.56
440.493	114.56
440.715	100.56
440.936	87.56
441.158	94.56
441.379	91.56
441.6	101.56
441.822	105.56
442.043	110.56
442.264	116.56
442.486	99.56
442.707	102.56
442.928	124.56
443.149	154.56
443.371	157.56
443.592	138.56
443.813	128.56
444.034	115.56
444.255	94.56
444.476	100.56
444.698	93.56
444.919	95.56
445.14	127.56
445.361	153.56
445.582	146.56
445.803	168.56
446.024	167.56
446.245	168.56
446.466	136.56
446.687	110.56
446.908	90.56
447.129	80.56
447.35	85.56
447.571	98.56
447.792	90.56
448.013	103.56
448.234	108.56
448.455	123.56
448.675	139.56
448.896	136.56
449.117	103.56
449.338	106.56
449.559	152.56
449.779	160.56
450	105.56
450.221	96.56
450.442	98.56
450.662	102.56
450.883	144.56
451.104	124.56
451.324	112.56
451.545	93.56
451.766	91.56
451.986	83.56
452.207	107.56
452.428	97.56
452.648	107.56
452.869	115.56
453.089	113.56
453.31	119.56
453.53	91.56
453.751	103.56
453.971	111.56
454.192	139.56
454.412	109.56
454.633	91.56
454.853	101.56
455.073	94.56
455.294	97.56
455.514	115.56
455.734	99.56
455.955	87.56
456.175	84.56
456.395	87.56
456.616	94.56
456.836	80.56
457.056	86.56
457.276	108.56
457.497	89.56
457.717	88.56
457.937	104.56
458.157	88.56
458.377	93.56
458.598	126.56
458.818	179.56
459.038	196.56
459.258	145.56
459.478	96.56
459.698	102.56
459.918	79.56
460.138	77.56
460.358	88.56
460.578	84.56
460.798	94.56
461.018	99.56
461.238	90.56
461.458	86.56
461.678	76.56
461.898	89.56
462.118	75.56
462.338	99.56
462.558	88.56
462.777	92.56
462.997	97.56
463.217	103.56
463.437	83.56
463.657	94.56
463.876	83.56
464.096	101.56
464.316	91.56
464.536	99.56
464.755	97.56
464.975	119.56
465.195	219.56
465.414	213.56
465.634	96.56
465.854	79.56
466.073	80.56
466.293	89.56
466.512	90.56
466.732	99.56
466.951	102.56
467.171	95.56
467.391	108.56
467.61	127.56
467.829	185.56
468.049	368.56
468.268	571.56
468.488	169.56
468.707	86.56
468.927	106.56
469.146	97.56
469.365	93.56
469.585	89.56
469.804	102.56
470.023	118.56
470.243	112.56
470.462	113.56
470.681	128.56
470.901	99.56
471.12	98.56
471.339	106.56
471.558	115.56
471.777	123.56
471.997	223.56
472.216	729.56
472.435	1682.56
472.654	440.56
472.873	144.56
473.092	116.56
473.311	92.56
473.53	84.56
473.749	89.56
473.968	110.56
474.187	131.56
474.406	134.56
474.625	94.56
474.844	86.56
475.063	86.56
475.282	98.56
475.501	108.56
475.72	92.56
475.939	80.56
476.158	83.56
476.377	94.56
476.596	78.56
476.814	94.56
477.033	107.56
477.252	90.56
477.471	88.56
477.69	92.56
477.908	87.56
478.127	89.56
478.346	99.56
478.564	98.56
478.783	106.56
479.002	108.56
479.22	110.56
479.439	115.56
479.658	112.56
479.876	110.56
480.095	114.56
480.313	119.56
480.532	146.56
480.751	226.56
480.969	690.56
481.188	2816.56
481.406	1803.56
481.624	292.56
481.843	123.56
482.061	111.56
482.28	94.56
482.498	105.56
482.717	104.56
482.935	96.56
483.153	98.56
483.372	95.56
483.59	94.56
483.808	80.56
484.027	90.56
484.245	104.56
484.463	87.56
484.681	99.56
484.9	112.56
485.118	88.56
485.336	111.56
485.554	91.56
485.772	105.56
485.99	107.56
486.209	103.56
486.427	101.56
486.645	113.56
486.863	126.56
487.081	99.56
487.299	100.56
487.517	106.56
487.735	97.56
487.953	106.56
488.171	98.56
488.389	91.56
488.607	98.56
488.825	93.56
489.043	84.56
489.261	101.56
489.479	103.56
489.696	95.56
489.914	96.56
490.132	99.56
490.35	90.56
490.568	92.56
490.786	79.56
491.003	87.56
491.221	95.56
491.439	89.56
491.657	94.56
491.874	97.56
492.092	85.56
492.31	94.56
492.527	98.56
492.745	118.56
492.963	87.56
493.18	100.56
493.398	97.56
493.615	105.56
493.833	94.56
494.05	113.56
494.268	87.56
494.485	97.56
494.703	94.56
494.92	93.56
495.138	90.56
495.355	83.56
495.573	101.56
495.79	89.56
496.008	98.56
496.225	94.56
496.442	85.56
496.66	91.56
496.877	91.56
497.094	112.56
497.312	88.56
497.529	80.56
497.746	100.56
497.963	96.56
498.181	88.56
498.398	105.56
498.615	114.56
498.832	107.56
499.049	95.56
499.267	103.56
499.484	91.56
499.701	79.56
499.918	91.56
500.135	92.56
500.352	94.56
500.569	100.56
500.786	97.56
501.003	94.56
501.22	89.56
501.437	89.56
501.654	98.56
501.871	123.56
502.088	93.56
502.305	97.56
502.522	100.56
502.739	94.56
502.956	98.56
503.172	95.56
503.389	108.56
503.606	105.56
503.823	102.56
504.04	90.56
504.256	109.56
504.473	105.56
504.69	96.56
504.907	95.56
505.123	91.56
505.34	96.56
505.557	85.56
505.773	86.56
505.99	94.56
506.207	79.56
506.423	87.56
506.64	92.56
506.856	88.56
507.073	88.56
507.289	100.56
507.506	102.56
507.722	126.56
507.939	135.56
508.155	106.56
508.372	106.56
508.588	84.56
508.805	103.56
509.021	90.56
509.238	88.56
509.454	80.56
509.67	94.56
509.887	107.56
510.103	151.56
510.319	206.56
510.536	835.56
510.752	2824.56
510.968	807.56
511.184	174.56
511.401	121.56
511.617	103.56
511.833	115.56
512.049	111.56
512.265	96.56
512.481	91.56
512.698	107.56
512.914	99.56
