Data from Circ_2023_H10_HRD10591_00051.txt Node
Date: Wed Jan 03 09:50:41 EST 2024
User: Yrep
Spectrometer: HR+D1059
Trigger mode: 1
Integration Time (sec): 1.000000E-1
Scans to average: 1
Electric dark correction enabled: true
Nonlinearity correction enabled: false
Boxcar width: 0
XAxis mode: Wavelengths
Number of Pixels in Spectrum: 2048
>>>>>Begin Spectral Data<<<<<
223.165	-11.5
223.4	-11.5
223.635	-11.5
223.869	-17.5
224.104	-8.5
224.338	-21.5
224.573	-9.5
224.808	-9.5
225.042	-14.5
225.277	-10.5
225.511	-5.5
225.746	-2.5
225.98	0.5
226.215	15.5
226.449	21.5
226.683	18.5
226.918	24.5
227.152	30.5
227.387	40.5
227.621	48.5
227.856	47.5
228.09	35.5
228.324	48.5
228.559	50.5
228.793	48.5
229.027	61.5
229.262	68.5
229.496	60.5
229.73	103.5
229.964	102.5
230.199	78.5
230.433	80.5
230.667	70.5
230.901	64.5
231.136	82.5
231.37	67.5
231.604	66.5
231.838	81.5
232.072	93.5
232.306	92.5
232.541	75.5
232.775	81.5
233.009	72.5
233.243	88.5
233.477	76.5
233.711	87.5
233.945	82.5
234.179	83.5
234.413	77.5
234.647	60.5
234.881	84.5
235.115	81.5
235.349	76.5
235.583	81.5
235.817	75.5
236.051	83.5
236.285	80.5
236.519	68.5
236.753	78.5
236.987	91.5
237.221	91.5
237.455	93.5
237.689	80.5
237.922	74.5
238.156	74.5
238.39	87.5
238.624	72.5
238.858	83.5
239.091	75.5
239.325	76.5
239.559	95.5
239.793	74.5
240.027	80.5
240.26	72.5
240.494	88.5
240.728	81.5
240.961	90.5
241.195	83.5
241.429	67.5
241.662	69.5
241.896	67.5
242.13	71.5
242.363	74.5
242.597	74.5
242.83	81.5
243.064	87.5
243.298	82.5
243.531	80.5
243.765	86.5
243.998	77.5
244.232	82.5
244.465	77.5
244.699	82.5
244.932	81.5
245.166	92.5
245.399	75.5
245.633	68.5
245.866	86.5
246.099	70.5
246.333	86.5
246.566	79.5
246.8	79.5
247.033	91.5
247.266	79.5
247.5	89.5
247.733	88.5
247.966	68.5
248.2	77.5
248.433	91.5
248.666	83.5
248.899	73.5
249.133	99.5
249.366	95.5
249.599	114.5
249.832	87.5
250.066	84.5
250.299	86.5
250.532	91.5
250.765	86.5
250.998	76.5
251.231	79.5
251.465	76.5
251.698	75.5
251.931	74.5
252.164	93.5
252.397	81.5
252.63	72.5
252.863	80.5
253.096	76.5
253.329	86.5
253.562	77.5
253.795	88.5
254.028	75.5
254.261	75.5
254.494	82.5
254.727	85.5
254.96	68.5
255.193	67.5
255.426	86.5
255.659	94.5
255.892	109.5
256.124	104.5
256.357	88.5
256.59	95.5
256.823	76.5
257.056	75.5
257.289	81.5
257.521	92.5
257.754	90.5
257.987	78.5
258.22	102.5
258.452	103.5
258.685	89.5
258.918	84.5
259.151	92.5
259.383	83.5
259.616	70.5
259.849	83.5
260.081	82.5
260.314	83.5
260.547	93.5
260.779	100.5
261.012	126.5
261.244	111.5
261.477	108.5
261.71	118.5
261.942	123.5
262.175	128.5
262.407	101.5
262.64	82.5
262.872	78.5
263.105	81.5
263.337	82.5
263.57	84.5
263.802	90.5
264.035	79.5
264.267	84.5
264.499	96.5
264.732	79.5
264.964	86.5
265.197	85.5
265.429	93.5
265.661	79.5
265.894	77.5
266.126	94.5
266.358	71.5
266.591	82.5
266.823	76.5
267.055	78.5
267.287	84.5
267.52	90.5
267.752	79.5
267.984	90.5
268.216	70.5
268.448	81.5
268.681	97.5
268.913	94.5
269.145	85.5
269.377	85.5
269.609	81.5
269.841	81.5
270.073	88.5
270.306	85.5
270.538	96.5
270.77	83.5
271.002	84.5
271.234	84.5
271.466	93.5
271.698	90.5
271.93	86.5
272.162	89.5
272.394	105.5
272.626	77.5
272.858	70.5
273.09	82.5
273.322	90.5
273.553	82.5
273.785	78.5
274.017	83.5
274.249	89.5
274.481	90.5
274.713	87.5
274.945	89.5
275.176	106.5
275.408	98.5
275.64	118.5
275.872	135.5
276.104	115.5
276.335	107.5
276.567	109.5
276.799	138.5
277.031	179.5
277.262	199.5
277.494	155.5
277.726	108.5
277.957	94.5
278.189	95.5
278.421	93.5
278.652	92.5
278.884	83.5
279.115	100.5
279.347	88.5
279.579	99.5
279.81	143.5
280.042	204.5
280.273	279.5
280.505	194.5
280.736	108.5
280.968	96.5
281.199	91.5
281.431	88.5
281.662	83.5
281.894	93.5
282.125	119.5
282.356	131.5
282.588	179.5
282.819	130.5
283.051	99.5
283.282	68.5
283.513	78.5
283.745	80.5
283.976	76.5
284.207	83.5
284.439	89.5
284.67	79.5
284.901	86.5
285.132	81.5
285.364	89.5
285.595	89.5
285.826	79.5
286.057	97.5
286.288	86.5
286.52	97.5
286.751	87.5
286.982	71.5
287.213	83.5
287.444	87.5
287.675	103.5
287.906	97.5
288.138	83.5
288.369	85.5
288.6	87.5
288.831	80.5
289.062	84.5
289.293	83.5
289.524	78.5
289.755	85.5
289.986	81.5
290.217	103.5
290.448	89.5
290.679	89.5
290.91	89.5
291.141	90.5
291.371	93.5
291.602	104.5
291.833	91.5
292.064	90.5
292.295	77.5
292.526	83.5
292.757	88.5
292.987	84.5
293.218	80.5
293.449	88.5
293.68	110.5
293.91	94.5
294.141	86.5
294.372	98.5
294.603	92.5
294.833	92.5
295.064	80.5
295.295	82.5
295.525	75.5
295.756	108.5
295.987	130.5
296.217	163.5
296.448	158.5
296.679	101.5
296.909	97.5
297.14	83.5
297.37	84.5
297.601	75.5
297.831	80.5
298.062	90.5
298.292	97.5
298.523	92.5
298.753	82.5
298.984	86.5
299.214	77.5
299.445	86.5
299.675	105.5
299.905	103.5
300.136	89.5
300.366	91.5
300.597	93.5
300.827	83.5
301.057	96.5
301.288	108.5
301.518	100.5
301.748	71.5
301.979	101.5
302.209	97.5
302.439	80.5
302.669	87.5
302.9	81.5
303.13	101.5
303.36	107.5
303.59	119.5
303.82	146.5
304.051	124.5
304.281	98.5
304.511	89.5
304.741	97.5
304.971	84.5
305.201	88.5
305.431	95.5
305.661	84.5
305.891	85.5
306.121	97.5
306.352	112.5
306.582	114.5
306.812	104.5
307.042	113.5
307.272	161.5
307.502	178.5
307.731	156.5
307.961	135.5
308.191	95.5
308.421	99.5
308.651	81.5
308.881	84.5
309.111	82.5
309.341	87.5
309.571	98.5
309.8	113.5
310.03	101.5
310.26	96.5
310.49	92.5
310.72	115.5
310.949	101.5
311.179	101.5
311.409	102.5
311.639	124.5
311.868	111.5
312.098	96.5
312.328	108.5
312.557	116.5
312.787	132.5
313.017	126.5
313.246	78.5
313.476	103.5
313.706	101.5
313.935	91.5
314.165	101.5
314.394	108.5
314.624	98.5
314.853	93.5
315.083	98.5
315.312	81.5
315.542	91.5
315.771	102.5
316.001	87.5
316.23	88.5
316.46	94.5
316.689	89.5
316.919	108.5
317.148	95.5
317.377	102.5
317.607	99.5
317.836	76.5
318.065	77.5
318.295	85.5
318.524	91.5
318.753	91.5
318.983	96.5
319.212	104.5
319.441	107.5
319.67	114.5
319.9	106.5
320.129	83.5
320.358	98.5
320.587	95.5
320.816	101.5
321.046	102.5
321.275	112.5
321.504	86.5
321.733	94.5
321.962	99.5
322.191	106.5
322.42	109.5
322.649	116.5
322.878	130.5
323.108	123.5
323.337	150.5
323.566	151.5
323.795	194.5
324.024	258.5
324.253	514.5
324.482	1103.5
324.71	2248.5
324.939	3048.5
325.168	1113.5
325.397	306.5
325.626	176.5
325.855	133.5
326.084	155.5
326.313	151.5
326.542	199.5
326.77	288.5
326.999	580.5
327.228	1243.5
327.457	2210.5
327.686	1845.5
327.914	623.5
328.143	573.5
328.372	727.5
328.6	401.5
328.829	203.5
329.058	181.5
329.287	188.5
329.515	167.5
329.744	280.5
329.972	521.5
330.201	1088.5
330.43	1638.5
330.658	736.5
330.887	300.5
331.115	200.5
331.344	135.5
331.572	120.5
331.801	122.5
332.03	123.5
332.258	133.5
332.486	112.5
332.715	115.5
332.943	101.5
333.172	135.5
333.4	140.5
333.629	178.5
333.857	269.5
334.085	490.5
334.314	990.5
334.542	1991.5
334.771	1940.5
334.999	480.5
335.227	201.5
335.455	130.5
335.684	119.5
335.912	134.5
336.14	110.5
336.369	119.5
336.597	109.5
336.825	103.5
337.053	98.5
337.281	87.5
337.51	99.5
337.738	86.5
337.966	107.5
338.194	120.5
338.422	92.5
338.65	91.5
338.878	94.5
339.106	86.5
339.334	109.5
339.562	93.5
339.79	90.5
340.018	90.5
340.246	87.5
340.474	104.5
340.702	113.5
340.93	79.5
341.158	95.5
341.386	107.5
341.614	118.5
341.842	102.5
342.07	81.5
342.298	111.5
342.526	92.5
342.754	98.5
342.981	99.5
343.209	98.5
343.437	94.5
343.665	84.5
343.893	89.5
344.12	102.5
344.348	100.5
344.576	88.5
344.804	102.5
345.031	107.5
345.259	110.5
345.487	98.5
345.714	100.5
345.942	82.5
346.17	101.5
346.397	102.5
346.625	103.5
346.853	95.5
347.08	87.5
347.308	92.5
347.535	100.5
347.763	102.5
347.99	114.5
348.218	113.5
348.445	125.5
348.673	114.5
348.9	95.5
349.128	89.5
349.355	95.5
349.583	102.5
349.81	96.5
350.037	103.5
350.265	92.5
350.492	91.5
350.72	95.5
350.947	93.5
351.174	114.5
351.402	121.5
351.629	95.5
351.856	113.5
352.083	112.5
352.311	113.5
352.538	122.5
352.765	116.5
352.992	122.5
353.22	109.5
353.447	116.5
353.674	100.5
353.901	104.5
354.128	92.5
354.355	98.5
354.583	88.5
354.81	104.5
355.037	92.5
355.264	90.5
355.491	75.5
355.718	90.5
355.945	83.5
356.172	90.5
356.399	97.5
356.626	93.5
356.853	88.5
357.08	99.5
357.307	93.5
357.534	100.5
357.761	81.5
357.988	104.5
358.215	84.5
358.441	102.5
358.668	92.5
358.895	94.5
359.122	78.5
359.349	82.5
359.576	111.5
359.802	122.5
360.029	148.5
360.256	144.5
360.483	112.5
360.709	82.5
360.936	93.5
361.163	121.5
361.39	108.5
361.616	102.5
361.843	90.5
362.07	106.5
362.296	117.5
362.523	92.5
362.749	94.5
362.976	81.5
363.203	90.5
363.429	92.5
363.656	98.5
363.882	83.5
364.109	96.5
364.335	78.5
364.562	84.5
364.788	91.5
365.015	99.5
365.241	99.5
365.468	123.5
365.694	110.5
365.92	96.5
366.147	97.5
366.373	96.5
366.599	96.5
366.826	104.5
367.052	100.5
367.278	82.5
367.505	79.5
367.731	101.5
367.957	93.5
368.184	102.5
368.41	100.5
368.636	121.5
368.862	126.5
369.089	122.5
369.315	95.5
369.541	97.5
369.767	91.5
369.993	93.5
370.219	95.5
370.445	89.5
370.672	101.5
370.898	85.5
371.124	96.5
371.35	85.5
371.576	83.5
371.802	83.5
372.028	80.5
372.254	79.5
372.48	81.5
372.706	81.5
372.932	90.5
373.158	93.5
373.384	87.5
373.61	95.5
373.835	84.5
374.061	88.5
374.287	90.5
374.513	91.5
374.739	92.5
374.965	101.5
375.191	83.5
375.416	89.5
375.642	71.5
375.868	87.5
376.094	83.5
376.319	79.5
376.545	78.5
376.771	86.5
376.997	85.5
377.222	96.5
377.448	102.5
377.674	90.5
377.899	94.5
378.125	85.5
378.35	98.5
378.576	86.5
378.802	89.5
379.027	100.5
379.253	76.5
379.478	107.5
379.704	83.5
379.929	104.5
380.155	84.5
380.38	95.5
380.606	102.5
380.831	84.5
381.057	103.5
381.282	90.5
381.507	88.5
381.733	80.5
381.958	91.5
382.184	83.5
382.409	97.5
382.634	110.5
382.86	102.5
383.085	99.5
383.31	98.5
383.535	88.5
383.761	86.5
383.986	89.5
384.211	86.5
384.436	91.5
384.662	100.5
384.887	103.5
385.112	91.5
385.337	81.5
385.562	96.5
385.787	86.5
386.013	104.5
386.238	111.5
386.463	100.5
386.688	99.5
386.913	92.5
387.138	94.5
387.363	123.5
387.588	98.5
387.813	87.5
388.038	77.5
388.263	94.5
388.488	103.5
388.713	86.5
388.938	91.5
389.163	93.5
389.387	82.5
389.612	83.5
389.837	87.5
390.062	85.5
390.287	94.5
390.512	95.5
390.736	89.5
390.961	94.5
391.186	94.5
391.411	95.5
391.636	77.5
391.86	94.5
392.085	81.5
392.31	80.5
392.534	86.5
392.759	90.5
392.984	79.5
393.208	80.5
393.433	92.5
393.658	75.5
393.882	78.5
394.107	77.5
394.331	80.5
394.556	83.5
394.78	83.5
395.005	82.5
395.229	78.5
395.454	73.5
395.678	78.5
395.903	94.5
396.127	92.5
396.352	87.5
396.576	94.5
396.801	96.5
397.025	94.5
397.249	93.5
397.474	83.5
397.698	87.5
397.922	84.5
398.147	98.5
398.371	82.5
398.595	87.5
398.82	90.5
399.044	86.5
399.268	87.5
399.492	81.5
399.717	88.5
399.941	93.5
400.165	88.5
400.389	91.5
400.613	88.5
400.837	91.5
401.062	96.5
401.286	99.5
401.51	99.5
401.734	106.5
401.958	110.5
402.182	157.5
402.406	194.5
402.63	142.5
402.854	112.5
403.078	91.5
403.302	97.5
403.526	77.5
403.75	91.5
403.974	92.5
404.198	97.5
404.422	93.5
404.645	94.5
404.869	97.5
405.093	121.5
405.317	155.5
405.541	154.5
405.765	111.5
405.988	129.5
406.212	206.5
406.436	306.5
406.66	198.5
406.883	128.5
407.107	102.5
407.331	122.5
407.555	100.5
407.778	111.5
408.002	96.5
408.226	94.5
408.449	87.5
408.673	102.5
408.896	97.5
409.12	99.5
409.344	91.5
409.567	96.5
409.791	101.5
410.014	114.5
410.238	93.5
410.461	88.5
410.685	95.5
410.908	89.5
411.132	104.5
411.355	106.5
411.578	91.5
411.802	114.5
412.025	100.5
412.249	103.5
412.472	122.5
412.695	137.5
412.919	108.5
413.142	97.5
413.365	94.5
413.589	82.5
413.812	84.5
414.035	99.5
414.258	87.5
414.482	92.5
414.705	87.5
414.928	84.5
415.151	103.5
415.374	87.5
415.597	88.5
415.821	106.5
416.044	88.5
416.267	77.5
416.49	95.5
416.713	85.5
416.936	86.5
417.159	92.5
417.382	103.5
417.605	101.5
417.828	111.5
418.051	99.5
418.274	79.5
418.497	77.5
418.72	85.5
418.943	82.5
419.166	86.5
419.389	90.5
419.611	94.5
419.834	80.5
420.057	96.5
420.28	91.5
420.503	86.5
420.726	90.5
420.948	99.5
421.171	103.5
421.394	100.5
421.617	94.5
421.839	99.5
422.062	88.5
422.285	101.5
422.507	94.5
422.73	115.5
422.953	87.5
423.175	80.5
423.398	94.5
423.621	91.5
423.843	78.5
424.066	80.5
424.288	87.5
424.511	72.5
424.733	85.5
424.956	117.5
425.178	111.5
425.401	113.5
425.623	126.5
425.846	108.5
426.068	103.5
426.291	98.5
426.513	82.5
426.735	107.5
426.958	120.5
427.18	128.5
427.402	186.5
427.625	284.5
427.847	263.5
428.069	253.5
428.292	130.5
428.514	101.5
428.736	95.5
428.958	93.5
429.181	87.5
429.403	80.5
429.625	97.5
429.847	100.5
430.069	102.5
430.292	108.5
430.514	84.5
430.736	87.5
430.958	84.5
431.18	80.5
431.402	97.5
431.624	83.5
431.846	80.5
432.068	94.5
432.29	81.5
432.512	83.5
432.734	88.5
432.956	93.5
433.178	120.5
433.4	114.5
433.622	85.5
433.844	84.5
434.066	92.5
434.287	82.5
434.509	99.5
434.731	95.5
434.953	87.5
435.175	106.5
435.397	94.5
435.618	98.5
435.84	119.5
436.062	157.5
436.284	131.5
436.505	114.5
436.727	117.5
436.949	91.5
437.17	94.5
437.392	76.5
437.614	88.5
437.835	121.5
438.057	153.5
438.278	138.5
438.5	117.5
438.721	144.5
438.943	110.5
439.165	107.5
439.386	93.5
439.608	102.5
439.829	109.5
440.05	159.5
440.272	202.5
440.493	122.5
440.715	83.5
440.936	90.5
441.158	88.5
441.379	101.5
441.6	91.5
441.822	86.5
442.043	100.5
442.264	129.5
442.486	132.5
442.707	100.5
442.928	122.5
443.149	176.5
443.371	181.5
443.592	137.5
443.813	144.5
444.034	137.5
444.255	93.5
444.476	82.5
444.698	84.5
444.919	94.5
445.14	142.5
445.361	130.5
445.582	126.5
445.803	192.5
446.024	198.5
446.245	183.5
446.466	146.5
446.687	105.5
446.908	95.5
447.129	84.5
447.35	77.5
447.571	95.5
447.792	106.5
448.013	103.5
448.234	119.5
448.455	100.5
448.675	141.5
448.896	149.5
449.117	125.5
449.338	123.5
449.559	162.5
449.779	147.5
450	95.5
450.221	106.5
450.442	71.5
450.662	106.5
450.883	114.5
451.104	129.5
451.324	110.5
451.545	91.5
451.766	101.5
451.986	92.5
452.207	84.5
452.428	99.5
452.648	102.5
452.869	122.5
453.089	131.5
453.31	140.5
453.53	111.5
453.751	85.5
453.971	126.5
454.192	115.5
454.412	107.5
454.633	85.5
454.853	94.5
455.073	107.5
455.294	121.5
455.514	124.5
455.734	98.5
455.955	104.5
456.175	93.5
456.395	95.5
456.616	90.5
456.836	92.5
457.056	84.5
457.276	94.5
457.497	98.5
457.717	80.5
457.937	79.5
458.157	94.5
458.377	97.5
458.598	130.5
458.818	205.5
459.038	227.5
459.258	168.5
459.478	90.5
459.698	91.5
459.918	83.5
460.138	85.5
460.358	95.5
460.578	86.5
460.798	100.5
461.018	90.5
461.238	91.5
461.458	86.5
461.678	93.5
461.898	89.5
462.118	104.5
462.338	76.5
462.558	89.5
462.777	80.5
462.997	97.5
463.217	110.5
463.437	97.5
463.657	99.5
463.876	80.5
464.096	81.5
464.316	83.5
464.536	100.5
464.755	91.5
464.975	131.5
465.195	242.5
465.414	241.5
465.634	121.5
465.854	81.5
466.073	91.5
466.293	77.5
466.512	88.5
466.732	80.5
466.951	89.5
467.171	118.5
467.391	96.5
467.61	149.5
467.829	202.5
468.049	593.5
468.268	914.5
468.488	244.5
468.707	119.5
468.927	91.5
469.146	95.5
469.365	94.5
469.585	95.5
469.804	130.5
470.023	102.5
470.243	90.5
470.462	114.5
470.681	122.5
470.901	125.5
471.12	98.5
471.339	96.5
471.558	110.5
471.777	155.5
471.997	300.5
472.216	1165.5
472.435	2738.5
472.654	653.5
472.873	170.5
473.092	126.5
473.311	94.5
473.53	100.5
473.749	93.5
473.968	93.5
474.187	142.5
474.406	127.5
474.625	93.5
474.844	107.5
475.063	94.5
475.282	92.5
475.501	96.5
475.72	96.5
475.939	79.5
476.158	82.5
476.377	102.5
476.596	87.5
476.814	110.5
477.033	99.5
477.252	92.5
477.471	101.5
477.69	100.5
477.908	84.5
478.127	103.5
478.346	72.5
478.564	111.5
478.783	94.5
479.002	94.5
479.22	108.5
479.439	125.5
479.658	122.5
479.876	112.5
480.095	121.5
480.313	147.5
480.532	174.5
480.751	300.5
480.969	1030.5
481.188	4588.5
481.406	2830.5
481.624	394.5
481.843	147.5
482.061	106.5
482.28	109.5
482.498	100.5
482.717	82.5
482.935	99.5
483.153	99.5
483.372	95.5
483.59	81.5
483.808	81.5
484.027	93.5
484.245	93.5
484.463	96.5
484.681	108.5
484.9	94.5
485.118	87.5
485.336	81.5
485.554	85.5
485.772	102.5
485.99	101.5
486.209	119.5
486.427	96.5
486.645	118.5
486.863	132.5
487.081	125.5
487.299	86.5
487.517	81.5
487.735	97.5
487.953	92.5
488.171	106.5
488.389	115.5
488.607	111.5
488.825	98.5
489.043	110.5
489.261	95.5
489.479	103.5
489.696	78.5
489.914	98.5
490.132	102.5
490.35	80.5
490.568	88.5
490.786	92.5
491.003	90.5
491.221	94.5
491.439	100.5
491.657	93.5
491.874	89.5
492.092	91.5
492.31	85.5
492.527	112.5
492.745	106.5
492.963	92.5
493.18	90.5
493.398	79.5
493.615	98.5
493.833	88.5
494.05	78.5
494.268	87.5
494.485	84.5
494.703	82.5
494.92	103.5
495.138	88.5
495.355	80.5
495.573	92.5
495.79	82.5
496.008	90.5
496.225	84.5
496.442	79.5
496.66	90.5
496.877	68.5
497.094	93.5
497.312	92.5
497.529	91.5
497.746	89.5
497.963	92.5
498.181	90.5
498.398	94.5
498.615	111.5
498.832	124.5
499.049	96.5
499.267	87.5
499.484	93.5
499.701	94.5
499.918	87.5
500.135	86.5
500.352	97.5
500.569	90.5
500.786	124.5
501.003	96.5
501.22	92.5
501.437	91.5
501.654	88.5
501.871	134.5
502.088	101.5
502.305	94.5
502.522	95.5
502.739	97.5
502.956	86.5
503.172	83.5
503.389	110.5
503.606	124.5
503.823	112.5
504.04	101.5
504.256	84.5
504.473	94.5
504.69	85.5
504.907	100.5
505.123	79.5
505.34	78.5
505.557	95.5
505.773	98.5
505.99	94.5
506.207	88.5
506.423	79.5
506.64	83.5
506.856	81.5
507.073	93.5
507.289	107.5
507.506	97.5
507.722	129.5
507.939	139.5
508.155	108.5
508.372	90.5
508.588	85.5
508.805	98.5
509.021	102.5
509.238	120.5
509.454	104.5
509.67	100.5
509.887	126.5
510.103	150.5
510.319	238.5
510.536	918.5
510.752	3233.5
510.968	892.5
511.184	190.5
511.401	126.5
511.617	125.5
511.833	115.5
512.049	101.5
512.265	98.5
512.481	87.5
512.698	84.5
512.914	90.5
513.13	88.5
513.346	87.5
513.562	94.5
513.778	92.5
513.994	99.5
514.21	109.5
514.426	136.5
514.642	193.5
514.858	159.5
515.074	227.5
515.29	711.5
515.506	2502.5
515.721	924.5
515.937	227.5
516.153	143.5
516.369	110.5
516.585	112.5
516.801	114.5
517.016	104.5
517.232	92.5
517.448	97.5
517.664	101.5
517.879	81.5
518.095	94.5
518.311	109.5
518.527	105.5
518.742	98.5
518.958	100.5
519.173	110.5
519.389	102.5
519.605	102.5
519.82	106.5
520.036	101.5
520.251	144.5
520.467	132.5
520.682	108.5
520.898	121.5
521.113	135.5
521.329	171.5
521.544	300.5
521.76	872.5
521.975	4179.5
522.19	2604.5
522.406	506.5
522.621	174.5
522.836	130.5
523.052	103.5
523.267	122.5
523.482	101.5
523.698	111.5
523.913	136.5
524.128	118.5
524.343	98.5
524.559	111.5
524.774	99.5
524.989	96.5
525.204	115.5
525.419	116.5
525.634	85.5
525.849	93.5
526.064	91.5
526.28	87.5
526.495	72.5
526.71	93.5
526.925	88.5
527.14	78.5
527.355	96.5
527.57	77.5
527.785	93.5
527.999	93.5
528.214	87.5
528.429	97.5
528.644	87.5
528.859	89.5
529.074	100.5
529.289	156.5
529.503	270.5
529.718	125.5
529.933	93.5
530.148	102.5
530.363	84.5
530.577	93.5
530.792	81.5
531.007	87.5
531.221	82.5
531.436	100.5
531.651	86.5
531.865	102.5
532.08	89.5
532.295	89.5
