Data from Circ_2023_H10_HRD10591_00087.txt Node
Date: Wed Jan 03 09:50:48 EST 2024
User: Yrep
Spectrometer: HR+D1059
Trigger mode: 1
Integration Time (sec): 1.000000E-1
Scans to average: 1
Electric dark correction enabled: true
Nonlinearity correction enabled: false
Boxcar width: 0
XAxis mode: Wavelengths
Number of Pixels in Spectrum: 2048
>>>>>Begin Spectral Data<<<<<
223.165	-16.5
223.4	-16.5
223.635	-16.5
223.869	-2.5
224.104	-16.5
224.338	-7.5
224.573	-19.5
224.808	-19.5
225.042	-8.5
225.277	-10.5
225.511	-2.5
225.746	8.5
225.98	5.5
226.215	-4.5
226.449	9.5
226.683	19.5
226.918	21.5
227.152	43.5
227.387	47.5
227.621	41.5
227.856	45.5
228.09	48.5
228.324	47.5
228.559	47.5
228.793	61.5
229.027	71.5
229.262	76.5
229.496	83.5
229.73	78.5
229.964	88.5
230.199	72.5
230.433	66.5
230.667	55.5
230.901	76.5
231.136	70.5
231.37	63.5
231.604	56.5
231.838	69.5
232.072	75.5
232.306	70.5
232.541	86.5
232.775	102.5
233.009	95.5
233.243	82.5
233.477	79.5
233.711	80.5
233.945	73.5
234.179	78.5
234.413	85.5
234.647	72.5
234.881	74.5
235.115	71.5
235.349	79.5
235.583	74.5
235.817	88.5
236.051	71.5
236.285	74.5
236.519	79.5
236.753	75.5
236.987	84.5
237.221	102.5
237.455	85.5
237.689	64.5
237.922	70.5
238.156	66.5
238.39	77.5
238.624	93.5
238.858	69.5
239.091	72.5
239.325	84.5
239.559	70.5
239.793	84.5
240.027	81.5
240.26	79.5
240.494	86.5
240.728	65.5
240.961	86.5
241.195	62.5
241.429	69.5
241.662	80.5
241.896	83.5
242.13	64.5
242.363	75.5
242.597	83.5
242.83	86.5
243.064	67.5
243.298	82.5
243.531	74.5
243.765	72.5
243.998	87.5
244.232	86.5
244.465	78.5
244.699	88.5
244.932	67.5
245.166	82.5
245.399	89.5
245.633	93.5
245.866	71.5
246.099	76.5
246.333	74.5
246.566	67.5
246.8	79.5
247.033	84.5
247.266	83.5
247.5	91.5
247.733	84.5
247.966	72.5
248.2	89.5
248.433	78.5
248.666	75.5
248.899	65.5
249.133	89.5
249.366	98.5
249.599	96.5
249.832	69.5
250.066	82.5
250.299	92.5
250.532	84.5
250.765	80.5
250.998	99.5
251.231	80.5
251.465	70.5
251.698	77.5
251.931	79.5
252.164	79.5
252.397	82.5
252.63	76.5
252.863	80.5
253.096	85.5
253.329	83.5
253.562	84.5
253.795	78.5
254.028	85.5
254.261	85.5
254.494	81.5
254.727	78.5
254.96	77.5
255.193	92.5
255.426	93.5
255.659	89.5
255.892	105.5
256.124	109.5
256.357	93.5
256.59	77.5
256.823	86.5
257.056	82.5
257.289	88.5
257.521	79.5
257.754	81.5
257.987	94.5
258.22	90.5
258.452	110.5
258.685	82.5
258.918	84.5
259.151	78.5
259.383	73.5
259.616	70.5
259.849	74.5
260.081	95.5
260.314	79.5
260.547	90.5
260.779	98.5
261.012	112.5
261.244	119.5
261.477	97.5
261.71	93.5
261.942	128.5
262.175	138.5
262.407	77.5
262.64	82.5
262.872	62.5
263.105	74.5
263.337	80.5
263.57	97.5
263.802	68.5
264.035	81.5
264.267	72.5
264.499	84.5
264.732	91.5
264.964	83.5
265.197	82.5
265.429	81.5
265.661	90.5
265.894	84.5
266.126	75.5
266.358	70.5
266.591	68.5
266.823	76.5
267.055	84.5
267.287	84.5
267.52	84.5
267.752	84.5
267.984	74.5
268.216	76.5
268.448	97.5
268.681	88.5
268.913	81.5
269.145	97.5
269.377	79.5
269.609	68.5
269.841	85.5
270.073	86.5
270.306	88.5
270.538	70.5
270.77	79.5
271.002	85.5
271.234	89.5
271.466	104.5
271.698	94.5
271.93	96.5
272.162	72.5
272.394	73.5
272.626	83.5
272.858	79.5
273.09	103.5
273.322	97.5
273.553	86.5
273.785	74.5
274.017	82.5
274.249	78.5
274.481	70.5
274.713	65.5
274.945	100.5
275.176	86.5
275.408	97.5
275.64	103.5
275.872	128.5
276.104	103.5
276.335	96.5
276.567	110.5
276.799	143.5
277.031	169.5
277.262	212.5
277.494	157.5
277.726	91.5
277.957	93.5
278.189	100.5
278.421	94.5
278.652	96.5
278.884	89.5
279.115	93.5
279.347	100.5
279.579	100.5
279.81	145.5
280.042	230.5
280.273	296.5
280.505	205.5
280.736	111.5
280.968	102.5
281.199	96.5
281.431	91.5
281.662	85.5
281.894	100.5
282.125	91.5
282.356	115.5
282.588	159.5
282.819	119.5
283.051	84.5
283.282	87.5
283.513	79.5
283.745	76.5
283.976	80.5
284.207	81.5
284.439	91.5
284.67	79.5
284.901	86.5
285.132	85.5
285.364	85.5
285.595	97.5
285.826	88.5
286.057	93.5
286.288	89.5
286.52	88.5
286.751	84.5
286.982	81.5
287.213	88.5
287.444	93.5
287.675	86.5
287.906	86.5
288.138	100.5
288.369	101.5
288.6	91.5
288.831	95.5
289.062	80.5
289.293	90.5
289.524	104.5
289.755	81.5
289.986	83.5
290.217	82.5
290.448	76.5
290.679	88.5
290.91	88.5
291.141	85.5
291.371	83.5
291.602	78.5
291.833	95.5
292.064	73.5
292.295	94.5
292.526	99.5
292.757	81.5
292.987	85.5
293.218	87.5
293.449	91.5
293.68	96.5
293.91	101.5
294.141	80.5
294.372	88.5
294.603	93.5
294.833	80.5
295.064	90.5
295.295	89.5
295.525	83.5
295.756	107.5
295.987	112.5
296.217	150.5
296.448	142.5
296.679	103.5
296.909	100.5
297.14	92.5
297.37	98.5
297.601	83.5
297.831	94.5
298.062	89.5
298.292	96.5
298.523	81.5
298.753	83.5
298.984	85.5
299.214	84.5
299.445	92.5
299.675	104.5
299.905	94.5
300.136	93.5
300.366	83.5
300.597	77.5
300.827	83.5
301.057	92.5
301.288	93.5
301.518	96.5
301.748	104.5
301.979	120.5
302.209	88.5
302.439	95.5
302.669	93.5
302.9	93.5
303.13	85.5
303.36	100.5
303.59	140.5
303.82	141.5
304.051	112.5
304.281	96.5
304.511	82.5
304.741	81.5
304.971	84.5
305.201	94.5
305.431	77.5
305.661	94.5
305.891	92.5
306.121	109.5
306.352	101.5
306.582	104.5
306.812	110.5
307.042	134.5
307.272	180.5
307.502	209.5
307.731	166.5
307.961	128.5
308.191	112.5
308.421	91.5
308.651	94.5
308.881	100.5
309.111	93.5
309.341	92.5
309.571	92.5
309.8	93.5
310.03	85.5
310.26	100.5
310.49	95.5
310.72	97.5
310.949	121.5
311.179	104.5
311.409	94.5
311.639	97.5
311.868	103.5
312.098	79.5
312.328	93.5
312.557	108.5
312.787	108.5
313.017	116.5
313.246	91.5
313.476	85.5
313.706	98.5
313.935	92.5
314.165	95.5
314.394	110.5
314.624	114.5
314.853	104.5
315.083	98.5
315.312	97.5
315.542	96.5
315.771	99.5
316.001	90.5
316.23	109.5
316.46	92.5
316.689	92.5
316.919	114.5
317.148	96.5
317.377	109.5
317.607	102.5
317.836	85.5
318.065	96.5
318.295	92.5
318.524	91.5
318.753	88.5
318.983	104.5
319.212	76.5
319.441	109.5
319.67	111.5
319.9	90.5
320.129	81.5
320.358	75.5
320.587	110.5
320.816	112.5
321.046	101.5
321.275	98.5
321.504	84.5
321.733	95.5
321.962	91.5
322.191	105.5
322.42	107.5
322.649	116.5
322.878	127.5
323.108	124.5
323.337	132.5
323.566	130.5
323.795	176.5
324.024	235.5
324.253	476.5
324.482	1017.5
324.71	2164.5
324.939	2819.5
325.168	1028.5
325.397	278.5
325.626	155.5
325.855	157.5
326.084	148.5
326.313	142.5
326.542	160.5
326.77	285.5
326.999	555.5
327.228	1109.5
327.457	2097.5
327.686	1695.5
327.914	622.5
328.143	582.5
328.372	784.5
328.6	430.5
328.829	200.5
329.058	192.5
329.287	204.5
329.515	205.5
329.744	318.5
329.972	612.5
330.201	1237.5
330.43	1814.5
330.658	813.5
330.887	304.5
331.115	176.5
331.344	122.5
331.572	131.5
331.801	124.5
332.03	129.5
332.258	111.5
332.486	121.5
332.715	118.5
332.943	126.5
333.172	119.5
333.4	155.5
333.629	171.5
333.857	272.5
334.085	552.5
334.314	1158.5
334.542	2312.5
334.771	2171.5
334.999	538.5
335.227	201.5
335.455	141.5
335.684	129.5
335.912	123.5
336.14	113.5
336.369	113.5
336.597	117.5
336.825	118.5
337.053	99.5
337.281	96.5
337.51	87.5
337.738	106.5
337.966	95.5
338.194	102.5
338.422	97.5
338.65	97.5
338.878	88.5
339.106	82.5
339.334	94.5
339.562	88.5
339.79	92.5
340.018	107.5
340.246	84.5
340.474	94.5
340.702	100.5
340.93	94.5
341.158	109.5
341.386	107.5
341.614	93.5
341.842	93.5
342.07	85.5
342.298	88.5
342.526	94.5
342.754	82.5
342.981	76.5
343.209	99.5
343.437	88.5
343.665	87.5
343.893	101.5
344.12	95.5
344.348	83.5
344.576	84.5
344.804	93.5
345.031	113.5
345.259	111.5
345.487	90.5
345.714	101.5
345.942	91.5
346.17	101.5
346.397	84.5
346.625	91.5
346.853	92.5
347.08	92.5
347.308	92.5
347.535	96.5
347.763	102.5
347.99	105.5
348.218	105.5
348.445	118.5
348.673	104.5
348.9	89.5
349.128	85.5
349.355	86.5
349.583	98.5
349.81	102.5
350.037	101.5
350.265	91.5
350.492	94.5
350.72	88.5
350.947	101.5
351.174	117.5
351.402	112.5
351.629	92.5
351.856	96.5
352.083	110.5
352.311	125.5
352.538	130.5
352.765	129.5
352.992	114.5
353.22	110.5
353.447	102.5
353.674	96.5
353.901	90.5
354.128	99.5
354.355	93.5
354.583	100.5
354.81	88.5
355.037	94.5
355.264	90.5
355.491	85.5
355.718	84.5
355.945	96.5
356.172	83.5
356.399	82.5
356.626	94.5
356.853	95.5
357.08	85.5
357.307	91.5
357.534	84.5
357.761	85.5
357.988	101.5
358.215	93.5
358.441	99.5
358.668	101.5
358.895	96.5
359.122	95.5
359.349	91.5
359.576	85.5
359.802	100.5
360.029	129.5
360.256	123.5
360.483	110.5
360.709	85.5
360.936	88.5
361.163	94.5
361.39	96.5
361.616	84.5
361.843	98.5
362.07	109.5
362.296	99.5
362.523	108.5
362.749	91.5
362.976	77.5
363.203	100.5
363.429	85.5
363.656	88.5
363.882	94.5
364.109	83.5
364.335	94.5
364.562	98.5
364.788	98.5
365.015	101.5
365.241	94.5
365.468	122.5
365.694	104.5
365.92	108.5
366.147	102.5
366.373	112.5
366.599	96.5
366.826	85.5
367.052	89.5
367.278	101.5
367.505	96.5
367.731	97.5
367.957	103.5
368.184	107.5
368.41	107.5
368.636	114.5
368.862	122.5
369.089	117.5
369.315	96.5
369.541	107.5
369.767	91.5
369.993	99.5
370.219	94.5
370.445	84.5
370.672	89.5
370.898	101.5
371.124	94.5
371.35	97.5
371.576	94.5
371.802	85.5
372.028	82.5
372.254	82.5
372.48	75.5
372.706	74.5
372.932	72.5
373.158	77.5
373.384	94.5
373.61	84.5
373.835	87.5
374.061	95.5
374.287	83.5
374.513	89.5
374.739	94.5
374.965	107.5
375.191	103.5
375.416	89.5
375.642	91.5
375.868	87.5
376.094	103.5
376.319	81.5
376.545	87.5
376.771	80.5
376.997	91.5
377.222	73.5
377.448	99.5
377.674	85.5
377.899	76.5
378.125	91.5
378.35	90.5
378.576	87.5
378.802	72.5
379.027	87.5
379.253	83.5
379.478	69.5
379.704	88.5
379.929	87.5
380.155	101.5
380.38	76.5
380.606	90.5
380.831	92.5
381.057	91.5
381.282	89.5
381.507	89.5
381.733	77.5
381.958	83.5
382.184	83.5
382.409	98.5
382.634	93.5
382.86	100.5
383.085	92.5
383.31	97.5
383.535	111.5
383.761	91.5
383.986	92.5
384.211	90.5
384.436	99.5
384.662	91.5
384.887	83.5
385.112	92.5
385.337	93.5
385.562	94.5
385.787	103.5
386.013	98.5
386.238	106.5
386.463	101.5
386.688	101.5
386.913	96.5
387.138	74.5
387.363	82.5
387.588	83.5
387.813	88.5
388.038	86.5
388.263	102.5
388.488	89.5
388.713	95.5
388.938	93.5
389.163	103.5
389.387	87.5
389.612	82.5
389.837	96.5
390.062	87.5
390.287	83.5
390.512	88.5
390.736	97.5
390.961	100.5
391.186	100.5
391.411	82.5
391.636	76.5
391.86	83.5
392.085	82.5
392.31	85.5
392.534	84.5
392.759	93.5
392.984	77.5
393.208	79.5
393.433	70.5
393.658	88.5
393.882	89.5
394.107	68.5
394.331	69.5
394.556	83.5
394.78	94.5
395.005	85.5
395.229	75.5
395.454	82.5
395.678	88.5
395.903	91.5
396.127	88.5
396.352	68.5
396.576	81.5
396.801	78.5
397.025	82.5
397.249	80.5
397.474	85.5
397.698	78.5
397.922	102.5
398.147	90.5
398.371	77.5
398.595	77.5
398.82	91.5
399.044	78.5
399.268	80.5
399.492	76.5
399.717	95.5
399.941	91.5
400.165	94.5
400.389	108.5
400.613	83.5
400.837	81.5
401.062	97.5
401.286	96.5
401.51	91.5
401.734	103.5
401.958	103.5
402.182	137.5
402.406	173.5
402.63	132.5
402.854	100.5
403.078	97.5
403.302	83.5
403.526	90.5
403.75	99.5
403.974	69.5
404.198	94.5
404.422	89.5
404.645	76.5
404.869	97.5
405.093	107.5
405.317	147.5
405.541	155.5
405.765	129.5
405.988	141.5
406.212	205.5
406.436	264.5
406.66	193.5
406.883	109.5
407.107	100.5
407.331	104.5
407.555	106.5
407.778	99.5
408.002	94.5
408.226	103.5
408.449	95.5
408.673	89.5
408.896	96.5
409.12	106.5
409.344	97.5
409.567	96.5
409.791	81.5
410.014	94.5
410.238	80.5
410.461	99.5
410.685	92.5
410.908	81.5
411.132	106.5
411.355	94.5
411.578	95.5
411.802	89.5
412.025	99.5
412.249	102.5
412.472	137.5
412.695	144.5
412.919	111.5
413.142	95.5
413.365	106.5
413.589	87.5
413.812	100.5
414.035	94.5
414.258	80.5
414.482	95.5
414.705	85.5
414.928	84.5
415.151	84.5
415.374	98.5
415.597	92.5
415.821	95.5
416.044	88.5
416.267	92.5
416.49	67.5
416.713	79.5
416.936	78.5
417.159	100.5
417.382	106.5
417.605	115.5
417.828	131.5
418.051	98.5
418.274	93.5
418.497	99.5
418.72	77.5
418.943	90.5
419.166	80.5
419.389	88.5
419.611	101.5
419.834	88.5
420.057	86.5
420.28	85.5
420.503	88.5
420.726	82.5
420.948	88.5
421.171	110.5
421.394	108.5
421.617	93.5
421.839	85.5
422.062	92.5
422.285	94.5
422.507	97.5
422.73	100.5
422.953	91.5
423.175	91.5
423.398	85.5
423.621	80.5
423.843	78.5
424.066	81.5
424.288	91.5
424.511	93.5
424.733	103.5
424.956	126.5
425.178	116.5
425.401	107.5
425.623	104.5
425.846	101.5
426.068	102.5
426.291	86.5
426.513	104.5
426.735	108.5
426.958	102.5
427.18	129.5
427.402	187.5
427.625	257.5
427.847	271.5
428.069	268.5
428.292	161.5
428.514	119.5
428.736	100.5
428.958	92.5
429.181	94.5
429.403	90.5
429.625	80.5
429.847	94.5
430.069	111.5
430.292	92.5
430.514	103.5
430.736	97.5
430.958	92.5
431.18	70.5
431.402	88.5
431.624	88.5
431.846	84.5
432.068	99.5
432.29	96.5
432.512	87.5
432.734	92.5
432.956	107.5
433.178	93.5
433.4	118.5
433.622	101.5
433.844	103.5
434.066	90.5
434.287	86.5
434.509	94.5
434.731	81.5
434.953	88.5
435.175	84.5
435.397	94.5
435.618	100.5
435.84	110.5
436.062	142.5
436.284	128.5
436.505	119.5
436.727	95.5
436.949	103.5
437.17	115.5
437.392	98.5
437.614	83.5
437.835	125.5
438.057	144.5
438.278	120.5
438.5	122.5
438.721	144.5
438.943	120.5
439.165	70.5
439.386	87.5
439.608	110.5
439.829	122.5
440.05	155.5
440.272	190.5
440.493	113.5
440.715	92.5
440.936	94.5
441.158	97.5
441.379	78.5
441.6	94.5
441.822	92.5
442.043	101.5
442.264	135.5
442.486	107.5
442.707	105.5
442.928	125.5
443.149	183.5
443.371	162.5
443.592	120.5
443.813	132.5
444.034	121.5
444.255	99.5
444.476	84.5
444.698	99.5
444.919	98.5
445.14	143.5
445.361	136.5
445.582	138.5
445.803	183.5
446.024	182.5
446.245	168.5
446.466	126.5
446.687	93.5
446.908	81.5
447.129	92.5
447.35	80.5
447.571	83.5
447.792	95.5
448.013	104.5
448.234	105.5
448.455	98.5
448.675	125.5
448.896	145.5
449.117	111.5
449.338	123.5
449.559	137.5
449.779	165.5
450	116.5
450.221	86.5
450.442	92.5
450.662	96.5
450.883	132.5
451.104	133.5
451.324	105.5
451.545	98.5
451.766	80.5
451.986	82.5
452.207	92.5
452.428	95.5
452.648	94.5
452.869	124.5
453.089	133.5
453.31	124.5
453.53	91.5
453.751	92.5
453.971	116.5
454.192	125.5
454.412	101.5
454.633	91.5
454.853	100.5
455.073	99.5
455.294	85.5
455.514	110.5
455.734	99.5
455.955	89.5
456.175	90.5
456.395	87.5
456.616	77.5
456.836	84.5
457.056	78.5
457.276	82.5
457.497	83.5
457.717	91.5
457.937	86.5
458.157	92.5
458.377	93.5
458.598	122.5
458.818	189.5
459.038	243.5
459.258	153.5
459.478	107.5
459.698	102.5
459.918	93.5
460.138	89.5
460.358	90.5
460.578	77.5
460.798	80.5
461.018	101.5
461.238	68.5
461.458	80.5
461.678	102.5
461.898	81.5
462.118	78.5
462.338	87.5
462.558	92.5
462.777	91.5
462.997	92.5
463.217	118.5
463.437	78.5
463.657	83.5
463.876	90.5
464.096	90.5
464.316	98.5
464.536	107.5
464.755	98.5
464.975	132.5
465.195	212.5
465.414	222.5
465.634	110.5
465.854	95.5
466.073	93.5
466.293	94.5
466.512	93.5
466.732	93.5
466.951	94.5
467.171	101.5
467.391	123.5
467.61	146.5
467.829	232.5
468.049	689.5
468.268	1040.5
468.488	271.5
468.707	114.5
468.927	97.5
469.146	89.5
469.365	96.5
469.585	96.5
469.804	111.5
470.023	111.5
470.243	104.5
470.462	126.5
470.681	143.5
470.901	114.5
471.12	96.5
471.339	102.5
471.558	131.5
471.777	170.5
471.997	347.5
472.216	1345.5
472.435	3130.5
472.654	738.5
472.873	176.5
473.092	111.5
473.311	119.5
473.53	94.5
473.749	89.5
473.968	111.5
474.187	119.5
474.406	113.5
474.625	92.5
474.844	79.5
475.063	98.5
475.282	95.5
475.501	83.5
475.72	75.5
475.939	84.5
476.158	99.5
476.377	83.5
476.596	89.5
476.814	111.5
477.033	98.5
477.252	90.5
477.471	99.5
477.69	90.5
477.908	85.5
478.127	95.5
478.346	93.5
478.564	99.5
478.783	108.5
479.002	97.5
479.22	108.5
479.439	133.5
479.658	146.5
479.876	134.5
480.095	123.5
480.313	133.5
480.532	176.5
480.751	329.5
480.969	1218.5
481.188	5301.5
481.406	3239.5
481.624	447.5
481.843	169.5
482.061	131.5
482.28	111.5
482.498	93.5
482.717	87.5
482.935	97.5
483.153	103.5
483.372	90.5
483.59	99.5
483.808	89.5
484.027	108.5
484.245	88.5
484.463	91.5
484.681	95.5
484.9	88.5
485.118	81.5
485.336	78.5
485.554	108.5
485.772	109.5
485.99	104.5
486.209	109.5
486.427	94.5
486.645	120.5
486.863	129.5
487.081	110.5
487.299	98.5
487.517	83.5
487.735	80.5
487.953	86.5
488.171	92.5
488.389	106.5
488.607	100.5
488.825	105.5
489.043	81.5
489.261	96.5
489.479	86.5
489.696	91.5
489.914	93.5
490.132	95.5
490.35	89.5
490.568	86.5
490.786	102.5
491.003	106.5
491.221	94.5
491.439	112.5
491.657	96.5
491.874	95.5
492.092	103.5
492.31	98.5
492.527	109.5
492.745	110.5
492.963	95.5
493.18	107.5
493.398	101.5
493.615	101.5
493.833	90.5
494.05	93.5
494.268	94.5
494.485	90.5
494.703	87.5
494.92	92.5
495.138	76.5
495.355	92.5
495.573	97.5
495.79	80.5
496.008	93.5
496.225	92.5
496.442	86.5
496.66	98.5
496.877	96.5
497.094	80.5
497.312	91.5
497.529	85.5
497.746	83.5
497.963	109.5
498.181	88.5
498.398	83.5
498.615	116.5
498.832	96.5
499.049	89.5
499.267	78.5
499.484	83.5
499.701	79.5
499.918	90.5
500.135	84.5
500.352	86.5
500.569	102.5
500.786	100.5
501.003	97.5
501.22	82.5
501.437	87.5
501.654	107.5
501.871	121.5
502.088	112.5
502.305	95.5
502.522	83.5
502.739	71.5
502.956	99.5
503.172	97.5
503.389	108.5
503.606	122.5
503.823	109.5
504.04	98.5
504.256	92.5
504.473	89.5
504.69	90.5
504.907	101.5
505.123	101.5
505.34	84.5
505.557	96.5
505.773	99.5
505.99	91.5
506.207	100.5
506.423	86.5
506.64	81.5
506.856	82.5
507.073	88.5
507.289	95.5
507.506	107.5
507.722	129.5
507.939	129.5
508.155	104.5
508.372	91.5
508.588	97.5
508.805	101.5
509.021	108.5
509.238	102.5
509.454	100.5
509.67	109.5
509.887	118.5
510.103	136.5
510.319	226.5
510.536	830.5
510.752	2871.5
510.968	825.5
511.184	173.5
511.401	119.5
511.617	110.5
511.833	112.5
512.049	102.5
512.265	108.5
512.481	88.5
512.698	105.5
512.914	88.5
513.13	77.5
513.346	88.5
513.562	99.5
513.778	93.5
513.994	108.5
514.21	113.5
514.426	129.5
514.642	156.5
514.858	144.5
515.074	213.5
515.29	616.5
515.506	2134.5
515.721	818.5
515.937	205.5
516.153	135.5
516.369	107.5
516.585	118.5
516.801	96.5
517.016	102.5
517.232	102.5
517.448	96.5
517.664	102.5
517.879	95.5
518.095	99.5
518.311	109.5
518.527	99.5
518.742	97.5
518.958	107.5
519.173	104.5
519.389	91.5
519.605	109.5
519.82	104.5
520.036	107.5
520.251	141.5
520.467	124.5
520.682	107.5
520.898	113.5
521.113	128.5
521.329	165.5
521.544	258.5
521.76	817.5
521.975	3608.5
522.19	2230.5
522.406	449.5
522.621	142.5
522.836	113.5
523.052	93.5
523.267	99.5
523.482	90.5
523.698	96.5
523.913	128.5
524.128	115.5
524.343	93.5
524.559	99.5
524.774	96.5
524.989	99.5
525.204	111.5
525.419	108.5
525.634	90.5
525.849	90.5
526.064	84.5
526.28	87.5
526.495	89.5
526.71	89.5
526.925	94.5
527.14	76.5
527.355	85.5
527.57	82.5
527.785	84.5
527.999	96.5
528.214	95.5
528.429	89.5
528.644	83.5
528.859	91.5
529.074	102.5
529.289	146.5
529.503	243.5
529.718	127.5
529.933	91.5
530.148	84.5
530.363	81.5
530.577	85.5
530.792	88.5
531.007	87.5
531.221	98.5
531.436	104.5
531.651	95.5
531.865	86.5
532.08	97.5
532.295	104.5
532.509	96.5
532.724	110.5
