Data from Circ_2023_H10_HRD10591_00068.txt Node
Date: Wed Jan 03 09:50:44 EST 2024
User: Yrep
Spectrometer: HR+D1059
Trigger mode: 1
Integration Time (sec): 1.000000E-1
Scans to average: 1
Electric dark correction enabled: true
Nonlinearity correction enabled: false
Boxcar width: 0
XAxis mode: Wavelengths
Number of Pixels in Spectrum: 2048
>>>>>Begin Spectral Data<<<<<
223.165	-6.62
223.4	-6.62
223.635	-6.62
223.869	-26.62
224.104	-29.62
224.338	-22.62
224.573	-11.62
224.808	-12.62
225.042	-2.62
225.277	-10.62
225.511	1.38
225.746	7.38
225.98	22.38
226.215	7.38
226.449	9.38
226.683	16.38
226.918	20.38
227.152	38.38
227.387	26.38
227.621	47.38
227.856	47.38
228.09	47.38
228.324	46.38
228.559	69.38
228.793	56.38
229.027	66.38
229.262	67.38
229.496	86.38
229.73	104.38
229.964	103.38
230.199	75.38
230.433	92.38
230.667	82.38
230.901	84.38
231.136	83.38
231.37	98.38
231.604	89.38
231.838	106.38
232.072	94.38
232.306	71.38
232.541	78.38
232.775	81.38
233.009	98.38
233.243	98.38
233.477	80.38
233.711	86.38
233.945	72.38
234.179	82.38
234.413	80.38
234.647	87.38
234.881	83.38
235.115	107.38
235.349	84.38
235.583	86.38
235.817	88.38
236.051	84.38
236.285	73.38
236.519	83.38
236.753	88.38
236.987	85.38
237.221	106.38
237.455	96.38
237.689	87.38
237.922	88.38
238.156	82.38
238.39	82.38
238.624	87.38
238.858	80.38
239.091	87.38
239.325	95.38
239.559	95.38
239.793	86.38
240.027	85.38
240.26	82.38
240.494	79.38
240.728	88.38
240.961	92.38
241.195	70.38
241.429	94.38
241.662	88.38
241.896	89.38
242.13	75.38
242.363	85.38
242.597	89.38
242.83	91.38
243.064	78.38
243.298	94.38
243.531	74.38
243.765	100.38
243.998	83.38
244.232	86.38
244.465	98.38
244.699	92.38
244.932	75.38
245.166	87.38
245.399	89.38
245.633	85.38
245.866	73.38
246.099	84.38
246.333	88.38
246.566	81.38
246.8	85.38
247.033	90.38
247.266	70.38
247.5	91.38
247.733	85.38
247.966	86.38
248.2	89.38
248.433	85.38
248.666	97.38
248.899	90.38
249.133	90.38
249.366	118.38
249.599	116.38
249.832	98.38
250.066	92.38
250.299	91.38
250.532	103.38
250.765	69.38
250.998	91.38
251.231	85.38
251.465	87.38
251.698	98.38
251.931	101.38
252.164	94.38
252.397	88.38
252.63	85.38
252.863	82.38
253.096	89.38
253.329	91.38
253.562	95.38
253.795	95.38
254.028	94.38
254.261	89.38
254.494	96.38
254.727	93.38
254.96	101.38
255.193	104.38
255.426	105.38
255.659	91.38
255.892	115.38
256.124	111.38
256.357	104.38
256.59	96.38
256.823	99.38
257.056	89.38
257.289	93.38
257.521	91.38
257.754	101.38
257.987	92.38
258.22	110.38
258.452	107.38
258.685	102.38
258.918	93.38
259.151	91.38
259.383	97.38
259.616	103.38
259.849	86.38
260.081	99.38
260.314	102.38
260.547	98.38
260.779	97.38
261.012	120.38
261.244	125.38
261.477	113.38
261.71	115.38
261.942	156.38
262.175	166.38
262.407	112.38
262.64	91.38
262.872	97.38
263.105	90.38
263.337	98.38
263.57	93.38
263.802	90.38
264.035	88.38
264.267	78.38
264.499	94.38
264.732	89.38
264.964	101.38
265.197	87.38
265.429	95.38
265.661	94.38
265.894	90.38
266.126	84.38
266.358	83.38
266.591	83.38
266.823	85.38
267.055	80.38
267.287	101.38
267.52	88.38
267.752	93.38
267.984	81.38
268.216	93.38
268.448	92.38
268.681	101.38
268.913	99.38
269.145	83.38
269.377	95.38
269.609	104.38
269.841	92.38
270.073	99.38
270.306	92.38
270.538	90.38
270.77	99.38
271.002	105.38
271.234	93.38
271.466	106.38
271.698	98.38
271.93	96.38
272.162	95.38
272.394	97.38
272.626	104.38
272.858	90.38
273.09	90.38
273.322	97.38
273.553	92.38
273.785	80.38
274.017	86.38
274.249	103.38
274.481	95.38
274.713	90.38
274.945	92.38
275.176	96.38
275.408	99.38
275.64	125.38
275.872	146.38
276.104	121.38
276.335	94.38
276.567	116.38
276.799	155.38
277.031	216.38
277.262	262.38
277.494	188.38
277.726	116.38
277.957	95.38
278.189	93.38
278.421	109.38
278.652	102.38
278.884	108.38
279.115	90.38
279.347	92.38
279.579	111.38
279.81	154.38
280.042	233.38
280.273	344.38
280.505	222.38
280.736	128.38
280.968	107.38
281.199	110.38
281.431	87.38
281.662	74.38
281.894	95.38
282.125	112.38
282.356	138.38
282.588	183.38
282.819	130.38
283.051	116.38
283.282	90.38
283.513	112.38
283.745	98.38
283.976	93.38
284.207	90.38
284.439	100.38
284.67	108.38
284.901	102.38
285.132	89.38
285.364	96.38
285.595	100.38
285.826	92.38
286.057	88.38
286.288	95.38
286.52	100.38
286.751	93.38
286.982	89.38
287.213	82.38
287.444	99.38
287.675	107.38
287.906	104.38
288.138	108.38
288.369	98.38
288.6	99.38
288.831	86.38
289.062	107.38
289.293	101.38
289.524	91.38
289.755	83.38
289.986	86.38
290.217	89.38
290.448	99.38
290.679	92.38
290.91	89.38
291.141	95.38
291.371	111.38
291.602	98.38
291.833	79.38
292.064	93.38
292.295	107.38
292.526	92.38
292.757	96.38
292.987	82.38
293.218	91.38
293.449	94.38
293.68	92.38
293.91	102.38
294.141	91.38
294.372	89.38
294.603	85.38
294.833	98.38
295.064	100.38
295.295	87.38
295.525	101.38
295.756	100.38
295.987	130.38
296.217	194.38
296.448	167.38
296.679	108.38
296.909	87.38
297.14	99.38
297.37	99.38
297.601	97.38
297.831	96.38
298.062	100.38
298.292	99.38
298.523	105.38
298.753	81.38
298.984	91.38
299.214	97.38
299.445	86.38
299.675	95.38
299.905	109.38
300.136	111.38
300.366	105.38
300.597	100.38
300.827	101.38
301.057	114.38
301.288	128.38
301.518	120.38
301.748	120.38
301.979	118.38
302.209	108.38
302.439	95.38
302.669	99.38
302.9	104.38
303.13	111.38
303.36	131.38
303.59	160.38
303.82	159.38
304.051	121.38
304.281	116.38
304.511	97.38
304.741	90.38
304.971	98.38
305.201	114.38
305.431	88.38
305.661	95.38
305.891	113.38
306.121	107.38
306.352	123.38
306.582	128.38
306.812	119.38
307.042	135.38
307.272	187.38
307.502	213.38
307.731	182.38
307.961	134.38
308.191	97.38
308.421	107.38
308.651	117.38
308.881	95.38
309.111	112.38
309.341	116.38
309.571	133.38
309.8	90.38
310.03	111.38
310.26	118.38
310.49	118.38
310.72	121.38
310.949	117.38
311.179	114.38
311.409	112.38
311.639	112.38
311.868	89.38
312.098	108.38
312.328	123.38
312.557	126.38
312.787	144.38
313.017	139.38
313.246	121.38
313.476	105.38
313.706	102.38
313.935	111.38
314.165	127.38
314.394	138.38
314.624	114.38
314.853	132.38
315.083	110.38
315.312	88.38
315.542	107.38
315.771	88.38
316.001	101.38
316.23	95.38
316.46	98.38
316.689	99.38
316.919	100.38
317.148	110.38
317.377	129.38
317.607	110.38
317.836	102.38
318.065	97.38
318.295	109.38
318.524	108.38
318.753	91.38
318.983	99.38
319.212	123.38
319.441	126.38
319.67	110.38
319.9	103.38
320.129	103.38
320.358	109.38
320.587	115.38
320.816	113.38
321.046	117.38
321.275	116.38
321.504	115.38
321.733	104.38
321.962	120.38
322.191	118.38
322.42	119.38
322.649	119.38
322.878	139.38
323.108	152.38
323.337	172.38
323.566	188.38
323.795	206.38
324.024	270.38
324.253	544.38
324.482	1182.38
324.71	2405.38
324.939	3340.38
325.168	1224.38
325.397	341.38
325.626	194.38
325.855	145.38
326.084	155.38
326.313	173.38
326.542	199.38
326.77	310.38
326.999	601.38
327.228	1244.38
327.457	2314.38
327.686	1976.38
327.914	672.38
328.143	674.38
328.372	868.38
328.6	505.38
328.829	246.38
329.058	220.38
329.287	244.38
329.515	225.38
329.744	316.38
329.972	635.38
330.201	1324.38
330.43	1994.38
330.658	898.38
330.887	356.38
331.115	233.38
331.344	150.38
331.572	136.38
331.801	154.38
332.03	162.38
332.258	142.38
332.486	102.38
332.715	124.38
332.943	130.38
333.172	148.38
333.4	156.38
333.629	186.38
333.857	282.38
334.085	581.38
334.314	1204.38
334.542	2430.38
334.771	2351.38
334.999	591.38
335.227	224.38
335.455	148.38
335.684	133.38
335.912	115.38
336.14	119.38
336.369	134.38
336.597	132.38
336.825	127.38
337.053	99.38
337.281	99.38
337.51	102.38
337.738	99.38
337.966	109.38
338.194	131.38
338.422	101.38
338.65	117.38
338.878	104.38
339.106	98.38
339.334	104.38
339.562	104.38
339.79	108.38
340.018	106.38
340.246	91.38
340.474	113.38
340.702	104.38
340.93	92.38
341.158	107.38
341.386	98.38
341.614	119.38
341.842	127.38
342.07	108.38
342.298	106.38
342.526	109.38
342.754	112.38
342.981	103.38
343.209	110.38
343.437	113.38
343.665	94.38
343.893	104.38
344.12	118.38
344.348	97.38
344.576	88.38
344.804	107.38
345.031	134.38
345.259	110.38
345.487	110.38
345.714	120.38
345.942	108.38
346.17	112.38
346.397	100.38
346.625	115.38
346.853	108.38
347.08	101.38
347.308	126.38
347.535	110.38
347.763	120.38
347.99	126.38
348.218	130.38
348.445	142.38
348.673	122.38
348.9	119.38
349.128	105.38
349.355	107.38
349.583	111.38
349.81	118.38
350.037	122.38
350.265	96.38
350.492	93.38
350.72	91.38
350.947	114.38
351.174	114.38
351.402	139.38
351.629	125.38
351.856	124.38
352.083	119.38
352.311	140.38
352.538	123.38
352.765	132.38
352.992	126.38
353.22	132.38
353.447	125.38
353.674	112.38
353.901	98.38
354.128	99.38
354.355	103.38
354.583	112.38
354.81	105.38
355.037	101.38
355.264	78.38
355.491	98.38
355.718	87.38
355.945	99.38
356.172	88.38
356.399	93.38
356.626	98.38
356.853	94.38
357.08	121.38
357.307	110.38
357.534	105.38
357.761	105.38
357.988	99.38
358.215	104.38
358.441	100.38
358.668	102.38
358.895	104.38
359.122	101.38
359.349	104.38
359.576	107.38
359.802	124.38
360.029	165.38
360.256	146.38
360.483	122.38
360.709	100.38
360.936	92.38
361.163	103.38
361.39	97.38
361.616	116.38
361.843	98.38
362.07	116.38
362.296	131.38
362.523	121.38
362.749	110.38
362.976	126.38
363.203	100.38
363.429	90.38
363.656	99.38
363.882	92.38
364.109	100.38
364.335	117.38
364.562	95.38
364.788	106.38
365.015	118.38
365.241	106.38
365.468	128.38
365.694	137.38
365.92	113.38
366.147	100.38
366.373	99.38
366.599	98.38
366.826	103.38
367.052	99.38
367.278	104.38
367.505	113.38
367.731	100.38
367.957	86.38
368.184	108.38
368.41	118.38
368.636	141.38
368.862	149.38
369.089	139.38
369.315	97.38
369.541	106.38
369.767	115.38
369.993	105.38
370.219	101.38
370.445	94.38
370.672	104.38
370.898	91.38
371.124	108.38
371.35	96.38
371.576	102.38
371.802	109.38
372.028	99.38
372.254	110.38
372.48	112.38
372.706	84.38
372.932	95.38
373.158	84.38
373.384	101.38
373.61	99.38
373.835	94.38
374.061	93.38
374.287	100.38
374.513	109.38
374.739	95.38
374.965	87.38
375.191	87.38
375.416	87.38
375.642	95.38
375.868	94.38
376.094	96.38
376.319	89.38
376.545	98.38
376.771	89.38
376.997	90.38
377.222	97.38
377.448	95.38
377.674	89.38
377.899	84.38
378.125	97.38
378.35	96.38
378.576	84.38
378.802	93.38
379.027	92.38
379.253	89.38
379.478	87.38
379.704	80.38
379.929	91.38
380.155	98.38
380.38	101.38
380.606	116.38
380.831	91.38
381.057	105.38
381.282	100.38
381.507	99.38
381.733	100.38
381.958	104.38
382.184	103.38
382.409	114.38
382.634	107.38
382.86	91.38
383.085	97.38
383.31	109.38
383.535	99.38
383.761	86.38
383.986	86.38
384.211	108.38
384.436	114.38
384.662	109.38
384.887	96.38
385.112	105.38
385.337	111.38
385.562	97.38
385.787	111.38
386.013	103.38
386.238	123.38
386.463	128.38
386.688	110.38
386.913	100.38
387.138	118.38
387.363	94.38
387.588	117.38
387.813	106.38
388.038	110.38
388.263	109.38
388.488	114.38
388.713	95.38
388.938	107.38
389.163	108.38
389.387	99.38
389.612	86.38
389.837	113.38
390.062	83.38
390.287	98.38
390.512	109.38
390.736	93.38
390.961	91.38
391.186	96.38
391.411	109.38
391.636	93.38
391.86	97.38
392.085	90.38
392.31	96.38
392.534	95.38
392.759	88.38
392.984	95.38
393.208	88.38
393.433	100.38
393.658	93.38
393.882	94.38
394.107	88.38
394.331	95.38
394.556	93.38
394.78	108.38
395.005	102.38
395.229	80.38
395.454	94.38
395.678	98.38
395.903	86.38
396.127	107.38
396.352	109.38
396.576	86.38
396.801	83.38
397.025	91.38
397.249	71.38
397.474	103.38
397.698	101.38
397.922	88.38
398.147	85.38
398.371	95.38
398.595	80.38
398.82	93.38
399.044	103.38
399.268	105.38
399.492	107.38
399.717	106.38
399.941	104.38
400.165	114.38
400.389	112.38
400.613	111.38
400.837	100.38
401.062	94.38
401.286	106.38
401.51	110.38
401.734	123.38
401.958	123.38
402.182	165.38
402.406	222.38
402.63	167.38
402.854	130.38
403.078	101.38
403.302	106.38
403.526	100.38
403.75	83.38
403.974	98.38
404.198	90.38
404.422	103.38
404.645	107.38
404.869	112.38
405.093	127.38
405.317	157.38
405.541	163.38
405.765	136.38
405.988	172.38
406.212	243.38
406.436	365.38
406.66	231.38
406.883	131.38
407.107	119.38
407.331	135.38
407.555	119.38
407.778	115.38
408.002	100.38
408.226	88.38
408.449	95.38
408.673	105.38
408.896	105.38
409.12	107.38
409.344	113.38
409.567	98.38
409.791	94.38
410.014	113.38
410.238	99.38
410.461	92.38
410.685	111.38
410.908	111.38
411.132	106.38
411.355	124.38
411.578	110.38
411.802	83.38
412.025	109.38
412.249	109.38
412.472	130.38
412.695	173.38
412.919	140.38
413.142	106.38
413.365	112.38
413.589	98.38
413.812	92.38
414.035	95.38
414.258	111.38
414.482	95.38
414.705	106.38
414.928	87.38
415.151	98.38
415.374	95.38
415.597	91.38
415.821	103.38
416.044	99.38
416.267	120.38
416.49	90.38
416.713	95.38
416.936	105.38
417.159	94.38
417.382	125.38
417.605	114.38
417.828	121.38
418.051	115.38
418.274	97.38
418.497	89.38
418.72	88.38
418.943	97.38
419.166	97.38
419.389	84.38
419.611	104.38
419.834	102.38
420.057	94.38
420.28	103.38
420.503	101.38
420.726	102.38
420.948	99.38
421.171	111.38
421.394	99.38
421.617	100.38
421.839	102.38
422.062	99.38
422.285	109.38
422.507	119.38
422.73	118.38
422.953	108.38
423.175	86.38
423.398	100.38
423.621	100.38
423.843	99.38
424.066	80.38
424.288	108.38
424.511	93.38
424.733	117.38
424.956	150.38
425.178	131.38
425.401	122.38
425.623	119.38
425.846	113.38
426.068	109.38
426.291	110.38
426.513	97.38
426.735	86.38
426.958	103.38
427.18	140.38
427.402	210.38
427.625	309.38
427.847	279.38
428.069	283.38
428.292	147.38
428.514	115.38
428.736	116.38
428.958	99.38
429.181	90.38
429.403	97.38
429.625	78.38
429.847	107.38
430.069	132.38
430.292	115.38
430.514	102.38
430.736	97.38
430.958	81.38
431.18	92.38
431.402	97.38
431.624	92.38
431.846	83.38
432.068	91.38
432.29	96.38
432.512	89.38
432.734	90.38
432.956	95.38
433.178	105.38
433.4	115.38
433.622	107.38
433.844	112.38
434.066	102.38
434.287	105.38
434.509	97.38
434.731	104.38
434.953	96.38
435.175	96.38
435.397	93.38
435.618	93.38
435.84	135.38
436.062	170.38
436.284	156.38
436.505	134.38
436.727	126.38
436.949	114.38
437.17	95.38
437.392	116.38
437.614	113.38
437.835	142.38
438.057	166.38
438.278	149.38
438.5	132.38
438.721	149.38
438.943	122.38
439.165	114.38
439.386	107.38
439.608	110.38
439.829	132.38
440.05	174.38
440.272	242.38
440.493	140.38
440.715	98.38
440.936	102.38
441.158	118.38
441.379	111.38
441.6	115.38
441.822	126.38
442.043	109.38
442.264	134.38
442.486	117.38
442.707	109.38
442.928	145.38
443.149	204.38
443.371	200.38
443.592	130.38
443.813	152.38
444.034	135.38
444.255	110.38
444.476	95.38
444.698	80.38
444.919	81.38
445.14	156.38
445.361	152.38
445.582	168.38
445.803	218.38
446.024	192.38
446.245	191.38
446.466	143.38
446.687	103.38
446.908	102.38
447.129	119.38
447.35	101.38
447.571	114.38
447.792	108.38
448.013	138.38
448.234	134.38
448.455	118.38
448.675	148.38
448.896	156.38
449.117	122.38
449.338	119.38
449.559	176.38
449.779	180.38
450	117.38
450.221	81.38
450.442	115.38
450.662	116.38
450.883	150.38
451.104	151.38
451.324	110.38
451.545	107.38
451.766	97.38
451.986	94.38
452.207	101.38
452.428	102.38
452.648	130.38
452.869	145.38
453.089	150.38
453.31	157.38
453.53	115.38
453.751	102.38
453.971	126.38
454.192	162.38
454.412	112.38
454.633	114.38
454.853	98.38
455.073	91.38
455.294	119.38
455.514	131.38
455.734	110.38
455.955	94.38
456.175	91.38
456.395	92.38
456.616	93.38
456.836	98.38
457.056	95.38
457.276	84.38
457.497	108.38
457.717	99.38
457.937	90.38
458.157	97.38
458.377	114.38
458.598	155.38
458.818	236.38
459.038	278.38
459.258	175.38
459.478	110.38
459.698	99.38
459.918	92.38
460.138	99.38
460.358	98.38
460.578	99.38
460.798	104.38
461.018	88.38
461.238	101.38
461.458	106.38
461.678	100.38
461.898	97.38
462.118	98.38
462.338	97.38
462.558	104.38
462.777	98.38
462.997	108.38
463.217	124.38
463.437	109.38
463.657	106.38
463.876	104.38
464.096	106.38
464.316	118.38
464.536	124.38
464.755	118.38
464.975	147.38
465.195	283.38
465.414	302.38
465.634	134.38
465.854	98.38
466.073	97.38
466.293	90.38
466.512	107.38
466.732	105.38
466.951	102.38
467.171	100.38
467.391	125.38
467.61	162.38
467.829	231.38
468.049	748.38
468.268	1155.38
468.488	293.38
468.707	128.38
468.927	100.38
469.146	90.38
469.365	93.38
469.585	100.38
469.804	114.38
470.023	114.38
470.243	118.38
470.462	142.38
470.681	163.38
470.901	127.38
471.12	105.38
471.339	122.38
471.558	142.38
471.777	185.38
471.997	356.38
472.216	1408.38
472.435	3397.38
472.654	808.38
472.873	209.38
473.092	127.38
473.311	114.38
473.53	108.38
473.749	107.38
473.968	112.38
474.187	142.38
474.406	117.38
474.625	116.38
474.844	114.38
475.063	94.38
475.282	104.38
475.501	108.38
475.72	112.38
475.939	91.38
476.158	101.38
476.377	98.38
476.596	110.38
476.814	117.38
477.033	125.38
477.252	108.38
477.471	95.38
477.69	102.38
477.908	115.38
478.127	94.38
478.346	91.38
478.564	103.38
478.783	123.38
479.002	124.38
479.22	106.38
479.439	122.38
479.658	170.38
479.876	133.38
480.095	140.38
480.313	161.38
480.532	182.38
480.751	345.38
480.969	1275.38
481.188	5502.38
481.406	3476.38
481.624	485.38
481.843	167.38
482.061	119.38
482.28	114.38
482.498	120.38
482.717	116.38
482.935	106.38
483.153	93.38
483.372	103.38
483.59	103.38
483.808	92.38
484.027	92.38
484.245	89.38
484.463	100.38
484.681	107.38
484.9	105.38
485.118	97.38
485.336	105.38
485.554	114.38
485.772	111.38
485.99	108.38
486.209	118.38
486.427	118.38
486.645	133.38
486.863	154.38
487.081	119.38
487.299	105.38
487.517	101.38
487.735	104.38
487.953	120.38
488.171	99.38
488.389	100.38
488.607	114.38
488.825	107.38
489.043	100.38
489.261	95.38
489.479	85.38
489.696	91.38
489.914	97.38
490.132	93.38
490.35	105.38
490.568	91.38
490.786	100.38
491.003	101.38
491.221	107.38
491.439	105.38
491.657	103.38
491.874	95.38
492.092	103.38
492.31	114.38
492.527	111.38
492.745	102.38
492.963	90.38
493.18	103.38
493.398	95.38
493.615	95.38
493.833	105.38
494.05	97.38
494.268	117.38
494.485	77.38
494.703	100.38
494.92	91.38
495.138	91.38
495.355	102.38
495.573	112.38
495.79	104.38
496.008	111.38
496.225	108.38
496.442	100.38
496.66	98.38
496.877	102.38
497.094	101.38
497.312	98.38
497.529	91.38
497.746	88.38
497.963	120.38
498.181	105.38
498.398	117.38
498.615	136.38
498.832	126.38
499.049	101.38
499.267	85.38
499.484	103.38
499.701	109.38
499.918	95.38
500.135	95.38
500.352	110.38
500.569	100.38
500.786	103.38
501.003	97.38
501.22	111.38
501.437	99.38
501.654	117.38
501.871	140.38
502.088	113.38
502.305	102.38
502.522	93.38
502.739	110.38
502.956	94.38
503.172	104.38
503.389	103.38
503.606	155.38
503.823	117.38
504.04	102.38
504.256	114.38
504.473	102.38
504.69	93.38
504.907	108.38
505.123	94.38
505.34	112.38
505.557	94.38
505.773	98.38
505.99	90.38
506.207	95.38
506.423	103.38
506.64	95.38
506.856	111.38
507.073	90.38
507.289	104.38
507.506	110.38
507.722	150.38
507.939	159.38
508.155	109.38
508.372	104.38
508.588	96.38
508.805	102.38
509.021	116.38
509.238	114.38
