Data from Circ_2023_H10_HRD10591_00085.txt Node
Date: Wed Jan 03 09:50:48 EST 2024
User: Yrep
Spectrometer: HR+D1059
Trigger mode: 1
Integration Time (sec): 1.000000E-1
Scans to average: 1
Electric dark correction enabled: true
Nonlinearity correction enabled: false
Boxcar width: 0
XAxis mode: Wavelengths
Number of Pixels in Spectrum: 2048
>>>>>Begin Spectral Data<<<<<
223.165	-6.88
223.4	-6.88
223.635	-6.88
223.869	-23.88
224.104	-14.88
224.338	-22.88
224.573	-24.88
224.808	5.12
225.042	-2.88
225.277	1.12
225.511	1.12
225.746	-5.88
225.98	13.12
226.215	1.12
226.449	18.12
226.683	14.12
226.918	21.12
227.152	27.12
227.387	31.12
227.621	54.12
227.856	32.12
228.09	39.12
228.324	46.12
228.559	61.12
228.793	50.12
229.027	77.12
229.262	73.12
229.496	73.12
229.73	98.12
229.964	109.12
230.199	85.12
230.433	69.12
230.667	92.12
230.901	72.12
231.136	73.12
231.37	91.12
231.604	79.12
231.838	78.12
232.072	60.12
232.306	94.12
232.541	72.12
232.775	79.12
233.009	91.12
233.243	75.12
233.477	79.12
233.711	69.12
233.945	77.12
234.179	83.12
234.413	85.12
234.647	90.12
234.881	85.12
235.115	82.12
235.349	87.12
235.583	79.12
235.817	78.12
236.051	93.12
236.285	83.12
236.519	80.12
236.753	78.12
236.987	91.12
237.221	90.12
237.455	89.12
237.689	83.12
237.922	85.12
238.156	59.12
238.39	83.12
238.624	73.12
238.858	68.12
239.091	74.12
239.325	75.12
239.559	81.12
239.793	81.12
240.027	82.12
240.26	80.12
240.494	75.12
240.728	84.12
240.961	83.12
241.195	79.12
241.429	83.12
241.662	74.12
241.896	72.12
242.13	75.12
242.363	83.12
242.597	70.12
242.83	74.12
243.064	80.12
243.298	74.12
243.531	78.12
243.765	85.12
243.998	71.12
244.232	91.12
244.465	85.12
244.699	86.12
244.932	73.12
245.166	81.12
245.399	88.12
245.633	82.12
245.866	81.12
246.099	75.12
246.333	85.12
246.566	81.12
246.8	91.12
247.033	73.12
247.266	68.12
247.5	83.12
247.733	87.12
247.966	91.12
248.2	76.12
248.433	87.12
248.666	78.12
248.899	85.12
249.133	89.12
249.366	107.12
249.599	102.12
249.832	76.12
250.066	84.12
250.299	82.12
250.532	89.12
250.765	79.12
250.998	86.12
251.231	101.12
251.465	77.12
251.698	87.12
251.931	93.12
252.164	85.12
252.397	83.12
252.63	79.12
252.863	76.12
253.096	86.12
253.329	78.12
253.562	78.12
253.795	86.12
254.028	88.12
254.261	84.12
254.494	90.12
254.727	81.12
254.96	88.12
255.193	80.12
255.426	91.12
255.659	77.12
255.892	98.12
256.124	106.12
256.357	109.12
256.59	75.12
256.823	78.12
257.056	98.12
257.289	89.12
257.521	75.12
257.754	85.12
257.987	90.12
258.22	99.12
258.452	114.12
258.685	105.12
258.918	94.12
259.151	73.12
259.383	91.12
259.616	94.12
259.849	88.12
260.081	86.12
260.314	93.12
260.547	86.12
260.779	99.12
261.012	115.12
261.244	125.12
261.477	97.12
261.71	103.12
261.942	130.12
262.175	138.12
262.407	98.12
262.64	83.12
262.872	98.12
263.105	87.12
263.337	80.12
263.57	97.12
263.802	95.12
264.035	86.12
264.267	90.12
264.499	89.12
264.732	91.12
264.964	76.12
265.197	69.12
265.429	76.12
265.661	96.12
265.894	90.12
266.126	84.12
266.358	80.12
266.591	89.12
266.823	93.12
267.055	91.12
267.287	96.12
267.52	84.12
267.752	93.12
267.984	74.12
268.216	90.12
268.448	83.12
268.681	95.12
268.913	88.12
269.145	85.12
269.377	94.12
269.609	87.12
269.841	83.12
270.073	88.12
270.306	94.12
270.538	79.12
270.77	74.12
271.002	98.12
271.234	93.12
271.466	93.12
271.698	101.12
271.93	86.12
272.162	84.12
272.394	90.12
272.626	97.12
272.858	87.12
273.09	89.12
273.322	66.12
273.553	69.12
273.785	74.12
274.017	94.12
274.249	99.12
274.481	91.12
274.713	100.12
274.945	95.12
275.176	91.12
275.408	111.12
275.64	124.12
275.872	131.12
276.104	127.12
276.335	115.12
276.567	122.12
276.799	162.12
277.031	199.12
277.262	241.12
277.494	187.12
277.726	105.12
277.957	97.12
278.189	94.12
278.421	78.12
278.652	95.12
278.884	99.12
279.115	103.12
279.347	104.12
279.579	108.12
279.81	153.12
280.042	248.12
280.273	343.12
280.505	218.12
280.736	121.12
280.968	97.12
281.199	98.12
281.431	98.12
281.662	87.12
281.894	98.12
282.125	98.12
282.356	139.12
282.588	174.12
282.819	116.12
283.051	92.12
283.282	89.12
283.513	100.12
283.745	98.12
283.976	82.12
284.207	81.12
284.439	90.12
284.67	86.12
284.901	74.12
285.132	102.12
285.364	96.12
285.595	81.12
285.826	87.12
286.057	94.12
286.288	87.12
286.52	88.12
286.751	70.12
286.982	88.12
287.213	95.12
287.444	87.12
287.675	100.12
287.906	91.12
288.138	90.12
288.369	85.12
288.6	93.12
288.831	84.12
289.062	93.12
289.293	95.12
289.524	83.12
289.755	84.12
289.986	87.12
290.217	91.12
290.448	89.12
290.679	84.12
290.91	94.12
291.141	73.12
291.371	83.12
291.602	90.12
291.833	85.12
292.064	80.12
292.295	85.12
292.526	94.12
292.757	88.12
292.987	89.12
293.218	86.12
293.449	68.12
293.68	93.12
293.91	89.12
294.141	86.12
294.372	100.12
294.603	84.12
294.833	111.12
295.064	82.12
295.295	106.12
295.525	91.12
295.756	119.12
295.987	123.12
296.217	169.12
296.448	139.12
296.679	105.12
296.909	88.12
297.14	88.12
297.37	101.12
297.601	92.12
297.831	104.12
298.062	106.12
298.292	83.12
298.523	89.12
298.753	97.12
298.984	94.12
299.214	100.12
299.445	115.12
299.675	100.12
299.905	108.12
300.136	99.12
300.366	87.12
300.597	114.12
300.827	103.12
301.057	104.12
301.288	103.12
301.518	110.12
301.748	99.12
301.979	108.12
302.209	104.12
302.439	98.12
302.669	103.12
302.9	84.12
303.13	86.12
303.36	121.12
303.59	129.12
303.82	152.12
304.051	101.12
304.281	93.12
304.511	103.12
304.741	101.12
304.971	92.12
305.201	96.12
305.431	95.12
305.661	79.12
305.891	100.12
306.121	94.12
306.352	111.12
306.582	142.12
306.812	115.12
307.042	154.12
307.272	184.12
307.502	205.12
307.731	188.12
307.961	146.12
308.191	103.12
308.421	94.12
308.651	92.12
308.881	85.12
309.111	101.12
309.341	110.12
309.571	94.12
309.8	99.12
310.03	114.12
310.26	103.12
310.49	103.12
310.72	119.12
310.949	113.12
311.179	120.12
311.409	98.12
311.639	99.12
311.868	112.12
312.098	101.12
312.328	110.12
312.557	112.12
312.787	133.12
313.017	122.12
313.246	102.12
313.476	94.12
313.706	94.12
313.935	96.12
314.165	125.12
314.394	111.12
314.624	100.12
314.853	98.12
315.083	92.12
315.312	98.12
315.542	106.12
315.771	98.12
316.001	91.12
316.23	96.12
316.46	104.12
316.689	104.12
316.919	96.12
317.148	103.12
317.377	105.12
317.607	90.12
317.836	94.12
318.065	99.12
318.295	88.12
318.524	79.12
318.753	102.12
318.983	101.12
319.212	111.12
319.441	105.12
319.67	116.12
319.9	90.12
320.129	98.12
320.358	99.12
320.587	109.12
320.816	99.12
321.046	91.12
321.275	96.12
321.504	90.12
321.733	98.12
321.962	113.12
322.191	96.12
322.42	130.12
322.649	124.12
322.878	138.12
323.108	148.12
323.337	141.12
323.566	154.12
323.795	198.12
324.024	252.12
324.253	499.12
324.482	1099.12
324.71	2245.12
324.939	2925.12
325.168	1066.12
325.397	307.12
325.626	183.12
325.855	145.12
326.084	141.12
326.313	163.12
326.542	185.12
326.77	313.12
326.999	589.12
327.228	1206.12
327.457	2195.12
327.686	1768.12
327.914	653.12
328.143	655.12
328.372	916.12
328.6	501.12
328.829	215.12
329.058	207.12
329.287	234.12
329.515	219.12
329.744	314.12
329.972	667.12
330.201	1368.12
330.43	2003.12
330.658	857.12
330.887	339.12
331.115	207.12
331.344	147.12
331.572	140.12
331.801	134.12
332.03	115.12
332.258	133.12
332.486	127.12
332.715	122.12
332.943	140.12
333.172	138.12
333.4	143.12
333.629	161.12
333.857	280.12
334.085	579.12
334.314	1263.12
334.542	2520.12
334.771	2396.12
334.999	586.12
335.227	206.12
335.455	130.12
335.684	129.12
335.912	123.12
336.14	105.12
336.369	109.12
336.597	129.12
336.825	122.12
337.053	96.12
337.281	106.12
337.51	113.12
337.738	94.12
337.966	107.12
338.194	109.12
338.422	116.12
338.65	96.12
338.878	86.12
339.106	94.12
339.334	80.12
339.562	112.12
339.79	109.12
340.018	95.12
340.246	100.12
340.474	102.12
340.702	101.12
340.93	111.12
341.158	100.12
341.386	97.12
341.614	99.12
341.842	98.12
342.07	84.12
342.298	91.12
342.526	96.12
342.754	92.12
342.981	85.12
343.209	110.12
343.437	110.12
343.665	87.12
343.893	87.12
344.12	100.12
344.348	101.12
344.576	95.12
344.804	91.12
345.031	102.12
345.259	112.12
345.487	87.12
345.714	96.12
345.942	89.12
346.17	97.12
346.397	103.12
346.625	109.12
346.853	94.12
347.08	93.12
347.308	90.12
347.535	102.12
347.763	101.12
347.99	121.12
348.218	116.12
348.445	117.12
348.673	112.12
348.9	106.12
349.128	102.12
349.355	112.12
349.583	94.12
349.81	88.12
350.037	106.12
350.265	107.12
350.492	97.12
350.72	97.12
350.947	105.12
351.174	127.12
351.402	115.12
351.629	96.12
351.856	101.12
352.083	113.12
352.311	109.12
352.538	125.12
352.765	127.12
352.992	122.12
353.22	117.12
353.447	117.12
353.674	110.12
353.901	100.12
354.128	97.12
354.355	102.12
354.583	102.12
354.81	100.12
355.037	96.12
355.264	89.12
355.491	93.12
355.718	92.12
355.945	102.12
356.172	101.12
356.399	90.12
356.626	84.12
356.853	97.12
357.08	93.12
357.307	90.12
357.534	90.12
357.761	101.12
357.988	86.12
358.215	92.12
358.441	100.12
358.668	87.12
358.895	84.12
359.122	87.12
359.349	97.12
359.576	100.12
359.802	112.12
360.029	154.12
360.256	134.12
360.483	107.12
360.709	96.12
360.936	94.12
361.163	94.12
361.39	106.12
361.616	96.12
361.843	89.12
362.07	98.12
362.296	118.12
362.523	95.12
362.749	107.12
362.976	79.12
363.203	82.12
363.429	87.12
363.656	95.12
363.882	98.12
364.109	87.12
364.335	95.12
364.562	91.12
364.788	98.12
365.015	123.12
365.241	107.12
365.468	114.12
365.694	115.12
365.92	104.12
366.147	94.12
366.373	102.12
366.599	102.12
366.826	103.12
367.052	102.12
367.278	100.12
367.505	102.12
367.731	95.12
367.957	111.12
368.184	109.12
368.41	104.12
368.636	127.12
368.862	135.12
369.089	124.12
369.315	92.12
369.541	98.12
369.767	111.12
369.993	101.12
370.219	97.12
370.445	85.12
370.672	72.12
370.898	101.12
371.124	103.12
371.35	82.12
371.576	96.12
371.802	74.12
372.028	91.12
372.254	95.12
372.48	93.12
372.706	87.12
372.932	92.12
373.158	81.12
373.384	93.12
373.61	101.12
373.835	85.12
374.061	93.12
374.287	96.12
374.513	101.12
374.739	90.12
374.965	91.12
375.191	99.12
375.416	102.12
375.642	105.12
375.868	97.12
376.094	103.12
376.319	98.12
376.545	90.12
376.771	87.12
376.997	96.12
377.222	92.12
377.448	87.12
377.674	106.12
377.899	86.12
378.125	98.12
378.35	90.12
378.576	95.12
378.802	105.12
379.027	85.12
379.253	84.12
379.478	86.12
379.704	95.12
379.929	96.12
380.155	86.12
380.38	109.12
380.606	91.12
380.831	97.12
381.057	94.12
381.282	95.12
381.507	96.12
381.733	90.12
381.958	96.12
382.184	105.12
382.409	100.12
382.634	100.12
382.86	85.12
383.085	87.12
383.31	69.12
383.535	101.12
383.761	96.12
383.986	102.12
384.211	93.12
384.436	99.12
384.662	104.12
384.887	93.12
385.112	99.12
385.337	90.12
385.562	106.12
385.787	93.12
386.013	110.12
386.238	131.12
386.463	96.12
386.688	107.12
386.913	90.12
387.138	119.12
387.363	106.12
387.588	100.12
387.813	104.12
388.038	103.12
388.263	82.12
388.488	95.12
388.713	90.12
388.938	112.12
389.163	97.12
389.387	88.12
389.612	78.12
389.837	112.12
390.062	106.12
390.287	99.12
390.512	106.12
390.736	91.12
390.961	90.12
391.186	102.12
391.411	105.12
391.636	75.12
391.86	90.12
392.085	71.12
392.31	103.12
392.534	86.12
392.759	91.12
392.984	103.12
393.208	93.12
393.433	94.12
393.658	89.12
393.882	98.12
394.107	86.12
394.331	86.12
394.556	90.12
394.78	100.12
395.005	95.12
395.229	83.12
395.454	90.12
395.678	69.12
395.903	96.12
396.127	90.12
396.352	91.12
396.576	82.12
396.801	85.12
397.025	91.12
397.249	96.12
397.474	101.12
397.698	90.12
397.922	92.12
398.147	86.12
398.371	98.12
398.595	80.12
398.82	88.12
399.044	99.12
399.268	97.12
399.492	90.12
399.717	88.12
399.941	95.12
400.165	93.12
400.389	105.12
400.613	83.12
400.837	83.12
401.062	79.12
401.286	88.12
401.51	92.12
401.734	105.12
401.958	120.12
402.182	136.12
402.406	178.12
402.63	149.12
402.854	99.12
403.078	105.12
403.302	83.12
403.526	85.12
403.75	89.12
403.974	82.12
404.198	89.12
404.422	92.12
404.645	90.12
404.869	112.12
405.093	114.12
405.317	144.12
405.541	154.12
405.765	121.12
405.988	136.12
406.212	208.12
406.436	320.12
406.66	200.12
406.883	119.12
407.107	117.12
407.331	101.12
407.555	108.12
407.778	103.12
408.002	100.12
408.226	90.12
408.449	92.12
408.673	97.12
408.896	95.12
409.12	106.12
409.344	89.12
409.567	93.12
409.791	84.12
410.014	93.12
410.238	83.12
410.461	102.12
410.685	93.12
410.908	106.12
411.132	105.12
411.355	111.12
411.578	98.12
411.802	86.12
412.025	79.12
412.249	101.12
412.472	134.12
412.695	146.12
412.919	126.12
413.142	98.12
413.365	89.12
413.589	89.12
413.812	106.12
414.035	108.12
414.258	88.12
414.482	92.12
414.705	100.12
414.928	94.12
415.151	103.12
415.374	82.12
415.597	85.12
415.821	97.12
416.044	97.12
416.267	90.12
416.49	91.12
416.713	95.12
416.936	97.12
417.159	109.12
417.382	112.12
417.605	124.12
417.828	129.12
418.051	92.12
418.274	91.12
418.497	80.12
418.72	95.12
418.943	96.12
419.166	87.12
419.389	96.12
419.611	88.12
419.834	93.12
420.057	93.12
420.28	110.12
420.503	87.12
420.726	93.12
420.948	113.12
421.171	115.12
421.394	101.12
421.617	84.12
421.839	95.12
422.062	102.12
422.285	88.12
422.507	128.12
422.73	113.12
422.953	90.12
423.175	71.12
423.398	95.12
423.621	88.12
423.843	102.12
424.066	89.12
424.288	97.12
424.511	92.12
424.733	92.12
424.956	134.12
425.178	110.12
425.401	117.12
425.623	107.12
425.846	93.12
426.068	96.12
426.291	102.12
426.513	98.12
426.735	107.12
426.958	98.12
427.18	134.12
427.402	196.12
427.625	277.12
427.847	284.12
428.069	233.12
428.292	146.12
428.514	101.12
428.736	100.12
428.958	82.12
429.181	97.12
429.403	87.12
429.625	110.12
429.847	97.12
430.069	119.12
430.292	81.12
430.514	81.12
430.736	81.12
430.958	93.12
431.18	94.12
431.402	90.12
431.624	89.12
431.846	90.12
432.068	90.12
432.29	84.12
432.512	85.12
432.734	85.12
432.956	91.12
433.178	125.12
433.4	106.12
433.622	98.12
433.844	89.12
434.066	101.12
434.287	79.12
434.509	85.12
434.731	97.12
434.953	97.12
435.175	93.12
435.397	106.12
435.618	104.12
435.84	122.12
436.062	145.12
436.284	147.12
436.505	104.12
436.727	121.12
436.949	100.12
437.17	93.12
437.392	81.12
437.614	98.12
437.835	134.12
438.057	165.12
438.278	130.12
438.5	130.12
438.721	165.12
438.943	111.12
439.165	98.12
439.386	95.12
439.608	101.12
439.829	126.12
440.05	144.12
440.272	201.12
440.493	112.12
440.715	94.12
440.936	90.12
441.158	95.12
441.379	101.12
441.6	109.12
441.822	96.12
442.043	104.12
442.264	131.12
442.486	117.12
442.707	109.12
442.928	126.12
443.149	178.12
443.371	178.12
443.592	143.12
443.813	131.12
444.034	129.12
444.255	100.12
444.476	98.12
444.698	92.12
444.919	90.12
445.14	140.12
445.361	137.12
445.582	144.12
445.803	215.12
446.024	182.12
446.245	177.12
446.466	122.12
446.687	95.12
446.908	101.12
447.129	97.12
447.35	85.12
447.571	117.12
447.792	109.12
448.013	111.12
448.234	125.12
448.455	112.12
448.675	126.12
448.896	150.12
449.117	118.12
449.338	107.12
449.559	143.12
449.779	189.12
450	105.12
450.221	106.12
450.442	107.12
450.662	113.12
450.883	135.12
451.104	142.12
451.324	116.12
451.545	99.12
451.766	79.12
451.986	90.12
452.207	95.12
452.428	97.12
452.648	99.12
452.869	123.12
453.089	133.12
453.31	149.12
453.53	108.12
453.751	101.12
453.971	113.12
454.192	145.12
454.412	102.12
454.633	86.12
454.853	92.12
455.073	92.12
455.294	102.12
455.514	106.12
455.734	95.12
455.955	81.12
456.175	89.12
456.395	99.12
456.616	87.12
456.836	82.12
457.056	85.12
457.276	90.12
457.497	85.12
457.717	89.12
457.937	97.12
458.157	103.12
458.377	100.12
458.598	125.12
458.818	212.12
459.038	233.12
459.258	167.12
459.478	102.12
459.698	99.12
459.918	82.12
460.138	91.12
460.358	91.12
460.578	97.12
460.798	98.12
461.018	107.12
461.238	92.12
461.458	70.12
461.678	78.12
461.898	84.12
462.118	87.12
462.338	87.12
462.558	108.12
462.777	85.12
462.997	110.12
463.217	131.12
463.437	114.12
463.657	89.12
463.876	96.12
464.096	82.12
464.316	106.12
464.536	106.12
464.755	105.12
464.975	125.12
465.195	233.12
465.414	247.12
465.634	122.12
465.854	97.12
466.073	88.12
466.293	94.12
466.512	94.12
466.732	98.12
466.951	95.12
467.171	104.12
467.391	126.12
467.61	168.12
467.829	261.12
468.049	752.12
468.268	1185.12
468.488	299.12
468.707	133.12
468.927	94.12
469.146	97.12
469.365	86.12
469.585	101.12
469.804	116.12
470.023	118.12
470.243	98.12
470.462	102.12
470.681	145.12
470.901	121.12
471.12	111.12
471.339	107.12
471.558	138.12
471.777	194.12
471.997	361.12
472.216	1423.12
472.435	3475.12
472.654	829.12
472.873	206.12
473.092	117.12
473.311	96.12
473.53	93.12
473.749	104.12
473.968	121.12
474.187	140.12
474.406	125.12
474.625	106.12
474.844	92.12
475.063	92.12
475.282	96.12
475.501	110.12
475.72	103.12
475.939	96.12
476.158	103.12
476.377	92.12
476.596	96.12
476.814	100.12
477.033	96.12
477.252	102.12
477.471	99.12
477.69	103.12
477.908	112.12
478.127	102.12
478.346	110.12
478.564	106.12
478.783	112.12
479.002	116.12
479.22	113.12
479.439	116.12
479.658	126.12
479.876	135.12
480.095	132.12
480.313	152.12
480.532	201.12
480.751	326.12
480.969	1305.12
481.188	5653.12
481.406	3574.12
481.624	482.12
481.843	161.12
482.061	123.12
482.28	104.12
482.498	90.12
482.717	88.12
482.935	96.12
483.153	99.12
483.372	95.12
483.59	99.12
483.808	90.12
484.027	86.12
484.245	89.12
484.463	92.12
484.681	93.12
484.9	103.12
485.118	102.12
485.336	99.12
485.554	116.12
485.772	98.12
485.99	97.12
486.209	106.12
486.427	105.12
486.645	120.12
486.863	129.12
487.081	102.12
487.299	100.12
487.517	107.12
487.735	82.12
487.953	98.12
488.171	107.12
488.389	108.12
488.607	99.12
488.825	107.12
489.043	113.12
489.261	82.12
489.479	103.12
489.696	101.12
489.914	99.12
490.132	95.12
490.35	89.12
490.568	91.12
490.786	109.12
491.003	95.12
491.221	99.12
491.439	109.12
491.657	97.12
491.874	112.12
492.092	102.12
492.31	109.12
492.527	111.12
492.745	110.12
492.963	89.12
493.18	87.12
493.398	85.12
493.615	110.12
493.833	105.12
494.05	88.12
494.268	89.12
494.485	109.12
494.703	87.12
494.92	90.12
495.138	91.12
495.355	90.12
495.573	88.12
495.79	90.12
496.008	101.12
496.225	101.12
496.442	104.12
496.66	103.12
496.877	92.12
497.094	101.12
497.312	72.12
497.529	88.12
497.746	106.12
497.963	88.12
498.181	100.12
498.398	109.12
498.615	124.12
498.832	115.12
499.049	93.12
499.267	85.12
499.484	103.12
499.701	94.12
499.918	83.12
500.135	85.12
500.352	88.12
500.569	99.12
500.786	96.12
501.003	112.12
501.22	101.12
501.437	107.12
501.654	104.12
501.871	134.12
502.088	75.12
502.305	94.12
502.522	94.12
502.739	102.12
502.956	86.12
503.172	85.12
503.389	113.12
503.606	125.12
503.823	95.12
504.04	109.12
504.256	92.12
504.473	104.12
504.69	100.12
504.907	101.12
505.123	84.12
505.34	92.12
505.557	112.12
505.773	115.12
505.99	102.12
506.207	94.12
506.423	87.12
506.64	90.12
506.856	111.12
507.073	96.12
507.289	102.12
507.506	107.12
507.722	152.12
507.939	141.12
508.155	99.12
508.372	126.12
508.588	93.12
508.805	102.12
509.021	102.12
509.238	95.12
509.454	101.12
509.67	110.12
509.887	120.12
510.103	153.12
510.319	239.12
510.536	903.12
510.752	3094.12
510.968	874.12
511.184	191.12
511.401	135.12
511.617	113.12
511.833	140.12
