Data from Circ_2023_H10_HRD10591_00098.txt Node
Date: Wed Jan 03 09:50:50 EST 2024
User: Yrep
Spectrometer: HR+D1059
Trigger mode: 1
Integration Time (sec): 1.000000E-1
Scans to average: 1
Electric dark correction enabled: true
Nonlinearity correction enabled: false
Boxcar width: 0
XAxis mode: Wavelengths
Number of Pixels in Spectrum: 2048
>>>>>Begin Spectral Data<<<<<
223.165	-26.31
223.4	-26.31
223.635	-26.31
223.869	-12.31
224.104	-29.31
224.338	-6.31
224.573	-24.31
224.808	-8.31
225.042	-12.31
225.277	-3.31
225.511	1.69
225.746	15.69
225.98	-7.31
226.215	20.69
226.449	15.69
226.683	18.69
226.918	23.69
227.152	33.69
227.387	31.69
227.621	28.69
227.856	49.69
228.09	42.69
228.324	57.69
228.559	63.69
228.793	52.69
229.027	72.69
229.262	75.69
229.496	70.69
229.73	96.69
229.964	95.69
230.199	71.69
230.433	77.69
230.667	86.69
230.901	84.69
231.136	90.69
231.37	83.69
231.604	72.69
231.838	82.69
232.072	88.69
232.306	82.69
232.541	90.69
232.775	91.69
233.009	87.69
233.243	83.69
233.477	89.69
233.711	75.69
233.945	95.69
234.179	75.69
234.413	84.69
234.647	77.69
234.881	90.69
235.115	84.69
235.349	72.69
235.583	77.69
235.817	67.69
236.051	91.69
236.285	82.69
236.519	94.69
236.753	82.69
236.987	76.69
237.221	89.69
237.455	95.69
237.689	84.69
237.922	83.69
238.156	78.69
238.39	83.69
238.624	91.69
238.858	77.69
239.091	71.69
239.325	73.69
239.559	80.69
239.793	84.69
240.027	79.69
240.26	90.69
240.494	85.69
240.728	73.69
240.961	71.69
241.195	88.69
241.429	74.69
241.662	75.69
241.896	82.69
242.13	74.69
242.363	69.69
242.597	69.69
242.83	105.69
243.064	90.69
243.298	87.69
243.531	60.69
243.765	83.69
243.998	87.69
244.232	91.69
244.465	88.69
244.699	88.69
244.932	68.69
245.166	73.69
245.399	75.69
245.633	68.69
245.866	76.69
246.099	98.69
246.333	74.69
246.566	89.69
246.8	73.69
247.033	82.69
247.266	85.69
247.5	88.69
247.733	92.69
247.966	81.69
248.2	87.69
248.433	67.69
248.666	84.69
248.899	89.69
249.133	85.69
249.366	108.69
249.599	88.69
249.832	84.69
250.066	89.69
250.299	86.69
250.532	83.69
250.765	91.69
250.998	82.69
251.231	76.69
251.465	89.69
251.698	85.69
251.931	90.69
252.164	87.69
252.397	76.69
252.63	87.69
252.863	79.69
253.096	88.69
253.329	83.69
253.562	89.69
253.795	79.69
254.028	79.69
254.261	80.69
254.494	83.69
254.727	77.69
254.96	90.69
255.193	89.69
255.426	66.69
255.659	82.69
255.892	91.69
256.124	120.69
256.357	85.69
256.59	90.69
256.823	95.69
257.056	91.69
257.289	86.69
257.521	87.69
257.754	91.69
257.987	88.69
258.22	90.69
258.452	104.69
258.685	107.69
258.918	96.69
259.151	91.69
259.383	87.69
259.616	78.69
259.849	79.69
260.081	87.69
260.314	80.69
260.547	96.69
260.779	93.69
261.012	126.69
261.244	114.69
261.477	106.69
261.71	104.69
261.942	114.69
262.175	149.69
262.407	93.69
262.64	80.69
262.872	82.69
263.105	92.69
263.337	97.69
263.57	73.69
263.802	81.69
264.035	86.69
264.267	89.69
264.499	97.69
264.732	91.69
264.964	90.69
265.197	73.69
265.429	63.69
265.661	93.69
265.894	83.69
266.126	87.69
266.358	88.69
266.591	78.69
266.823	95.69
267.055	84.69
267.287	85.69
267.52	88.69
267.752	85.69
267.984	93.69
268.216	77.69
268.448	82.69
268.681	106.69
268.913	102.69
269.145	78.69
269.377	84.69
269.609	86.69
269.841	89.69
270.073	72.69
270.306	80.69
270.538	82.69
270.77	92.69
271.002	83.69
271.234	100.69
271.466	104.69
271.698	92.69
271.93	86.69
272.162	91.69
272.394	91.69
272.626	74.69
272.858	87.69
273.09	85.69
273.322	90.69
273.553	88.69
273.785	96.69
274.017	80.69
274.249	83.69
274.481	86.69
274.713	88.69
274.945	101.69
275.176	98.69
275.408	112.69
275.64	142.69
275.872	153.69
276.104	121.69
276.335	121.69
276.567	124.69
276.799	164.69
277.031	197.69
277.262	241.69
277.494	177.69
277.726	106.69
277.957	82.69
278.189	83.69
278.421	91.69
278.652	99.69
278.884	86.69
279.115	99.69
279.347	105.69
279.579	108.69
279.81	131.69
280.042	227.69
280.273	333.69
280.505	222.69
280.736	127.69
280.968	97.69
281.199	95.69
281.431	96.69
281.662	85.69
281.894	111.69
282.125	119.69
282.356	139.69
282.588	163.69
282.819	136.69
283.051	86.69
283.282	92.69
283.513	94.69
283.745	98.69
283.976	95.69
284.207	87.69
284.439	84.69
284.67	93.69
284.901	93.69
285.132	77.69
285.364	76.69
285.595	76.69
285.826	95.69
286.057	109.69
286.288	103.69
286.52	84.69
286.751	90.69
286.982	87.69
287.213	90.69
287.444	94.69
287.675	82.69
287.906	83.69
288.138	90.69
288.369	95.69
288.6	93.69
288.831	85.69
289.062	82.69
289.293	81.69
289.524	82.69
289.755	82.69
289.986	91.69
290.217	94.69
290.448	97.69
290.679	101.69
290.91	79.69
291.141	75.69
291.371	93.69
291.602	92.69
291.833	87.69
292.064	89.69
292.295	101.69
292.526	91.69
292.757	87.69
292.987	97.69
293.218	100.69
293.449	102.69
293.68	89.69
293.91	82.69
294.141	96.69
294.372	81.69
294.603	87.69
294.833	87.69
295.064	101.69
295.295	92.69
295.525	92.69
295.756	103.69
295.987	127.69
296.217	158.69
296.448	139.69
296.679	110.69
296.909	84.69
297.14	84.69
297.37	92.69
297.601	101.69
297.831	105.69
298.062	94.69
298.292	87.69
298.523	93.69
298.753	92.69
298.984	104.69
299.214	117.69
299.445	100.69
299.675	84.69
299.905	111.69
300.136	107.69
300.366	94.69
300.597	99.69
300.827	92.69
301.057	94.69
301.288	105.69
301.518	99.69
301.748	104.69
301.979	125.69
302.209	97.69
302.439	97.69
302.669	89.69
302.9	95.69
303.13	105.69
303.36	114.69
303.59	149.69
303.82	164.69
304.051	121.69
304.281	89.69
304.511	92.69
304.741	98.69
304.971	93.69
305.201	89.69
305.431	91.69
305.661	100.69
305.891	84.69
306.121	107.69
306.352	114.69
306.582	106.69
306.812	127.69
307.042	141.69
307.272	175.69
307.502	202.69
307.731	184.69
307.961	140.69
308.191	107.69
308.421	92.69
308.651	100.69
308.881	105.69
309.111	88.69
309.341	108.69
309.571	98.69
309.8	86.69
310.03	112.69
310.26	121.69
310.49	106.69
310.72	121.69
310.949	111.69
311.179	118.69
311.409	99.69
311.639	106.69
311.868	100.69
312.098	109.69
312.328	86.69
312.557	111.69
312.787	129.69
313.017	109.69
313.246	106.69
313.476	89.69
313.706	95.69
313.935	107.69
314.165	120.69
314.394	113.69
314.624	106.69
314.853	109.69
315.083	103.69
315.312	78.69
315.542	94.69
315.771	102.69
316.001	92.69
316.23	102.69
316.46	88.69
316.689	91.69
316.919	102.69
317.148	94.69
317.377	97.69
317.607	112.69
317.836	92.69
318.065	78.69
318.295	91.69
318.524	90.69
318.753	98.69
318.983	114.69
319.212	106.69
319.441	111.69
319.67	121.69
319.9	109.69
320.129	102.69
320.358	83.69
320.587	112.69
320.816	115.69
321.046	107.69
321.275	91.69
321.504	108.69
321.733	98.69
321.962	119.69
322.191	112.69
322.42	113.69
322.649	128.69
322.878	116.69
323.108	131.69
323.337	144.69
323.566	156.69
323.795	182.69
324.024	234.69
324.253	492.69
324.482	989.69
324.71	2032.69
324.939	2671.69
325.168	977.69
325.397	296.69
325.626	178.69
325.855	143.69
326.084	144.69
326.313	145.69
326.542	157.69
326.77	275.69
326.999	525.69
327.228	1081.69
327.457	1977.69
327.686	1617.69
327.914	594.69
328.143	618.69
328.372	867.69
328.6	467.69
328.829	213.69
329.058	196.69
329.287	212.69
329.515	204.69
329.744	319.69
329.972	617.69
330.201	1289.69
330.43	1938.69
330.658	822.69
330.887	319.69
331.115	199.69
331.344	128.69
331.572	136.69
331.801	145.69
332.03	133.69
332.258	127.69
332.486	101.69
332.715	124.69
332.943	103.69
333.172	134.69
333.4	150.69
333.629	173.69
333.857	271.69
334.085	545.69
334.314	1192.69
334.542	2314.69
334.771	2234.69
334.999	549.69
335.227	204.69
335.455	149.69
335.684	133.69
335.912	102.69
336.14	111.69
336.369	117.69
336.597	117.69
336.825	96.69
337.053	105.69
337.281	103.69
337.51	106.69
337.738	105.69
337.966	101.69
338.194	114.69
338.422	98.69
338.65	95.69
338.878	115.69
339.106	96.69
339.334	101.69
339.562	121.69
339.79	98.69
340.018	85.69
340.246	101.69
340.474	101.69
340.702	109.69
340.93	92.69
341.158	108.69
341.386	115.69
341.614	105.69
341.842	96.69
342.07	86.69
342.298	93.69
342.526	84.69
342.754	104.69
342.981	105.69
343.209	115.69
343.437	104.69
343.665	102.69
343.893	105.69
344.12	86.69
344.348	87.69
344.576	95.69
344.804	92.69
345.031	108.69
345.259	105.69
345.487	106.69
345.714	101.69
345.942	103.69
346.17	86.69
346.397	85.69
346.625	92.69
346.853	107.69
347.08	100.69
347.308	91.69
347.535	95.69
347.763	92.69
347.99	117.69
348.218	116.69
348.445	119.69
348.673	107.69
348.9	104.69
349.128	88.69
349.355	99.69
349.583	96.69
349.81	97.69
350.037	104.69
350.265	101.69
350.492	114.69
350.72	102.69
350.947	91.69
351.174	123.69
351.402	142.69
351.629	109.69
351.856	94.69
352.083	132.69
352.311	112.69
352.538	131.69
352.765	137.69
352.992	123.69
353.22	127.69
353.447	114.69
353.674	114.69
353.901	89.69
354.128	97.69
354.355	106.69
354.583	92.69
354.81	87.69
355.037	106.69
355.264	91.69
355.491	98.69
355.718	96.69
355.945	102.69
356.172	96.69
356.399	99.69
356.626	111.69
356.853	100.69
357.08	99.69
357.307	91.69
357.534	86.69
357.761	87.69
357.988	87.69
358.215	94.69
358.441	88.69
358.668	118.69
358.895	94.69
359.122	97.69
359.349	91.69
359.576	98.69
359.802	118.69
360.029	140.69
360.256	135.69
360.483	122.69
360.709	98.69
360.936	104.69
361.163	95.69
361.39	109.69
361.616	100.69
361.843	99.69
362.07	123.69
362.296	117.69
362.523	90.69
362.749	104.69
362.976	99.69
363.203	108.69
363.429	92.69
363.656	116.69
363.882	92.69
364.109	94.69
364.335	92.69
364.562	98.69
364.788	96.69
365.015	94.69
365.241	107.69
365.468	113.69
365.694	110.69
365.92	117.69
366.147	88.69
366.373	85.69
366.599	104.69
366.826	86.69
367.052	83.69
367.278	93.69
367.505	90.69
367.731	89.69
367.957	90.69
368.184	110.69
368.41	114.69
368.636	133.69
368.862	137.69
369.089	125.69
369.315	101.69
369.541	88.69
369.767	88.69
369.993	99.69
370.219	92.69
370.445	92.69
370.672	84.69
370.898	91.69
371.124	86.69
371.35	100.69
371.576	83.69
371.802	105.69
372.028	95.69
372.254	90.69
372.48	91.69
372.706	101.69
372.932	93.69
373.158	90.69
373.384	88.69
373.61	92.69
373.835	89.69
374.061	90.69
374.287	101.69
374.513	101.69
374.739	93.69
374.965	102.69
375.191	99.69
375.416	81.69
375.642	104.69
375.868	111.69
376.094	97.69
376.319	95.69
376.545	93.69
376.771	97.69
376.997	79.69
377.222	102.69
377.448	87.69
377.674	83.69
377.899	101.69
378.125	93.69
378.35	111.69
378.576	98.69
378.802	89.69
379.027	103.69
379.253	96.69
379.478	88.69
379.704	88.69
379.929	102.69
380.155	94.69
380.38	84.69
380.606	92.69
380.831	96.69
381.057	99.69
381.282	105.69
381.507	84.69
381.733	100.69
381.958	82.69
382.184	96.69
382.409	98.69
382.634	99.69
382.86	92.69
383.085	93.69
383.31	100.69
383.535	94.69
383.761	118.69
383.986	90.69
384.211	86.69
384.436	100.69
384.662	107.69
384.887	96.69
385.112	100.69
385.337	101.69
385.562	96.69
385.787	100.69
386.013	114.69
386.238	112.69
386.463	100.69
386.688	97.69
386.913	99.69
387.138	96.69
387.363	91.69
387.588	100.69
387.813	102.69
388.038	108.69
388.263	112.69
388.488	106.69
388.713	83.69
388.938	104.69
389.163	89.69
389.387	101.69
389.612	85.69
389.837	92.69
390.062	102.69
390.287	93.69
390.512	91.69
390.736	85.69
390.961	78.69
391.186	93.69
391.411	91.69
391.636	104.69
391.86	85.69
392.085	83.69
392.31	81.69
392.534	76.69
392.759	91.69
392.984	96.69
393.208	86.69
393.433	103.69
393.658	89.69
393.882	88.69
394.107	90.69
394.331	76.69
394.556	83.69
394.78	84.69
395.005	97.69
395.229	84.69
395.454	97.69
395.678	100.69
395.903	99.69
396.127	102.69
396.352	78.69
396.576	88.69
396.801	92.69
397.025	93.69
397.249	86.69
397.474	104.69
397.698	85.69
397.922	110.69
398.147	81.69
398.371	97.69
398.595	86.69
398.82	92.69
399.044	92.69
399.268	80.69
399.492	96.69
399.717	89.69
399.941	99.69
400.165	111.69
400.389	97.69
400.613	99.69
400.837	105.69
401.062	96.69
401.286	101.69
401.51	96.69
401.734	94.69
401.958	117.69
402.182	146.69
402.406	202.69
402.63	137.69
402.854	100.69
403.078	93.69
403.302	104.69
403.526	97.69
403.75	104.69
403.974	96.69
404.198	81.69
404.422	114.69
404.645	90.69
404.869	97.69
405.093	146.69
405.317	153.69
405.541	138.69
405.765	114.69
405.988	137.69
406.212	191.69
406.436	283.69
406.66	204.69
406.883	111.69
407.107	103.69
407.331	114.69
407.555	108.69
407.778	108.69
408.002	103.69
408.226	100.69
408.449	87.69
408.673	105.69
408.896	106.69
409.12	118.69
409.344	94.69
409.567	89.69
409.791	95.69
410.014	106.69
410.238	99.69
410.461	117.69
410.685	114.69
410.908	112.69
411.132	122.69
411.355	104.69
411.578	101.69
411.802	109.69
412.025	104.69
412.249	118.69
412.472	141.69
412.695	174.69
412.919	111.69
413.142	107.69
413.365	93.69
413.589	90.69
413.812	98.69
414.035	94.69
414.258	114.69
414.482	101.69
414.705	97.69
414.928	121.69
415.151	100.69
415.374	104.69
415.597	97.69
415.821	81.69
416.044	99.69
416.267	104.69
416.49	99.69
416.713	99.69
416.936	96.69
417.159	74.69
417.382	105.69
417.605	108.69
417.828	129.69
418.051	107.69
418.274	90.69
418.497	96.69
418.72	79.69
418.943	101.69
419.166	95.69
419.389	94.69
419.611	98.69
419.834	98.69
420.057	98.69
420.28	105.69
420.503	90.69
420.726	104.69
420.948	106.69
421.171	120.69
421.394	114.69
421.617	96.69
421.839	93.69
422.062	86.69
422.285	107.69
422.507	116.69
422.73	123.69
422.953	107.69
423.175	104.69
423.398	96.69
423.621	96.69
423.843	103.69
424.066	99.69
424.288	96.69
424.511	107.69
424.733	115.69
424.956	121.69
425.178	104.69
425.401	107.69
425.623	112.69
425.846	96.69
426.068	105.69
426.291	97.69
426.513	106.69
426.735	101.69
426.958	102.69
427.18	118.69
427.402	192.69
427.625	277.69
427.847	250.69
428.069	240.69
428.292	145.69
428.514	113.69
428.736	86.69
428.958	90.69
429.181	95.69
429.403	77.69
429.625	90.69
429.847	96.69
430.069	109.69
430.292	118.69
430.514	90.69
430.736	92.69
430.958	105.69
431.18	93.69
431.402	90.69
431.624	98.69
431.846	103.69
432.068	86.69
432.29	93.69
432.512	97.69
432.734	101.69
432.956	106.69
433.178	113.69
433.4	113.69
433.622	95.69
433.844	91.69
434.066	73.69
434.287	97.69
434.509	101.69
434.731	93.69
434.953	102.69
435.175	100.69
435.397	107.69
435.618	95.69
435.84	126.69
436.062	146.69
436.284	127.69
436.505	105.69
436.727	122.69
436.949	109.69
437.17	96.69
437.392	84.69
437.614	94.69
437.835	120.69
438.057	157.69
438.278	137.69
438.5	120.69
438.721	145.69
438.943	119.69
439.165	108.69
439.386	96.69
439.608	90.69
439.829	107.69
440.05	163.69
440.272	177.69
440.493	119.69
440.715	99.69
440.936	89.69
441.158	107.69
441.379	99.69
441.6	104.69
441.822	105.69
442.043	96.69
442.264	115.69
442.486	129.69
442.707	97.69
442.928	135.69
443.149	185.69
443.371	176.69
443.592	141.69
443.813	144.69
444.034	129.69
444.255	100.69
444.476	87.69
444.698	86.69
444.919	104.69
445.14	144.69
445.361	155.69
445.582	148.69
445.803	172.69
446.024	183.69
446.245	179.69
446.466	136.69
446.687	99.69
446.908	97.69
447.129	88.69
447.35	90.69
447.571	83.69
447.792	104.69
448.013	104.69
448.234	122.69
448.455	137.69
448.675	140.69
448.896	151.69
449.117	127.69
449.338	121.69
449.559	159.69
449.779	162.69
450	103.69
450.221	103.69
450.442	100.69
450.662	116.69
450.883	106.69
451.104	144.69
451.324	99.69
451.545	96.69
451.766	92.69
451.986	85.69
452.207	111.69
452.428	105.69
452.648	100.69
452.869	125.69
453.089	136.69
453.31	152.69
453.53	112.69
453.751	100.69
453.971	121.69
454.192	130.69
454.412	100.69
454.633	96.69
454.853	84.69
455.073	101.69
455.294	99.69
455.514	108.69
455.734	108.69
455.955	89.69
456.175	88.69
456.395	82.69
456.616	72.69
456.836	85.69
457.056	95.69
457.276	81.69
457.497	90.69
457.717	80.69
457.937	90.69
458.157	87.69
458.377	106.69
458.598	125.69
458.818	198.69
459.038	234.69
459.258	159.69
459.478	92.69
459.698	95.69
459.918	91.69
460.138	80.69
460.358	69.69
460.578	96.69
460.798	97.69
461.018	94.69
461.238	94.69
461.458	87.69
461.678	101.69
461.898	93.69
462.118	94.69
462.338	92.69
462.558	92.69
462.777	96.69
462.997	112.69
463.217	127.69
463.437	107.69
463.657	102.69
463.876	105.69
464.096	102.69
464.316	111.69
464.536	127.69
464.755	115.69
464.975	136.69
465.195	225.69
465.414	233.69
465.634	113.69
465.854	114.69
466.073	99.69
466.293	93.69
466.512	102.69
466.732	96.69
466.951	106.69
467.171	107.69
467.391	107.69
467.61	152.69
467.829	239.69
468.049	723.69
468.268	1173.69
468.488	290.69
468.707	115.69
468.927	95.69
469.146	88.69
469.365	95.69
469.585	104.69
469.804	115.69
470.023	113.69
470.243	119.69
470.462	128.69
470.681	149.69
470.901	117.69
471.12	111.69
471.339	118.69
471.558	122.69
471.777	178.69
471.997	369.69
472.216	1397.69
472.435	3396.69
472.654	801.69
472.873	210.69
473.092	121.69
473.311	90.69
473.53	96.69
473.749	107.69
473.968	118.69
474.187	142.69
474.406	123.69
474.625	87.69
474.844	92.69
475.063	93.69
475.282	95.69
475.501	95.69
475.72	103.69
475.939	101.69
476.158	92.69
476.377	96.69
476.596	103.69
476.814	120.69
477.033	102.69
477.252	99.69
477.471	105.69
477.69	107.69
477.908	116.69
478.127	103.69
478.346	104.69
478.564	98.69
478.783	119.69
479.002	105.69
479.22	117.69
479.439	134.69
479.658	137.69
479.876	132.69
480.095	120.69
480.313	148.69
480.532	173.69
480.751	369.69
480.969	1258.69
481.188	5514.69
481.406	3443.69
481.624	483.69
481.843	165.69
482.061	119.69
482.28	121.69
482.498	121.69
482.717	100.69
482.935	102.69
483.153	98.69
483.372	115.69
483.59	104.69
483.808	95.69
484.027	103.69
484.245	106.69
484.463	85.69
484.681	102.69
484.9	94.69
485.118	89.69
485.336	97.69
485.554	105.69
485.772	111.69
485.99	116.69
486.209	109.69
486.427	104.69
486.645	130.69
486.863	126.69
487.081	113.69
487.299	108.69
487.517	120.69
487.735	103.69
487.953	88.69
488.171	106.69
488.389	111.69
488.607	105.69
488.825	95.69
489.043	86.69
489.261	94.69
489.479	94.69
489.696	91.69
489.914	98.69
490.132	96.69
490.35	84.69
490.568	90.69
490.786	88.69
491.003	92.69
491.221	99.69
491.439	114.69
491.657	101.69
491.874	98.69
492.092	99.69
492.31	112.69
492.527	107.69
492.745	92.69
492.963	97.69
493.18	88.69
493.398	98.69
493.615	104.69
493.833	102.69
494.05	96.69
494.268	103.69
494.485	87.69
494.703	84.69
494.92	87.69
495.138	101.69
495.355	93.69
495.573	84.69
495.79	97.69
496.008	97.69
496.225	105.69
496.442	94.69
496.66	97.69
496.877	92.69
497.094	104.69
497.312	85.69
497.529	99.69
497.746	101.69
497.963	95.69
498.181	95.69
498.398	98.69
498.615	109.69
498.832	120.69
499.049	90.69
499.267	106.69
499.484	109.69
499.701	92.69
499.918	95.69
500.135	88.69
500.352	102.69
500.569	102.69
500.786	102.69
501.003	103.69
501.22	89.69
501.437	98.69
501.654	105.69
501.871	124.69
502.088	104.69
502.305	94.69
502.522	92.69
502.739	95.69
502.956	97.69
503.172	99.69
503.389	104.69
503.606	121.69
503.823	123.69
504.04	103.69
504.256	98.69
504.473	111.69
504.69	93.69
504.907	105.69
505.123	93.69
505.34	98.69
505.557	100.69
505.773	99.69
505.99	81.69
506.207	86.69
506.423	101.69
506.64	89.69
506.856	107.69
507.073	81.69
507.289	103.69
507.506	100.69
507.722	129.69
507.939	115.69
508.155	108.69
508.372	108.69
508.588	98.69
508.805	91.69
509.021	108.69
509.238	115.69
509.454	108.69
509.67	113.69
509.887	109.69
510.103	138.69
510.319	239.69
510.536	872.69
510.752	3082.69
510.968	874.69
511.184	181.69
