Data from Circ_2023_H10_HRD10591_00007.txt Node
Date: Wed Jan 03 09:50:32 EST 2024
User: Yrep
Spectrometer: HR+D1059
Trigger mode: 1
Integration Time (sec): 1.000000E-1
Scans to average: 1
Electric dark correction enabled: true
Nonlinearity correction enabled: false
Boxcar width: 0
XAxis mode: Wavelengths
Number of Pixels in Spectrum: 2048
>>>>>Begin Spectral Data<<<<<
223.165	-22.44
223.4	-22.44
223.635	-22.44
223.869	-15.44
224.104	-29.44
224.338	-17.44
224.573	-24.44
224.808	-23.44
225.042	1.56
225.277	-3.44
225.511	0.56
225.746	12.56
225.98	-0.44
226.215	10.56
226.449	19.56
226.683	27.56
226.918	33.56
227.152	30.56
227.387	57.56
227.621	39.56
227.856	44.56
228.09	39.56
228.324	47.56
228.559	58.56
228.793	50.56
229.027	66.56
229.262	68.56
229.496	88.56
229.73	97.56
229.964	109.56
230.199	75.56
230.433	82.56
230.667	77.56
230.901	95.56
231.136	88.56
231.37	76.56
231.604	71.56
231.838	70.56
232.072	73.56
232.306	75.56
232.541	75.56
232.775	94.56
233.009	80.56
233.243	82.56
233.477	98.56
233.711	89.56
233.945	82.56
234.179	85.56
234.413	88.56
234.647	80.56
234.881	73.56
235.115	90.56
235.349	83.56
235.583	91.56
235.817	70.56
236.051	82.56
236.285	68.56
236.519	70.56
236.753	87.56
236.987	94.56
237.221	93.56
237.455	97.56
237.689	83.56
237.922	75.56
238.156	77.56
238.39	80.56
238.624	77.56
238.858	79.56
239.091	84.56
239.325	79.56
239.559	71.56
239.793	80.56
240.027	81.56
240.26	95.56
240.494	80.56
240.728	89.56
240.961	85.56
241.195	79.56
241.429	75.56
241.662	66.56
241.896	72.56
242.13	88.56
242.363	83.56
242.597	78.56
242.83	86.56
243.064	72.56
243.298	73.56
243.531	90.56
243.765	81.56
243.998	90.56
244.232	92.56
244.465	86.56
244.699	81.56
244.932	73.56
245.166	71.56
245.399	72.56
245.633	82.56
245.866	78.56
246.099	73.56
246.333	83.56
246.566	78.56
246.8	85.56
247.033	85.56
247.266	76.56
247.5	93.56
247.733	81.56
247.966	69.56
248.2	80.56
248.433	88.56
248.666	85.56
248.899	82.56
249.133	106.56
249.366	99.56
249.599	119.56
249.832	100.56
250.066	78.56
250.299	86.56
250.532	86.56
250.765	94.56
250.998	79.56
251.231	83.56
251.465	90.56
251.698	88.56
251.931	92.56
252.164	98.56
252.397	76.56
252.63	73.56
252.863	88.56
253.096	76.56
253.329	82.56
253.562	86.56
253.795	79.56
254.028	100.56
254.261	87.56
254.494	94.56
254.727	83.56
254.96	83.56
255.193	85.56
255.426	77.56
255.659	85.56
255.892	82.56
256.124	96.56
256.357	98.56
256.59	73.56
256.823	83.56
257.056	90.56
257.289	94.56
257.521	91.56
257.754	84.56
257.987	86.56
258.22	109.56
258.452	102.56
258.685	96.56
258.918	75.56
259.151	82.56
259.383	83.56
259.616	88.56
259.849	82.56
260.081	96.56
260.314	82.56
260.547	90.56
260.779	101.56
261.012	96.56
261.244	94.56
261.477	110.56
261.71	110.56
261.942	139.56
262.175	143.56
262.407	100.56
262.64	97.56
262.872	96.56
263.105	76.56
263.337	88.56
263.57	90.56
263.802	84.56
264.035	79.56
264.267	81.56
264.499	94.56
264.732	89.56
264.964	70.56
265.197	94.56
265.429	84.56
265.661	87.56
265.894	99.56
266.126	100.56
266.358	89.56
266.591	87.56
266.823	71.56
267.055	85.56
267.287	91.56
267.52	63.56
267.752	79.56
267.984	82.56
268.216	72.56
268.448	81.56
268.681	93.56
268.913	95.56
269.145	80.56
269.377	93.56
269.609	82.56
269.841	98.56
270.073	85.56
270.306	76.56
270.538	91.56
270.77	94.56
271.002	93.56
271.234	81.56
271.466	87.56
271.698	97.56
271.93	94.56
272.162	87.56
272.394	101.56
272.626	87.56
272.858	89.56
273.09	92.56
273.322	76.56
273.553	79.56
273.785	84.56
274.017	90.56
274.249	82.56
274.481	87.56
274.713	80.56
274.945	91.56
275.176	93.56
275.408	116.56
275.64	108.56
275.872	109.56
276.104	121.56
276.335	113.56
276.567	131.56
276.799	144.56
277.031	173.56
277.262	195.56
277.494	147.56
277.726	81.56
277.957	92.56
278.189	101.56
278.421	92.56
278.652	91.56
278.884	73.56
279.115	86.56
279.347	85.56
279.579	120.56
279.81	126.56
280.042	167.56
280.273	240.56
280.505	170.56
280.736	105.56
280.968	98.56
281.199	110.56
281.431	95.56
281.662	94.56
281.894	71.56
282.125	104.56
282.356	146.56
282.588	176.56
282.819	154.56
283.051	97.56
283.282	99.56
283.513	94.56
283.745	87.56
283.976	82.56
284.207	80.56
284.439	87.56
284.67	84.56
284.901	88.56
285.132	80.56
285.364	96.56
285.595	84.56
285.826	88.56
286.057	90.56
286.288	93.56
286.52	84.56
286.751	93.56
286.982	105.56
287.213	97.56
287.444	88.56
287.675	87.56
287.906	80.56
288.138	83.56
288.369	103.56
288.6	106.56
288.831	81.56
289.062	85.56
289.293	93.56
289.524	99.56
289.755	98.56
289.986	85.56
290.217	100.56
290.448	83.56
290.679	102.56
290.91	101.56
291.141	98.56
291.371	93.56
291.602	87.56
291.833	100.56
292.064	112.56
292.295	91.56
292.526	103.56
292.757	98.56
292.987	90.56
293.218	73.56
293.449	78.56
293.68	82.56
293.91	95.56
294.141	87.56
294.372	99.56
294.603	80.56
294.833	87.56
295.064	86.56
295.295	96.56
295.525	104.56
295.756	107.56
295.987	125.56
296.217	160.56
296.448	151.56
296.679	85.56
296.909	94.56
297.14	99.56
297.37	98.56
297.601	95.56
297.831	93.56
298.062	96.56
298.292	87.56
298.523	101.56
298.753	82.56
298.984	105.56
299.214	92.56
299.445	86.56
299.675	99.56
299.905	99.56
300.136	99.56
300.366	85.56
300.597	91.56
300.827	102.56
301.057	107.56
301.288	133.56
301.518	104.56
301.748	92.56
301.979	105.56
302.209	114.56
302.439	83.56
302.669	91.56
302.9	95.56
303.13	96.56
303.36	103.56
303.59	121.56
303.82	120.56
304.051	97.56
304.281	94.56
304.511	93.56
304.741	100.56
304.971	102.56
305.201	93.56
305.431	90.56
305.661	94.56
305.891	68.56
306.121	103.56
306.352	124.56
306.582	113.56
306.812	105.56
307.042	103.56
307.272	140.56
307.502	178.56
307.731	139.56
307.961	130.56
308.191	97.56
308.421	104.56
308.651	82.56
308.881	100.56
309.111	113.56
309.341	98.56
309.571	104.56
309.8	100.56
310.03	99.56
310.26	100.56
310.49	111.56
310.72	104.56
310.949	110.56
311.179	107.56
311.409	113.56
311.639	110.56
311.868	112.56
312.098	88.56
312.328	103.56
312.557	106.56
312.787	126.56
313.017	115.56
313.246	95.56
313.476	99.56
313.706	94.56
313.935	96.56
314.165	129.56
314.394	107.56
314.624	114.56
314.853	112.56
315.083	92.56
315.312	94.56
315.542	99.56
315.771	93.56
316.001	98.56
316.23	104.56
316.46	86.56
316.689	103.56
316.919	115.56
317.148	94.56
317.377	90.56
317.607	103.56
317.836	99.56
318.065	90.56
318.295	96.56
318.524	88.56
318.753	74.56
318.983	117.56
319.212	116.56
319.441	110.56
319.67	129.56
319.9	101.56
320.129	83.56
320.358	111.56
320.587	105.56
320.816	107.56
321.046	104.56
321.275	105.56
321.504	102.56
321.733	98.56
321.962	122.56
322.191	106.56
322.42	124.56
322.649	131.56
322.878	132.56
323.108	129.56
323.337	147.56
323.566	165.56
323.795	195.56
324.024	262.56
324.253	560.56
324.482	1166.56
324.71	2402.56
324.939	3190.56
325.168	1158.56
325.397	320.56
325.626	177.56
325.855	152.56
326.084	148.56
326.313	146.56
326.542	187.56
326.77	298.56
326.999	622.56
327.228	1285.56
327.457	2378.56
327.686	1918.56
327.914	607.56
328.143	520.56
328.372	630.56
328.6	356.56
328.829	200.56
329.058	198.56
329.287	211.56
329.515	196.56
329.744	246.56
329.972	445.56
330.201	872.56
330.43	1301.56
330.658	600.56
330.887	305.56
331.115	184.56
331.344	132.56
331.572	133.56
331.801	130.56
332.03	102.56
332.258	123.56
332.486	116.56
332.715	118.56
332.943	111.56
333.172	130.56
333.4	123.56
333.629	162.56
333.857	247.56
334.085	385.56
334.314	815.56
334.542	1631.56
334.771	1560.56
334.999	408.56
335.227	188.56
335.455	124.56
335.684	115.56
335.912	122.56
336.14	106.56
336.369	113.56
336.597	111.56
336.825	92.56
337.053	99.56
337.281	103.56
337.51	98.56
337.738	101.56
337.966	113.56
338.194	103.56
338.422	99.56
338.65	102.56
338.878	91.56
339.106	87.56
339.334	111.56
339.562	93.56
339.79	102.56
340.018	83.56
340.246	113.56
340.474	111.56
340.702	102.56
340.93	112.56
341.158	101.56
341.386	109.56
341.614	98.56
341.842	103.56
342.07	84.56
342.298	80.56
342.526	108.56
342.754	75.56
342.981	94.56
343.209	88.56
343.437	94.56
343.665	103.56
343.893	94.56
344.12	87.56
344.348	95.56
344.576	96.56
344.804	94.56
345.031	98.56
345.259	103.56
345.487	114.56
345.714	110.56
345.942	104.56
346.17	95.56
346.397	116.56
346.625	99.56
346.853	97.56
347.08	86.56
347.308	110.56
347.535	90.56
347.763	124.56
347.99	115.56
348.218	116.56
348.445	138.56
348.673	109.56
348.9	99.56
349.128	101.56
349.355	96.56
349.583	95.56
349.81	95.56
350.037	103.56
350.265	91.56
350.492	83.56
350.72	97.56
350.947	98.56
351.174	107.56
351.402	130.56
351.629	109.56
351.856	102.56
352.083	123.56
352.311	114.56
352.538	115.56
352.765	110.56
352.992	123.56
353.22	110.56
353.447	108.56
353.674	101.56
353.901	113.56
354.128	91.56
354.355	92.56
354.583	94.56
354.81	97.56
355.037	95.56
355.264	96.56
355.491	89.56
355.718	88.56
355.945	81.56
356.172	97.56
356.399	102.56
356.626	86.56
356.853	95.56
357.08	98.56
357.307	94.56
357.534	89.56
357.761	88.56
357.988	88.56
358.215	97.56
358.441	92.56
358.668	94.56
358.895	97.56
359.122	94.56
359.349	95.56
359.576	115.56
359.802	118.56
360.029	128.56
360.256	151.56
360.483	116.56
360.709	107.56
360.936	99.56
361.163	106.56
361.39	104.56
361.616	118.56
361.843	101.56
362.07	116.56
362.296	112.56
362.523	96.56
362.749	98.56
362.976	103.56
363.203	94.56
363.429	97.56
363.656	87.56
363.882	92.56
364.109	89.56
364.335	99.56
364.562	84.56
364.788	108.56
365.015	93.56
365.241	110.56
365.468	107.56
365.694	118.56
365.92	97.56
366.147	97.56
366.373	93.56
366.599	85.56
366.826	91.56
367.052	96.56
367.278	101.56
367.505	92.56
367.731	102.56
367.957	95.56
368.184	95.56
368.41	106.56
368.636	128.56
368.862	142.56
369.089	132.56
369.315	94.56
369.541	84.56
369.767	94.56
369.993	91.56
370.219	107.56
370.445	94.56
370.672	81.56
370.898	79.56
371.124	98.56
371.35	86.56
371.576	99.56
371.802	95.56
372.028	89.56
372.254	103.56
372.48	93.56
372.706	85.56
372.932	83.56
373.158	95.56
373.384	86.56
373.61	80.56
373.835	108.56
374.061	96.56
374.287	81.56
374.513	106.56
374.739	97.56
374.965	95.56
375.191	90.56
375.416	86.56
375.642	89.56
375.868	88.56
376.094	91.56
376.319	94.56
376.545	87.56
376.771	82.56
376.997	88.56
377.222	83.56
377.448	84.56
377.674	91.56
377.899	95.56
378.125	90.56
378.35	82.56
378.576	82.56
378.802	86.56
379.027	103.56
379.253	92.56
379.478	87.56
379.704	98.56
379.929	101.56
380.155	101.56
380.38	95.56
380.606	89.56
380.831	105.56
381.057	103.56
381.282	88.56
381.507	104.56
381.733	91.56
381.958	86.56
382.184	101.56
382.409	99.56
382.634	97.56
382.86	106.56
383.085	90.56
383.31	100.56
383.535	114.56
383.761	95.56
383.986	95.56
384.211	95.56
384.436	95.56
384.662	95.56
384.887	95.56
385.112	83.56
385.337	79.56
385.562	98.56
385.787	114.56
386.013	104.56
386.238	118.56
386.463	90.56
386.688	111.56
386.913	91.56
387.138	96.56
387.363	99.56
387.588	96.56
387.813	95.56
388.038	101.56
388.263	98.56
388.488	123.56
388.713	91.56
388.938	96.56
389.163	103.56
389.387	88.56
389.612	90.56
389.837	92.56
390.062	92.56
390.287	87.56
390.512	82.56
390.736	100.56
390.961	90.56
391.186	91.56
391.411	93.56
391.636	82.56
391.86	92.56
392.085	88.56
392.31	91.56
392.534	89.56
392.759	87.56
392.984	91.56
393.208	87.56
393.433	91.56
393.658	85.56
393.882	87.56
394.107	87.56
394.331	90.56
394.556	94.56
394.78	89.56
395.005	95.56
395.229	99.56
395.454	89.56
395.678	88.56
395.903	86.56
396.127	93.56
396.352	74.56
396.576	91.56
396.801	102.56
397.025	91.56
397.249	83.56
397.474	102.56
397.698	82.56
397.922	83.56
398.147	105.56
398.371	81.56
398.595	77.56
398.82	87.56
399.044	80.56
399.268	92.56
399.492	94.56
399.717	104.56
399.941	89.56
400.165	103.56
400.389	94.56
400.613	70.56
400.837	88.56
401.062	104.56
401.286	90.56
401.51	97.56
401.734	86.56
401.958	124.56
402.182	163.56
402.406	215.56
402.63	155.56
402.854	101.56
403.078	100.56
403.302	92.56
403.526	99.56
403.75	86.56
403.974	92.56
404.198	76.56
404.422	85.56
404.645	90.56
404.869	102.56
405.093	133.56
405.317	157.56
405.541	147.56
405.765	127.56
405.988	136.56
406.212	224.56
406.436	331.56
406.66	214.56
406.883	134.56
407.107	118.56
407.331	102.56
407.555	102.56
407.778	105.56
408.002	92.56
408.226	90.56
408.449	90.56
408.673	101.56
408.896	100.56
409.12	114.56
409.344	102.56
409.567	101.56
409.791	97.56
410.014	91.56
410.238	90.56
410.461	100.56
410.685	103.56
410.908	100.56
411.132	98.56
411.355	101.56
411.578	90.56
411.802	79.56
412.025	103.56
412.249	113.56
412.472	132.56
412.695	144.56
412.919	123.56
413.142	116.56
413.365	94.56
413.589	96.56
413.812	96.56
414.035	86.56
414.258	74.56
414.482	94.56
414.705	94.56
414.928	72.56
415.151	87.56
415.374	90.56
415.597	80.56
415.821	80.56
416.044	101.56
416.267	97.56
416.49	95.56
416.713	110.56
416.936	83.56
417.159	96.56
417.382	120.56
417.605	92.56
417.828	114.56
418.051	101.56
418.274	97.56
418.497	94.56
418.72	94.56
418.943	82.56
419.166	95.56
419.389	85.56
419.611	88.56
419.834	96.56
420.057	96.56
420.28	94.56
420.503	88.56
420.726	96.56
420.948	107.56
421.171	102.56
421.394	90.56
421.617	107.56
421.839	87.56
422.062	79.56
422.285	91.56
422.507	114.56
422.73	98.56
422.953	87.56
423.175	90.56
423.398	104.56
423.621	95.56
423.843	101.56
424.066	90.56
424.288	85.56
424.511	99.56
424.733	112.56
424.956	117.56
425.178	129.56
425.401	119.56
425.623	122.56
425.846	86.56
426.068	112.56
426.291	103.56
426.513	84.56
426.735	102.56
426.958	109.56
427.18	127.56
427.402	192.56
427.625	278.56
427.847	254.56
428.069	250.56
428.292	132.56
428.514	103.56
428.736	88.56
428.958	88.56
429.181	87.56
429.403	97.56
429.625	91.56
429.847	99.56
430.069	120.56
430.292	90.56
430.514	85.56
430.736	78.56
430.958	89.56
431.18	82.56
431.402	92.56
431.624	90.56
431.846	96.56
432.068	80.56
432.29	80.56
432.512	114.56
432.734	91.56
432.956	97.56
433.178	99.56
433.4	113.56
433.622	100.56
433.844	95.56
434.066	94.56
434.287	99.56
434.509	101.56
434.731	95.56
434.953	98.56
435.175	99.56
435.397	86.56
435.618	110.56
435.84	117.56
436.062	160.56
436.284	146.56
436.505	115.56
436.727	118.56
436.949	95.56
437.17	99.56
437.392	85.56
437.614	111.56
437.835	141.56
438.057	158.56
438.278	137.56
438.5	119.56
438.721	154.56
438.943	102.56
439.165	101.56
439.386	95.56
439.608	100.56
439.829	112.56
440.05	155.56
440.272	210.56
440.493	104.56
440.715	93.56
440.936	91.56
441.158	76.56
441.379	94.56
441.6	92.56
441.822	114.56
442.043	101.56
442.264	126.56
442.486	137.56
442.707	106.56
442.928	130.56
443.149	181.56
443.371	166.56
443.592	131.56
443.813	145.56
444.034	119.56
444.255	95.56
444.476	101.56
444.698	102.56
444.919	95.56
445.14	126.56
445.361	158.56
445.582	149.56
445.803	187.56
446.024	198.56
446.245	176.56
446.466	128.56
446.687	106.56
446.908	73.56
447.129	94.56
447.35	85.56
447.571	93.56
447.792	96.56
448.013	99.56
448.234	126.56
448.455	113.56
448.675	152.56
448.896	159.56
449.117	120.56
449.338	121.56
449.559	159.56
449.779	173.56
450	106.56
450.221	103.56
450.442	110.56
450.662	111.56
450.883	135.56
451.104	139.56
451.324	98.56
451.545	106.56
451.766	92.56
451.986	105.56
452.207	99.56
452.428	110.56
452.648	118.56
452.869	123.56
453.089	161.56
453.31	153.56
453.53	103.56
453.751	88.56
453.971	113.56
454.192	133.56
454.412	118.56
454.633	82.56
454.853	85.56
455.073	89.56
455.294	95.56
455.514	129.56
455.734	82.56
455.955	91.56
456.175	95.56
456.395	93.56
456.616	96.56
456.836	97.56
457.056	104.56
457.276	87.56
457.497	87.56
457.717	98.56
457.937	88.56
458.157	91.56
458.377	95.56
458.598	138.56
458.818	216.56
459.038	251.56
459.258	169.56
459.478	108.56
459.698	96.56
459.918	77.56
460.138	94.56
460.358	79.56
460.578	91.56
460.798	91.56
461.018	99.56
461.238	87.56
461.458	84.56
461.678	82.56
461.898	100.56
462.118	100.56
462.338	82.56
462.558	87.56
462.777	86.56
462.997	101.56
463.217	112.56
463.437	99.56
463.657	84.56
463.876	90.56
464.096	86.56
464.316	107.56
464.536	102.56
464.755	107.56
464.975	121.56
465.195	244.56
465.414	251.56
465.634	139.56
465.854	90.56
466.073	87.56
466.293	98.56
466.512	101.56
466.732	106.56
466.951	88.56
467.171	111.56
467.391	106.56
467.61	158.56
467.829	210.56
468.049	481.56
468.268	727.56
468.488	201.56
468.707	114.56
468.927	106.56
469.146	84.56
469.365	88.56
469.585	91.56
469.804	93.56
470.023	103.56
470.243	111.56
470.462	122.56
470.681	160.56
470.901	129.56
471.12	100.56
471.339	113.56
471.558	110.56
471.777	144.56
471.997	264.56
472.216	930.56
472.435	2172.56
472.654	549.56
472.873	162.56
473.092	110.56
473.311	107.56
473.53	95.56
473.749	97.56
473.968	107.56
474.187	119.56
474.406	118.56
474.625	93.56
474.844	98.56
475.063	98.56
475.282	99.56
475.501	92.56
475.72	90.56
475.939	107.56
476.158	93.56
476.377	92.56
476.596	116.56
476.814	99.56
477.033	101.56
477.252	94.56
477.471	84.56
477.69	91.56
477.908	99.56
478.127	99.56
478.346	103.56
478.564	98.56
478.783	107.56
479.002	105.56
479.22	113.56
479.439	130.56
479.658	142.56
479.876	122.56
480.095	116.56
480.313	135.56
480.532	148.56
480.751	247.56
480.969	840.56
481.188	3642.56
481.406	2302.56
481.624	341.56
481.843	131.56
482.061	108.56
482.28	100.56
482.498	102.56
482.717	95.56
482.935	90.56
483.153	112.56
483.372	87.56
483.59	94.56
483.808	90.56
484.027	102.56
484.245	89.56
484.463	90.56
484.681	99.56
484.9	99.56
485.118	97.56
485.336	91.56
485.554	100.56
485.772	98.56
485.99	125.56
486.209	107.56
486.427	105.56
486.645	123.56
486.863	134.56
487.081	114.56
487.299	112.56
487.517	101.56
487.735	94.56
487.953	105.56
488.171	109.56
488.389	91.56
488.607	114.56
488.825	99.56
489.043	99.56
489.261	99.56
489.479	96.56
489.696	72.56
489.914	93.56
490.132	105.56
490.35	91.56
490.568	93.56
490.786	94.56
491.003	83.56
491.221	92.56
491.439	103.56
491.657	112.56
491.874	102.56
492.092	92.56
492.31	107.56
492.527	113.56
492.745	88.56
492.963	95.56
493.18	95.56
493.398	90.56
493.615	91.56
493.833	96.56
494.05	99.56
494.268	83.56
494.485	97.56
494.703	103.56
494.92	83.56
495.138	79.56
495.355	88.56
495.573	101.56
495.79	92.56
496.008	97.56
496.225	90.56
496.442	85.56
496.66	88.56
496.877	91.56
497.094	117.56
497.312	95.56
497.529	98.56
497.746	100.56
497.963	100.56
498.181	110.56
498.398	96.56
498.615	121.56
498.832	104.56
499.049	90.56
499.267	94.56
499.484	104.56
499.701	80.56
499.918	85.56
500.135	78.56
500.352	97.56
500.569	97.56
500.786	101.56
501.003	98.56
501.22	105.56
501.437	98.56
501.654	111.56
501.871	125.56
502.088	91.56
502.305	103.56
502.522	89.56
502.739	97.56
502.956	80.56
503.172	95.56
503.389	104.56
503.606	135.56
503.823	105.56
504.04	114.56
504.256	108.56
504.473	101.56
504.69	95.56
504.907	85.56
505.123	81.56
505.34	97.56
505.557	96.56
505.773	104.56
505.99	100.56
506.207	99.56
506.423	106.56
506.64	90.56
506.856	96.56
507.073	83.56
507.289	103.56
507.506	113.56
507.722	142.56
507.939	144.56
508.155	110.56
508.372	96.56
508.588	104.56
508.805	99.56
509.021	95.56
509.238	118.56
509.454	86.56
509.67	125.56
509.887	109.56
510.103	145.56
510.319	236.56
510.536	956.56
510.752	3340.56
510.968	959.56
511.184	171.56
511.401	132.56
511.617	115.56
511.833	124.56
512.049	111.56
512.265	98.56
