Data from Circ_2023_H10_HRD10591_00008.txt Node
Date: Wed Jan 03 09:50:32 EST 2024
User: Yrep
Spectrometer: HR+D1059
Trigger mode: 1
Integration Time (sec): 1.000000E-1
Scans to average: 1
Electric dark correction enabled: true
Nonlinearity correction enabled: false
Boxcar width: 0
XAxis mode: Wavelengths
Number of Pixels in Spectrum: 2048
>>>>>Begin Spectral Data<<<<<
223.165	-10.56
223.4	-10.56
223.635	-10.56
223.869	-17.56
224.104	-20.56
224.338	-14.56
224.573	-23.56
224.808	-15.56
225.042	-9.56
225.277	-3.56
225.511	-5.56
225.746	12.44
225.98	12.44
226.215	22.44
226.449	14.44
226.683	24.44
226.918	11.44
227.152	23.44
227.387	36.44
227.621	41.44
227.856	45.44
228.09	58.44
228.324	49.44
228.559	51.44
228.793	64.44
229.027	72.44
229.262	65.44
229.496	77.44
229.73	93.44
229.964	102.44
230.199	93.44
230.433	79.44
230.667	75.44
230.901	84.44
231.136	82.44
231.37	80.44
231.604	75.44
231.838	82.44
232.072	78.44
232.306	78.44
232.541	83.44
232.775	82.44
233.009	101.44
233.243	80.44
233.477	85.44
233.711	74.44
233.945	86.44
234.179	75.44
234.413	84.44
234.647	89.44
234.881	79.44
235.115	80.44
235.349	82.44
235.583	89.44
235.817	73.44
236.051	69.44
236.285	89.44
236.519	82.44
236.753	79.44
236.987	92.44
237.221	99.44
237.455	105.44
237.689	77.44
237.922	83.44
238.156	86.44
238.39	75.44
238.624	79.44
238.858	78.44
239.091	86.44
239.325	95.44
239.559	75.44
239.793	85.44
240.027	88.44
240.26	82.44
240.494	73.44
240.728	88.44
240.961	74.44
241.195	82.44
241.429	71.44
241.662	87.44
241.896	75.44
242.13	75.44
242.363	77.44
242.597	82.44
242.83	71.44
243.064	82.44
243.298	90.44
243.531	67.44
243.765	79.44
243.998	79.44
244.232	81.44
244.465	100.44
244.699	94.44
244.932	75.44
245.166	78.44
245.399	65.44
245.633	85.44
245.866	78.44
246.099	86.44
246.333	95.44
246.566	91.44
246.8	76.44
247.033	87.44
247.266	93.44
247.5	74.44
247.733	85.44
247.966	81.44
248.2	49.44
248.433	74.44
248.666	88.44
248.899	70.44
249.133	71.44
249.366	112.44
249.599	113.44
249.832	99.44
250.066	85.44
250.299	90.44
250.532	95.44
250.765	79.44
250.998	80.44
251.231	84.44
251.465	88.44
251.698	79.44
251.931	77.44
252.164	79.44
252.397	65.44
252.63	99.44
252.863	100.44
253.096	88.44
253.329	70.44
253.562	93.44
253.795	76.44
254.028	75.44
254.261	87.44
254.494	79.44
254.727	89.44
254.96	78.44
255.193	75.44
255.426	79.44
255.659	84.44
255.892	91.44
256.124	95.44
256.357	74.44
256.59	86.44
256.823	82.44
257.056	82.44
257.289	83.44
257.521	84.44
257.754	85.44
257.987	92.44
258.22	85.44
258.452	80.44
258.685	96.44
258.918	80.44
259.151	79.44
259.383	84.44
259.616	79.44
259.849	91.44
260.081	76.44
260.314	90.44
260.547	100.44
260.779	97.44
261.012	119.44
261.244	101.44
261.477	97.44
261.71	113.44
261.942	138.44
262.175	146.44
262.407	115.44
262.64	101.44
262.872	111.44
263.105	89.44
263.337	90.44
263.57	87.44
263.802	83.44
264.035	105.44
264.267	96.44
264.499	86.44
264.732	94.44
264.964	73.44
265.197	94.44
265.429	90.44
265.661	89.44
265.894	75.44
266.126	91.44
266.358	88.44
266.591	97.44
266.823	87.44
267.055	78.44
267.287	78.44
267.52	92.44
267.752	96.44
267.984	102.44
268.216	83.44
268.448	76.44
268.681	94.44
268.913	82.44
269.145	89.44
269.377	72.44
269.609	72.44
269.841	71.44
270.073	93.44
270.306	92.44
270.538	74.44
270.77	79.44
271.002	94.44
271.234	91.44
271.466	87.44
271.698	94.44
271.93	83.44
272.162	90.44
272.394	94.44
272.626	86.44
272.858	88.44
273.09	87.44
273.322	87.44
273.553	87.44
273.785	78.44
274.017	76.44
274.249	86.44
274.481	94.44
274.713	81.44
274.945	92.44
275.176	87.44
275.408	86.44
275.64	100.44
275.872	119.44
276.104	105.44
276.335	111.44
276.567	126.44
276.799	150.44
277.031	154.44
277.262	184.44
277.494	140.44
277.726	94.44
277.957	89.44
278.189	87.44
278.421	95.44
278.652	88.44
278.884	103.44
279.115	85.44
279.347	84.44
279.579	94.44
279.81	111.44
280.042	192.44
280.273	240.44
280.505	173.44
280.736	106.44
280.968	105.44
281.199	81.44
281.431	103.44
281.662	87.44
281.894	97.44
282.125	115.44
282.356	139.44
282.588	170.44
282.819	137.44
283.051	94.44
283.282	90.44
283.513	83.44
283.745	78.44
283.976	78.44
284.207	89.44
284.439	97.44
284.67	95.44
284.901	89.44
285.132	86.44
285.364	94.44
285.595	87.44
285.826	95.44
286.057	90.44
286.288	95.44
286.52	90.44
286.751	93.44
286.982	92.44
287.213	75.44
287.444	94.44
287.675	83.44
287.906	82.44
288.138	90.44
288.369	105.44
288.6	80.44
288.831	93.44
289.062	88.44
289.293	95.44
289.524	89.44
289.755	93.44
289.986	90.44
290.217	92.44
290.448	88.44
290.679	95.44
290.91	99.44
291.141	90.44
291.371	88.44
291.602	70.44
291.833	88.44
292.064	71.44
292.295	102.44
292.526	90.44
292.757	83.44
292.987	94.44
293.218	87.44
293.449	81.44
293.68	100.44
293.91	87.44
294.141	86.44
294.372	84.44
294.603	90.44
294.833	89.44
295.064	94.44
295.295	104.44
295.525	78.44
295.756	113.44
295.987	131.44
296.217	157.44
296.448	148.44
296.679	109.44
296.909	100.44
297.14	91.44
297.37	98.44
297.601	92.44
297.831	81.44
298.062	90.44
298.292	102.44
298.523	97.44
298.753	95.44
298.984	99.44
299.214	97.44
299.445	94.44
299.675	85.44
299.905	93.44
300.136	85.44
300.366	86.44
300.597	89.44
300.827	99.44
301.057	113.44
301.288	107.44
301.518	115.44
301.748	95.44
301.979	102.44
302.209	102.44
302.439	100.44
302.669	93.44
302.9	87.44
303.13	104.44
303.36	111.44
303.59	129.44
303.82	147.44
304.051	116.44
304.281	83.44
304.511	95.44
304.741	96.44
304.971	87.44
305.201	96.44
305.431	83.44
305.661	92.44
305.891	95.44
306.121	111.44
306.352	115.44
306.582	128.44
306.812	110.44
307.042	123.44
307.272	130.44
307.502	161.44
307.731	166.44
307.961	128.44
308.191	100.44
308.421	100.44
308.651	92.44
308.881	120.44
309.111	96.44
309.341	98.44
309.571	97.44
309.8	113.44
310.03	95.44
310.26	114.44
310.49	104.44
310.72	104.44
310.949	112.44
311.179	111.44
311.409	94.44
311.639	103.44
311.868	98.44
312.098	97.44
312.328	101.44
312.557	107.44
312.787	129.44
313.017	102.44
313.246	92.44
313.476	96.44
313.706	86.44
313.935	79.44
314.165	107.44
314.394	103.44
314.624	98.44
314.853	101.44
315.083	102.44
315.312	91.44
315.542	105.44
315.771	105.44
316.001	91.44
316.23	86.44
316.46	97.44
316.689	90.44
316.919	95.44
317.148	104.44
317.377	99.44
317.607	107.44
317.836	76.44
318.065	107.44
318.295	100.44
318.524	91.44
318.753	89.44
318.983	103.44
319.212	93.44
319.441	105.44
319.67	116.44
319.9	87.44
320.129	98.44
320.358	109.44
320.587	111.44
320.816	104.44
321.046	99.44
321.275	108.44
321.504	89.44
321.733	105.44
321.962	103.44
322.191	105.44
322.42	106.44
322.649	125.44
322.878	130.44
323.108	135.44
323.337	158.44
323.566	165.44
323.795	194.44
324.024	252.44
324.253	504.44
324.482	1079.44
324.71	2256.44
324.939	2985.44
325.168	1117.44
325.397	309.44
325.626	186.44
325.855	151.44
326.084	150.44
326.313	153.44
326.542	181.44
326.77	288.44
326.999	560.44
327.228	1169.44
327.457	2194.44
327.686	1803.44
327.914	567.44
328.143	484.44
328.372	621.44
328.6	370.44
328.829	192.44
329.058	195.44
329.287	190.44
329.515	174.44
329.744	243.44
329.972	450.44
330.201	884.44
330.43	1305.44
330.658	621.44
330.887	281.44
331.115	194.44
331.344	141.44
331.572	122.44
331.801	143.44
332.03	129.44
332.258	111.44
332.486	114.44
332.715	121.44
332.943	115.44
333.172	119.44
333.4	127.44
333.629	173.44
333.857	215.44
334.085	426.44
334.314	816.44
334.542	1626.44
334.771	1567.44
334.999	403.44
335.227	153.44
335.455	144.44
335.684	127.44
335.912	109.44
336.14	113.44
336.369	122.44
336.597	127.44
336.825	99.44
337.053	99.44
337.281	98.44
337.51	81.44
337.738	95.44
337.966	94.44
338.194	111.44
338.422	100.44
338.65	105.44
338.878	100.44
339.106	91.44
339.334	91.44
339.562	96.44
339.79	95.44
340.018	95.44
340.246	101.44
340.474	96.44
340.702	103.44
340.93	82.44
341.158	95.44
341.386	101.44
341.614	103.44
341.842	105.44
342.07	95.44
342.298	94.44
342.526	96.44
342.754	91.44
342.981	94.44
343.209	100.44
343.437	100.44
343.665	88.44
343.893	100.44
344.12	92.44
344.348	90.44
344.576	97.44
344.804	88.44
345.031	102.44
345.259	104.44
345.487	91.44
345.714	95.44
345.942	102.44
346.17	101.44
346.397	100.44
346.625	97.44
346.853	96.44
347.08	85.44
347.308	98.44
347.535	116.44
347.763	109.44
347.99	107.44
348.218	110.44
348.445	119.44
348.673	104.44
348.9	95.44
349.128	101.44
349.355	110.44
349.583	103.44
349.81	113.44
350.037	98.44
350.265	96.44
350.492	83.44
350.72	109.44
350.947	100.44
351.174	120.44
351.402	130.44
351.629	107.44
351.856	111.44
352.083	121.44
352.311	114.44
352.538	119.44
352.765	105.44
352.992	110.44
353.22	111.44
353.447	115.44
353.674	110.44
353.901	92.44
354.128	89.44
354.355	92.44
354.583	104.44
354.81	93.44
355.037	85.44
355.264	81.44
355.491	77.44
355.718	96.44
355.945	88.44
356.172	95.44
356.399	90.44
356.626	85.44
356.853	95.44
357.08	85.44
357.307	100.44
357.534	98.44
357.761	89.44
357.988	81.44
358.215	90.44
358.441	111.44
358.668	108.44
358.895	87.44
359.122	93.44
359.349	95.44
359.576	91.44
359.802	94.44
360.029	137.44
360.256	132.44
360.483	105.44
360.709	95.44
360.936	91.44
361.163	113.44
361.39	96.44
361.616	109.44
361.843	92.44
362.07	106.44
362.296	94.44
362.523	99.44
362.749	114.44
362.976	84.44
363.203	109.44
363.429	90.44
363.656	91.44
363.882	99.44
364.109	104.44
364.335	96.44
364.562	100.44
364.788	95.44
365.015	106.44
365.241	102.44
365.468	126.44
365.694	105.44
365.92	106.44
366.147	98.44
366.373	82.44
366.599	92.44
366.826	96.44
367.052	97.44
367.278	97.44
367.505	95.44
367.731	93.44
367.957	105.44
368.184	98.44
368.41	102.44
368.636	128.44
368.862	137.44
369.089	119.44
369.315	96.44
369.541	95.44
369.767	98.44
369.993	101.44
370.219	90.44
370.445	84.44
370.672	86.44
370.898	87.44
371.124	99.44
371.35	81.44
371.576	90.44
371.802	94.44
372.028	85.44
372.254	93.44
372.48	84.44
372.706	81.44
372.932	81.44
373.158	75.44
373.384	94.44
373.61	89.44
373.835	95.44
374.061	102.44
374.287	95.44
374.513	101.44
374.739	94.44
374.965	100.44
375.191	89.44
375.416	80.44
375.642	85.44
375.868	103.44
376.094	84.44
376.319	82.44
376.545	92.44
376.771	87.44
376.997	88.44
377.222	88.44
377.448	105.44
377.674	88.44
377.899	101.44
378.125	98.44
378.35	94.44
378.576	101.44
378.802	93.44
379.027	92.44
379.253	98.44
379.478	92.44
379.704	98.44
379.929	105.44
380.155	106.44
380.38	100.44
380.606	98.44
380.831	108.44
381.057	102.44
381.282	77.44
381.507	97.44
381.733	93.44
381.958	89.44
382.184	79.44
382.409	91.44
382.634	100.44
382.86	90.44
383.085	98.44
383.31	112.44
383.535	106.44
383.761	97.44
383.986	91.44
384.211	105.44
384.436	81.44
384.662	99.44
384.887	90.44
385.112	90.44
385.337	97.44
385.562	109.44
385.787	102.44
386.013	116.44
386.238	111.44
386.463	122.44
386.688	101.44
386.913	90.44
387.138	111.44
387.363	101.44
387.588	98.44
387.813	103.44
388.038	77.44
388.263	102.44
388.488	105.44
388.713	101.44
388.938	101.44
389.163	94.44
389.387	95.44
389.612	104.44
389.837	96.44
390.062	74.44
390.287	96.44
390.512	85.44
390.736	97.44
390.961	90.44
391.186	85.44
391.411	75.44
391.636	81.44
391.86	100.44
392.085	89.44
392.31	85.44
392.534	84.44
392.759	91.44
392.984	84.44
393.208	102.44
393.433	88.44
393.658	88.44
393.882	81.44
394.107	89.44
394.331	91.44
394.556	82.44
394.78	83.44
395.005	85.44
395.229	88.44
395.454	73.44
395.678	89.44
395.903	78.44
396.127	83.44
396.352	85.44
396.576	72.44
396.801	84.44
397.025	73.44
397.249	78.44
397.474	95.44
397.698	98.44
397.922	95.44
398.147	85.44
398.371	81.44
398.595	94.44
398.82	99.44
399.044	89.44
399.268	78.44
399.492	78.44
399.717	97.44
399.941	86.44
400.165	99.44
400.389	87.44
400.613	82.44
400.837	89.44
401.062	103.44
401.286	94.44
401.51	84.44
401.734	96.44
401.958	119.44
402.182	157.44
402.406	202.44
402.63	139.44
402.854	105.44
403.078	101.44
403.302	92.44
403.526	85.44
403.75	113.44
403.974	87.44
404.198	97.44
404.422	106.44
404.645	82.44
404.869	84.44
405.093	115.44
405.317	147.44
405.541	137.44
405.765	123.44
405.988	139.44
406.212	218.44
406.436	309.44
406.66	204.44
406.883	128.44
407.107	104.44
407.331	133.44
407.555	102.44
407.778	106.44
408.002	91.44
408.226	101.44
408.449	110.44
408.673	104.44
408.896	85.44
409.12	94.44
409.344	100.44
409.567	96.44
409.791	84.44
410.014	98.44
410.238	88.44
410.461	96.44
410.685	97.44
410.908	81.44
411.132	109.44
411.355	112.44
411.578	98.44
411.802	80.44
412.025	74.44
412.249	103.44
412.472	115.44
412.695	137.44
412.919	114.44
413.142	89.44
413.365	96.44
413.589	90.44
413.812	83.44
414.035	101.44
414.258	75.44
414.482	98.44
414.705	101.44
414.928	95.44
415.151	97.44
415.374	101.44
415.597	104.44
415.821	95.44
416.044	88.44
416.267	90.44
416.49	83.44
416.713	85.44
416.936	101.44
417.159	90.44
417.382	81.44
417.605	95.44
417.828	94.44
418.051	110.44
418.274	99.44
418.497	86.44
418.72	94.44
418.943	91.44
419.166	97.44
419.389	85.44
419.611	91.44
419.834	104.44
420.057	97.44
420.28	93.44
420.503	99.44
420.726	101.44
420.948	94.44
421.171	117.44
421.394	111.44
421.617	97.44
421.839	91.44
422.062	87.44
422.285	100.44
422.507	106.44
422.73	108.44
422.953	98.44
423.175	99.44
423.398	89.44
423.621	100.44
423.843	88.44
424.066	88.44
424.288	119.44
424.511	105.44
424.733	110.44
424.956	119.44
425.178	112.44
425.401	114.44
425.623	132.44
425.846	89.44
426.068	103.44
426.291	102.44
426.513	97.44
426.735	84.44
426.958	100.44
427.18	122.44
427.402	175.44
427.625	254.44
427.847	241.44
428.069	230.44
428.292	137.44
428.514	108.44
428.736	100.44
428.958	84.44
429.181	80.44
429.403	87.44
429.625	98.44
429.847	110.44
430.069	116.44
430.292	106.44
430.514	101.44
430.736	88.44
430.958	89.44
431.18	89.44
431.402	93.44
431.624	87.44
431.846	75.44
432.068	96.44
432.29	94.44
432.512	99.44
432.734	90.44
432.956	102.44
433.178	109.44
433.4	121.44
433.622	106.44
433.844	89.44
434.066	81.44
434.287	82.44
434.509	99.44
434.731	84.44
434.953	97.44
435.175	92.44
435.397	98.44
435.618	111.44
435.84	131.44
436.062	161.44
436.284	137.44
436.505	112.44
436.727	115.44
436.949	100.44
437.17	90.44
437.392	90.44
437.614	101.44
437.835	119.44
438.057	153.44
438.278	125.44
438.5	125.44
438.721	148.44
438.943	135.44
439.165	97.44
439.386	89.44
439.608	109.44
439.829	125.44
440.05	161.44
440.272	200.44
440.493	125.44
440.715	89.44
440.936	89.44
441.158	90.44
441.379	82.44
441.6	104.44
441.822	112.44
442.043	97.44
442.264	133.44
442.486	106.44
442.707	93.44
442.928	122.44
443.149	181.44
443.371	170.44
443.592	147.44
443.813	137.44
444.034	135.44
444.255	94.44
444.476	86.44
444.698	92.44
444.919	94.44
445.14	136.44
445.361	143.44
445.582	149.44
445.803	175.44
446.024	190.44
446.245	178.44
446.466	129.44
446.687	82.44
446.908	84.44
447.129	88.44
447.35	90.44
447.571	95.44
447.792	104.44
448.013	97.44
448.234	117.44
448.455	116.44
448.675	141.44
448.896	154.44
449.117	121.44
449.338	114.44
449.559	143.44
449.779	158.44
450	91.44
450.221	106.44
450.442	92.44
450.662	102.44
450.883	137.44
451.104	140.44
451.324	118.44
451.545	87.44
451.766	98.44
451.986	79.44
452.207	78.44
452.428	103.44
452.648	105.44
452.869	117.44
453.089	135.44
453.31	146.44
453.53	97.44
453.751	93.44
453.971	113.44
454.192	141.44
454.412	126.44
454.633	105.44
454.853	95.44
455.073	97.44
455.294	92.44
455.514	106.44
455.734	106.44
455.955	92.44
456.175	86.44
456.395	85.44
456.616	87.44
456.836	88.44
457.056	69.44
457.276	73.44
457.497	73.44
457.717	92.44
457.937	90.44
458.157	81.44
458.377	98.44
458.598	136.44
458.818	207.44
459.038	225.44
459.258	161.44
459.478	89.44
459.698	105.44
459.918	103.44
460.138	86.44
460.358	91.44
460.578	84.44
460.798	88.44
461.018	85.44
461.238	89.44
461.458	85.44
461.678	87.44
461.898	92.44
462.118	91.44
462.338	69.44
462.558	106.44
462.777	91.44
462.997	84.44
463.217	101.44
463.437	112.44
463.657	91.44
463.876	97.44
464.096	96.44
464.316	96.44
464.536	106.44
464.755	83.44
464.975	129.44
465.195	239.44
465.414	241.44
465.634	107.44
465.854	101.44
466.073	95.44
466.293	83.44
466.512	89.44
466.732	81.44
466.951	77.44
467.171	95.44
467.391	113.44
467.61	158.44
467.829	179.44
468.049	482.44
468.268	736.44
468.488	216.44
468.707	119.44
468.927	101.44
469.146	93.44
469.365	101.44
469.585	90.44
469.804	114.44
470.023	115.44
470.243	111.44
470.462	132.44
470.681	152.44
470.901	98.44
471.12	109.44
471.339	105.44
471.558	111.44
471.777	151.44
471.997	259.44
472.216	936.44
472.435	2185.44
472.654	567.44
472.873	152.44
473.092	101.44
473.311	102.44
473.53	101.44
473.749	94.44
473.968	102.44
474.187	124.44
474.406	107.44
474.625	91.44
474.844	87.44
475.063	86.44
475.282	84.44
475.501	109.44
475.72	101.44
475.939	96.44
476.158	104.44
476.377	99.44
476.596	81.44
476.814	97.44
477.033	91.44
477.252	102.44
477.471	97.44
477.69	90.44
477.908	91.44
478.127	105.44
478.346	85.44
478.564	104.44
478.783	99.44
479.002	109.44
479.22	109.44
479.439	123.44
479.658	136.44
479.876	127.44
480.095	110.44
480.313	134.44
480.532	151.44
480.751	257.44
480.969	864.44
481.188	3676.44
481.406	2293.44
481.624	338.44
481.843	139.44
482.061	125.44
482.28	103.44
482.498	97.44
482.717	90.44
482.935	92.44
483.153	81.44
483.372	87.44
483.59	83.44
483.808	88.44
484.027	101.44
484.245	84.44
484.463	94.44
484.681	100.44
484.9	104.44
485.118	91.44
485.336	95.44
485.554	99.44
485.772	103.44
485.99	97.44
486.209	109.44
486.427	113.44
486.645	111.44
486.863	122.44
487.081	107.44
487.299	109.44
487.517	113.44
487.735	110.44
487.953	102.44
488.171	98.44
488.389	118.44
488.607	116.44
488.825	104.44
489.043	96.44
489.261	73.44
489.479	87.44
489.696	90.44
489.914	81.44
490.132	91.44
490.35	96.44
490.568	102.44
490.786	102.44
491.003	92.44
491.221	93.44
491.439	99.44
491.657	100.44
491.874	83.44
492.092	93.44
492.31	90.44
492.527	99.44
492.745	103.44
492.963	96.44
493.18	89.44
493.398	101.44
493.615	102.44
493.833	102.44
494.05	99.44
494.268	90.44
494.485	107.44
494.703	86.44
494.92	94.44
495.138	86.44
495.355	110.44
495.573	97.44
495.79	83.44
496.008	96.44
496.225	83.44
496.442	97.44
496.66	98.44
496.877	80.44
497.094	93.44
497.312	103.44
497.529	103.44
497.746	93.44
497.963	95.44
498.181	100.44
498.398	101.44
498.615	105.44
498.832	123.44
499.049	108.44
499.267	96.44
499.484	97.44
499.701	88.44
499.918	90.44
500.135	83.44
500.352	90.44
500.569	92.44
500.786	88.44
501.003	92.44
501.22	84.44
501.437	111.44
501.654	112.44
501.871	139.44
502.088	97.44
502.305	94.44
502.522	92.44
502.739	94.44
502.956	105.44
503.172	98.44
503.389	104.44
503.606	133.44
503.823	109.44
504.04	97.44
504.256	103.44
504.473	94.44
504.69	99.44
504.907	107.44
505.123	101.44
505.34	93.44
505.557	95.44
505.773	85.44
505.99	87.44
506.207	91.44
506.423	99.44
506.64	93.44
506.856	89.44
507.073	97.44
507.289	95.44
507.506	106.44
507.722	145.44
507.939	141.44
508.155	110.44
508.372	101.44
508.588	88.44
508.805	97.44
509.021	106.44
509.238	125.44
509.454	113.44
509.67	113.44
509.887	122.44
510.103	151.44
510.319	269.44
510.536	932.44
510.752	3287.44
510.968	957.44
511.184	192.44
511.401	132.44
511.617	115.44
511.833	137.44
512.049	95.44
512.265	97.44
512.481	96.44
