Data from Circ_2023_H10_HRD10591_00099.txt Node
Date: Wed Jan 03 09:50:50 EST 2024
User: Yrep
Spectrometer: HR+D1059
Trigger mode: 1
Integration Time (sec): 1.000000E-1
Scans to average: 1
Electric dark correction enabled: true
Nonlinearity correction enabled: false
Boxcar width: 0
XAxis mode: Wavelengths
Number of Pixels in Spectrum: 2048
>>>>>Begin Spectral Data<<<<<
223.165	-22.31
223.4	-22.31
223.635	-22.31
223.869	-22.31
224.104	-10.31
224.338	-8.31
224.573	-13.31
224.808	-8.31
225.042	-17.31
225.277	2.69
225.511	-6.31
225.746	2.69
225.98	4.69
226.215	5.69
226.449	-3.31
226.683	26.69
226.918	29.69
227.152	39.69
227.387	44.69
227.621	43.69
227.856	44.69
228.09	52.69
228.324	53.69
228.559	59.69
228.793	58.69
229.027	62.69
229.262	60.69
229.496	70.69
229.73	90.69
229.964	101.69
230.199	90.69
230.433	76.69
230.667	74.69
230.901	74.69
231.136	72.69
231.37	88.69
231.604	81.69
231.838	87.69
232.072	86.69
232.306	87.69
232.541	93.69
232.775	79.69
233.009	83.69
233.243	71.69
233.477	94.69
233.711	67.69
233.945	83.69
234.179	90.69
234.413	80.69
234.647	88.69
234.881	77.69
235.115	86.69
235.349	96.69
235.583	76.69
235.817	78.69
236.051	86.69
236.285	82.69
236.519	70.69
236.753	74.69
236.987	91.69
237.221	76.69
237.455	85.69
237.689	94.69
237.922	83.69
238.156	81.69
238.39	82.69
238.624	86.69
238.858	82.69
239.091	91.69
239.325	80.69
239.559	82.69
239.793	81.69
240.027	81.69
240.26	93.69
240.494	87.69
240.728	67.69
240.961	82.69
241.195	89.69
241.429	79.69
241.662	75.69
241.896	82.69
242.13	87.69
242.363	83.69
242.597	78.69
242.83	83.69
243.064	93.69
243.298	79.69
243.531	85.69
243.765	91.69
243.998	73.69
244.232	86.69
244.465	81.69
244.699	84.69
244.932	72.69
245.166	76.69
245.399	74.69
245.633	77.69
245.866	98.69
246.099	92.69
246.333	85.69
246.566	99.69
246.8	79.69
247.033	77.69
247.266	80.69
247.5	80.69
247.733	93.69
247.966	78.69
248.2	66.69
248.433	97.69
248.666	82.69
248.899	79.69
249.133	83.69
249.366	103.69
249.599	112.69
249.832	89.69
250.066	87.69
250.299	89.69
250.532	99.69
250.765	85.69
250.998	87.69
251.231	85.69
251.465	73.69
251.698	90.69
251.931	106.69
252.164	88.69
252.397	83.69
252.63	75.69
252.863	87.69
253.096	87.69
253.329	76.69
253.562	91.69
253.795	88.69
254.028	90.69
254.261	80.69
254.494	76.69
254.727	85.69
254.96	76.69
255.193	79.69
255.426	74.69
255.659	92.69
255.892	114.69
256.124	110.69
256.357	86.69
256.59	92.69
256.823	98.69
257.056	86.69
257.289	92.69
257.521	77.69
257.754	85.69
257.987	89.69
258.22	94.69
258.452	103.69
258.685	92.69
258.918	109.69
259.151	90.69
259.383	94.69
259.616	96.69
259.849	87.69
260.081	95.69
260.314	85.69
260.547	91.69
260.779	115.69
261.012	106.69
261.244	106.69
261.477	101.69
261.71	104.69
261.942	137.69
262.175	148.69
262.407	99.69
262.64	88.69
262.872	92.69
263.105	86.69
263.337	94.69
263.57	92.69
263.802	92.69
264.035	92.69
264.267	81.69
264.499	102.69
264.732	88.69
264.964	91.69
265.197	100.69
265.429	97.69
265.661	76.69
265.894	76.69
266.126	81.69
266.358	78.69
266.591	81.69
266.823	66.69
267.055	86.69
267.287	90.69
267.52	85.69
267.752	92.69
267.984	96.69
268.216	80.69
268.448	82.69
268.681	98.69
268.913	83.69
269.145	77.69
269.377	80.69
269.609	75.69
269.841	73.69
270.073	93.69
270.306	79.69
270.538	74.69
270.77	84.69
271.002	89.69
271.234	91.69
271.466	106.69
271.698	95.69
271.93	89.69
272.162	84.69
272.394	92.69
272.626	92.69
272.858	79.69
273.09	97.69
273.322	80.69
273.553	86.69
273.785	82.69
274.017	97.69
274.249	93.69
274.481	91.69
274.713	100.69
274.945	98.69
275.176	82.69
275.408	98.69
275.64	126.69
275.872	131.69
276.104	119.69
276.335	129.69
276.567	121.69
276.799	165.69
277.031	210.69
277.262	253.69
277.494	203.69
277.726	113.69
277.957	91.69
278.189	94.69
278.421	102.69
278.652	103.69
278.884	81.69
279.115	104.69
279.347	103.69
279.579	109.69
279.81	154.69
280.042	256.69
280.273	363.69
280.505	248.69
280.736	129.69
280.968	95.69
281.199	94.69
281.431	80.69
281.662	84.69
281.894	102.69
282.125	111.69
282.356	146.69
282.588	180.69
282.819	142.69
283.051	96.69
283.282	91.69
283.513	95.69
283.745	86.69
283.976	84.69
284.207	91.69
284.439	97.69
284.67	86.69
284.901	78.69
285.132	80.69
285.364	68.69
285.595	83.69
285.826	92.69
286.057	92.69
286.288	89.69
286.52	80.69
286.751	94.69
286.982	76.69
287.213	90.69
287.444	94.69
287.675	88.69
287.906	107.69
288.138	83.69
288.369	86.69
288.6	100.69
288.831	78.69
289.062	92.69
289.293	86.69
289.524	105.69
289.755	88.69
289.986	87.69
290.217	85.69
290.448	85.69
290.679	105.69
290.91	91.69
291.141	90.69
291.371	76.69
291.602	100.69
291.833	87.69
292.064	94.69
292.295	92.69
292.526	85.69
292.757	92.69
292.987	99.69
293.218	87.69
293.449	95.69
293.68	94.69
293.91	97.69
294.141	91.69
294.372	85.69
294.603	95.69
294.833	91.69
295.064	94.69
295.295	96.69
295.525	99.69
295.756	113.69
295.987	155.69
296.217	187.69
296.448	153.69
296.679	101.69
296.909	93.69
297.14	92.69
297.37	84.69
297.601	110.69
297.831	90.69
298.062	105.69
298.292	99.69
298.523	92.69
298.753	98.69
298.984	78.69
299.214	99.69
299.445	104.69
299.675	93.69
299.905	92.69
300.136	101.69
300.366	104.69
300.597	99.69
300.827	90.69
301.057	106.69
301.288	115.69
301.518	100.69
301.748	93.69
301.979	125.69
302.209	111.69
302.439	102.69
302.669	104.69
302.9	97.69
303.13	105.69
303.36	125.69
303.59	162.69
303.82	156.69
304.051	111.69
304.281	120.69
304.511	92.69
304.741	84.69
304.971	91.69
305.201	80.69
305.431	100.69
305.661	91.69
305.891	102.69
306.121	100.69
306.352	103.69
306.582	127.69
306.812	131.69
307.042	136.69
307.272	215.69
307.502	220.69
307.731	209.69
307.961	146.69
308.191	114.69
308.421	104.69
308.651	105.69
308.881	101.69
309.111	97.69
309.341	95.69
309.571	107.69
309.8	108.69
310.03	99.69
310.26	110.69
310.49	100.69
310.72	101.69
310.949	122.69
311.179	113.69
311.409	108.69
311.639	110.69
311.868	106.69
312.098	97.69
312.328	112.69
312.557	117.69
312.787	147.69
313.017	126.69
313.246	120.69
313.476	95.69
313.706	88.69
313.935	89.69
314.165	123.69
314.394	116.69
314.624	104.69
314.853	103.69
315.083	97.69
315.312	111.69
315.542	88.69
315.771	91.69
316.001	99.69
316.23	96.69
316.46	101.69
316.689	83.69
316.919	89.69
317.148	118.69
317.377	105.69
317.607	100.69
317.836	106.69
318.065	111.69
318.295	102.69
318.524	96.69
318.753	102.69
318.983	99.69
319.212	115.69
319.441	114.69
319.67	129.69
319.9	92.69
320.129	117.69
320.358	107.69
320.587	122.69
320.816	115.69
321.046	112.69
321.275	110.69
321.504	105.69
321.733	90.69
321.962	114.69
322.191	105.69
322.42	120.69
322.649	133.69
322.878	144.69
323.108	130.69
323.337	161.69
323.566	152.69
323.795	183.69
324.024	254.69
324.253	537.69
324.482	1184.69
324.71	2380.69
324.939	3126.69
325.168	1127.69
325.397	308.69
325.626	191.69
325.855	159.69
326.084	153.69
326.313	158.69
326.542	183.69
326.77	309.69
326.999	602.69
327.228	1225.69
327.457	2276.69
327.686	1847.69
327.914	675.69
328.143	729.69
328.372	956.69
328.6	517.69
328.829	218.69
329.058	222.69
329.287	232.69
329.515	209.69
329.744	366.69
329.972	683.69
330.201	1461.69
330.43	2137.69
330.658	916.69
330.887	359.69
331.115	218.69
331.344	154.69
331.572	127.69
331.801	141.69
332.03	139.69
332.258	126.69
332.486	131.69
332.715	141.69
332.943	133.69
333.172	149.69
333.4	156.69
333.629	185.69
333.857	308.69
334.085	591.69
334.314	1309.69
334.542	2651.69
334.771	2479.69
334.999	628.69
335.227	214.69
335.455	131.69
335.684	116.69
335.912	121.69
336.14	119.69
336.369	112.69
336.597	110.69
336.825	121.69
337.053	114.69
337.281	102.69
337.51	91.69
337.738	110.69
337.966	104.69
338.194	104.69
338.422	127.69
338.65	97.69
338.878	109.69
339.106	84.69
339.334	98.69
339.562	102.69
339.79	98.69
340.018	100.69
340.246	121.69
340.474	105.69
340.702	92.69
340.93	95.69
341.158	121.69
341.386	115.69
341.614	106.69
341.842	98.69
342.07	119.69
342.298	103.69
342.526	104.69
342.754	89.69
342.981	102.69
343.209	91.69
343.437	98.69
343.665	90.69
343.893	102.69
344.12	92.69
344.348	94.69
344.576	100.69
344.804	99.69
345.031	98.69
345.259	102.69
345.487	97.69
345.714	104.69
345.942	110.69
346.17	87.69
346.397	101.69
346.625	112.69
346.853	102.69
347.08	98.69
347.308	101.69
347.535	103.69
347.763	117.69
347.99	126.69
348.218	109.69
348.445	112.69
348.673	124.69
348.9	107.69
349.128	104.69
349.355	107.69
349.583	90.69
349.81	91.69
350.037	109.69
350.265	97.69
350.492	103.69
350.72	116.69
350.947	118.69
351.174	122.69
351.402	125.69
351.629	119.69
351.856	88.69
352.083	104.69
352.311	128.69
352.538	118.69
352.765	121.69
352.992	141.69
353.22	110.69
353.447	116.69
353.674	113.69
353.901	80.69
354.128	94.69
354.355	95.69
354.583	105.69
354.81	83.69
355.037	101.69
355.264	86.69
355.491	87.69
355.718	91.69
355.945	89.69
356.172	97.69
356.399	110.69
356.626	102.69
356.853	105.69
357.08	111.69
357.307	90.69
357.534	91.69
357.761	99.69
357.988	83.69
358.215	89.69
358.441	98.69
358.668	82.69
358.895	96.69
359.122	103.69
359.349	104.69
359.576	111.69
359.802	116.69
360.029	144.69
360.256	136.69
360.483	116.69
360.709	91.69
360.936	86.69
361.163	103.69
361.39	114.69
361.616	104.69
361.843	81.69
362.07	110.69
362.296	104.69
362.523	110.69
362.749	104.69
362.976	97.69
363.203	104.69
363.429	81.69
363.656	99.69
363.882	103.69
364.109	98.69
364.335	104.69
364.562	88.69
364.788	113.69
365.015	114.69
365.241	126.69
365.468	122.69
365.694	132.69
365.92	100.69
366.147	107.69
366.373	100.69
366.599	96.69
366.826	99.69
367.052	102.69
367.278	89.69
367.505	80.69
367.731	110.69
367.957	93.69
368.184	98.69
368.41	102.69
368.636	127.69
368.862	158.69
369.089	127.69
369.315	91.69
369.541	101.69
369.767	91.69
369.993	106.69
370.219	94.69
370.445	91.69
370.672	93.69
370.898	93.69
371.124	93.69
371.35	98.69
371.576	88.69
371.802	79.69
372.028	88.69
372.254	72.69
372.48	94.69
372.706	94.69
372.932	85.69
373.158	79.69
373.384	91.69
373.61	96.69
373.835	94.69
374.061	98.69
374.287	89.69
374.513	102.69
374.739	89.69
374.965	82.69
375.191	90.69
375.416	97.69
375.642	92.69
375.868	90.69
376.094	104.69
376.319	98.69
376.545	90.69
376.771	84.69
376.997	75.69
377.222	89.69
377.448	91.69
377.674	100.69
377.899	96.69
378.125	97.69
378.35	106.69
378.576	88.69
378.802	84.69
379.027	89.69
379.253	96.69
379.478	88.69
379.704	96.69
379.929	83.69
380.155	97.69
380.38	101.69
380.606	97.69
380.831	104.69
381.057	82.69
381.282	90.69
381.507	95.69
381.733	97.69
381.958	95.69
382.184	106.69
382.409	105.69
382.634	107.69
382.86	104.69
383.085	103.69
383.31	112.69
383.535	99.69
383.761	111.69
383.986	98.69
384.211	103.69
384.436	94.69
384.662	115.69
384.887	100.69
385.112	112.69
385.337	96.69
385.562	83.69
385.787	105.69
386.013	117.69
386.238	110.69
386.463	117.69
386.688	92.69
386.913	110.69
387.138	98.69
387.363	101.69
387.588	96.69
387.813	105.69
388.038	88.69
388.263	95.69
388.488	100.69
388.713	90.69
388.938	102.69
389.163	108.69
389.387	109.69
389.612	98.69
389.837	98.69
390.062	105.69
390.287	103.69
390.512	104.69
390.736	92.69
390.961	101.69
391.186	102.69
391.411	97.69
391.636	102.69
391.86	96.69
392.085	86.69
392.31	77.69
392.534	91.69
392.759	97.69
392.984	86.69
393.208	80.69
393.433	83.69
393.658	87.69
393.882	91.69
394.107	97.69
394.331	88.69
394.556	78.69
394.78	102.69
395.005	77.69
395.229	93.69
395.454	96.69
395.678	96.69
395.903	93.69
396.127	92.69
396.352	86.69
396.576	90.69
396.801	93.69
397.025	101.69
397.249	99.69
397.474	100.69
397.698	97.69
397.922	87.69
398.147	84.69
398.371	79.69
398.595	93.69
398.82	93.69
399.044	89.69
399.268	88.69
399.492	89.69
399.717	97.69
399.941	92.69
400.165	112.69
400.389	113.69
400.613	92.69
400.837	95.69
401.062	86.69
401.286	102.69
401.51	95.69
401.734	92.69
401.958	101.69
402.182	154.69
402.406	207.69
402.63	147.69
402.854	112.69
403.078	79.69
403.302	99.69
403.526	90.69
403.75	83.69
403.974	100.69
404.198	94.69
404.422	98.69
404.645	96.69
404.869	99.69
405.093	131.69
405.317	165.69
405.541	164.69
405.765	123.69
405.988	139.69
406.212	224.69
406.436	307.69
406.66	220.69
406.883	134.69
407.107	110.69
407.331	105.69
407.555	123.69
407.778	95.69
408.002	102.69
408.226	99.69
408.449	100.69
408.673	82.69
408.896	104.69
409.12	99.69
409.344	98.69
409.567	89.69
409.791	89.69
410.014	102.69
410.238	90.69
410.461	99.69
410.685	113.69
410.908	90.69
411.132	106.69
411.355	117.69
411.578	87.69
411.802	84.69
412.025	104.69
412.249	116.69
412.472	131.69
412.695	156.69
412.919	119.69
413.142	98.69
413.365	95.69
413.589	88.69
413.812	104.69
414.035	90.69
414.258	103.69
414.482	99.69
414.705	109.69
414.928	99.69
415.151	79.69
415.374	92.69
415.597	104.69
415.821	78.69
416.044	93.69
416.267	101.69
416.49	94.69
416.713	84.69
416.936	97.69
417.159	83.69
417.382	106.69
417.605	115.69
417.828	114.69
418.051	95.69
418.274	86.69
418.497	89.69
418.72	99.69
418.943	94.69
419.166	96.69
419.389	85.69
419.611	77.69
419.834	89.69
420.057	86.69
420.28	106.69
420.503	98.69
420.726	83.69
420.948	88.69
421.171	119.69
421.394	101.69
421.617	92.69
421.839	88.69
422.062	90.69
422.285	103.69
422.507	109.69
422.73	104.69
422.953	99.69
423.175	106.69
423.398	85.69
423.621	89.69
423.843	93.69
424.066	97.69
424.288	92.69
424.511	91.69
424.733	119.69
424.956	132.69
425.178	114.69
425.401	123.69
425.623	106.69
425.846	110.69
426.068	105.69
426.291	105.69
426.513	98.69
426.735	78.69
426.958	83.69
427.18	123.69
427.402	206.69
427.625	285.69
427.847	294.69
428.069	269.69
428.292	154.69
428.514	97.69
428.736	87.69
428.958	93.69
429.181	89.69
429.403	99.69
429.625	92.69
429.847	91.69
430.069	114.69
430.292	90.69
430.514	90.69
430.736	86.69
430.958	89.69
431.18	80.69
431.402	88.69
431.624	93.69
431.846	105.69
432.068	83.69
432.29	81.69
432.512	78.69
432.734	84.69
432.956	95.69
433.178	105.69
433.4	100.69
433.622	100.69
433.844	93.69
434.066	91.69
434.287	92.69
434.509	79.69
434.731	93.69
434.953	94.69
435.175	104.69
435.397	99.69
435.618	108.69
435.84	109.69
436.062	140.69
436.284	145.69
436.505	110.69
436.727	106.69
436.949	87.69
437.17	87.69
437.392	96.69
437.614	100.69
437.835	140.69
438.057	167.69
438.278	147.69
438.5	121.69
438.721	137.69
438.943	130.69
439.165	85.69
439.386	90.69
439.608	99.69
439.829	120.69
440.05	152.69
440.272	200.69
440.493	121.69
440.715	98.69
440.936	88.69
441.158	102.69
441.379	103.69
441.6	113.69
441.822	113.69
442.043	109.69
442.264	129.69
442.486	115.69
442.707	103.69
442.928	122.69
443.149	196.69
443.371	185.69
443.592	137.69
443.813	133.69
444.034	123.69
444.255	95.69
444.476	90.69
444.698	94.69
444.919	95.69
445.14	135.69
445.361	138.69
445.582	161.69
445.803	184.69
446.024	199.69
446.245	184.69
446.466	146.69
446.687	97.69
446.908	100.69
447.129	91.69
447.35	102.69
447.571	110.69
447.792	106.69
448.013	106.69
448.234	122.69
448.455	114.69
448.675	135.69
448.896	150.69
449.117	114.69
449.338	128.69
449.559	155.69
449.779	171.69
450	105.69
450.221	89.69
450.442	107.69
450.662	106.69
450.883	134.69
451.104	152.69
451.324	91.69
451.545	83.69
451.766	98.69
451.986	94.69
452.207	104.69
452.428	114.69
452.648	106.69
452.869	129.69
453.089	153.69
453.31	139.69
453.53	102.69
453.751	115.69
453.971	117.69
454.192	145.69
454.412	101.69
454.633	94.69
454.853	75.69
455.073	110.69
455.294	112.69
455.514	107.69
455.734	89.69
455.955	93.69
456.175	89.69
456.395	91.69
456.616	84.69
456.836	92.69
457.056	85.69
457.276	97.69
457.497	99.69
457.717	99.69
457.937	91.69
458.157	97.69
458.377	100.69
458.598	132.69
458.818	222.69
459.038	259.69
459.258	180.69
459.478	107.69
459.698	78.69
459.918	81.69
460.138	94.69
460.358	83.69
460.578	89.69
460.798	86.69
461.018	87.69
461.238	89.69
461.458	88.69
461.678	87.69
461.898	99.69
462.118	74.69
462.338	104.69
462.558	87.69
462.777	90.69
462.997	119.69
463.217	112.69
463.437	104.69
463.657	103.69
463.876	100.69
464.096	105.69
464.316	98.69
464.536	115.69
464.755	95.69
464.975	120.69
465.195	250.69
465.414	267.69
465.634	119.69
465.854	101.69
466.073	114.69
466.293	87.69
466.512	97.69
466.732	97.69
466.951	104.69
467.171	110.69
467.391	124.69
467.61	171.69
467.829	267.69
468.049	786.69
468.268	1302.69
468.488	303.69
468.707	122.69
468.927	94.69
469.146	104.69
469.365	98.69
469.585	103.69
469.804	112.69
470.023	129.69
470.243	100.69
470.462	134.69
470.681	140.69
470.901	114.69
471.12	115.69
471.339	108.69
471.558	144.69
471.777	168.69
471.997	384.69
472.216	1558.69
472.435	3831.69
472.654	880.69
472.873	207.69
473.092	126.69
473.311	123.69
473.53	94.69
473.749	87.69
473.968	117.69
474.187	132.69
474.406	123.69
474.625	97.69
474.844	94.69
475.063	91.69
475.282	94.69
475.501	94.69
475.72	79.69
475.939	100.69
476.158	94.69
476.377	106.69
476.596	98.69
476.814	126.69
477.033	116.69
477.252	99.69
477.471	93.69
477.69	98.69
477.908	103.69
478.127	83.69
478.346	90.69
478.564	110.69
478.783	121.69
479.002	119.69
479.22	121.69
479.439	127.69
479.658	158.69
479.876	151.69
480.095	138.69
480.313	166.69
480.532	208.69
480.751	364.69
480.969	1396.69
481.188	6164.69
481.406	3830.69
481.624	505.69
481.843	154.69
482.061	138.69
482.28	94.69
482.498	107.69
482.717	98.69
482.935	77.69
483.153	91.69
483.372	101.69
483.59	94.69
483.808	91.69
484.027	91.69
484.245	114.69
484.463	99.69
484.681	76.69
484.9	98.69
485.118	105.69
485.336	105.69
485.554	85.69
485.772	112.69
485.99	106.69
486.209	103.69
486.427	98.69
486.645	127.69
486.863	123.69
487.081	112.69
487.299	109.69
487.517	106.69
487.735	101.69
487.953	102.69
488.171	87.69
488.389	102.69
488.607	95.69
488.825	91.69
489.043	90.69
489.261	90.69
489.479	96.69
489.696	93.69
489.914	100.69
490.132	93.69
490.35	83.69
490.568	98.69
490.786	93.69
491.003	85.69
491.221	107.69
491.439	102.69
491.657	91.69
491.874	89.69
492.092	89.69
492.31	90.69
492.527	111.69
492.745	105.69
492.963	100.69
493.18	108.69
493.398	105.69
493.615	110.69
493.833	112.69
494.05	101.69
494.268	93.69
494.485	91.69
494.703	99.69
494.92	95.69
495.138	91.69
495.355	91.69
495.573	85.69
495.79	91.69
496.008	89.69
496.225	76.69
496.442	107.69
496.66	110.69
496.877	105.69
497.094	102.69
497.312	96.69
497.529	87.69
497.746	96.69
497.963	89.69
498.181	88.69
498.398	108.69
498.615	128.69
498.832	124.69
499.049	100.69
499.267	107.69
499.484	91.69
499.701	99.69
499.918	93.69
500.135	89.69
500.352	89.69
500.569	100.69
500.786	99.69
501.003	75.69
501.22	92.69
501.437	95.69
501.654	108.69
501.871	136.69
502.088	103.69
502.305	90.69
502.522	90.69
502.739	105.69
502.956	92.69
503.172	88.69
503.389	111.69
503.606	122.69
503.823	107.69
504.04	91.69
504.256	84.69
504.473	87.69
504.69	98.69
504.907	101.69
505.123	94.69
505.34	111.69
505.557	89.69
505.773	102.69
505.99	104.69
506.207	88.69
506.423	98.69
506.64	105.69
506.856	93.69
507.073	100.69
507.289	95.69
507.506	111.69
507.722	146.69
507.939	141.69
508.155	102.69
508.372	99.69
508.588	92.69
508.805	99.69
509.021	100.69
509.238	87.69
509.454	102.69
509.67	107.69
509.887	123.69
510.103	148.69
510.319	262.69
510.536	957.69
510.752	3382.69
510.968	969.69
511.184	195.69
511.401	134.69
