Data from Circ_2023_H10_HRD10591_00054.txt Node
Date: Wed Jan 03 09:50:41 EST 2024
User: Yrep
Spectrometer: HR+D1059
Trigger mode: 1
Integration Time (sec): 1.000000E-1
Scans to average: 1
Electric dark correction enabled: true
Nonlinearity correction enabled: false
Boxcar width: 0
XAxis mode: Wavelengths
Number of Pixels in Spectrum: 2048
>>>>>Begin Spectral Data<<<<<
223.165	-16.69
223.4	-16.69
223.635	-16.69
223.869	-16.69
224.104	-21.69
224.338	-10.69
224.573	-5.69
224.808	-8.69
225.042	-6.69
225.277	-5.69
225.511	5.31
225.746	5.31
225.98	2.31
226.215	21.31
226.449	6.31
226.683	22.31
226.918	18.31
227.152	11.31
227.387	30.31
227.621	38.31
227.856	44.31
228.09	50.31
228.324	55.31
228.559	61.31
228.793	68.31
229.027	73.31
229.262	63.31
229.496	66.31
229.73	109.31
229.964	102.31
230.199	74.31
230.433	74.31
230.667	78.31
230.901	84.31
231.136	78.31
231.37	75.31
231.604	68.31
231.838	87.31
232.072	85.31
232.306	80.31
232.541	60.31
232.775	65.31
233.009	77.31
233.243	87.31
233.477	77.31
233.711	69.31
233.945	80.31
234.179	85.31
234.413	83.31
234.647	73.31
234.881	78.31
235.115	87.31
235.349	87.31
235.583	93.31
235.817	76.31
236.051	88.31
236.285	70.31
236.519	73.31
236.753	88.31
236.987	85.31
237.221	94.31
237.455	104.31
237.689	89.31
237.922	77.31
238.156	76.31
238.39	73.31
238.624	68.31
238.858	84.31
239.091	74.31
239.325	77.31
239.559	89.31
239.793	98.31
240.027	95.31
240.26	81.31
240.494	74.31
240.728	73.31
240.961	86.31
241.195	84.31
241.429	82.31
241.662	73.31
241.896	87.31
242.13	81.31
242.363	71.31
242.597	83.31
242.83	83.31
243.064	80.31
243.298	80.31
243.531	76.31
243.765	78.31
243.998	93.31
244.232	77.31
244.465	91.31
244.699	97.31
244.932	69.31
245.166	84.31
245.399	71.31
245.633	86.31
245.866	83.31
246.099	88.31
246.333	72.31
246.566	83.31
246.8	92.31
247.033	78.31
247.266	96.31
247.5	81.31
247.733	85.31
247.966	83.31
248.2	86.31
248.433	83.31
248.666	87.31
248.899	88.31
249.133	94.31
249.366	112.31
249.599	94.31
249.832	97.31
250.066	77.31
250.299	95.31
250.532	89.31
250.765	80.31
250.998	84.31
251.231	87.31
251.465	74.31
251.698	90.31
251.931	84.31
252.164	81.31
252.397	87.31
252.63	79.31
252.863	85.31
253.096	69.31
253.329	86.31
253.562	80.31
253.795	88.31
254.028	66.31
254.261	77.31
254.494	80.31
254.727	74.31
254.96	80.31
255.193	72.31
255.426	81.31
255.659	88.31
255.892	87.31
256.124	103.31
256.357	84.31
256.59	79.31
256.823	83.31
257.056	81.31
257.289	84.31
257.521	82.31
257.754	79.31
257.987	88.31
258.22	92.31
258.452	98.31
258.685	113.31
258.918	89.31
259.151	89.31
259.383	80.31
259.616	77.31
259.849	80.31
260.081	98.31
260.314	86.31
260.547	92.31
260.779	96.31
261.012	105.31
261.244	106.31
261.477	102.31
261.71	96.31
261.942	131.31
262.175	137.31
262.407	93.31
262.64	82.31
262.872	74.31
263.105	80.31
263.337	96.31
263.57	94.31
263.802	91.31
264.035	74.31
264.267	84.31
264.499	79.31
264.732	90.31
264.964	90.31
265.197	69.31
265.429	76.31
265.661	66.31
265.894	77.31
266.126	74.31
266.358	95.31
266.591	78.31
266.823	80.31
267.055	78.31
267.287	101.31
267.52	82.31
267.752	82.31
267.984	96.31
268.216	84.31
268.448	89.31
268.681	94.31
268.913	79.31
269.145	74.31
269.377	91.31
269.609	97.31
269.841	80.31
270.073	77.31
270.306	84.31
270.538	81.31
270.77	85.31
271.002	93.31
271.234	84.31
271.466	86.31
271.698	88.31
271.93	83.31
272.162	86.31
272.394	81.31
272.626	80.31
272.858	85.31
273.09	87.31
273.322	80.31
273.553	87.31
273.785	86.31
274.017	93.31
274.249	83.31
274.481	87.31
274.713	84.31
274.945	100.31
275.176	86.31
275.408	89.31
275.64	122.31
275.872	129.31
276.104	96.31
276.335	102.31
276.567	124.31
276.799	152.31
277.031	174.31
277.262	213.31
277.494	153.31
277.726	127.31
277.957	97.31
278.189	87.31
278.421	84.31
278.652	81.31
278.884	76.31
279.115	91.31
279.347	102.31
279.579	98.31
279.81	129.31
280.042	201.31
280.273	260.31
280.505	187.31
280.736	124.31
280.968	97.31
281.199	101.31
281.431	96.31
281.662	89.31
281.894	86.31
282.125	99.31
282.356	136.31
282.588	176.31
282.819	135.31
283.051	103.31
283.282	95.31
283.513	88.31
283.745	90.31
283.976	93.31
284.207	83.31
284.439	90.31
284.67	89.31
284.901	88.31
285.132	91.31
285.364	81.31
285.595	90.31
285.826	73.31
286.057	98.31
286.288	81.31
286.52	93.31
286.751	102.31
286.982	80.31
287.213	92.31
287.444	89.31
287.675	85.31
287.906	91.31
288.138	87.31
288.369	103.31
288.6	101.31
288.831	74.31
289.062	84.31
289.293	92.31
289.524	84.31
289.755	79.31
289.986	92.31
290.217	79.31
290.448	93.31
290.679	95.31
290.91	104.31
291.141	105.31
291.371	97.31
291.602	87.31
291.833	80.31
292.064	80.31
292.295	84.31
292.526	82.31
292.757	97.31
292.987	94.31
293.218	88.31
293.449	92.31
293.68	84.31
293.91	83.31
294.141	79.31
294.372	95.31
294.603	84.31
294.833	91.31
295.064	94.31
295.295	97.31
295.525	103.31
295.756	98.31
295.987	137.31
296.217	158.31
296.448	160.31
296.679	108.31
296.909	88.31
297.14	88.31
297.37	90.31
297.601	98.31
297.831	86.31
298.062	97.31
298.292	79.31
298.523	92.31
298.753	103.31
298.984	85.31
299.214	87.31
299.445	89.31
299.675	90.31
299.905	84.31
300.136	97.31
300.366	86.31
300.597	81.31
300.827	104.31
301.057	109.31
301.288	117.31
301.518	100.31
301.748	106.31
301.979	100.31
302.209	106.31
302.439	93.31
302.669	78.31
302.9	88.31
303.13	96.31
303.36	118.31
303.59	136.31
303.82	144.31
304.051	104.31
304.281	103.31
304.511	105.31
304.741	92.31
304.971	87.31
305.201	101.31
305.431	96.31
305.661	88.31
305.891	82.31
306.121	100.31
306.352	127.31
306.582	126.31
306.812	116.31
307.042	114.31
307.272	150.31
307.502	178.31
307.731	174.31
307.961	131.31
308.191	100.31
308.421	101.31
308.651	105.31
308.881	108.31
309.111	101.31
309.341	92.31
309.571	115.31
309.8	112.31
310.03	103.31
310.26	120.31
310.49	90.31
310.72	100.31
310.949	127.31
311.179	112.31
311.409	107.31
311.639	131.31
311.868	106.31
312.098	98.31
312.328	101.31
312.557	104.31
312.787	119.31
313.017	114.31
313.246	104.31
313.476	110.31
313.706	95.31
313.935	110.31
314.165	112.31
314.394	111.31
314.624	104.31
314.853	104.31
315.083	109.31
315.312	100.31
315.542	94.31
315.771	89.31
316.001	113.31
316.23	90.31
316.46	78.31
316.689	99.31
316.919	108.31
317.148	118.31
317.377	105.31
317.607	94.31
317.836	100.31
318.065	99.31
318.295	102.31
318.524	98.31
318.753	96.31
318.983	92.31
319.212	116.31
319.441	103.31
319.67	113.31
319.9	90.31
320.129	94.31
320.358	98.31
320.587	98.31
320.816	102.31
321.046	108.31
321.275	113.31
321.504	106.31
321.733	101.31
321.962	104.31
322.191	98.31
322.42	120.31
322.649	117.31
322.878	130.31
323.108	149.31
323.337	139.31
323.566	164.31
323.795	190.31
324.024	240.31
324.253	489.31
324.482	1041.31
324.71	2157.31
324.939	2810.31
325.168	1032.31
325.397	304.31
325.626	178.31
325.855	148.31
326.084	138.31
326.313	153.31
326.542	190.31
326.77	275.31
326.999	535.31
327.228	1153.31
327.457	2050.31
327.686	1650.31
327.914	572.31
328.143	531.31
328.372	700.31
328.6	396.31
328.829	193.31
329.058	208.31
329.287	191.31
329.515	196.31
329.744	257.31
329.972	485.31
330.201	988.31
330.43	1503.31
330.658	678.31
330.887	295.31
331.115	204.31
331.344	140.31
331.572	113.31
331.801	118.31
332.03	134.31
332.258	107.31
332.486	116.31
332.715	113.31
332.943	112.31
333.172	110.31
333.4	136.31
333.629	166.31
333.857	234.31
334.085	425.31
334.314	916.31
334.542	1848.31
334.771	1769.31
334.999	466.31
335.227	182.31
335.455	129.31
335.684	118.31
335.912	101.31
336.14	119.31
336.369	101.31
336.597	101.31
336.825	113.31
337.053	102.31
337.281	92.31
337.51	89.31
337.738	89.31
337.966	99.31
338.194	121.31
338.422	104.31
338.65	108.31
338.878	94.31
339.106	112.31
339.334	84.31
339.562	102.31
339.79	101.31
340.018	101.31
340.246	86.31
340.474	88.31
340.702	94.31
340.93	85.31
341.158	87.31
341.386	97.31
341.614	98.31
341.842	105.31
342.07	77.31
342.298	76.31
342.526	89.31
342.754	97.31
342.981	99.31
343.209	90.31
343.437	104.31
343.665	96.31
343.893	97.31
344.12	75.31
344.348	100.31
344.576	96.31
344.804	93.31
345.031	124.31
345.259	103.31
345.487	94.31
345.714	95.31
345.942	117.31
346.17	97.31
346.397	95.31
346.625	86.31
346.853	93.31
347.08	78.31
347.308	105.31
347.535	112.31
347.763	122.31
347.99	101.31
348.218	112.31
348.445	116.31
348.673	106.31
348.9	107.31
349.128	104.31
349.355	100.31
349.583	93.31
349.81	103.31
350.037	87.31
350.265	94.31
350.492	97.31
350.72	94.31
350.947	93.31
351.174	131.31
351.402	129.31
351.629	122.31
351.856	113.31
352.083	112.31
352.311	115.31
352.538	129.31
352.765	115.31
352.992	108.31
353.22	120.31
353.447	108.31
353.674	97.31
353.901	80.31
354.128	111.31
354.355	103.31
354.583	93.31
354.81	93.31
355.037	93.31
355.264	96.31
355.491	92.31
355.718	92.31
355.945	100.31
356.172	87.31
356.399	103.31
356.626	84.31
356.853	106.31
357.08	91.31
357.307	88.31
357.534	85.31
357.761	83.31
357.988	79.31
358.215	96.31
358.441	79.31
358.668	95.31
358.895	90.31
359.122	94.31
359.349	102.31
359.576	90.31
359.802	99.31
360.029	147.31
360.256	145.31
360.483	102.31
360.709	94.31
360.936	93.31
361.163	106.31
361.39	100.31
361.616	115.31
361.843	111.31
362.07	108.31
362.296	110.31
362.523	102.31
362.749	99.31
362.976	95.31
363.203	95.31
363.429	94.31
363.656	85.31
363.882	86.31
364.109	89.31
364.335	90.31
364.562	102.31
364.788	89.31
365.015	97.31
365.241	113.31
365.468	140.31
365.694	126.31
365.92	117.31
366.147	102.31
366.373	73.31
366.599	67.31
366.826	81.31
367.052	81.31
367.278	112.31
367.505	92.31
367.731	93.31
367.957	91.31
368.184	107.31
368.41	105.31
368.636	108.31
368.862	143.31
369.089	136.31
369.315	105.31
369.541	96.31
369.767	84.31
369.993	101.31
370.219	108.31
370.445	81.31
370.672	104.31
370.898	99.31
371.124	78.31
371.35	98.31
371.576	97.31
371.802	85.31
372.028	84.31
372.254	88.31
372.48	94.31
372.706	95.31
372.932	83.31
373.158	79.31
373.384	99.31
373.61	91.31
373.835	97.31
374.061	90.31
374.287	112.31
374.513	100.31
374.739	100.31
374.965	85.31
375.191	83.31
375.416	93.31
375.642	84.31
375.868	103.31
376.094	95.31
376.319	91.31
376.545	96.31
376.771	84.31
376.997	94.31
377.222	94.31
377.448	84.31
377.674	80.31
377.899	97.31
378.125	89.31
378.35	88.31
378.576	81.31
378.802	96.31
379.027	84.31
379.253	94.31
379.478	92.31
379.704	88.31
379.929	90.31
380.155	95.31
380.38	89.31
380.606	98.31
380.831	92.31
381.057	100.31
381.282	85.31
381.507	81.31
381.733	96.31
381.958	92.31
382.184	102.31
382.409	94.31
382.634	94.31
382.86	93.31
383.085	80.31
383.31	85.31
383.535	100.31
383.761	94.31
383.986	91.31
384.211	87.31
384.436	95.31
384.662	99.31
384.887	93.31
385.112	96.31
385.337	91.31
385.562	98.31
385.787	95.31
386.013	96.31
386.238	126.31
386.463	104.31
386.688	122.31
386.913	105.31
387.138	102.31
387.363	98.31
387.588	103.31
387.813	89.31
388.038	99.31
388.263	98.31
388.488	105.31
388.713	92.31
388.938	92.31
389.163	89.31
389.387	92.31
389.612	97.31
389.837	95.31
390.062	99.31
390.287	101.31
390.512	102.31
390.736	86.31
390.961	89.31
391.186	97.31
391.411	96.31
391.636	90.31
391.86	86.31
392.085	87.31
392.31	84.31
392.534	82.31
392.759	96.31
392.984	91.31
393.208	113.31
393.433	84.31
393.658	96.31
393.882	91.31
394.107	83.31
394.331	98.31
394.556	90.31
394.78	100.31
395.005	79.31
395.229	72.31
395.454	89.31
395.678	92.31
395.903	89.31
396.127	90.31
396.352	93.31
396.576	83.31
396.801	96.31
397.025	86.31
397.249	88.31
397.474	84.31
397.698	101.31
397.922	89.31
398.147	85.31
398.371	93.31
398.595	92.31
398.82	82.31
399.044	91.31
399.268	85.31
399.492	98.31
399.717	97.31
399.941	99.31
400.165	89.31
400.389	96.31
400.613	86.31
400.837	88.31
401.062	79.31
401.286	88.31
401.51	100.31
401.734	99.31
401.958	128.31
402.182	154.31
402.406	215.31
402.63	138.31
402.854	101.31
403.078	91.31
403.302	90.31
403.526	107.31
403.75	102.31
403.974	84.31
404.198	86.31
404.422	109.31
404.645	92.31
404.869	100.31
405.093	120.31
405.317	132.31
405.541	146.31
405.765	124.31
405.988	130.31
406.212	241.31
406.436	324.31
406.66	210.31
406.883	121.31
407.107	118.31
407.331	98.31
407.555	107.31
407.778	94.31
408.002	90.31
408.226	99.31
408.449	97.31
408.673	88.31
408.896	100.31
409.12	95.31
409.344	79.31
409.567	95.31
409.791	90.31
410.014	92.31
410.238	89.31
410.461	100.31
410.685	88.31
410.908	103.31
411.132	103.31
411.355	118.31
411.578	98.31
411.802	95.31
412.025	86.31
412.249	105.31
412.472	130.31
412.695	133.31
412.919	121.31
413.142	113.31
413.365	101.31
413.589	90.31
413.812	83.31
414.035	79.31
414.258	100.31
414.482	106.31
414.705	88.31
414.928	92.31
415.151	98.31
415.374	102.31
415.597	90.31
415.821	82.31
416.044	103.31
416.267	98.31
416.49	92.31
416.713	93.31
416.936	80.31
417.159	100.31
417.382	98.31
417.605	116.31
417.828	103.31
418.051	97.31
418.274	92.31
418.497	86.31
418.72	86.31
418.943	95.31
419.166	98.31
419.389	84.31
419.611	104.31
419.834	81.31
420.057	97.31
420.28	95.31
420.503	79.31
420.726	102.31
420.948	97.31
421.171	95.31
421.394	98.31
421.617	89.31
421.839	90.31
422.062	85.31
422.285	108.31
422.507	100.31
422.73	110.31
422.953	90.31
423.175	89.31
423.398	88.31
423.621	86.31
423.843	96.31
424.066	106.31
424.288	99.31
424.511	100.31
424.733	89.31
424.956	124.31
425.178	111.31
425.401	124.31
425.623	113.31
425.846	96.31
426.068	99.31
426.291	90.31
426.513	105.31
426.735	91.31
426.958	104.31
427.18	122.31
427.402	180.31
427.625	263.31
427.847	245.31
428.069	219.31
428.292	138.31
428.514	85.31
428.736	94.31
428.958	103.31
429.181	97.31
429.403	87.31
429.625	92.31
429.847	75.31
430.069	120.31
430.292	99.31
430.514	81.31
430.736	86.31
430.958	77.31
431.18	103.31
431.402	82.31
431.624	101.31
431.846	80.31
432.068	95.31
432.29	87.31
432.512	95.31
432.734	99.31
432.956	83.31
433.178	95.31
433.4	105.31
433.622	85.31
433.844	109.31
434.066	100.31
434.287	93.31
434.509	94.31
434.731	96.31
434.953	90.31
435.175	88.31
435.397	103.31
435.618	100.31
435.84	122.31
436.062	144.31
436.284	150.31
436.505	115.31
436.727	103.31
436.949	104.31
437.17	92.31
437.392	114.31
437.614	123.31
437.835	136.31
438.057	149.31
438.278	131.31
438.5	129.31
438.721	146.31
438.943	121.31
439.165	92.31
439.386	101.31
439.608	87.31
439.829	121.31
440.05	144.31
440.272	197.31
440.493	116.31
440.715	90.31
440.936	87.31
441.158	105.31
441.379	96.31
441.6	98.31
441.822	113.31
442.043	112.31
442.264	129.31
442.486	130.31
442.707	111.31
442.928	123.31
443.149	176.31
443.371	179.31
443.592	137.31
443.813	126.31
444.034	134.31
444.255	100.31
444.476	91.31
444.698	72.31
444.919	78.31
445.14	161.31
445.361	136.31
445.582	142.31
445.803	189.31
446.024	182.31
446.245	181.31
446.466	127.31
446.687	90.31
446.908	93.31
447.129	96.31
447.35	101.31
447.571	93.31
447.792	85.31
448.013	118.31
448.234	144.31
448.455	125.31
448.675	118.31
448.896	146.31
449.117	105.31
449.338	119.31
449.559	161.31
449.779	151.31
450	116.31
450.221	97.31
450.442	79.31
450.662	97.31
450.883	117.31
451.104	142.31
451.324	117.31
451.545	86.31
451.766	91.31
451.986	96.31
452.207	99.31
452.428	87.31
452.648	107.31
452.869	136.31
453.089	137.31
453.31	145.31
453.53	103.31
453.751	93.31
453.971	136.31
454.192	149.31
454.412	120.31
454.633	112.31
454.853	99.31
455.073	83.31
455.294	95.31
455.514	110.31
455.734	103.31
455.955	80.31
456.175	78.31
456.395	85.31
456.616	85.31
456.836	90.31
457.056	88.31
457.276	89.31
457.497	99.31
457.717	87.31
457.937	89.31
458.157	96.31
458.377	88.31
458.598	139.31
458.818	222.31
459.038	217.31
459.258	175.31
459.478	104.31
459.698	90.31
459.918	94.31
460.138	94.31
460.358	77.31
460.578	89.31
460.798	94.31
461.018	110.31
461.238	103.31
461.458	84.31
461.678	81.31
461.898	93.31
462.118	92.31
462.338	74.31
462.558	82.31
462.777	94.31
462.997	105.31
463.217	129.31
463.437	94.31
463.657	98.31
463.876	84.31
464.096	101.31
464.316	102.31
464.536	116.31
464.755	93.31
464.975	135.31
465.195	240.31
465.414	244.31
465.634	124.31
465.854	101.31
466.073	81.31
466.293	91.31
466.512	77.31
466.732	94.31
466.951	92.31
467.171	120.31
467.391	110.31
467.61	158.31
467.829	239.31
468.049	591.31
468.268	937.31
468.488	240.31
468.707	102.31
468.927	92.31
469.146	85.31
469.365	96.31
469.585	100.31
469.804	106.31
470.023	124.31
470.243	105.31
470.462	130.31
470.681	150.31
470.901	105.31
471.12	94.31
471.339	114.31
471.558	135.31
471.777	145.31
471.997	300.31
472.216	1133.31
472.435	2658.31
472.654	672.31
472.873	168.31
473.092	130.31
473.311	102.31
473.53	96.31
473.749	93.31
473.968	99.31
474.187	134.31
474.406	121.31
474.625	91.31
474.844	89.31
475.063	92.31
475.282	101.31
475.501	81.31
475.72	89.31
475.939	93.31
476.158	81.31
476.377	88.31
476.596	85.31
476.814	90.31
477.033	96.31
477.252	81.31
477.471	96.31
477.69	103.31
477.908	98.31
478.127	108.31
478.346	101.31
478.564	99.31
478.783	113.31
479.002	108.31
479.22	103.31
479.439	142.31
479.658	134.31
479.876	114.31
480.095	119.31
480.313	146.31
480.532	165.31
480.751	280.31
480.969	995.31
481.188	4356.31
481.406	2788.31
481.624	393.31
481.843	160.31
482.061	107.31
482.28	111.31
482.498	108.31
482.717	103.31
482.935	90.31
483.153	86.31
483.372	94.31
483.59	93.31
483.808	88.31
484.027	91.31
484.245	103.31
484.463	99.31
484.681	94.31
484.9	90.31
485.118	102.31
485.336	103.31
485.554	105.31
485.772	111.31
485.99	110.31
486.209	95.31
486.427	104.31
486.645	136.31
486.863	122.31
487.081	111.31
487.299	95.31
487.517	107.31
487.735	94.31
487.953	92.31
488.171	98.31
488.389	90.31
488.607	103.31
488.825	104.31
489.043	98.31
489.261	102.31
489.479	97.31
489.696	84.31
489.914	100.31
490.132	90.31
490.35	108.31
490.568	97.31
490.786	104.31
491.003	98.31
491.221	90.31
491.439	111.31
491.657	97.31
491.874	102.31
492.092	93.31
492.31	80.31
492.527	78.31
492.745	103.31
492.963	111.31
493.18	97.31
493.398	84.31
493.615	98.31
493.833	96.31
494.05	94.31
494.268	102.31
494.485	96.31
494.703	91.31
494.92	74.31
495.138	103.31
495.355	101.31
495.573	92.31
495.79	78.31
496.008	94.31
496.225	81.31
496.442	82.31
496.66	94.31
496.877	94.31
497.094	90.31
497.312	99.31
497.529	92.31
497.746	87.31
497.963	94.31
498.181	93.31
498.398	105.31
498.615	121.31
498.832	108.31
499.049	86.31
499.267	93.31
499.484	99.31
499.701	100.31
499.918	88.31
500.135	99.31
500.352	85.31
500.569	93.31
500.786	95.31
501.003	95.31
501.22	104.31
501.437	103.31
501.654	99.31
501.871	136.31
502.088	120.31
502.305	92.31
502.522	96.31
502.739	100.31
502.956	97.31
503.172	92.31
503.389	110.31
503.606	123.31
503.823	127.31
504.04	120.31
504.256	101.31
504.473	94.31
504.69	100.31
504.907	82.31
505.123	90.31
505.34	99.31
505.557	90.31
505.773	93.31
505.99	90.31
506.207	93.31
506.423	89.31
506.64	91.31
506.856	88.31
507.073	78.31
507.289	97.31
507.506	105.31
507.722	133.31
507.939	135.31
508.155	106.31
508.372	93.31
508.588	105.31
508.805	111.31
509.021	95.31
509.238	113.31
509.454	98.31
509.67	102.31
509.887	117.31
510.103	144.31
510.319	266.31
510.536	1021.31
510.752	3530.31
510.968	1002.31
511.184	188.31
511.401	142.31
511.617	121.31
511.833	109.31
512.049	112.31
512.265	92.31
512.481	83.31
