Data from Circ_2023_H10_HRD10591_00010.txt Node
Date: Wed Jan 03 09:50:33 EST 2024
User: Yrep
Spectrometer: HR+D1059
Trigger mode: 1
Integration Time (sec): 1.000000E-1
Scans to average: 1
Electric dark correction enabled: true
Nonlinearity correction enabled: false
Boxcar width: 0
XAxis mode: Wavelengths
Number of Pixels in Spectrum: 2048
>>>>>Begin Spectral Data<<<<<
223.165	-22.94
223.4	-22.94
223.635	-22.94
223.869	-16.94
224.104	-18.94
224.338	-14.94
224.573	-24.94
224.808	-19.94
225.042	-12.94
225.277	7.06
225.511	2.06
225.746	0.06
225.98	7.06
226.215	20.06
226.449	18.06
226.683	28.06
226.918	21.06
227.152	28.06
227.387	30.06
227.621	46.06
227.856	46.06
228.09	46.06
228.324	43.06
228.559	70.06
228.793	58.06
229.027	58.06
229.262	72.06
229.496	81.06
229.73	99.06
229.964	99.06
230.199	88.06
230.433	79.06
230.667	89.06
230.901	68.06
231.136	78.06
231.37	72.06
231.604	82.06
231.838	83.06
232.072	68.06
232.306	77.06
232.541	76.06
232.775	73.06
233.009	75.06
233.243	96.06
233.477	89.06
233.711	88.06
233.945	83.06
234.179	80.06
234.413	90.06
234.647	82.06
234.881	73.06
235.115	79.06
235.349	86.06
235.583	83.06
235.817	86.06
236.051	73.06
236.285	85.06
236.519	85.06
236.753	75.06
236.987	93.06
237.221	88.06
237.455	87.06
237.689	91.06
237.922	87.06
238.156	66.06
238.39	65.06
238.624	72.06
238.858	87.06
239.091	78.06
239.325	72.06
239.559	72.06
239.793	88.06
240.027	79.06
240.26	98.06
240.494	81.06
240.728	74.06
240.961	75.06
241.195	73.06
241.429	86.06
241.662	84.06
241.896	82.06
242.13	73.06
242.363	62.06
242.597	76.06
242.83	83.06
243.064	99.06
243.298	95.06
243.531	95.06
243.765	88.06
243.998	72.06
244.232	88.06
244.465	87.06
244.699	78.06
244.932	76.06
245.166	70.06
245.399	49.06
245.633	84.06
245.866	83.06
246.099	66.06
246.333	79.06
246.566	79.06
246.8	95.06
247.033	92.06
247.266	86.06
247.5	88.06
247.733	92.06
247.966	82.06
248.2	83.06
248.433	93.06
248.666	86.06
248.899	87.06
249.133	95.06
249.366	107.06
249.599	99.06
249.832	83.06
250.066	80.06
250.299	89.06
250.532	86.06
250.765	91.06
250.998	86.06
251.231	91.06
251.465	68.06
251.698	75.06
251.931	82.06
252.164	87.06
252.397	82.06
252.63	84.06
252.863	91.06
253.096	98.06
253.329	83.06
253.562	76.06
253.795	75.06
254.028	89.06
254.261	101.06
254.494	76.06
254.727	93.06
254.96	94.06
255.193	85.06
255.426	89.06
255.659	86.06
255.892	107.06
256.124	105.06
256.357	90.06
256.59	74.06
256.823	84.06
257.056	80.06
257.289	81.06
257.521	71.06
257.754	81.06
257.987	93.06
258.22	86.06
258.452	104.06
258.685	96.06
258.918	93.06
259.151	86.06
259.383	83.06
259.616	86.06
259.849	75.06
260.081	101.06
260.314	88.06
260.547	95.06
260.779	94.06
261.012	99.06
261.244	91.06
261.477	111.06
261.71	103.06
261.942	134.06
262.175	139.06
262.407	101.06
262.64	89.06
262.872	98.06
263.105	93.06
263.337	115.06
263.57	90.06
263.802	92.06
264.035	82.06
264.267	88.06
264.499	91.06
264.732	89.06
264.964	82.06
265.197	83.06
265.429	84.06
265.661	76.06
265.894	72.06
266.126	85.06
266.358	93.06
266.591	71.06
266.823	77.06
267.055	87.06
267.287	83.06
267.52	99.06
267.752	88.06
267.984	96.06
268.216	90.06
268.448	82.06
268.681	98.06
268.913	95.06
269.145	96.06
269.377	94.06
269.609	90.06
269.841	95.06
270.073	76.06
270.306	94.06
270.538	85.06
270.77	87.06
271.002	93.06
271.234	94.06
271.466	85.06
271.698	92.06
271.93	96.06
272.162	91.06
272.394	114.06
272.626	97.06
272.858	77.06
273.09	84.06
273.322	84.06
273.553	84.06
273.785	81.06
274.017	85.06
274.249	98.06
274.481	110.06
274.713	100.06
274.945	96.06
275.176	97.06
275.408	106.06
275.64	106.06
275.872	116.06
276.104	90.06
276.335	99.06
276.567	110.06
276.799	126.06
277.031	156.06
277.262	150.06
277.494	118.06
277.726	80.06
277.957	87.06
278.189	86.06
278.421	79.06
278.652	94.06
278.884	94.06
279.115	95.06
279.347	87.06
279.579	98.06
279.81	113.06
280.042	163.06
280.273	210.06
280.505	167.06
280.736	99.06
280.968	87.06
281.199	89.06
281.431	112.06
281.662	97.06
281.894	93.06
282.125	128.06
282.356	148.06
282.588	162.06
282.819	115.06
283.051	76.06
283.282	85.06
283.513	75.06
283.745	84.06
283.976	97.06
284.207	92.06
284.439	106.06
284.67	90.06
284.901	76.06
285.132	86.06
285.364	84.06
285.595	81.06
285.826	88.06
286.057	99.06
286.288	82.06
286.52	92.06
286.751	92.06
286.982	96.06
287.213	85.06
287.444	89.06
287.675	105.06
287.906	92.06
288.138	92.06
288.369	89.06
288.6	115.06
288.831	87.06
289.062	91.06
289.293	86.06
289.524	83.06
289.755	91.06
289.986	91.06
290.217	72.06
290.448	86.06
290.679	86.06
290.91	84.06
291.141	88.06
291.371	73.06
291.602	84.06
291.833	93.06
292.064	103.06
292.295	95.06
292.526	86.06
292.757	91.06
292.987	95.06
293.218	80.06
293.449	87.06
293.68	79.06
293.91	97.06
294.141	100.06
294.372	111.06
294.603	92.06
294.833	86.06
295.064	103.06
295.295	100.06
295.525	81.06
295.756	112.06
295.987	135.06
296.217	153.06
296.448	162.06
296.679	100.06
296.909	87.06
297.14	97.06
297.37	92.06
297.601	96.06
297.831	95.06
298.062	100.06
298.292	105.06
298.523	92.06
298.753	89.06
298.984	86.06
299.214	85.06
299.445	96.06
299.675	86.06
299.905	99.06
300.136	103.06
300.366	93.06
300.597	91.06
300.827	92.06
301.057	101.06
301.288	101.06
301.518	102.06
301.748	90.06
301.979	126.06
302.209	113.06
302.439	91.06
302.669	80.06
302.9	85.06
303.13	94.06
303.36	95.06
303.59	131.06
303.82	134.06
304.051	101.06
304.281	101.06
304.511	98.06
304.741	88.06
304.971	88.06
305.201	95.06
305.431	107.06
305.661	91.06
305.891	107.06
306.121	106.06
306.352	118.06
306.582	113.06
306.812	108.06
307.042	114.06
307.272	150.06
307.502	150.06
307.731	140.06
307.961	111.06
308.191	100.06
308.421	97.06
308.651	113.06
308.881	118.06
309.111	100.06
309.341	110.06
309.571	98.06
309.8	107.06
310.03	100.06
310.26	106.06
310.49	88.06
310.72	105.06
310.949	126.06
311.179	107.06
311.409	95.06
311.639	108.06
311.868	111.06
312.098	108.06
312.328	105.06
312.557	107.06
312.787	135.06
313.017	101.06
313.246	109.06
313.476	88.06
313.706	99.06
313.935	101.06
314.165	110.06
314.394	106.06
314.624	102.06
314.853	101.06
315.083	113.06
315.312	107.06
315.542	101.06
315.771	95.06
316.001	94.06
316.23	100.06
316.46	95.06
316.689	99.06
316.919	99.06
317.148	92.06
317.377	106.06
317.607	102.06
317.836	102.06
318.065	94.06
318.295	84.06
318.524	99.06
318.753	97.06
318.983	90.06
319.212	94.06
319.441	120.06
319.67	115.06
319.9	97.06
320.129	104.06
320.358	86.06
320.587	88.06
320.816	115.06
321.046	116.06
321.275	119.06
321.504	101.06
321.733	102.06
321.962	104.06
322.191	99.06
322.42	117.06
322.649	110.06
322.878	119.06
323.108	117.06
323.337	140.06
323.566	161.06
323.795	184.06
324.024	256.06
324.253	502.06
324.482	1062.06
324.71	2166.06
324.939	2912.06
325.168	1056.06
325.397	291.06
325.626	177.06
325.855	148.06
326.084	140.06
326.313	146.06
326.542	192.06
326.77	302.06
326.999	578.06
327.228	1162.06
327.457	2135.06
327.686	1762.06
327.914	563.06
328.143	440.06
328.372	549.06
328.6	322.06
328.829	171.06
329.058	178.06
329.287	193.06
329.515	179.06
329.744	234.06
329.972	400.06
330.201	731.06
330.43	1103.06
330.658	532.06
330.887	268.06
331.115	193.06
331.344	133.06
331.572	128.06
331.801	131.06
332.03	129.06
332.258	128.06
332.486	116.06
332.715	106.06
332.943	102.06
333.172	126.06
333.4	145.06
333.629	154.06
333.857	202.06
334.085	372.06
334.314	723.06
334.542	1385.06
334.771	1345.06
334.999	371.06
335.227	178.06
335.455	124.06
335.684	114.06
335.912	98.06
336.14	93.06
336.369	107.06
336.597	100.06
336.825	112.06
337.053	91.06
337.281	105.06
337.51	110.06
337.738	91.06
337.966	97.06
338.194	110.06
338.422	109.06
338.65	100.06
338.878	88.06
339.106	92.06
339.334	89.06
339.562	87.06
339.79	104.06
340.018	83.06
340.246	98.06
340.474	111.06
340.702	97.06
340.93	91.06
341.158	104.06
341.386	114.06
341.614	110.06
341.842	101.06
342.07	104.06
342.298	85.06
342.526	97.06
342.754	94.06
342.981	93.06
343.209	96.06
343.437	112.06
343.665	100.06
343.893	106.06
344.12	93.06
344.348	98.06
344.576	105.06
344.804	115.06
345.031	103.06
345.259	98.06
345.487	107.06
345.714	113.06
345.942	99.06
346.17	104.06
346.397	103.06
346.625	87.06
346.853	99.06
347.08	97.06
347.308	96.06
347.535	115.06
347.763	98.06
347.99	104.06
348.218	96.06
348.445	114.06
348.673	111.06
348.9	99.06
349.128	107.06
349.355	106.06
349.583	96.06
349.81	98.06
350.037	98.06
350.265	97.06
350.492	87.06
350.72	105.06
350.947	97.06
351.174	128.06
351.402	111.06
351.629	120.06
351.856	126.06
352.083	115.06
352.311	122.06
352.538	109.06
352.765	121.06
352.992	127.06
353.22	123.06
353.447	108.06
353.674	117.06
353.901	91.06
354.128	93.06
354.355	103.06
354.583	107.06
354.81	106.06
355.037	84.06
355.264	82.06
355.491	92.06
355.718	100.06
355.945	88.06
356.172	84.06
356.399	102.06
356.626	99.06
356.853	96.06
357.08	93.06
357.307	105.06
357.534	92.06
357.761	100.06
357.988	98.06
358.215	100.06
358.441	88.06
358.668	104.06
358.895	81.06
359.122	84.06
359.349	98.06
359.576	112.06
359.802	98.06
360.029	128.06
360.256	145.06
360.483	89.06
360.709	84.06
360.936	85.06
361.163	98.06
361.39	103.06
361.616	101.06
361.843	94.06
362.07	106.06
362.296	107.06
362.523	103.06
362.749	103.06
362.976	115.06
363.203	85.06
363.429	90.06
363.656	100.06
363.882	62.06
364.109	86.06
364.335	95.06
364.562	98.06
364.788	94.06
365.015	92.06
365.241	105.06
365.468	111.06
365.694	111.06
365.92	107.06
366.147	86.06
366.373	80.06
366.599	93.06
366.826	94.06
367.052	97.06
367.278	93.06
367.505	96.06
367.731	100.06
367.957	101.06
368.184	107.06
368.41	105.06
368.636	127.06
368.862	127.06
369.089	134.06
369.315	115.06
369.541	106.06
369.767	99.06
369.993	107.06
370.219	96.06
370.445	90.06
370.672	96.06
370.898	95.06
371.124	82.06
371.35	101.06
371.576	97.06
371.802	88.06
372.028	99.06
372.254	83.06
372.48	86.06
372.706	95.06
372.932	84.06
373.158	91.06
373.384	96.06
373.61	92.06
373.835	91.06
374.061	86.06
374.287	96.06
374.513	101.06
374.739	87.06
374.965	92.06
375.191	75.06
375.416	93.06
375.642	102.06
375.868	94.06
376.094	96.06
376.319	96.06
376.545	76.06
376.771	96.06
376.997	94.06
377.222	81.06
377.448	95.06
377.674	108.06
377.899	95.06
378.125	80.06
378.35	97.06
378.576	89.06
378.802	85.06
379.027	89.06
379.253	81.06
379.478	100.06
379.704	99.06
379.929	84.06
380.155	98.06
380.38	96.06
380.606	97.06
380.831	99.06
381.057	91.06
381.282	86.06
381.507	101.06
381.733	102.06
381.958	88.06
382.184	96.06
382.409	79.06
382.634	107.06
382.86	104.06
383.085	101.06
383.31	99.06
383.535	105.06
383.761	124.06
383.986	101.06
384.211	96.06
384.436	103.06
384.662	90.06
384.887	90.06
385.112	108.06
385.337	108.06
385.562	100.06
385.787	101.06
386.013	101.06
386.238	102.06
386.463	109.06
386.688	114.06
386.913	108.06
387.138	117.06
387.363	91.06
387.588	108.06
387.813	104.06
388.038	101.06
388.263	89.06
388.488	98.06
388.713	93.06
388.938	93.06
389.163	95.06
389.387	96.06
389.612	83.06
389.837	91.06
390.062	96.06
390.287	84.06
390.512	99.06
390.736	90.06
390.961	90.06
391.186	103.06
391.411	96.06
391.636	96.06
391.86	99.06
392.085	91.06
392.31	95.06
392.534	68.06
392.759	102.06
392.984	93.06
393.208	104.06
393.433	101.06
393.658	93.06
393.882	78.06
394.107	72.06
394.331	78.06
394.556	78.06
394.78	87.06
395.005	91.06
395.229	85.06
395.454	86.06
395.678	95.06
395.903	92.06
396.127	104.06
396.352	86.06
396.576	77.06
396.801	87.06
397.025	85.06
397.249	86.06
397.474	94.06
397.698	99.06
397.922	81.06
398.147	100.06
398.371	89.06
398.595	82.06
398.82	92.06
399.044	84.06
399.268	81.06
399.492	87.06
399.717	89.06
399.941	91.06
400.165	106.06
400.389	96.06
400.613	86.06
400.837	91.06
401.062	83.06
401.286	95.06
401.51	98.06
401.734	84.06
401.958	101.06
402.182	136.06
402.406	184.06
402.63	132.06
402.854	98.06
403.078	97.06
403.302	89.06
403.526	88.06
403.75	93.06
403.974	87.06
404.198	107.06
404.422	88.06
404.645	98.06
404.869	116.06
405.093	114.06
405.317	139.06
405.541	119.06
405.765	135.06
405.988	137.06
406.212	209.06
406.436	268.06
406.66	183.06
406.883	118.06
407.107	101.06
407.331	107.06
407.555	112.06
407.778	117.06
408.002	93.06
408.226	97.06
408.449	81.06
408.673	89.06
408.896	75.06
409.12	110.06
409.344	94.06
409.567	83.06
409.791	91.06
410.014	95.06
410.238	81.06
410.461	90.06
410.685	94.06
410.908	94.06
411.132	122.06
411.355	90.06
411.578	97.06
411.802	95.06
412.025	102.06
412.249	102.06
412.472	126.06
412.695	136.06
412.919	106.06
413.142	101.06
413.365	85.06
413.589	74.06
413.812	82.06
414.035	98.06
414.258	114.06
414.482	103.06
414.705	76.06
414.928	99.06
415.151	94.06
415.374	88.06
415.597	89.06
415.821	81.06
416.044	90.06
416.267	98.06
416.49	89.06
416.713	89.06
416.936	91.06
417.159	79.06
417.382	100.06
417.605	104.06
417.828	113.06
418.051	100.06
418.274	88.06
418.497	80.06
418.72	91.06
418.943	85.06
419.166	86.06
419.389	87.06
419.611	95.06
419.834	106.06
420.057	99.06
420.28	96.06
420.503	94.06
420.726	83.06
420.948	87.06
421.171	115.06
421.394	94.06
421.617	93.06
421.839	97.06
422.062	73.06
422.285	106.06
422.507	110.06
422.73	112.06
422.953	90.06
423.175	104.06
423.398	100.06
423.621	89.06
423.843	87.06
424.066	98.06
424.288	90.06
424.511	86.06
424.733	103.06
424.956	128.06
425.178	126.06
425.401	101.06
425.623	119.06
425.846	100.06
426.068	104.06
426.291	87.06
426.513	99.06
426.735	96.06
426.958	112.06
427.18	131.06
427.402	191.06
427.625	244.06
427.847	241.06
428.069	217.06
428.292	115.06
428.514	91.06
428.736	93.06
428.958	81.06
429.181	98.06
429.403	89.06
429.625	96.06
429.847	94.06
430.069	115.06
430.292	99.06
430.514	84.06
430.736	84.06
430.958	86.06
431.18	86.06
431.402	72.06
431.624	82.06
431.846	93.06
432.068	92.06
432.29	110.06
432.512	89.06
432.734	84.06
432.956	90.06
433.178	105.06
433.4	112.06
433.622	88.06
433.844	88.06
434.066	88.06
434.287	93.06
434.509	102.06
434.731	96.06
434.953	92.06
435.175	94.06
435.397	87.06
435.618	98.06
435.84	120.06
436.062	145.06
436.284	143.06
436.505	95.06
436.727	110.06
436.949	89.06
437.17	92.06
437.392	78.06
437.614	98.06
437.835	124.06
438.057	145.06
438.278	124.06
438.5	110.06
438.721	151.06
438.943	117.06
439.165	96.06
439.386	87.06
439.608	98.06
439.829	111.06
440.05	152.06
440.272	193.06
440.493	119.06
440.715	84.06
440.936	88.06
441.158	98.06
441.379	102.06
441.6	106.06
441.822	117.06
442.043	102.06
442.264	118.06
442.486	110.06
442.707	108.06
442.928	116.06
443.149	170.06
443.371	176.06
443.592	118.06
443.813	140.06
444.034	120.06
444.255	111.06
444.476	100.06
444.698	97.06
444.919	81.06
445.14	147.06
445.361	135.06
445.582	142.06
445.803	198.06
446.024	183.06
446.245	177.06
446.466	139.06
446.687	96.06
446.908	94.06
447.129	99.06
447.35	104.06
447.571	90.06
447.792	107.06
448.013	117.06
448.234	120.06
448.455	106.06
448.675	128.06
448.896	140.06
449.117	129.06
449.338	118.06
449.559	157.06
449.779	167.06
450	101.06
450.221	80.06
450.442	101.06
450.662	87.06
450.883	105.06
451.104	123.06
451.324	114.06
451.545	94.06
451.766	88.06
451.986	97.06
452.207	98.06
452.428	105.06
452.648	106.06
452.869	128.06
453.089	140.06
453.31	130.06
453.53	100.06
453.751	101.06
453.971	104.06
454.192	144.06
454.412	114.06
454.633	96.06
454.853	91.06
455.073	86.06
455.294	79.06
455.514	102.06
455.734	85.06
455.955	88.06
456.175	90.06
456.395	97.06
456.616	80.06
456.836	94.06
457.056	83.06
457.276	80.06
457.497	89.06
457.717	89.06
457.937	102.06
458.157	80.06
458.377	94.06
458.598	126.06
458.818	192.06
459.038	219.06
459.258	150.06
459.478	130.06
459.698	87.06
459.918	91.06
460.138	78.06
460.358	89.06
460.578	87.06
460.798	97.06
461.018	90.06
461.238	79.06
461.458	99.06
461.678	80.06
461.898	77.06
462.118	86.06
462.338	80.06
462.558	73.06
462.777	84.06
462.997	87.06
463.217	108.06
463.437	113.06
463.657	95.06
463.876	99.06
464.096	95.06
464.316	104.06
464.536	90.06
464.755	98.06
464.975	135.06
465.195	205.06
465.414	229.06
465.634	102.06
465.854	86.06
466.073	95.06
466.293	79.06
466.512	93.06
466.732	95.06
466.951	99.06
467.171	110.06
467.391	111.06
467.61	150.06
467.829	163.06
468.049	415.06
468.268	632.06
468.488	199.06
468.707	110.06
468.927	96.06
469.146	92.06
469.365	99.06
469.585	94.06
469.804	114.06
470.023	106.06
470.243	96.06
470.462	118.06
470.681	133.06
470.901	97.06
471.12	106.06
471.339	112.06
471.558	120.06
471.777	145.06
471.997	243.06
472.216	820.06
472.435	1902.06
472.654	494.06
472.873	156.06
473.092	107.06
473.311	95.06
473.53	95.06
473.749	99.06
473.968	113.06
474.187	131.06
474.406	116.06
474.625	97.06
474.844	94.06
475.063	82.06
475.282	85.06
475.501	102.06
475.72	102.06
475.939	96.06
476.158	106.06
476.377	92.06
476.596	89.06
476.814	99.06
477.033	91.06
477.252	106.06
477.471	88.06
477.69	91.06
477.908	95.06
478.127	90.06
478.346	93.06
478.564	94.06
478.783	104.06
479.002	111.06
479.22	81.06
479.439	118.06
479.658	146.06
479.876	114.06
480.095	106.06
480.313	130.06
480.532	145.06
480.751	236.06
480.969	745.06
481.188	3146.06
481.406	1987.06
481.624	298.06
481.843	130.06
482.061	108.06
482.28	98.06
482.498	111.06
482.717	82.06
482.935	87.06
483.153	90.06
483.372	82.06
483.59	97.06
483.808	93.06
484.027	101.06
484.245	95.06
484.463	92.06
484.681	96.06
484.9	90.06
485.118	96.06
485.336	118.06
485.554	110.06
485.772	105.06
485.99	109.06
486.209	116.06
486.427	116.06
486.645	91.06
486.863	134.06
487.081	122.06
487.299	105.06
487.517	98.06
487.735	102.06
487.953	100.06
488.171	92.06
488.389	104.06
488.607	100.06
488.825	102.06
489.043	91.06
489.261	100.06
489.479	100.06
489.696	95.06
489.914	89.06
490.132	89.06
490.35	102.06
490.568	91.06
490.786	89.06
491.003	106.06
491.221	96.06
491.439	101.06
491.657	95.06
491.874	94.06
492.092	88.06
492.31	104.06
492.527	98.06
492.745	106.06
492.963	101.06
493.18	97.06
493.398	84.06
493.615	114.06
493.833	95.06
494.05	87.06
494.268	96.06
494.485	95.06
494.703	103.06
494.92	99.06
495.138	89.06
495.355	96.06
495.573	88.06
495.79	103.06
496.008	95.06
496.225	99.06
496.442	93.06
496.66	96.06
496.877	91.06
497.094	97.06
497.312	101.06
497.529	92.06
497.746	95.06
497.963	98.06
498.181	74.06
498.398	97.06
498.615	123.06
498.832	119.06
499.049	101.06
499.267	98.06
499.484	87.06
499.701	113.06
499.918	90.06
500.135	100.06
500.352	92.06
500.569	89.06
500.786	107.06
501.003	99.06
501.22	100.06
501.437	99.06
501.654	104.06
501.871	135.06
502.088	99.06
502.305	102.06
502.522	91.06
502.739	86.06
502.956	97.06
503.172	99.06
503.389	106.06
503.606	127.06
503.823	117.06
504.04	110.06
504.256	95.06
504.473	86.06
504.69	96.06
504.907	99.06
505.123	95.06
505.34	94.06
505.557	100.06
505.773	84.06
505.99	99.06
506.207	83.06
506.423	97.06
506.64	94.06
506.856	89.06
507.073	101.06
507.289	96.06
507.506	101.06
507.722	128.06
507.939	122.06
508.155	90.06
508.372	95.06
508.588	90.06
508.805	94.06
509.021	111.06
509.238	109.06
509.454	103.06
509.67	118.06
509.887	123.06
510.103	145.06
510.319	248.06
510.536	922.06
510.752	3124.06
510.968	894.06
511.184	203.06
511.401	130.06
511.617	105.06
511.833	111.06
512.049	95.06
512.265	94.06
512.481	95.06
