Data from Circ_2023_H10_HRD10591_00027.txt Node
Date: Wed Jan 03 09:50:36 EST 2024
User: Yrep
Spectrometer: HR+D1059
Trigger mode: 1
Integration Time (sec): 1.000000E-1
Scans to average: 1
Electric dark correction enabled: true
Nonlinearity correction enabled: false
Boxcar width: 0
XAxis mode: Wavelengths
Number of Pixels in Spectrum: 2048
>>>>>Begin Spectral Data<<<<<
223.165	-6
223.4	-6
223.635	-6
223.869	-14
224.104	-13
224.338	-22
224.573	-11
224.808	-9
225.042	-8
225.277	-5
225.511	6
225.746	2
225.98	-9
226.215	1
226.449	22
226.683	12
226.918	19
227.152	35
227.387	37
227.621	39
227.856	37
228.09	58
228.324	65
228.559	57
228.793	65
229.027	55
229.262	79
229.496	87
229.73	109
229.964	109
230.199	85
230.433	100
230.667	71
230.901	71
231.136	67
231.37	86
231.604	94
231.838	69
232.072	101
232.306	84
232.541	87
232.775	97
233.009	81
233.243	88
233.477	92
233.711	85
233.945	62
234.179	90
234.413	89
234.647	94
234.881	95
235.115	85
235.349	89
235.583	91
235.817	90
236.051	79
236.285	72
236.519	92
236.753	80
236.987	86
237.221	93
237.455	95
237.689	84
237.922	84
238.156	74
238.39	62
238.624	85
238.858	76
239.091	95
239.325	72
239.559	94
239.793	82
240.027	82
240.26	86
240.494	92
240.728	81
240.961	82
241.195	77
241.429	88
241.662	74
241.896	87
242.13	86
242.363	91
242.597	87
242.83	90
243.064	76
243.298	74
243.531	82
243.765	91
243.998	66
244.232	84
244.465	93
244.699	88
244.932	91
245.166	94
245.399	79
245.633	74
245.866	83
246.099	81
246.333	85
246.566	76
246.8	81
247.033	79
247.266	84
247.5	71
247.733	83
247.966	87
248.2	72
248.433	95
248.666	99
248.899	95
249.133	89
249.366	128
249.599	111
249.832	80
250.066	94
250.299	99
250.532	88
250.765	88
250.998	80
251.231	83
251.465	91
251.698	107
251.931	93
252.164	83
252.397	87
252.63	99
252.863	92
253.096	69
253.329	83
253.562	85
253.795	77
254.028	71
254.261	74
254.494	94
254.727	86
254.96	80
255.193	86
255.426	76
255.659	108
255.892	101
256.124	107
256.357	84
256.59	95
256.823	80
257.056	86
257.289	104
257.521	95
257.754	97
257.987	83
258.22	94
258.452	90
258.685	100
258.918	93
259.151	87
259.383	79
259.616	78
259.849	65
260.081	94
260.314	81
260.547	93
260.779	100
261.012	103
261.244	94
261.477	112
261.71	105
261.942	134
262.175	139
262.407	106
262.64	92
262.872	73
263.105	70
263.337	101
263.57	90
263.802	95
264.035	100
264.267	87
264.499	93
264.732	77
264.964	86
265.197	76
265.429	96
265.661	91
265.894	88
266.126	81
266.358	81
266.591	82
266.823	93
267.055	93
267.287	93
267.52	91
267.752	77
267.984	79
268.216	83
268.448	87
268.681	96
268.913	100
269.145	104
269.377	95
269.609	93
269.841	76
270.073	89
270.306	92
270.538	85
270.77	84
271.002	87
271.234	83
271.466	91
271.698	91
271.93	100
272.162	101
272.394	92
272.626	99
272.858	104
273.09	93
273.322	74
273.553	88
273.785	85
274.017	75
274.249	96
274.481	107
274.713	89
274.945	99
275.176	107
275.408	117
275.64	111
275.872	128
276.104	113
276.335	112
276.567	124
276.799	147
277.031	179
277.262	214
277.494	155
277.726	109
277.957	109
278.189	98
278.421	79
278.652	84
278.884	95
279.115	98
279.347	82
279.579	105
279.81	118
280.042	193
280.273	264
280.505	185
280.736	123
280.968	99
281.199	84
281.431	87
281.662	91
281.894	94
282.125	109
282.356	138
282.588	158
282.819	134
283.051	85
283.282	100
283.513	97
283.745	89
283.976	98
284.207	92
284.439	104
284.67	94
284.901	96
285.132	92
285.364	90
285.595	100
285.826	95
286.057	79
286.288	100
286.52	97
286.751	98
286.982	97
287.213	93
287.444	89
287.675	86
287.906	92
288.138	95
288.369	103
288.6	81
288.831	84
289.062	82
289.293	95
289.524	89
289.755	103
289.986	92
290.217	94
290.448	98
290.679	93
290.91	91
291.141	84
291.371	90
291.602	89
291.833	91
292.064	90
292.295	92
292.526	84
292.757	98
292.987	84
293.218	80
293.449	83
293.68	77
293.91	96
294.141	99
294.372	90
294.603	83
294.833	101
295.064	92
295.295	102
295.525	93
295.756	106
295.987	128
296.217	159
296.448	148
296.679	98
296.909	86
297.14	100
297.37	97
297.601	82
297.831	100
298.062	97
298.292	84
298.523	97
298.753	100
298.984	102
299.214	95
299.445	108
299.675	105
299.905	113
300.136	108
300.366	95
300.597	92
300.827	103
301.057	102
301.288	95
301.518	94
301.748	105
301.979	115
302.209	107
302.439	100
302.669	99
302.9	81
303.13	101
303.36	105
303.59	134
303.82	164
304.051	106
304.281	106
304.511	95
304.741	92
304.971	83
305.201	88
305.431	71
305.661	100
305.891	95
306.121	114
306.352	113
306.582	128
306.812	103
307.042	128
307.272	160
307.502	164
307.731	155
307.961	124
308.191	113
308.421	99
308.651	99
308.881	104
309.111	97
309.341	104
309.571	87
309.8	112
310.03	108
310.26	100
310.49	104
310.72	106
310.949	144
311.179	124
311.409	105
311.639	97
311.868	106
312.098	119
312.328	93
312.557	124
312.787	121
313.017	120
313.246	108
313.476	98
313.706	95
313.935	104
314.165	121
314.394	129
314.624	98
314.853	111
315.083	115
315.312	116
315.542	97
315.771	91
316.001	75
316.23	91
316.46	102
316.689	99
316.919	84
317.148	110
317.377	105
317.607	101
317.836	104
318.065	99
318.295	89
318.524	82
318.753	93
318.983	102
319.212	107
319.441	110
319.67	117
319.9	105
320.129	94
320.358	105
320.587	101
320.816	102
321.046	99
321.275	107
321.504	102
321.733	112
321.962	123
322.191	118
322.42	125
322.649	127
322.878	152
323.108	136
323.337	153
323.566	168
323.795	188
324.024	252
324.253	543
324.482	1200
324.71	2453
324.939	3277
325.168	1161
325.397	328
325.626	188
325.855	153
326.084	145
326.313	161
326.542	197
326.77	301
326.999	627
327.228	1269
327.457	2398
327.686	1921
327.914	621
328.143	531
328.372	679
328.6	389
328.829	206
329.058	206
329.287	224
329.515	203
329.744	273
329.972	515
330.201	1030
330.43	1522
330.658	699
330.887	301
331.115	209
331.344	121
331.572	134
331.801	140
332.03	135
332.258	113
332.486	113
332.715	115
332.943	117
333.172	133
333.4	149
333.629	170
333.857	239
334.085	451
334.314	1017
334.542	1929
334.771	1848
334.999	477
335.227	201
335.455	137
335.684	123
335.912	111
336.14	110
336.369	126
336.597	125
336.825	119
337.053	111
337.281	103
337.51	109
337.738	106
337.966	97
338.194	118
338.422	100
338.65	88
338.878	106
339.106	88
339.334	100
339.562	92
339.79	105
340.018	109
340.246	123
340.474	115
340.702	103
340.93	100
341.158	85
341.386	116
341.614	118
341.842	90
342.07	104
342.298	95
342.526	100
342.754	82
342.981	89
343.209	99
343.437	94
343.665	86
343.893	82
344.12	95
344.348	87
344.576	89
344.804	100
345.031	117
345.259	119
345.487	95
345.714	103
345.942	95
346.17	98
346.397	89
346.625	107
346.853	98
347.08	103
347.308	108
347.535	116
347.763	112
347.99	120
348.218	120
348.445	116
348.673	108
348.9	111
349.128	111
349.355	93
349.583	96
349.81	102
350.037	104
350.265	104
350.492	90
350.72	104
350.947	111
351.174	131
351.402	144
351.629	123
351.856	113
352.083	127
352.311	131
352.538	128
352.765	107
352.992	115
353.22	124
353.447	116
353.674	108
353.901	99
354.128	98
354.355	97
354.583	104
354.81	103
355.037	116
355.264	113
355.491	101
355.718	89
355.945	98
356.172	91
356.399	92
356.626	97
356.853	89
357.08	102
357.307	95
357.534	90
357.761	87
357.988	90
358.215	87
358.441	94
358.668	86
358.895	87
359.122	84
359.349	102
359.576	99
359.802	129
360.029	161
360.256	150
360.483	125
360.709	94
360.936	105
361.163	96
361.39	115
361.616	103
361.843	98
362.07	105
362.296	127
362.523	108
362.749	103
362.976	97
363.203	104
363.429	93
363.656	103
363.882	93
364.109	95
364.335	112
364.562	100
364.788	103
365.015	101
365.241	97
365.468	114
365.694	117
365.92	117
366.147	102
366.373	93
366.599	91
366.826	105
367.052	92
367.278	104
367.505	90
367.731	94
367.957	91
368.184	112
368.41	123
368.636	120
368.862	143
369.089	133
369.315	109
369.541	99
369.767	85
369.993	86
370.219	90
370.445	89
370.672	89
370.898	96
371.124	99
371.35	92
371.576	81
371.802	93
372.028	98
372.254	92
372.48	99
372.706	95
372.932	90
373.158	98
373.384	105
373.61	105
373.835	84
374.061	92
374.287	112
374.513	105
374.739	97
374.965	100
375.191	105
375.416	86
375.642	96
375.868	94
376.094	102
376.319	92
376.545	86
376.771	89
376.997	92
377.222	83
377.448	83
377.674	99
377.899	95
378.125	95
378.35	91
378.576	89
378.802	104
379.027	79
379.253	93
379.478	101
379.704	96
379.929	100
380.155	91
380.38	101
380.606	107
380.831	92
381.057	99
381.282	96
381.507	96
381.733	107
381.958	87
382.184	104
382.409	108
382.634	103
382.86	98
383.085	98
383.31	102
383.535	116
383.761	96
383.986	89
384.211	87
384.436	95
384.662	102
384.887	91
385.112	109
385.337	95
385.562	100
385.787	103
386.013	121
386.238	127
386.463	96
386.688	111
386.913	105
387.138	87
387.363	91
387.588	90
387.813	91
388.038	104
388.263	102
388.488	104
388.713	93
388.938	83
389.163	90
389.387	89
389.612	96
389.837	102
390.062	83
390.287	100
390.512	98
390.736	82
390.961	101
391.186	91
391.411	93
391.636	100
391.86	97
392.085	90
392.31	81
392.534	95
392.759	85
392.984	91
393.208	90
393.433	90
393.658	79
393.882	107
394.107	91
394.331	68
394.556	88
394.78	83
395.005	91
395.229	90
395.454	96
395.678	98
395.903	94
396.127	105
396.352	91
396.576	85
396.801	102
397.025	96
397.249	107
397.474	94
397.698	90
397.922	89
398.147	95
398.371	75
398.595	85
398.82	90
399.044	74
399.268	82
399.492	86
399.717	95
399.941	104
400.165	98
400.389	111
400.613	85
400.837	95
401.062	99
401.286	86
401.51	88
401.734	112
401.958	113
402.182	141
402.406	211
402.63	148
402.854	102
403.078	98
403.302	92
403.526	95
403.75	83
403.974	86
404.198	113
404.422	101
404.645	115
404.869	107
405.093	125
405.317	157
405.541	153
405.765	127
405.988	135
406.212	206
406.436	311
406.66	213
406.883	131
407.107	107
407.331	110
407.555	129
407.778	108
408.002	104
408.226	103
408.449	88
408.673	91
408.896	91
409.12	104
409.344	104
409.567	92
409.791	73
410.014	94
410.238	100
410.461	91
410.685	109
410.908	104
411.132	117
411.355	103
411.578	99
411.802	92
412.025	103
412.249	111
412.472	141
412.695	162
412.919	119
413.142	97
413.365	103
413.589	104
413.812	102
414.035	97
414.258	101
414.482	88
414.705	98
414.928	105
415.151	102
415.374	93
415.597	92
415.821	79
416.044	97
416.267	93
416.49	90
416.713	94
416.936	85
417.159	94
417.382	102
417.605	114
417.828	129
418.051	115
418.274	99
418.497	88
418.72	77
418.943	94
419.166	85
419.389	87
419.611	90
419.834	99
420.057	106
420.28	107
420.503	91
420.726	89
420.948	98
421.171	112
421.394	92
421.617	90
421.839	88
422.062	93
422.285	101
422.507	104
422.73	114
422.953	112
423.175	72
423.398	98
423.621	87
423.843	90
424.066	98
424.288	98
424.511	112
424.733	122
424.956	145
425.178	125
425.401	121
425.623	112
425.846	84
426.068	116
426.291	98
426.513	108
426.735	111
426.958	97
427.18	135
427.402	196
427.625	280
427.847	259
428.069	255
428.292	160
428.514	105
428.736	92
428.958	98
429.181	91
429.403	87
429.625	109
429.847	106
430.069	121
430.292	113
430.514	96
430.736	111
430.958	90
431.18	91
431.402	98
431.624	86
431.846	82
432.068	98
432.29	86
432.512	90
432.734	94
432.956	104
433.178	116
433.4	118
433.622	91
433.844	81
434.066	92
434.287	95
434.509	95
434.731	85
434.953	95
435.175	96
435.397	99
435.618	113
435.84	124
436.062	173
436.284	135
436.505	102
436.727	121
436.949	99
437.17	88
437.392	92
437.614	111
437.835	137
438.057	149
438.278	141
438.5	145
438.721	163
438.943	134
439.165	99
439.386	105
439.608	100
439.829	128
440.05	162
440.272	216
440.493	119
440.715	102
440.936	105
441.158	88
441.379	104
441.6	111
441.822	119
442.043	130
442.264	129
442.486	124
442.707	128
442.928	131
443.149	183
443.371	180
443.592	143
443.813	146
444.034	125
444.255	101
444.476	81
444.698	95
444.919	90
445.14	141
445.361	141
445.582	170
445.803	228
446.024	204
446.245	182
446.466	152
446.687	99
446.908	95
447.129	81
447.35	88
447.571	101
447.792	99
448.013	106
448.234	137
448.455	123
448.675	148
448.896	162
449.117	113
449.338	116
449.559	163
449.779	182
450	110
450.221	96
450.442	97
450.662	97
450.883	133
451.104	145
451.324	105
451.545	98
451.766	97
451.986	88
452.207	95
452.428	99
452.648	120
452.869	136
453.089	132
453.31	141
453.53	103
453.751	97
453.971	127
454.192	135
454.412	100
454.633	103
454.853	83
455.073	98
455.294	98
455.514	115
455.734	102
455.955	87
456.175	87
456.395	85
456.616	86
456.836	98
457.056	104
457.276	92
457.497	85
457.717	96
457.937	90
458.157	95
458.377	84
458.598	123
458.818	218
459.038	252
459.258	157
459.478	110
459.698	102
459.918	98
460.138	80
460.358	101
460.578	102
460.798	105
461.018	100
461.238	86
461.458	91
461.678	92
461.898	90
462.118	95
462.338	87
462.558	91
462.777	97
462.997	107
463.217	107
463.437	107
463.657	102
463.876	93
464.096	101
464.316	103
464.536	118
464.755	117
464.975	139
465.195	244
465.414	247
465.634	110
465.854	87
466.073	100
466.293	99
466.512	98
466.732	108
466.951	101
467.171	101
467.391	108
467.61	148
467.829	212
468.049	539
468.268	856
468.488	221
468.707	121
468.927	102
469.146	95
469.365	94
469.585	98
469.804	96
470.023	118
470.243	108
470.462	114
470.681	136
470.901	107
471.12	110
471.339	134
471.558	135
471.777	162
471.997	304
472.216	1084
472.435	2562
472.654	635
472.873	170
473.092	109
473.311	101
473.53	104
473.749	103
473.968	111
474.187	146
474.406	122
474.625	102
474.844	96
475.063	86
475.282	103
475.501	101
475.72	95
475.939	85
476.158	84
476.377	102
476.596	97
476.814	102
477.033	111
477.252	97
477.471	108
477.69	110
477.908	98
478.127	106
478.346	103
478.564	116
478.783	106
479.002	123
479.22	106
479.439	116
479.658	136
479.876	129
480.095	126
480.313	130
480.532	166
480.751	301
480.969	979
481.188	4196
481.406	2649
481.624	403
481.843	148
482.061	103
482.28	113
482.498	103
482.717	97
482.935	104
483.153	114
483.372	95
483.59	89
483.808	92
484.027	106
484.245	104
484.463	107
484.681	108
484.9	96
485.118	102
485.336	98
485.554	98
485.772	95
485.99	98
486.209	114
486.427	129
486.645	119
486.863	116
487.081	121
487.299	105
487.517	116
487.735	103
487.953	105
488.171	102
488.389	108
488.607	104
488.825	106
489.043	85
489.261	92
489.479	93
489.696	88
489.914	80
490.132	100
490.35	95
490.568	90
490.786	83
491.003	90
491.221	87
491.439	104
491.657	102
491.874	103
492.092	80
492.31	96
492.527	103
492.745	93
492.963	92
493.18	97
493.398	83
493.615	101
493.833	99
494.05	97
494.268	90
494.485	77
494.703	81
494.92	92
495.138	83
495.355	91
495.573	85
495.79	104
496.008	79
496.225	90
496.442	89
496.66	110
496.877	98
497.094	105
497.312	99
497.529	90
497.746	106
497.963	79
498.181	101
498.398	99
498.615	107
498.832	116
499.049	117
499.267	91
499.484	93
499.701	103
499.918	100
500.135	99
500.352	102
500.569	95
500.786	103
501.003	92
501.22	90
501.437	75
501.654	93
501.871	132
502.088	100
502.305	86
502.522	99
502.739	106
502.956	95
503.172	106
503.389	123
503.606	136
503.823	103
504.04	87
504.256	95
504.473	83
504.69	92
504.907	102
505.123	87
505.34	104
505.557	88
505.773	101
505.99	82
506.207	102
506.423	109
506.64	100
506.856	98
507.073	115
507.289	105
507.506	116
507.722	155
507.939	157
508.155	109
508.372	115
508.588	93
508.805	94
509.021	106
509.238	111
509.454	93
509.67	108
509.887	119
510.103	131
510.319	241
510.536	939
510.752	3182
510.968	916
511.184	191
511.401	123
511.617	122
511.833	133
512.049	112
512.265	95
512.481	98
512.698	87
512.914	95
513.13	108
513.346	97
513.562	98
513.778	113
513.994	105
514.21	114
514.426	143
514.642	185
514.858	186
515.074	229
515.29	718
515.506	2575
515.721	953
515.937	237
516.153	141
516.369	118
516.585	131
516.801	112
517.016	102
517.232	107
517.448	103
517.664	107
517.879	114
518.095	100
518.311	115
518.527	133
518.742	96
518.958	111
519.173	93
519.389	95
519.605	108
519.82	105
520.036	115
520.251	172
520.467	139
520.682	129
520.898	118
521.113	139
521.329	183
521.544	318
521.76	932
521.975	4251
522.19	2677
522.406	528
522.621	176
522.836	133
523.052	133
523.267	105
523.482	101
523.698	136
523.913	147
524.128	141
524.343	89
524.559	99
524.774	101
524.989	112
525.204	144
525.419	128
525.634	113
525.849	96
526.064	105
526.28	98
526.495	105
526.71	98
526.925	99
527.14	100
527.355	89
527.57	100
527.785	89
527.999	104
528.214	92
528.429	98
528.644	91
528.859	104
529.074	98
529.289	155
529.503	288
529.718	129
529.933	105
530.148	99
530.363	95
530.577	89
530.792	100
531.007	85
531.221	100
531.436	96
531.651	100
531.865	107
532.08	89
532.295	105
532.509	104
532.724	115
532.938	107
533.153	101
533.367	108
533.582	90
533.796	100
534.011	90
534.225	81
534.44	96
534.654	91
534.868	101
535.083	100
535.297	100
535.511	101
535.726	133
535.94	113
536.154	98
536.369	104
536.583	103
536.797	95
537.011	92
537.225	100
537.44	93
537.654	99
537.868	84
538.082	100
538.296	94
538.51	86
538.724	92
538.938	88
539.153	91
539.367	120
539.581	107
539.795	96
540.009	90
540.222	104
540.436	93
540.65	92
540.864	95
541.078	108
541.292	92
541.506	96
541.72	102
541.934	91
542.147	85
542.361	90
542.575	89
542.789	86
543.002	100
543.216	109
543.43	114
543.644	99
543.857	99
544.071	96
544.285	115
544.498	113
544.712	91
544.925	92
545.139	98
545.352	90
545.566	96
545.779	112
545.993	87
546.206	96
546.42	80
546.633	87
546.847	81
547.06	88
547.274	95
547.487	103
547.7	90
547.914	93
548.127	87
548.34	79
548.554	83
548.767	96
548.98	88
549.193	76
549.407	93
549.62	104
549.833	97
550.046	98
550.259	76
550.473	99
550.686	111
550.899	94
551.112	96
551.325	114
551.538	100
551.751	109
551.964	100
552.177	97
552.39	80
552.603	112
552.816	112
553.029	90
553.242	102
553.455	108
553.667	109
553.88	109
554.093	112
554.306	127
554.519	125
554.732	95
554.944	92
555.157	89
555.37	97
555.583	86
555.795	106
556.008	89
556.221	90
556.433	93
556.646	101
556.859	99
557.071	89
557.284	95
557.496	86
557.709	87
557.921	101
558.134	95
558.346	99
558.559	89
558.771	96
558.984	92
559.196	98
559.409	96
559.621	104
559.833	103
560.046	93
560.258	118
560.47	127
560.683	95
560.895	84
561.107	93
561.32	96
561.532	99
561.744	112
561.956	91
562.168	101
562.381	105
562.593	89
562.805	88
563.017	87
563.229	82
563.441	92
563.653	101
563.865	82
564.077	94
564.289	93
564.501	101
564.713	82
564.925	102
565.137	128
565.349	96
565.561	83
565.773	94
565.985	79
566.197	82
566.408	97
566.62	77
566.832	88
567.044	92
567.255	85
567.467	93
567.679	81
567.891	100
568.102	92
568.314	85
568.526	84
568.737	88
568.949	81
569.161	98
569.372	88
569.584	88
569.795	95
570.007	131
570.218	294
570.43	143
570.641	105
570.853	89
571.064	108
571.276	86
571.487	87
571.698	90
571.91	95
572.121	78
572.333	100
572.544	95
572.755	85
572.966	85
573.178	87
573.389	79
573.6	93
573.811	88
574.023	83
574.234	90
574.445	93
574.656	102
574.867	90
575.078	99
575.289	92
575.501	93
575.712	92
575.923	98
576.134	85
576.345	79
576.556	102
576.767	90
576.978	89
577.188	96
577.399	96
