Data from Circ_2023_H10_HRD10591_00023.txt Node
Date: Wed Jan 03 09:50:35 EST 2024
User: Yrep
Spectrometer: HR+D1059
Trigger mode: 1
Integration Time (sec): 1.000000E-1
Scans to average: 1
Electric dark correction enabled: true
Nonlinearity correction enabled: false
Boxcar width: 0
XAxis mode: Wavelengths
Number of Pixels in Spectrum: 2048
>>>>>Begin Spectral Data<<<<<
223.165	-16.75
223.4	-16.75
223.635	-16.75
223.869	-25.75
224.104	-14.75
224.338	-16.75
224.573	-11.75
224.808	-10.75
225.042	-4.75
225.277	-6.75
225.511	3.25
225.746	4.25
225.98	4.25
226.215	22.25
226.449	6.25
226.683	17.25
226.918	24.25
227.152	26.25
227.387	39.25
227.621	58.25
227.856	52.25
228.09	40.25
228.324	47.25
228.559	54.25
228.793	58.25
229.027	62.25
229.262	59.25
229.496	73.25
229.73	100.25
229.964	98.25
230.199	75.25
230.433	79.25
230.667	83.25
230.901	57.25
231.136	67.25
231.37	90.25
231.604	83.25
231.838	73.25
232.072	57.25
232.306	76.25
232.541	82.25
232.775	68.25
233.009	84.25
233.243	86.25
233.477	78.25
233.711	83.25
233.945	92.25
234.179	86.25
234.413	70.25
234.647	77.25
234.881	90.25
235.115	88.25
235.349	88.25
235.583	80.25
235.817	86.25
236.051	74.25
236.285	87.25
236.519	71.25
236.753	80.25
236.987	75.25
237.221	100.25
237.455	92.25
237.689	80.25
237.922	78.25
238.156	76.25
238.39	69.25
238.624	77.25
238.858	61.25
239.091	76.25
239.325	63.25
239.559	82.25
239.793	77.25
240.027	87.25
240.26	75.25
240.494	71.25
240.728	78.25
240.961	75.25
241.195	85.25
241.429	67.25
241.662	68.25
241.896	75.25
242.13	69.25
242.363	68.25
242.597	70.25
242.83	65.25
243.064	73.25
243.298	80.25
243.531	81.25
243.765	74.25
243.998	86.25
244.232	74.25
244.465	78.25
244.699	79.25
244.932	66.25
245.166	80.25
245.399	84.25
245.633	87.25
245.866	85.25
246.099	72.25
246.333	56.25
246.566	75.25
246.8	75.25
247.033	73.25
247.266	77.25
247.5	85.25
247.733	81.25
247.966	63.25
248.2	72.25
248.433	71.25
248.666	81.25
248.899	76.25
249.133	87.25
249.366	87.25
249.599	94.25
249.832	85.25
250.066	95.25
250.299	63.25
250.532	75.25
250.765	81.25
250.998	78.25
251.231	72.25
251.465	84.25
251.698	83.25
251.931	91.25
252.164	84.25
252.397	71.25
252.63	75.25
252.863	76.25
253.096	77.25
253.329	75.25
253.562	87.25
253.795	84.25
254.028	69.25
254.261	89.25
254.494	81.25
254.727	82.25
254.96	80.25
255.193	79.25
255.426	71.25
255.659	86.25
255.892	99.25
256.124	100.25
256.357	74.25
256.59	87.25
256.823	80.25
257.056	91.25
257.289	100.25
257.521	83.25
257.754	69.25
257.987	96.25
258.22	94.25
258.452	86.25
258.685	83.25
258.918	87.25
259.151	69.25
259.383	83.25
259.616	83.25
259.849	87.25
260.081	84.25
260.314	92.25
260.547	89.25
260.779	93.25
261.012	101.25
261.244	105.25
261.477	103.25
261.71	110.25
261.942	126.25
262.175	132.25
262.407	99.25
262.64	73.25
262.872	89.25
263.105	83.25
263.337	90.25
263.57	105.25
263.802	78.25
264.035	82.25
264.267	81.25
264.499	66.25
264.732	78.25
264.964	71.25
265.197	87.25
265.429	81.25
265.661	82.25
265.894	85.25
266.126	94.25
266.358	91.25
266.591	77.25
266.823	72.25
267.055	84.25
267.287	89.25
267.52	101.25
267.752	87.25
267.984	90.25
268.216	73.25
268.448	100.25
268.681	92.25
268.913	86.25
269.145	88.25
269.377	87.25
269.609	84.25
269.841	89.25
270.073	89.25
270.306	86.25
270.538	79.25
270.77	85.25
271.002	89.25
271.234	71.25
271.466	85.25
271.698	87.25
271.93	82.25
272.162	96.25
272.394	91.25
272.626	77.25
272.858	91.25
273.09	78.25
273.322	79.25
273.553	84.25
273.785	92.25
274.017	72.25
274.249	94.25
274.481	93.25
274.713	75.25
274.945	86.25
275.176	99.25
275.408	105.25
275.64	102.25
275.872	100.25
276.104	98.25
276.335	82.25
276.567	116.25
276.799	138.25
277.031	153.25
277.262	175.25
277.494	133.25
277.726	102.25
277.957	97.25
278.189	83.25
278.421	76.25
278.652	95.25
278.884	102.25
279.115	97.25
279.347	95.25
279.579	99.25
279.81	115.25
280.042	198.25
280.273	239.25
280.505	150.25
280.736	105.25
280.968	94.25
281.199	89.25
281.431	79.25
281.662	108.25
281.894	87.25
282.125	109.25
282.356	123.25
282.588	147.25
282.819	130.25
283.051	104.25
283.282	92.25
283.513	93.25
283.745	98.25
283.976	75.25
284.207	81.25
284.439	79.25
284.67	94.25
284.901	84.25
285.132	87.25
285.364	88.25
285.595	94.25
285.826	92.25
286.057	86.25
286.288	71.25
286.52	94.25
286.751	89.25
286.982	87.25
287.213	92.25
287.444	102.25
287.675	92.25
287.906	83.25
288.138	82.25
288.369	96.25
288.6	94.25
288.831	73.25
289.062	85.25
289.293	84.25
289.524	84.25
289.755	86.25
289.986	96.25
290.217	87.25
290.448	95.25
290.679	78.25
290.91	81.25
291.141	79.25
291.371	101.25
291.602	90.25
291.833	90.25
292.064	76.25
292.295	70.25
292.526	86.25
292.757	113.25
292.987	84.25
293.218	84.25
293.449	76.25
293.68	93.25
293.91	93.25
294.141	87.25
294.372	90.25
294.603	86.25
294.833	85.25
295.064	95.25
295.295	83.25
295.525	91.25
295.756	96.25
295.987	139.25
296.217	138.25
296.448	137.25
296.679	80.25
296.909	90.25
297.14	95.25
297.37	84.25
297.601	85.25
297.831	74.25
298.062	96.25
298.292	87.25
298.523	85.25
298.753	90.25
298.984	86.25
299.214	77.25
299.445	93.25
299.675	93.25
299.905	94.25
300.136	92.25
300.366	88.25
300.597	84.25
300.827	100.25
301.057	108.25
301.288	110.25
301.518	95.25
301.748	100.25
301.979	107.25
302.209	92.25
302.439	93.25
302.669	97.25
302.9	97.25
303.13	74.25
303.36	102.25
303.59	118.25
303.82	137.25
304.051	105.25
304.281	91.25
304.511	98.25
304.741	86.25
304.971	84.25
305.201	96.25
305.431	90.25
305.661	86.25
305.891	88.25
306.121	109.25
306.352	104.25
306.582	101.25
306.812	97.25
307.042	117.25
307.272	146.25
307.502	174.25
307.731	140.25
307.961	112.25
308.191	97.25
308.421	97.25
308.651	96.25
308.881	94.25
309.111	96.25
309.341	91.25
309.571	96.25
309.8	96.25
310.03	100.25
310.26	97.25
310.49	88.25
310.72	108.25
310.949	111.25
311.179	102.25
311.409	106.25
311.639	97.25
311.868	107.25
312.098	95.25
312.328	100.25
312.557	109.25
312.787	129.25
313.017	126.25
313.246	93.25
313.476	100.25
313.706	100.25
313.935	102.25
314.165	95.25
314.394	110.25
314.624	87.25
314.853	107.25
315.083	99.25
315.312	83.25
315.542	105.25
315.771	112.25
316.001	85.25
316.23	79.25
316.46	99.25
316.689	101.25
316.919	106.25
317.148	107.25
317.377	88.25
317.607	111.25
317.836	90.25
318.065	78.25
318.295	97.25
318.524	82.25
318.753	102.25
318.983	93.25
319.212	107.25
319.441	100.25
319.67	110.25
319.9	111.25
320.129	107.25
320.358	94.25
320.587	99.25
320.816	99.25
321.046	107.25
321.275	121.25
321.504	95.25
321.733	85.25
321.962	87.25
322.191	101.25
322.42	118.25
322.649	107.25
322.878	115.25
323.108	137.25
323.337	141.25
323.566	146.25
323.795	190.25
324.024	232.25
324.253	476.25
324.482	1025.25
324.71	2085.25
324.939	2771.25
325.168	1031.25
325.397	308.25
325.626	171.25
325.855	127.25
326.084	122.25
326.313	155.25
326.542	185.25
326.77	272.25
326.999	548.25
327.228	1127.25
327.457	2142.25
327.686	1667.25
327.914	559.25
328.143	469.25
328.372	579.25
328.6	325.25
328.829	173.25
329.058	173.25
329.287	190.25
329.515	157.25
329.744	227.25
329.972	421.25
330.201	829.25
330.43	1260.25
330.658	574.25
330.887	287.25
331.115	189.25
331.344	125.25
331.572	104.25
331.801	121.25
332.03	115.25
332.258	129.25
332.486	108.25
332.715	114.25
332.943	115.25
333.172	103.25
333.4	112.25
333.629	155.25
333.857	218.25
334.085	411.25
334.314	801.25
334.542	1552.25
334.771	1489.25
334.999	407.25
335.227	176.25
335.455	139.25
335.684	108.25
335.912	96.25
336.14	111.25
336.369	111.25
336.597	114.25
336.825	113.25
337.053	104.25
337.281	88.25
337.51	87.25
337.738	106.25
337.966	95.25
338.194	109.25
338.422	96.25
338.65	98.25
338.878	100.25
339.106	82.25
339.334	85.25
339.562	105.25
339.79	97.25
340.018	94.25
340.246	115.25
340.474	94.25
340.702	85.25
340.93	101.25
341.158	96.25
341.386	83.25
341.614	107.25
341.842	102.25
342.07	74.25
342.298	84.25
342.526	91.25
342.754	92.25
342.981	85.25
343.209	89.25
343.437	102.25
343.665	75.25
343.893	94.25
344.12	80.25
344.348	87.25
344.576	90.25
344.804	95.25
345.031	111.25
345.259	104.25
345.487	109.25
345.714	100.25
345.942	101.25
346.17	110.25
346.397	93.25
346.625	96.25
346.853	97.25
347.08	89.25
347.308	100.25
347.535	97.25
347.763	124.25
347.99	108.25
348.218	88.25
348.445	129.25
348.673	97.25
348.9	111.25
349.128	85.25
349.355	93.25
349.583	86.25
349.81	79.25
350.037	90.25
350.265	84.25
350.492	94.25
350.72	83.25
350.947	95.25
351.174	118.25
351.402	120.25
351.629	113.25
351.856	106.25
352.083	112.25
352.311	114.25
352.538	124.25
352.765	132.25
352.992	135.25
353.22	111.25
353.447	115.25
353.674	97.25
353.901	96.25
354.128	78.25
354.355	98.25
354.583	92.25
354.81	99.25
355.037	86.25
355.264	104.25
355.491	88.25
355.718	104.25
355.945	80.25
356.172	87.25
356.399	98.25
356.626	81.25
356.853	83.25
357.08	102.25
357.307	84.25
357.534	82.25
357.761	97.25
357.988	106.25
358.215	100.25
358.441	96.25
358.668	79.25
358.895	87.25
359.122	80.25
359.349	101.25
359.576	89.25
359.802	114.25
360.029	123.25
360.256	149.25
360.483	118.25
360.709	85.25
360.936	101.25
361.163	104.25
361.39	109.25
361.616	107.25
361.843	81.25
362.07	119.25
362.296	108.25
362.523	104.25
362.749	84.25
362.976	95.25
363.203	92.25
363.429	91.25
363.656	85.25
363.882	94.25
364.109	100.25
364.335	100.25
364.562	90.25
364.788	102.25
365.015	97.25
365.241	92.25
365.468	109.25
365.694	115.25
365.92	111.25
366.147	104.25
366.373	99.25
366.599	88.25
366.826	85.25
367.052	77.25
367.278	96.25
367.505	91.25
367.731	101.25
367.957	94.25
368.184	92.25
368.41	99.25
368.636	113.25
368.862	136.25
369.089	111.25
369.315	88.25
369.541	92.25
369.767	97.25
369.993	107.25
370.219	95.25
370.445	88.25
370.672	88.25
370.898	79.25
371.124	80.25
371.35	92.25
371.576	84.25
371.802	101.25
372.028	82.25
372.254	86.25
372.48	97.25
372.706	87.25
372.932	92.25
373.158	72.25
373.384	80.25
373.61	90.25
373.835	75.25
374.061	103.25
374.287	98.25
374.513	100.25
374.739	87.25
374.965	80.25
375.191	86.25
375.416	79.25
375.642	100.25
375.868	83.25
376.094	92.25
376.319	89.25
376.545	88.25
376.771	85.25
376.997	96.25
377.222	88.25
377.448	96.25
377.674	95.25
377.899	88.25
378.125	87.25
378.35	87.25
378.576	88.25
378.802	84.25
379.027	103.25
379.253	91.25
379.478	77.25
379.704	91.25
379.929	91.25
380.155	94.25
380.38	81.25
380.606	89.25
380.831	92.25
381.057	98.25
381.282	82.25
381.507	87.25
381.733	95.25
381.958	105.25
382.184	111.25
382.409	96.25
382.634	99.25
382.86	107.25
383.085	90.25
383.31	86.25
383.535	82.25
383.761	96.25
383.986	89.25
384.211	87.25
384.436	96.25
384.662	87.25
384.887	100.25
385.112	87.25
385.337	91.25
385.562	95.25
385.787	92.25
386.013	102.25
386.238	105.25
386.463	111.25
386.688	95.25
386.913	67.25
387.138	81.25
387.363	90.25
387.588	98.25
387.813	101.25
388.038	96.25
388.263	95.25
388.488	116.25
388.713	94.25
388.938	78.25
389.163	88.25
389.387	82.25
389.612	99.25
389.837	93.25
390.062	110.25
390.287	95.25
390.512	105.25
390.736	95.25
390.961	101.25
391.186	92.25
391.411	85.25
391.636	77.25
391.86	88.25
392.085	84.25
392.31	92.25
392.534	93.25
392.759	96.25
392.984	91.25
393.208	84.25
393.433	79.25
393.658	85.25
393.882	94.25
394.107	82.25
394.331	82.25
394.556	86.25
394.78	89.25
395.005	69.25
395.229	83.25
395.454	99.25
395.678	82.25
395.903	85.25
396.127	79.25
396.352	97.25
396.576	78.25
396.801	95.25
397.025	72.25
397.249	80.25
397.474	88.25
397.698	79.25
397.922	84.25
398.147	92.25
398.371	94.25
398.595	84.25
398.82	84.25
399.044	84.25
399.268	82.25
399.492	91.25
399.717	70.25
399.941	83.25
400.165	99.25
400.389	89.25
400.613	87.25
400.837	92.25
401.062	82.25
401.286	78.25
401.51	80.25
401.734	84.25
401.958	108.25
402.182	143.25
402.406	194.25
402.63	137.25
402.854	101.25
403.078	101.25
403.302	87.25
403.526	79.25
403.75	98.25
403.974	99.25
404.198	94.25
404.422	103.25
404.645	95.25
404.869	95.25
405.093	104.25
405.317	142.25
405.541	138.25
405.765	114.25
405.988	129.25
406.212	210.25
406.436	317.25
406.66	195.25
406.883	125.25
407.107	96.25
407.331	96.25
407.555	132.25
407.778	110.25
408.002	91.25
408.226	94.25
408.449	88.25
408.673	89.25
408.896	80.25
409.12	104.25
409.344	86.25
409.567	88.25
409.791	95.25
410.014	90.25
410.238	93.25
410.461	87.25
410.685	88.25
410.908	94.25
411.132	90.25
411.355	102.25
411.578	104.25
411.802	95.25
412.025	99.25
412.249	110.25
412.472	115.25
412.695	135.25
412.919	117.25
413.142	79.25
413.365	88.25
413.589	84.25
413.812	89.25
414.035	109.25
414.258	95.25
414.482	88.25
414.705	102.25
414.928	96.25
415.151	92.25
415.374	99.25
415.597	81.25
415.821	84.25
416.044	92.25
416.267	96.25
416.49	90.25
416.713	88.25
416.936	87.25
417.159	98.25
417.382	91.25
417.605	103.25
417.828	110.25
418.051	103.25
418.274	94.25
418.497	81.25
418.72	96.25
418.943	84.25
419.166	92.25
419.389	86.25
419.611	86.25
419.834	107.25
420.057	95.25
420.28	96.25
420.503	83.25
420.726	92.25
420.948	93.25
421.171	113.25
421.394	103.25
421.617	111.25
421.839	100.25
422.062	74.25
422.285	71.25
422.507	92.25
422.73	110.25
422.953	115.25
423.175	84.25
423.398	83.25
423.621	92.25
423.843	83.25
424.066	78.25
424.288	85.25
424.511	89.25
424.733	112.25
424.956	114.25
425.178	94.25
425.401	101.25
425.623	114.25
425.846	96.25
426.068	88.25
426.291	102.25
426.513	89.25
426.735	85.25
426.958	101.25
427.18	124.25
427.402	173.25
427.625	252.25
427.847	241.25
428.069	224.25
428.292	136.25
428.514	102.25
428.736	95.25
428.958	79.25
429.181	84.25
429.403	77.25
429.625	92.25
429.847	104.25
430.069	112.25
430.292	100.25
430.514	88.25
430.736	87.25
430.958	93.25
431.18	87.25
431.402	85.25
431.624	73.25
431.846	73.25
432.068	81.25
432.29	80.25
432.512	91.25
432.734	89.25
432.956	81.25
433.178	99.25
433.4	88.25
433.622	90.25
433.844	92.25
434.066	96.25
434.287	83.25
434.509	91.25
434.731	89.25
434.953	102.25
435.175	82.25
435.397	96.25
435.618	104.25
435.84	113.25
436.062	119.25
436.284	144.25
436.505	109.25
436.727	123.25
436.949	103.25
437.17	88.25
437.392	88.25
437.614	87.25
437.835	124.25
438.057	135.25
438.278	134.25
438.5	113.25
438.721	138.25
438.943	116.25
439.165	100.25
439.386	90.25
439.608	88.25
439.829	118.25
440.05	167.25
440.272	196.25
440.493	113.25
440.715	98.25
440.936	79.25
441.158	89.25
441.379	91.25
441.6	91.25
441.822	102.25
442.043	100.25
442.264	124.25
442.486	108.25
442.707	105.25
442.928	123.25
443.149	173.25
443.371	159.25
443.592	133.25
443.813	135.25
444.034	144.25
444.255	94.25
444.476	92.25
444.698	92.25
444.919	99.25
445.14	131.25
445.361	136.25
445.582	160.25
445.803	192.25
446.024	189.25
446.245	190.25
446.466	115.25
446.687	90.25
446.908	92.25
447.129	91.25
447.35	96.25
447.571	89.25
447.792	94.25
448.013	99.25
448.234	123.25
448.455	100.25
448.675	126.25
448.896	141.25
449.117	112.25
449.338	111.25
449.559	156.25
449.779	163.25
450	108.25
450.221	88.25
450.442	94.25
450.662	92.25
450.883	129.25
451.104	136.25
451.324	118.25
451.545	87.25
451.766	83.25
451.986	108.25
452.207	93.25
452.428	103.25
452.648	114.25
452.869	106.25
453.089	119.25
453.31	143.25
453.53	96.25
453.751	94.25
453.971	124.25
454.192	137.25
454.412	103.25
454.633	99.25
454.853	84.25
455.073	87.25
455.294	109.25
455.514	117.25
455.734	114.25
455.955	91.25
456.175	77.25
456.395	72.25
456.616	85.25
456.836	91.25
457.056	82.25
457.276	83.25
457.497	77.25
457.717	85.25
457.937	83.25
458.157	84.25
458.377	93.25
458.598	119.25
458.818	206.25
459.038	215.25
459.258	155.25
459.478	98.25
459.698	88.25
459.918	86.25
460.138	82.25
460.358	88.25
460.578	84.25
460.798	84.25
461.018	88.25
461.238	99.25
461.458	85.25
461.678	76.25
461.898	86.25
462.118	81.25
462.338	98.25
462.558	88.25
462.777	98.25
462.997	86.25
463.217	87.25
463.437	100.25
463.657	88.25
463.876	101.25
464.096	97.25
464.316	99.25
464.536	107.25
464.755	106.25
464.975	120.25
465.195	226.25
465.414	213.25
465.634	100.25
465.854	96.25
466.073	93.25
466.293	86.25
466.512	96.25
466.732	89.25
466.951	94.25
467.171	101.25
467.391	115.25
467.61	139.25
467.829	192.25
468.049	434.25
468.268	699.25
468.488	202.25
468.707	100.25
468.927	110.25
469.146	94.25
469.365	96.25
469.585	96.25
469.804	111.25
470.023	104.25
470.243	105.25
470.462	108.25
470.681	142.25
470.901	110.25
471.12	88.25
471.339	102.25
471.558	90.25
471.777	143.25
471.997	256.25
472.216	900.25
472.435	2086.25
472.654	528.25
472.873	157.25
473.092	100.25
473.311	109.25
473.53	96.25
473.749	88.25
473.968	95.25
474.187	120.25
474.406	123.25
474.625	91.25
474.844	93.25
475.063	81.25
475.282	85.25
475.501	88.25
475.72	98.25
475.939	96.25
476.158	96.25
476.377	81.25
476.596	87.25
476.814	88.25
477.033	87.25
477.252	107.25
477.471	97.25
477.69	94.25
477.908	83.25
478.127	96.25
478.346	84.25
478.564	100.25
478.783	102.25
479.002	109.25
479.22	100.25
479.439	121.25
479.658	126.25
479.876	119.25
480.095	125.25
480.313	137.25
480.532	148.25
480.751	258.25
480.969	815.25
481.188	3507.25
481.406	2160.25
481.624	328.25
481.843	143.25
482.061	112.25
482.28	100.25
482.498	100.25
482.717	97.25
482.935	92.25
483.153	88.25
483.372	90.25
483.59	85.25
483.808	97.25
484.027	93.25
484.245	93.25
484.463	91.25
484.681	97.25
484.9	85.25
485.118	89.25
485.336	75.25
485.554	115.25
485.772	100.25
485.99	110.25
486.209	122.25
486.427	111.25
486.645	124.25
486.863	123.25
487.081	108.25
487.299	89.25
487.517	98.25
487.735	78.25
487.953	92.25
488.171	98.25
488.389	99.25
488.607	98.25
488.825	95.25
489.043	109.25
489.261	103.25
489.479	86.25
489.696	97.25
489.914	72.25
490.132	83.25
490.35	93.25
490.568	94.25
490.786	97.25
491.003	90.25
491.221	94.25
491.439	84.25
491.657	94.25
491.874	93.25
492.092	95.25
492.31	83.25
492.527	101.25
492.745	88.25
492.963	82.25
493.18	91.25
493.398	82.25
493.615	93.25
493.833	96.25
494.05	78.25
494.268	86.25
494.485	81.25
494.703	94.25
494.92	97.25
495.138	84.25
495.355	88.25
495.573	85.25
495.79	73.25
496.008	96.25
496.225	85.25
496.442	96.25
496.66	96.25
496.877	86.25
497.094	88.25
497.312	95.25
497.529	94.25
497.746	90.25
497.963	96.25
498.181	100.25
498.398	92.25
498.615	109.25
498.832	103.25
499.049	107.25
499.267	96.25
499.484	98.25
499.701	86.25
499.918	86.25
500.135	87.25
500.352	91.25
500.569	81.25
500.786	90.25
501.003	72.25
501.22	79.25
501.437	87.25
501.654	104.25
501.871	112.25
502.088	96.25
502.305	93.25
502.522	89.25
502.739	92.25
502.956	94.25
503.172	93.25
503.389	92.25
503.606	112.25
503.823	104.25
504.04	104.25
504.256	98.25
504.473	71.25
504.69	72.25
504.907	87.25
505.123	87.25
505.34	100.25
505.557	87.25
505.773	91.25
505.99	80.25
506.207	83.25
506.423	92.25
506.64	89.25
506.856	90.25
507.073	68.25
507.289	102.25
507.506	91.25
507.722	128.25
507.939	135.25
508.155	91.25
508.372	101.25
508.588	77.25
508.805	103.25
509.021	92.25
509.238	99.25
509.454	97.25
509.67	95.25
509.887	104.25
510.103	135.25
510.319	221.25
510.536	885.25
510.752	3037.25
510.968	882.25
511.184	182.25
511.401	124.25
511.617	103.25
511.833	125.25
512.049	98.25
512.265	94.25
512.481	89.25
512.698	99.25
512.914	101.25
513.13	89.25
513.346	81.25
513.562	94.25
513.778	87.25
