Data from Circ_1997_H10_HRD10591_00050.txt Node
Date: Wed Jan 03 11:29:37 EST 2024
User: Yrep
Spectrometer: HR+D1059
Trigger mode: 1
Integration Time (sec): 1.000000E-1
Scans to average: 1
Electric dark correction enabled: true
Nonlinearity correction enabled: false
Boxcar width: 0
XAxis mode: Wavelengths
Number of Pixels in Spectrum: 2048
>>>>>Begin Spectral Data<<<<<
223.165	-18.38
223.4	-18.38
223.635	-18.38
223.869	-8.38
224.104	-8.38
224.338	-1.38
224.573	-21.38
224.808	-26.38
225.042	-17.38
225.277	-8.38
225.511	-4.38
225.746	3.62
225.98	14.62
226.215	16.62
226.449	15.62
226.683	14.62
226.918	19.62
227.152	29.62
227.387	37.62
227.621	27.62
227.856	46.62
228.09	53.62
228.324	51.62
228.559	63.62
228.793	43.62
229.027	52.62
229.262	67.62
229.496	71.62
229.73	88.62
229.964	100.62
230.199	72.62
230.433	71.62
230.667	91.62
230.901	85.62
231.136	78.62
231.37	76.62
231.604	75.62
231.838	78.62
232.072	73.62
232.306	84.62
232.541	73.62
232.775	91.62
233.009	83.62
233.243	69.62
233.477	75.62
233.711	72.62
233.945	74.62
234.179	89.62
234.413	82.62
234.647	68.62
234.881	72.62
235.115	92.62
235.349	74.62
235.583	76.62
235.817	71.62
236.051	79.62
236.285	69.62
236.519	73.62
236.753	79.62
236.987	79.62
237.221	87.62
237.455	98.62
237.689	72.62
237.922	73.62
238.156	66.62
238.39	78.62
238.624	79.62
238.858	66.62
239.091	72.62
239.325	66.62
239.559	80.62
239.793	91.62
240.027	73.62
240.26	70.62
240.494	76.62
240.728	83.62
240.961	62.62
241.195	82.62
241.429	83.62
241.662	75.62
241.896	70.62
242.13	84.62
242.363	73.62
242.597	83.62
242.83	78.62
243.064	75.62
243.298	61.62
243.531	63.62
243.765	75.62
243.998	78.62
244.232	70.62
244.465	82.62
244.699	86.62
244.932	66.62
245.166	62.62
245.399	68.62
245.633	79.62
245.866	77.62
246.099	70.62
246.333	90.62
246.566	71.62
246.8	86.62
247.033	80.62
247.266	80.62
247.5	79.62
247.733	82.62
247.966	82.62
248.2	67.62
248.433	72.62
248.666	90.62
248.899	93.62
249.133	86.62
249.366	91.62
249.599	118.62
249.832	100.62
250.066	86.62
250.299	91.62
250.532	85.62
250.765	80.62
250.998	76.62
251.231	77.62
251.465	70.62
251.698	83.62
251.931	71.62
252.164	74.62
252.397	76.62
252.63	80.62
252.863	84.62
253.096	82.62
253.329	72.62
253.562	70.62
253.795	76.62
254.028	87.62
254.261	82.62
254.494	77.62
254.727	84.62
254.96	85.62
255.193	66.62
255.426	82.62
255.659	77.62
255.892	99.62
256.124	93.62
256.357	96.62
256.59	86.62
256.823	98.62
257.056	82.62
257.289	86.62
257.521	83.62
257.754	93.62
257.987	78.62
258.22	85.62
258.452	94.62
258.685	98.62
258.918	86.62
259.151	87.62
259.383	74.62
259.616	74.62
259.849	86.62
260.081	87.62
260.314	74.62
260.547	75.62
260.779	106.62
261.012	108.62
261.244	108.62
261.477	110.62
261.71	104.62
261.942	146.62
262.175	150.62
262.407	91.62
262.64	84.62
262.872	89.62
263.105	92.62
263.337	81.62
263.57	87.62
263.802	81.62
264.035	85.62
264.267	74.62
264.499	95.62
264.732	66.62
264.964	78.62
265.197	70.62
265.429	79.62
265.661	86.62
265.894	89.62
266.126	87.62
266.358	86.62
266.591	74.62
266.823	96.62
267.055	96.62
267.287	73.62
267.52	81.62
267.752	76.62
267.984	72.62
268.216	84.62
268.448	90.62
268.681	90.62
268.913	71.62
269.145	100.62
269.377	75.62
269.609	72.62
269.841	74.62
270.073	81.62
270.306	81.62
270.538	79.62
270.77	80.62
271.002	84.62
271.234	79.62
271.466	96.62
271.698	83.62
271.93	77.62
272.162	82.62
272.394	95.62
272.626	98.62
272.858	86.62
273.09	83.62
273.322	84.62
273.553	74.62
273.785	73.62
274.017	96.62
274.249	70.62
274.481	83.62
274.713	85.62
274.945	113.62
275.176	93.62
275.408	87.62
275.64	100.62
275.872	106.62
276.104	97.62
276.335	106.62
276.567	118.62
276.799	159.62
277.031	190.62
277.262	214.62
277.494	159.62
277.726	109.62
277.957	94.62
278.189	93.62
278.421	101.62
278.652	93.62
278.884	78.62
279.115	95.62
279.347	99.62
279.579	109.62
279.81	119.62
280.042	201.62
280.273	298.62
280.505	202.62
280.736	111.62
280.968	85.62
281.199	89.62
281.431	84.62
281.662	92.62
281.894	105.62
282.125	108.62
282.356	143.62
282.588	180.62
282.819	135.62
283.051	98.62
283.282	102.62
283.513	85.62
283.745	82.62
283.976	78.62
284.207	76.62
284.439	78.62
284.67	88.62
284.901	80.62
285.132	88.62
285.364	91.62
285.595	87.62
285.826	87.62
286.057	99.62
286.288	86.62
286.52	78.62
286.751	94.62
286.982	83.62
287.213	80.62
287.444	93.62
287.675	91.62
287.906	76.62
288.138	89.62
288.369	93.62
288.6	99.62
288.831	71.62
289.062	96.62
289.293	92.62
289.524	79.62
289.755	79.62
289.986	69.62
290.217	88.62
290.448	82.62
290.679	89.62
290.91	95.62
291.141	90.62
291.371	88.62
291.602	92.62
291.833	93.62
292.064	94.62
292.295	90.62
292.526	75.62
292.757	97.62
292.987	86.62
293.218	83.62
293.449	87.62
293.68	97.62
293.91	88.62
294.141	85.62
294.372	94.62
294.603	93.62
294.833	86.62
295.064	91.62
295.295	87.62
295.525	93.62
295.756	122.62
295.987	137.62
296.217	164.62
296.448	159.62
296.679	91.62
296.909	89.62
297.14	91.62
297.37	83.62
297.601	91.62
297.831	93.62
298.062	97.62
298.292	105.62
298.523	95.62
298.753	87.62
298.984	95.62
299.214	92.62
299.445	96.62
299.675	92.62
299.905	100.62
300.136	82.62
300.366	88.62
300.597	90.62
300.827	93.62
301.057	110.62
301.288	116.62
301.518	104.62
301.748	100.62
301.979	109.62
302.209	114.62
302.439	112.62
302.669	79.62
302.9	96.62
303.13	90.62
303.36	122.62
303.59	157.62
303.82	144.62
304.051	91.62
304.281	96.62
304.511	71.62
304.741	81.62
304.971	79.62
305.201	87.62
305.431	93.62
305.661	88.62
305.891	84.62
306.121	95.62
306.352	117.62
306.582	115.62
306.812	103.62
307.042	128.62
307.272	171.62
307.502	200.62
307.731	178.62
307.961	139.62
308.191	82.62
308.421	89.62
308.651	93.62
308.881	98.62
309.111	103.62
309.341	93.62
309.571	103.62
309.8	97.62
310.03	107.62
310.26	109.62
310.49	108.62
310.72	111.62
310.949	128.62
311.179	98.62
311.409	98.62
311.639	99.62
311.868	102.62
312.098	91.62
312.328	97.62
312.557	111.62
312.787	132.62
313.017	120.62
313.246	108.62
313.476	97.62
313.706	91.62
313.935	98.62
314.165	115.62
314.394	131.62
314.624	103.62
314.853	100.62
315.083	95.62
315.312	88.62
315.542	94.62
315.771	82.62
316.001	80.62
316.23	97.62
316.46	88.62
316.689	95.62
316.919	106.62
317.148	102.62
317.377	109.62
317.607	107.62
317.836	103.62
318.065	83.62
318.295	95.62
318.524	101.62
318.753	93.62
318.983	91.62
319.212	114.62
319.441	111.62
319.67	107.62
319.9	93.62
320.129	78.62
320.358	90.62
320.587	97.62
320.816	88.62
321.046	110.62
321.275	106.62
321.504	109.62
321.733	102.62
321.962	105.62
322.191	106.62
322.42	136.62
322.649	125.62
322.878	130.62
323.108	152.62
323.337	133.62
323.566	173.62
323.795	222.62
324.024	274.62
324.253	623.62
324.482	1392.62
324.71	3004.62
324.939	4018.62
325.168	1369.62
325.397	357.62
325.626	205.62
325.855	161.62
326.084	160.62
326.313	172.62
326.542	204.62
326.77	310.62
326.999	717.62
327.228	1558.62
327.457	2960.62
327.686	2340.62
327.914	727.62
328.143	630.62
328.372	807.62
328.6	428.62
328.829	201.62
329.058	234.62
329.287	227.62
329.515	197.62
329.744	296.62
329.972	600.62
330.201	1269.62
330.43	1820.62
330.658	792.62
330.887	352.62
331.115	233.62
331.344	150.62
331.572	140.62
331.801	141.62
332.03	118.62
332.258	121.62
332.486	102.62
332.715	96.62
332.943	109.62
333.172	121.62
333.4	144.62
333.629	178.62
333.857	273.62
334.085	518.62
334.314	1151.62
334.542	2331.62
334.771	2114.62
334.999	518.62
335.227	194.62
335.455	146.62
335.684	124.62
335.912	119.62
336.14	100.62
336.369	118.62
336.597	104.62
336.825	112.62
337.053	102.62
337.281	107.62
337.51	89.62
337.738	93.62
337.966	99.62
338.194	104.62
338.422	95.62
338.65	98.62
338.878	101.62
339.106	90.62
339.334	111.62
339.562	100.62
339.79	106.62
340.018	92.62
340.246	94.62
340.474	103.62
340.702	101.62
340.93	96.62
341.158	95.62
341.386	98.62
341.614	90.62
341.842	105.62
342.07	103.62
342.298	91.62
342.526	86.62
342.754	90.62
342.981	89.62
343.209	83.62
343.437	92.62
343.665	89.62
343.893	98.62
344.12	91.62
344.348	80.62
344.576	84.62
344.804	96.62
345.031	122.62
345.259	123.62
345.487	110.62
345.714	98.62
345.942	83.62
346.17	105.62
346.397	87.62
346.625	97.62
346.853	92.62
347.08	87.62
347.308	102.62
347.535	118.62
347.763	101.62
347.99	88.62
348.218	96.62
348.445	118.62
348.673	107.62
348.9	113.62
349.128	93.62
349.355	94.62
349.583	88.62
349.81	96.62
350.037	95.62
350.265	94.62
350.492	92.62
350.72	99.62
350.947	113.62
351.174	120.62
351.402	120.62
351.629	127.62
351.856	105.62
352.083	103.62
352.311	104.62
352.538	139.62
352.765	118.62
352.992	126.62
353.22	134.62
353.447	104.62
353.674	93.62
353.901	94.62
354.128	100.62
354.355	81.62
354.583	89.62
354.81	103.62
355.037	103.62
355.264	105.62
355.491	78.62
355.718	94.62
355.945	100.62
356.172	89.62
356.399	89.62
356.626	90.62
356.853	83.62
357.08	85.62
357.307	88.62
357.534	88.62
357.761	91.62
357.988	89.62
358.215	86.62
358.441	74.62
358.668	80.62
358.895	92.62
359.122	86.62
359.349	98.62
359.576	93.62
359.802	128.62
360.029	144.62
360.256	152.62
360.483	107.62
360.709	96.62
360.936	100.62
361.163	90.62
361.39	120.62
361.616	123.62
361.843	92.62
362.07	108.62
362.296	87.62
362.523	103.62
362.749	103.62
362.976	102.62
363.203	83.62
363.429	93.62
363.656	75.62
363.882	79.62
364.109	97.62
364.335	76.62
364.562	92.62
364.788	106.62
365.015	80.62
365.241	94.62
365.468	106.62
365.694	116.62
365.92	93.62
366.147	83.62
366.373	100.62
366.599	89.62
366.826	91.62
367.052	93.62
367.278	84.62
367.505	102.62
367.731	89.62
367.957	98.62
368.184	101.62
368.41	95.62
368.636	120.62
368.862	132.62
369.089	108.62
369.315	111.62
369.541	98.62
369.767	95.62
369.993	101.62
370.219	80.62
370.445	86.62
370.672	80.62
370.898	78.62
371.124	76.62
371.35	90.62
371.576	79.62
371.802	83.62
372.028	80.62
372.254	86.62
372.48	83.62
372.706	87.62
372.932	94.62
373.158	91.62
373.384	80.62
373.61	82.62
373.835	84.62
374.061	73.62
374.287	97.62
374.513	83.62
374.739	72.62
374.965	86.62
375.191	86.62
375.416	88.62
375.642	96.62
375.868	89.62
376.094	92.62
376.319	79.62
376.545	82.62
376.771	89.62
376.997	94.62
377.222	82.62
377.448	91.62
377.674	82.62
377.899	88.62
378.125	72.62
378.35	78.62
378.576	79.62
378.802	87.62
379.027	86.62
379.253	87.62
379.478	102.62
379.704	93.62
379.929	100.62
380.155	99.62
380.38	87.62
380.606	88.62
380.831	107.62
381.057	92.62
381.282	102.62
381.507	83.62
381.733	76.62
381.958	85.62
382.184	90.62
382.409	96.62
382.634	99.62
382.86	109.62
383.085	96.62
383.31	91.62
383.535	83.62
383.761	89.62
383.986	82.62
384.211	100.62
384.436	99.62
384.662	95.62
384.887	103.62
385.112	89.62
385.337	94.62
385.562	94.62
385.787	100.62
386.013	101.62
386.238	113.62
386.463	116.62
386.688	117.62
386.913	88.62
387.138	89.62
387.363	96.62
387.588	94.62
387.813	80.62
388.038	103.62
388.263	104.62
388.488	115.62
388.713	90.62
388.938	95.62
389.163	97.62
389.387	91.62
389.612	81.62
389.837	87.62
390.062	87.62
390.287	91.62
390.512	90.62
390.736	86.62
390.961	95.62
391.186	74.62
391.411	76.62
391.636	87.62
391.86	82.62
392.085	88.62
392.31	93.62
392.534	76.62
392.759	83.62
392.984	86.62
393.208	94.62
393.433	84.62
393.658	87.62
393.882	84.62
394.107	86.62
394.331	96.62
394.556	88.62
394.78	95.62
395.005	85.62
395.229	98.62
395.454	86.62
395.678	83.62
395.903	82.62
396.127	91.62
396.352	92.62
396.576	87.62
396.801	98.62
397.025	78.62
397.249	82.62
397.474	85.62
397.698	94.62
397.922	78.62
398.147	79.62
398.371	85.62
398.595	88.62
398.82	95.62
399.044	67.62
399.268	99.62
399.492	76.62
399.717	85.62
399.941	83.62
400.165	96.62
400.389	101.62
400.613	80.62
400.837	94.62
401.062	100.62
401.286	94.62
401.51	106.62
401.734	88.62
401.958	111.62
402.182	152.62
402.406	191.62
402.63	128.62
402.854	100.62
403.078	95.62
403.302	81.62
403.526	84.62
403.75	86.62
403.974	80.62
404.198	84.62
404.422	87.62
404.645	92.62
404.869	100.62
405.093	112.62
405.317	152.62
405.541	168.62
405.765	125.62
405.988	142.62
406.212	235.62
406.436	342.62
406.66	198.62
406.883	130.62
407.107	109.62
407.331	116.62
407.555	121.62
407.778	112.62
408.002	108.62
408.226	103.62
408.449	72.62
408.673	83.62
408.896	95.62
409.12	107.62
409.344	95.62
409.567	99.62
409.791	86.62
410.014	86.62
410.238	94.62
410.461	86.62
410.685	91.62
410.908	104.62
411.132	101.62
411.355	99.62
411.578	82.62
411.802	98.62
412.025	96.62
412.249	94.62
412.472	127.62
412.695	148.62
412.919	122.62
413.142	93.62
413.365	83.62
413.589	91.62
413.812	79.62
414.035	92.62
414.258	96.62
414.482	75.62
414.705	70.62
414.928	84.62
415.151	82.62
415.374	96.62
415.597	81.62
415.821	103.62
416.044	98.62
416.267	84.62
416.49	76.62
416.713	89.62
416.936	93.62
417.159	89.62
417.382	103.62
417.605	93.62
417.828	117.62
418.051	102.62
418.274	93.62
418.497	93.62
418.72	97.62
418.943	90.62
419.166	87.62
419.389	105.62
419.611	89.62
419.834	88.62
420.057	87.62
420.28	91.62
420.503	84.62
420.726	85.62
420.948	103.62
421.171	101.62
421.394	89.62
421.617	84.62
421.839	92.62
422.062	95.62
422.285	87.62
422.507	109.62
422.73	103.62
422.953	99.62
423.175	87.62
423.398	92.62
423.621	91.62
423.843	87.62
424.066	71.62
424.288	104.62
424.511	101.62
424.733	107.62
424.956	127.62
425.178	121.62
425.401	124.62
425.623	104.62
425.846	84.62
426.068	113.62
426.291	90.62
426.513	91.62
426.735	83.62
426.958	111.62
427.18	142.62
427.402	206.62
427.625	313.62
427.847	314.62
428.069	278.62
428.292	146.62
428.514	94.62
428.736	88.62
428.958	88.62
429.181	93.62
429.403	82.62
429.625	91.62
429.847	103.62
430.069	112.62
430.292	95.62
430.514	86.62
430.736	92.62
430.958	84.62
431.18	95.62
431.402	83.62
431.624	99.62
431.846	92.62
432.068	79.62
432.29	96.62
432.512	101.62
432.734	85.62
432.956	88.62
433.178	108.62
433.4	119.62
433.622	101.62
433.844	76.62
434.066	83.62
434.287	84.62
434.509	90.62
434.731	68.62
434.953	70.62
435.175	104.62
435.397	82.62
435.618	95.62
435.84	120.62
436.062	146.62
436.284	146.62
436.505	125.62
436.727	124.62
436.949	90.62
437.17	86.62
437.392	86.62
437.614	97.62
437.835	136.62
438.057	178.62
438.278	154.62
438.5	137.62
438.721	170.62
438.943	114.62
439.165	89.62
439.386	96.62
439.608	81.62
439.829	123.62
440.05	174.62
440.272	211.62
440.493	132.62
440.715	92.62
440.936	88.62
441.158	91.62
441.379	92.62
441.6	97.62
441.822	97.62
442.043	111.62
442.264	132.62
442.486	110.62
442.707	100.62
442.928	125.62
443.149	193.62
443.371	196.62
443.592	141.62
443.813	154.62
444.034	128.62
444.255	100.62
444.476	83.62
444.698	95.62
444.919	88.62
445.14	135.62
445.361	142.62
445.582	169.62
445.803	239.62
446.024	220.62
446.245	194.62
446.466	157.62
446.687	88.62
446.908	104.62
447.129	91.62
447.35	85.62
447.571	104.62
447.792	98.62
448.013	119.62
448.234	136.62
448.455	111.62
448.675	140.62
448.896	169.62
449.117	135.62
449.338	129.62
449.559	155.62
449.779	168.62
450	103.62
450.221	75.62
450.442	102.62
450.662	96.62
450.883	125.62
451.104	138.62
451.324	123.62
451.545	96.62
451.766	94.62
451.986	96.62
452.207	95.62
452.428	85.62
452.648	116.62
452.869	119.62
453.089	152.62
453.31	151.62
453.53	117.62
453.751	88.62
453.971	124.62
454.192	149.62
454.412	102.62
454.633	98.62
454.853	88.62
455.073	75.62
455.294	82.62
455.514	115.62
455.734	100.62
455.955	84.62
456.175	96.62
456.395	89.62
456.616	76.62
456.836	83.62
457.056	88.62
457.276	87.62
457.497	88.62
457.717	87.62
457.937	89.62
458.157	92.62
458.377	96.62
458.598	143.62
458.818	240.62
459.038	270.62
459.258	164.62
459.478	104.62
459.698	80.62
459.918	99.62
460.138	71.62
460.358	99.62
460.578	86.62
460.798	100.62
461.018	92.62
461.238	81.62
461.458	79.62
461.678	66.62
461.898	87.62
462.118	92.62
462.338	95.62
462.558	100.62
462.777	86.62
462.997	101.62
463.217	110.62
463.437	91.62
463.657	98.62
463.876	102.62
464.096	75.62
464.316	102.62
464.536	108.62
464.755	98.62
464.975	131.62
465.195	259.62
465.414	258.62
465.634	103.62
465.854	96.62
466.073	106.62
466.293	84.62
466.512	101.62
466.732	85.62
466.951	85.62
467.171	104.62
467.391	108.62
467.61	166.62
467.829	240.62
468.049	674.62
468.268	1014.62
468.488	259.62
468.707	121.62
468.927	97.62
469.146	90.62
469.365	96.62
469.585	100.62
469.804	111.62
470.023	107.62
470.243	102.62
470.462	127.62
470.681	148.62
470.901	102.62
471.12	99.62
471.339	95.62
471.558	125.62
471.777	180.62
471.997	340.62
472.216	1322.62
472.435	3059.62
472.654	688.62
472.873	160.62
473.092	103.62
473.311	99.62
473.53	95.62
473.749	89.62
473.968	98.62
474.187	143.62
474.406	111.62
474.625	100.62
474.844	101.62
475.063	93.62
475.282	87.62
475.501	95.62
475.72	103.62
475.939	105.62
476.158	96.62
476.377	92.62
476.596	92.62
476.814	100.62
477.033	106.62
477.252	91.62
477.471	90.62
477.69	106.62
477.908	104.62
478.127	96.62
478.346	81.62
478.564	106.62
478.783	101.62
479.002	112.62
479.22	110.62
479.439	135.62
479.658	146.62
479.876	135.62
480.095	116.62
480.313	142.62
480.532	170.62
480.751	318.62
480.969	1231.62
481.188	5362.62
481.406	3014.62
481.624	414.62
481.843	155.62
482.061	125.62
482.28	119.62
482.498	99.62
482.717	86.62
482.935	96.62
483.153	90.62
483.372	93.62
483.59	85.62
483.808	79.62
484.027	95.62
484.245	98.62
484.463	96.62
484.681	86.62
484.9	98.62
485.118	99.62
485.336	96.62
485.554	103.62
485.772	98.62
485.99	102.62
486.209	105.62
486.427	112.62
486.645	114.62
486.863	150.62
487.081	105.62
487.299	102.62
487.517	94.62
487.735	92.62
487.953	87.62
488.171	87.62
488.389	93.62
488.607	101.62
488.825	99.62
489.043	95.62
489.261	85.62
489.479	87.62
489.696	89.62
489.914	91.62
490.132	86.62
490.35	77.62
490.568	79.62
490.786	92.62
491.003	86.62
491.221	96.62
491.439	103.62
491.657	88.62
491.874	84.62
492.092	87.62
492.31	87.62
492.527	87.62
492.745	97.62
492.963	100.62
493.18	77.62
493.398	92.62
493.615	108.62
493.833	101.62
494.05	77.62
494.268	93.62
494.485	94.62
494.703	84.62
494.92	82.62
495.138	93.62
495.355	83.62
495.573	103.62
495.79	80.62
496.008	80.62
496.225	93.62
496.442	93.62
496.66	83.62
496.877	82.62
497.094	86.62
497.312	91.62
497.529	89.62
497.746	85.62
497.963	76.62
498.181	92.62
498.398	89.62
498.615	135.62
498.832	118.62
499.049	103.62
499.267	96.62
499.484	87.62
499.701	75.62
499.918	88.62
500.135	87.62
500.352	99.62
500.569	103.62
500.786	106.62
501.003	88.62
501.22	86.62
501.437	91.62
501.654	103.62
501.871	118.62
502.088	103.62
502.305	85.62
502.522	84.62
502.739	87.62
502.956	102.62
503.172	87.62
503.389	104.62
503.606	123.62
503.823	105.62
504.04	102.62
504.256	88.62
504.473	93.62
504.69	100.62
504.907	94.62
505.123	90.62
505.34	91.62
505.557	91.62
505.773	92.62
505.99	83.62
506.207	93.62
506.423	96.62
506.64	102.62
506.856	101.62
507.073	103.62
507.289	96.62
507.506	111.62
507.722	135.62
507.939	139.62
508.155	109.62
508.372	101.62
508.588	79.62
508.805	93.62
509.021	104.62
509.238	112.62
509.454	89.62
509.67	107.62
509.887	116.62
510.103	146.62
510.319	258.62
510.536	968.62
510.752	3451.62
510.968	900.62
511.184	183.62
511.401	139.62
511.617	112.62
511.833	118.62
512.049	100.62
512.265	92.62
512.481	91.62
512.698	91.62
512.914	93.62
513.13	87.62
