Data from Circ_1997_H10_HRD10591_00051.txt Node
Date: Wed Jan 03 11:29:37 EST 2024
User: Yrep
Spectrometer: HR+D1059
Trigger mode: 1
Integration Time (sec): 1.000000E-1
Scans to average: 1
Electric dark correction enabled: true
Nonlinearity correction enabled: false
Boxcar width: 0
XAxis mode: Wavelengths
Number of Pixels in Spectrum: 2048
>>>>>Begin Spectral Data<<<<<
223.165	-20.19
223.4	-20.19
223.635	-20.19
223.869	-19.19
224.104	-10.19
224.338	-6.19
224.573	-22.19
224.808	-9.19
225.042	-8.19
225.277	-9.19
225.511	-1.19
225.746	-5.19
225.98	16.81
226.215	17.81
226.449	17.81
226.683	13.81
226.918	29.81
227.152	14.81
227.387	49.81
227.621	44.81
227.856	47.81
228.09	40.81
228.324	61.81
228.559	47.81
228.793	54.81
229.027	65.81
229.262	71.81
229.496	85.81
229.73	102.81
229.964	112.81
230.199	70.81
230.433	71.81
230.667	82.81
230.901	82.81
231.136	81.81
231.37	80.81
231.604	88.81
231.838	96.81
232.072	85.81
232.306	88.81
232.541	65.81
232.775	71.81
233.009	83.81
233.243	96.81
233.477	74.81
233.711	91.81
233.945	91.81
234.179	74.81
234.413	80.81
234.647	69.81
234.881	72.81
235.115	91.81
235.349	74.81
235.583	73.81
235.817	80.81
236.051	80.81
236.285	63.81
236.519	51.81
236.753	85.81
236.987	82.81
237.221	93.81
237.455	79.81
237.689	81.81
237.922	73.81
238.156	86.81
238.39	73.81
238.624	73.81
238.858	78.81
239.091	77.81
239.325	87.81
239.559	89.81
239.793	83.81
240.027	91.81
240.26	72.81
240.494	80.81
240.728	64.81
240.961	73.81
241.195	70.81
241.429	86.81
241.662	65.81
241.896	68.81
242.13	80.81
242.363	75.81
242.597	73.81
242.83	69.81
243.064	77.81
243.298	74.81
243.531	79.81
243.765	87.81
243.998	78.81
244.232	90.81
244.465	102.81
244.699	89.81
244.932	71.81
245.166	69.81
245.399	71.81
245.633	64.81
245.866	85.81
246.099	79.81
246.333	79.81
246.566	76.81
246.8	83.81
247.033	85.81
247.266	73.81
247.5	77.81
247.733	79.81
247.966	72.81
248.2	86.81
248.433	75.81
248.666	82.81
248.899	74.81
249.133	88.81
249.366	117.81
249.599	98.81
249.832	85.81
250.066	87.81
250.299	108.81
250.532	87.81
250.765	71.81
250.998	93.81
251.231	88.81
251.465	89.81
251.698	90.81
251.931	93.81
252.164	77.81
252.397	73.81
252.63	81.81
252.863	72.81
253.096	86.81
253.329	88.81
253.562	68.81
253.795	82.81
254.028	88.81
254.261	85.81
254.494	85.81
254.727	78.81
254.96	88.81
255.193	86.81
255.426	82.81
255.659	83.81
255.892	108.81
256.124	103.81
256.357	97.81
256.59	85.81
256.823	74.81
257.056	82.81
257.289	87.81
257.521	90.81
257.754	86.81
257.987	73.81
258.22	97.81
258.452	115.81
258.685	105.81
258.918	87.81
259.151	85.81
259.383	75.81
259.616	82.81
259.849	66.81
260.081	94.81
260.314	93.81
260.547	75.81
260.779	79.81
261.012	120.81
261.244	109.81
261.477	104.81
261.71	99.81
261.942	150.81
262.175	138.81
262.407	98.81
262.64	80.81
262.872	89.81
263.105	85.81
263.337	73.81
263.57	85.81
263.802	89.81
264.035	79.81
264.267	79.81
264.499	97.81
264.732	82.81
264.964	86.81
265.197	89.81
265.429	85.81
265.661	91.81
265.894	89.81
266.126	89.81
266.358	92.81
266.591	87.81
266.823	85.81
267.055	87.81
267.287	92.81
267.52	76.81
267.752	88.81
267.984	91.81
268.216	79.81
268.448	93.81
268.681	91.81
268.913	77.81
269.145	95.81
269.377	80.81
269.609	74.81
269.841	78.81
270.073	96.81
270.306	89.81
270.538	79.81
270.77	83.81
271.002	93.81
271.234	91.81
271.466	98.81
271.698	81.81
271.93	89.81
272.162	96.81
272.394	97.81
272.626	78.81
272.858	85.81
273.09	93.81
273.322	93.81
273.553	77.81
273.785	95.81
274.017	98.81
274.249	91.81
274.481	96.81
274.713	95.81
274.945	91.81
275.176	95.81
275.408	106.81
275.64	109.81
275.872	122.81
276.104	101.81
276.335	94.81
276.567	109.81
276.799	154.81
277.031	175.81
277.262	202.81
277.494	144.81
277.726	115.81
277.957	99.81
278.189	78.81
278.421	102.81
278.652	76.81
278.884	67.81
279.115	81.81
279.347	97.81
279.579	110.81
279.81	127.81
280.042	206.81
280.273	244.81
280.505	174.81
280.736	97.81
280.968	104.81
281.199	93.81
281.431	103.81
281.662	95.81
281.894	86.81
282.125	108.81
282.356	145.81
282.588	186.81
282.819	149.81
283.051	97.81
283.282	69.81
283.513	93.81
283.745	100.81
283.976	87.81
284.207	82.81
284.439	89.81
284.67	100.81
284.901	90.81
285.132	84.81
285.364	92.81
285.595	91.81
285.826	91.81
286.057	100.81
286.288	78.81
286.52	83.81
286.751	96.81
286.982	99.81
287.213	100.81
287.444	95.81
287.675	88.81
287.906	90.81
288.138	93.81
288.369	95.81
288.6	99.81
288.831	97.81
289.062	99.81
289.293	95.81
289.524	98.81
289.755	81.81
289.986	91.81
290.217	76.81
290.448	91.81
290.679	95.81
290.91	99.81
291.141	94.81
291.371	95.81
291.602	94.81
291.833	93.81
292.064	82.81
292.295	97.81
292.526	95.81
292.757	103.81
292.987	94.81
293.218	94.81
293.449	90.81
293.68	95.81
293.91	102.81
294.141	93.81
294.372	89.81
294.603	100.81
294.833	93.81
295.064	102.81
295.295	89.81
295.525	94.81
295.756	91.81
295.987	136.81
296.217	172.81
296.448	153.81
296.679	98.81
296.909	95.81
297.14	94.81
297.37	85.81
297.601	95.81
297.831	92.81
298.062	94.81
298.292	85.81
298.523	83.81
298.753	86.81
298.984	88.81
299.214	91.81
299.445	88.81
299.675	99.81
299.905	106.81
300.136	101.81
300.366	107.81
300.597	96.81
300.827	115.81
301.057	107.81
301.288	116.81
301.518	92.81
301.748	93.81
301.979	121.81
302.209	99.81
302.439	98.81
302.669	97.81
302.9	91.81
303.13	105.81
303.36	120.81
303.59	125.81
303.82	134.81
304.051	92.81
304.281	82.81
304.511	98.81
304.741	86.81
304.971	95.81
305.201	94.81
305.431	102.81
305.661	93.81
305.891	91.81
306.121	98.81
306.352	112.81
306.582	114.81
306.812	110.81
307.042	135.81
307.272	152.81
307.502	183.81
307.731	167.81
307.961	129.81
308.191	100.81
308.421	88.81
308.651	104.81
308.881	87.81
309.111	89.81
309.341	75.81
309.571	102.81
309.8	93.81
310.03	107.81
310.26	114.81
310.49	105.81
310.72	112.81
310.949	122.81
311.179	109.81
311.409	115.81
311.639	101.81
311.868	100.81
312.098	106.81
312.328	99.81
312.557	123.81
312.787	114.81
313.017	106.81
313.246	91.81
313.476	81.81
313.706	102.81
313.935	97.81
314.165	129.81
314.394	111.81
314.624	110.81
314.853	107.81
315.083	97.81
315.312	95.81
315.542	92.81
315.771	107.81
316.001	72.81
316.23	90.81
316.46	87.81
316.689	87.81
316.919	98.81
317.148	106.81
317.377	104.81
317.607	97.81
317.836	103.81
318.065	96.81
318.295	94.81
318.524	87.81
318.753	95.81
318.983	101.81
319.212	114.81
319.441	112.81
319.67	125.81
319.9	94.81
320.129	100.81
320.358	97.81
320.587	101.81
320.816	96.81
321.046	102.81
321.275	113.81
321.504	97.81
321.733	98.81
321.962	102.81
322.191	106.81
322.42	114.81
322.649	130.81
322.878	144.81
323.108	122.81
323.337	139.81
323.566	176.81
323.795	197.81
324.024	285.81
324.253	577.81
324.482	1342.81
324.71	2851.81
324.939	3856.81
325.168	1334.81
325.397	346.81
325.626	201.81
325.855	153.81
326.084	149.81
326.313	160.81
326.542	218.81
326.77	329.81
326.999	661.81
327.228	1496.81
327.457	2811.81
327.686	2213.81
327.914	693.81
328.143	574.81
328.372	690.81
328.6	393.81
328.829	201.81
329.058	179.81
329.287	204.81
329.515	182.81
329.744	267.81
329.972	533.81
330.201	1070.81
330.43	1589.81
330.658	687.81
330.887	300.81
331.115	187.81
331.344	142.81
331.572	131.81
331.801	138.81
332.03	132.81
332.258	119.81
332.486	108.81
332.715	107.81
332.943	114.81
333.172	117.81
333.4	149.81
333.629	171.81
333.857	263.81
334.085	483.81
334.314	1022.81
334.542	2037.81
334.771	1891.81
334.999	478.81
335.227	200.81
335.455	153.81
335.684	111.81
335.912	118.81
336.14	102.81
336.369	115.81
336.597	111.81
336.825	123.81
337.053	100.81
337.281	93.81
337.51	108.81
337.738	98.81
337.966	104.81
338.194	102.81
338.422	104.81
338.65	104.81
338.878	102.81
339.106	98.81
339.334	92.81
339.562	94.81
339.79	105.81
340.018	85.81
340.246	98.81
340.474	98.81
340.702	108.81
340.93	93.81
341.158	106.81
341.386	111.81
341.614	98.81
341.842	105.81
342.07	90.81
342.298	95.81
342.526	100.81
342.754	98.81
342.981	77.81
343.209	97.81
343.437	111.81
343.665	98.81
343.893	97.81
344.12	95.81
344.348	97.81
344.576	84.81
344.804	99.81
345.031	99.81
345.259	99.81
345.487	96.81
345.714	102.81
345.942	103.81
346.17	99.81
346.397	89.81
346.625	105.81
346.853	96.81
347.08	95.81
347.308	93.81
347.535	118.81
347.763	112.81
347.99	100.81
348.218	103.81
348.445	122.81
348.673	108.81
348.9	101.81
349.128	82.81
349.355	78.81
349.583	85.81
349.81	101.81
350.037	109.81
350.265	103.81
350.492	90.81
350.72	105.81
350.947	112.81
351.174	131.81
351.402	122.81
351.629	122.81
351.856	116.81
352.083	118.81
352.311	122.81
352.538	126.81
352.765	124.81
352.992	111.81
353.22	105.81
353.447	118.81
353.674	109.81
353.901	97.81
354.128	92.81
354.355	95.81
354.583	107.81
354.81	97.81
355.037	97.81
355.264	93.81
355.491	86.81
355.718	90.81
355.945	88.81
356.172	113.81
356.399	83.81
356.626	91.81
356.853	111.81
357.08	86.81
357.307	83.81
357.534	97.81
357.761	86.81
357.988	98.81
358.215	100.81
358.441	93.81
358.668	73.81
358.895	92.81
359.122	81.81
359.349	90.81
359.576	113.81
359.802	121.81
360.029	141.81
360.256	148.81
360.483	119.81
360.709	91.81
360.936	95.81
361.163	97.81
361.39	107.81
361.616	106.81
361.843	92.81
362.07	104.81
362.296	98.81
362.523	109.81
362.749	101.81
362.976	93.81
363.203	98.81
363.429	102.81
363.656	95.81
363.882	88.81
364.109	88.81
364.335	109.81
364.562	92.81
364.788	105.81
365.015	94.81
365.241	97.81
365.468	110.81
365.694	126.81
365.92	107.81
366.147	102.81
366.373	99.81
366.599	96.81
366.826	91.81
367.052	102.81
367.278	101.81
367.505	86.81
367.731	89.81
367.957	91.81
368.184	100.81
368.41	113.81
368.636	123.81
368.862	138.81
369.089	128.81
369.315	101.81
369.541	84.81
369.767	91.81
369.993	106.81
370.219	94.81
370.445	93.81
370.672	88.81
370.898	97.81
371.124	83.81
371.35	83.81
371.576	99.81
371.802	86.81
372.028	92.81
372.254	75.81
372.48	88.81
372.706	77.81
372.932	88.81
373.158	93.81
373.384	94.81
373.61	98.81
373.835	80.81
374.061	82.81
374.287	108.81
374.513	90.81
374.739	98.81
374.965	96.81
375.191	70.81
375.416	94.81
375.642	86.81
375.868	79.81
376.094	94.81
376.319	98.81
376.545	95.81
376.771	86.81
376.997	102.81
377.222	91.81
377.448	87.81
377.674	81.81
377.899	103.81
378.125	97.81
378.35	86.81
378.576	92.81
378.802	82.81
379.027	94.81
379.253	82.81
379.478	94.81
379.704	92.81
379.929	109.81
380.155	94.81
380.38	102.81
380.606	94.81
380.831	90.81
381.057	97.81
381.282	89.81
381.507	79.81
381.733	101.81
381.958	92.81
382.184	85.81
382.409	98.81
382.634	104.81
382.86	94.81
383.085	98.81
383.31	78.81
383.535	93.81
383.761	102.81
383.986	89.81
384.211	98.81
384.436	115.81
384.662	101.81
384.887	101.81
385.112	96.81
385.337	116.81
385.562	101.81
385.787	108.81
386.013	117.81
386.238	122.81
386.463	98.81
386.688	95.81
386.913	111.81
387.138	102.81
387.363	107.81
387.588	106.81
387.813	111.81
388.038	107.81
388.263	101.81
388.488	106.81
388.713	100.81
388.938	96.81
389.163	92.81
389.387	107.81
389.612	92.81
389.837	96.81
390.062	100.81
390.287	87.81
390.512	104.81
390.736	96.81
390.961	85.81
391.186	88.81
391.411	88.81
391.636	86.81
391.86	88.81
392.085	101.81
392.31	77.81
392.534	96.81
392.759	89.81
392.984	95.81
393.208	95.81
393.433	92.81
393.658	90.81
393.882	95.81
394.107	86.81
394.331	96.81
394.556	89.81
394.78	88.81
395.005	90.81
395.229	86.81
395.454	97.81
395.678	83.81
395.903	83.81
396.127	106.81
396.352	97.81
396.576	71.81
396.801	80.81
397.025	93.81
397.249	92.81
397.474	91.81
397.698	95.81
397.922	91.81
398.147	91.81
398.371	79.81
398.595	81.81
398.82	85.81
399.044	82.81
399.268	97.81
399.492	86.81
399.717	97.81
399.941	98.81
400.165	98.81
400.389	96.81
400.613	82.81
400.837	93.81
401.062	87.81
401.286	88.81
401.51	106.81
401.734	95.81
401.958	115.81
402.182	142.81
402.406	199.81
402.63	142.81
402.854	95.81
403.078	86.81
403.302	96.81
403.526	98.81
403.75	83.81
403.974	91.81
404.198	92.81
404.422	94.81
404.645	78.81
404.869	95.81
405.093	133.81
405.317	160.81
405.541	147.81
405.765	121.81
405.988	138.81
406.212	217.81
406.436	328.81
406.66	199.81
406.883	123.81
407.107	99.81
407.331	102.81
407.555	119.81
407.778	122.81
408.002	91.81
408.226	96.81
408.449	81.81
408.673	83.81
408.896	93.81
409.12	89.81
409.344	86.81
409.567	92.81
409.791	74.81
410.014	97.81
410.238	85.81
410.461	93.81
410.685	81.81
410.908	101.81
411.132	91.81
411.355	108.81
411.578	104.81
411.802	102.81
412.025	86.81
412.249	85.81
412.472	125.81
412.695	159.81
412.919	101.81
413.142	91.81
413.365	94.81
413.589	85.81
413.812	87.81
414.035	108.81
414.258	99.81
414.482	84.81
414.705	83.81
414.928	101.81
415.151	98.81
415.374	92.81
415.597	82.81
415.821	93.81
416.044	97.81
416.267	105.81
416.49	99.81
416.713	77.81
416.936	81.81
417.159	97.81
417.382	100.81
417.605	112.81
417.828	135.81
418.051	98.81
418.274	95.81
418.497	88.81
418.72	96.81
418.943	75.81
419.166	93.81
419.389	98.81
419.611	100.81
419.834	93.81
420.057	96.81
420.28	98.81
420.503	95.81
420.726	93.81
420.948	99.81
421.171	107.81
421.394	112.81
421.617	98.81
421.839	102.81
422.062	73.81
422.285	94.81
422.507	118.81
422.73	101.81
422.953	85.81
423.175	94.81
423.398	87.81
423.621	98.81
423.843	88.81
424.066	83.81
424.288	98.81
424.511	97.81
424.733	99.81
424.956	142.81
425.178	121.81
425.401	113.81
425.623	113.81
425.846	90.81
426.068	107.81
426.291	93.81
426.513	109.81
426.735	102.81
426.958	103.81
427.18	140.81
427.402	201.81
427.625	267.81
427.847	284.81
428.069	268.81
428.292	126.81
428.514	106.81
428.736	95.81
428.958	77.81
429.181	88.81
429.403	76.81
429.625	102.81
429.847	97.81
430.069	115.81
430.292	103.81
430.514	102.81
430.736	84.81
430.958	93.81
431.18	80.81
431.402	95.81
431.624	74.81
431.846	77.81
432.068	96.81
432.29	96.81
432.512	94.81
432.734	86.81
432.956	93.81
433.178	99.81
433.4	97.81
433.622	87.81
433.844	76.81
434.066	88.81
434.287	99.81
434.509	91.81
434.731	89.81
434.953	100.81
435.175	104.81
435.397	93.81
435.618	113.81
435.84	118.81
436.062	157.81
436.284	156.81
436.505	97.81
436.727	103.81
436.949	101.81
437.17	103.81
437.392	94.81
437.614	90.81
437.835	128.81
438.057	158.81
438.278	133.81
438.5	121.81
438.721	175.81
438.943	112.81
439.165	89.81
439.386	97.81
439.608	101.81
439.829	115.81
440.05	163.81
440.272	206.81
440.493	118.81
440.715	93.81
440.936	102.81
441.158	101.81
441.379	91.81
441.6	105.81
441.822	103.81
442.043	106.81
442.264	123.81
442.486	114.81
442.707	106.81
442.928	140.81
443.149	190.81
443.371	201.81
443.592	144.81
443.813	134.81
444.034	130.81
444.255	105.81
444.476	87.81
444.698	81.81
444.919	83.81
445.14	131.81
445.361	144.81
445.582	164.81
445.803	223.81
446.024	198.81
446.245	197.81
446.466	143.81
446.687	91.81
446.908	85.81
447.129	92.81
447.35	95.81
447.571	108.81
447.792	105.81
448.013	107.81
448.234	132.81
448.455	117.81
448.675	134.81
448.896	143.81
449.117	105.81
449.338	115.81
449.559	154.81
449.779	174.81
450	98.81
450.221	106.81
450.442	88.81
450.662	113.81
450.883	118.81
451.104	133.81
451.324	116.81
451.545	105.81
451.766	86.81
451.986	93.81
452.207	107.81
452.428	96.81
452.648	99.81
452.869	129.81
453.089	146.81
453.31	154.81
453.53	95.81
453.751	106.81
453.971	117.81
454.192	126.81
454.412	111.81
454.633	83.81
454.853	82.81
455.073	95.81
455.294	99.81
455.514	109.81
455.734	89.81
455.955	94.81
456.175	93.81
456.395	99.81
456.616	71.81
456.836	73.81
457.056	79.81
457.276	79.81
457.497	82.81
457.717	99.81
457.937	91.81
458.157	86.81
458.377	109.81
458.598	126.81
458.818	213.81
459.038	225.81
459.258	170.81
459.478	102.81
459.698	99.81
459.918	82.81
460.138	87.81
460.358	91.81
460.578	87.81
460.798	74.81
461.018	105.81
461.238	79.81
461.458	89.81
461.678	91.81
461.898	82.81
462.118	82.81
462.338	108.81
462.558	83.81
462.777	87.81
462.997	98.81
463.217	105.81
463.437	100.81
463.657	82.81
463.876	87.81
464.096	87.81
464.316	95.81
464.536	105.81
464.755	104.81
464.975	130.81
465.195	247.81
465.414	242.81
465.634	120.81
465.854	103.81
466.073	91.81
466.293	83.81
466.512	87.81
466.732	96.81
466.951	81.81
467.171	108.81
467.391	94.81
467.61	150.81
467.829	205.81
468.049	597.81
468.268	896.81
468.488	231.81
468.707	107.81
468.927	88.81
469.146	85.81
469.365	110.81
469.585	93.81
469.804	116.81
470.023	117.81
470.243	102.81
470.462	122.81
470.681	141.81
470.901	110.81
471.12	108.81
471.339	119.81
471.558	126.81
471.777	146.81
471.997	313.81
472.216	1183.81
472.435	2779.81
472.654	623.81
472.873	171.81
473.092	121.81
473.311	87.81
473.53	91.81
473.749	108.81
473.968	114.81
474.187	132.81
474.406	113.81
474.625	98.81
474.844	86.81
475.063	93.81
475.282	89.81
475.501	87.81
475.72	89.81
475.939	87.81
476.158	94.81
476.377	94.81
476.596	93.81
476.814	107.81
477.033	101.81
477.252	99.81
477.471	83.81
477.69	103.81
477.908	109.81
478.127	74.81
478.346	107.81
478.564	107.81
478.783	101.81
479.002	105.81
479.22	118.81
479.439	120.81
479.658	138.81
479.876	133.81
480.095	123.81
480.313	149.81
480.532	178.81
480.751	311.81
480.969	1109.81
481.188	4810.81
481.406	2652.81
481.624	385.81
481.843	140.81
482.061	107.81
482.28	100.81
482.498	99.81
482.717	95.81
482.935	88.81
483.153	83.81
483.372	91.81
483.59	87.81
483.808	88.81
484.027	99.81
484.245	106.81
484.463	101.81
484.681	86.81
484.9	102.81
485.118	81.81
485.336	92.81
485.554	98.81
485.772	100.81
485.99	112.81
486.209	106.81
486.427	118.81
486.645	111.81
486.863	121.81
487.081	129.81
487.299	89.81
487.517	92.81
487.735	93.81
487.953	95.81
488.171	107.81
488.389	99.81
488.607	105.81
488.825	91.81
489.043	88.81
489.261	86.81
489.479	80.81
489.696	91.81
489.914	107.81
490.132	88.81
490.35	89.81
490.568	87.81
490.786	88.81
491.003	94.81
491.221	84.81
491.439	70.81
491.657	98.81
491.874	88.81
492.092	89.81
492.31	94.81
492.527	109.81
492.745	98.81
492.963	102.81
493.18	97.81
493.398	97.81
493.615	106.81
493.833	95.81
494.05	94.81
494.268	81.81
494.485	97.81
494.703	79.81
494.92	86.81
495.138	97.81
495.355	100.81
495.573	108.81
495.79	111.81
496.008	91.81
496.225	89.81
496.442	87.81
496.66	84.81
496.877	81.81
497.094	91.81
497.312	78.81
497.529	94.81
497.746	106.81
497.963	86.81
498.181	86.81
498.398	98.81
498.615	119.81
498.832	103.81
499.049	91.81
499.267	85.81
499.484	105.81
499.701	89.81
499.918	86.81
500.135	92.81
500.352	107.81
500.569	85.81
500.786	89.81
501.003	96.81
501.22	83.81
501.437	102.81
501.654	104.81
501.871	137.81
502.088	104.81
502.305	91.81
502.522	88.81
502.739	83.81
502.956	88.81
503.172	79.81
503.389	102.81
503.606	138.81
503.823	104.81
504.04	82.81
504.256	95.81
504.473	95.81
504.69	85.81
504.907	87.81
505.123	77.81
505.34	94.81
505.557	89.81
505.773	103.81
505.99	85.81
506.207	100.81
506.423	90.81
506.64	96.81
506.856	88.81
507.073	98.81
507.289	94.81
507.506	103.81
507.722	137.81
507.939	134.81
508.155	87.81
508.372	94.81
508.588	100.81
508.805	95.81
509.021	98.81
509.238	89.81
509.454	110.81
509.67	119.81
509.887	117.81
510.103	134.81
510.319	238.81
510.536	953.81
510.752	3319.81
510.968	905.81
511.184	191.81
511.401	128.81
511.617	116.81
511.833	117.81
512.049	108.81
512.265	89.81
512.481	78.81
512.698	98.81
