Data from Circ_1997_H10_HRD10591_00095.txt Node
Date: Wed Jan 03 11:29:46 EST 2024
User: Yrep
Spectrometer: HR+D1059
Trigger mode: 1
Integration Time (sec): 1.000000E-1
Scans to average: 1
Electric dark correction enabled: true
Nonlinearity correction enabled: false
Boxcar width: 0
XAxis mode: Wavelengths
Number of Pixels in Spectrum: 2048
>>>>>Begin Spectral Data<<<<<
223.165	-12
223.4	-12
223.635	-12
223.869	-27
224.104	-30
224.338	-20
224.573	-8
224.808	-17
225.042	-6
225.277	-1
225.511	8
225.746	17
225.98	-5
226.215	14
226.449	13
226.683	22
226.918	19
227.152	33
227.387	26
227.621	37
227.856	47
228.09	52
228.324	50
228.559	43
228.793	169
229.027	494
229.262	558
229.496	669
229.73	866
229.964	863
230.199	585
230.433	515
230.667	511
230.901	506
231.136	469
231.37	475
231.604	478
231.838	489
232.072	495
232.306	518
232.541	513
232.775	517
233.009	529
233.243	524
233.477	524
233.711	543
233.945	547
234.179	561
234.413	571
234.647	559
234.881	548
235.115	567
235.349	589
235.583	618
235.817	671
236.051	684
236.285	670
236.519	721
236.753	762
236.987	972
237.221	1493
237.455	1589
237.689	939
237.922	786
238.156	770
238.39	734
238.624	702
238.858	727
239.091	742
239.325	756
239.559	760
239.793	776
240.027	864
240.26	981
240.494	1055
240.728	1007
240.961	987
241.195	880
241.429	879
241.662	873
241.896	847
242.13	901
242.363	913
242.597	926
242.83	954
243.064	926
243.298	969
243.531	978
243.765	968
243.998	999
244.232	979
244.465	1050
244.699	1041
244.932	1035
245.166	982
245.399	1008
245.633	1034
245.866	1067
246.099	1059
246.333	1109
246.566	1093
246.8	1091
247.033	1190
247.266	1202
247.5	1227
247.733	1292
247.966	1307
248.2	1301
248.433	1301
248.666	1440
248.899	1563
249.133	1706
249.366	1740
249.599	1692
249.832	1681
250.066	1960
250.299	2767
250.532	3692
250.765	3258
250.998	2666
251.231	2219
251.465	1909
251.698	1791
251.931	1743
252.164	1692
252.397	1723
252.63	1702
252.863	1805
253.096	1885
253.329	1950
253.562	1840
253.795	1774
254.028	1805
254.261	1907
254.494	2173
254.727	2504
254.96	2577
255.193	2391
255.426	2572
255.659	3253
255.892	5117
256.124	6758
256.357	5336
256.59	3609
256.823	2930
257.056	2553
257.289	2341
257.521	2208
257.754	2139
257.987	2040
258.22	2000
258.452	1992
258.685	1995
258.918	1925
259.151	1958
259.383	2007
259.616	1992
259.849	2045
260.081	2243
260.314	2368
260.547	2238
260.779	2167
261.012	2077
261.244	2070
261.477	2033
261.71	1995
261.942	2094
262.175	2139
262.407	2008
262.64	1897
262.872	1902
263.105	1918
263.337	1897
263.57	1961
263.802	1949
264.035	1918
264.267	1925
264.499	1902
264.732	1915
264.964	1963
265.197	1941
265.429	1952
265.661	1979
265.894	2009
266.126	2017
266.358	1998
266.591	2066
266.823	2106
267.055	2108
267.287	2131
267.52	2082
267.752	2086
267.984	2103
268.216	2122
268.448	2211
268.681	2266
268.913	2371
269.145	2537
269.377	2507
269.609	2472
269.841	2464
270.073	2622
270.306	2823
270.538	2935
270.77	2760
271.002	2669
271.234	2655
271.466	2860
271.698	3018
271.93	2908
272.162	2937
272.394	2867
272.626	2700
272.858	2597
273.09	2591
273.322	2558
273.553	2536
273.785	2558
274.017	2548
274.249	2661
274.481	2698
274.713	2696
274.945	2758
275.176	2788
275.408	2816
275.64	2843
275.872	2956
276.104	2929
276.335	3004
276.567	3093
276.799	3401
277.031	3911
277.262	4163
277.494	3794
277.726	3375
277.957	3194
278.189	3120
278.421	3047
278.652	2986
278.884	2952
279.115	3026
279.347	3053
279.579	3153
279.81	3384
280.042	3773
280.273	4219
280.505	3820
280.736	3385
280.968	3208
281.199	3119
281.431	3113
281.662	3059
281.894	2995
282.125	3080
282.356	3234
282.588	3435
282.819	3220
283.051	3019
283.282	2917
283.513	2983
283.745	3055
283.976	3058
284.207	3002
284.439	3048
284.67	3047
284.901	3025
285.132	3050
285.364	3014
285.595	3045
285.826	3083
286.057	3089
286.288	3084
286.52	3119
286.751	3161
286.982	3077
287.213	3187
287.444	3098
287.675	3245
287.906	3296
288.138	3264
288.369	3343
288.6	3317
288.831	3247
289.062	3276
289.293	3301
289.524	3200
289.755	3228
289.986	3196
290.217	3208
290.448	3195
290.679	3184
290.91	3131
291.141	3161
291.371	3136
291.602	3209
291.833	3180
292.064	3151
292.295	3151
292.526	3181
292.757	3156
292.987	3149
293.218	3154
293.449	3183
293.68	3158
293.91	3180
294.141	3149
294.372	3094
294.603	3176
294.833	3173
295.064	3164
295.295	3186
295.525	3242
295.756	3306
295.987	3364
296.217	3656
296.448	3491
296.679	3291
296.909	3262
297.14	3362
297.37	3310
297.601	3322
297.831	3351
298.062	3349
298.292	3377
298.523	3499
298.753	3485
298.984	3349
299.214	3412
299.445	3479
299.675	3497
299.905	3547
300.136	3555
300.366	3516
300.597	3586
300.827	3641
301.057	3753
301.288	3825
301.518	3703
301.748	3789
301.979	3882
302.209	3869
302.439	3824
302.669	3759
302.9	3697
303.13	3747
303.36	3826
303.59	3979
303.82	4121
304.051	3959
304.281	3793
304.511	3693
304.741	3658
304.971	3663
305.201	3587
305.431	3640
305.661	3661
305.891	3600
306.121	3695
306.352	3742
306.582	3776
306.812	3643
307.042	3901
307.272	4149
307.502	4340
307.731	4190
307.961	3938
308.191	3815
308.421	3724
308.651	3810
308.881	3777
309.111	3752
309.341	3824
309.571	3920
309.8	3998
310.03	4110
310.26	4140
310.49	4051
310.72	4293
310.949	4378
311.179	4326
311.409	4147
311.639	4166
311.868	4162
312.098	4221
312.328	4320
312.557	4529
312.787	4631
313.017	4397
313.246	4299
313.476	4245
313.706	4202
313.935	4338
314.165	4543
314.394	4473
314.624	4409
314.853	4334
315.083	4223
315.312	4141
315.542	4156
315.771	4137
316.001	4127
316.23	4135
316.46	4155
316.689	4233
316.919	4290
317.148	4276
317.377	4282
317.607	4265
317.836	4303
318.065	4233
318.295	4173
318.524	4215
318.753	4221
318.983	4217
319.212	4278
319.441	4294
319.67	4317
319.9	4267
320.129	4315
320.358	4293
320.587	4311
320.816	4481
321.046	4514
321.275	4441
321.504	4430
321.733	4439
321.962	4623
322.191	4760
322.42	4891
322.649	5002
322.878	5138
323.108	5273
323.337	5665
323.566	5833
323.795	6291
324.024	7081
324.253	9414
324.482	13652
324.71	15619
324.939	15619
325.168	14607
325.397	7933
325.626	6520
325.855	6183
326.084	6119
326.313	6139
326.542	6411
326.77	7387
326.999	9424
327.228	13413
327.457	15619
327.686	15619
327.914	12185
328.143	12562
328.372	13383
328.6	10463
328.829	8686
329.058	8851
329.287	9016
329.515	9323
329.744	11014
329.972	14075
330.201	15619
330.43	15619
330.658	14915
330.887	10951
331.115	8944
331.344	7739
331.572	7354
331.801	7461
332.03	7290
332.258	7176
332.486	7231
332.715	7418
332.943	7805
333.172	8429
333.4	9046
333.629	10157
333.857	12124
334.085	14810
334.314	15619
334.542	15619
334.771	15619
334.999	14384
335.227	10205
335.455	8608
335.684	7806
335.912	7170
336.14	6890
336.369	6705
336.597	6652
336.825	6369
337.053	5990
337.281	5893
337.51	5847
337.738	5889
337.966	5705
338.194	5726
338.422	5549
338.65	5383
338.878	5329
339.106	5260
339.334	5242
339.562	5184
339.79	5101
340.018	5102
340.246	5146
340.474	5108
340.702	5082
340.93	5002
341.158	5055
341.386	5063
341.614	5063
341.842	4993
342.07	4919
342.298	4956
342.526	4881
342.754	4793
342.981	4851
343.209	4988
343.437	5175
343.665	5416
343.893	5615
344.12	5631
344.348	5459
344.576	5312
344.804	5247
345.031	5245
345.259	5209
345.487	4991
345.714	4888
345.942	4711
346.17	4754
346.397	4709
346.625	4722
346.853	4685
347.08	4733
347.308	4767
347.535	4929
347.763	4909
347.99	4832
348.218	4864
348.445	4999
348.673	4834
348.9	4689
349.128	4606
349.355	4498
349.583	4498
349.81	4545
350.037	4522
350.265	4539
350.492	4558
350.72	4537
350.947	4623
351.174	4782
351.402	4801
351.629	4778
351.856	4747
352.083	4743
352.311	4833
352.538	4840
352.765	4810
352.992	4698
353.22	4668
353.447	4564
353.674	4527
353.901	4457
354.128	4419
354.355	4434
354.583	4480
354.81	4406
355.037	4440
355.264	4329
355.491	4311
355.718	4321
355.945	4328
356.172	4345
356.399	4336
356.626	4451
356.853	4368
357.08	4307
357.307	4399
357.534	4307
357.761	4375
357.988	4389
358.215	4362
358.441	4359
358.668	4430
358.895	4488
359.122	4472
359.349	4605
359.576	4774
359.802	5086
360.029	5372
360.256	5260
360.483	4933
360.709	4701
360.936	4615
361.163	4661
361.39	4689
361.616	4716
361.843	4655
362.07	4670
362.296	4713
362.523	4638
362.749	4704
362.976	4629
363.203	4525
363.429	4491
363.656	4517
363.882	4522
364.109	4509
364.335	4428
364.562	4471
364.788	4505
365.015	4489
365.241	4562
365.468	4529
365.694	4594
365.92	4553
366.147	4472
366.373	4482
366.599	4499
366.826	4445
367.052	4418
367.278	4411
367.505	4542
367.731	4551
367.957	4502
368.184	4538
368.41	4582
368.636	4729
368.862	4672
369.089	4594
369.315	4522
369.541	4582
369.767	4626
369.993	4625
370.219	4567
370.445	4602
370.672	4559
370.898	4602
371.124	4616
371.35	4715
371.576	4691
371.802	4582
372.028	4630
372.254	4671
372.48	4707
372.706	4793
372.932	4786
373.158	4731
373.384	4740
373.61	4685
373.835	4718
374.061	4661
374.287	4824
374.513	4809
374.739	4982
374.965	5083
375.191	5085
375.416	4922
375.642	4843
375.868	4886
376.094	4777
376.319	4708
376.545	4680
376.771	4639
376.997	4584
377.222	4645
377.448	4571
377.674	4547
377.899	4566
378.125	4540
378.35	4556
378.576	4553
378.802	4530
379.027	4567
379.253	4580
379.478	4578
379.704	4600
379.929	4584
380.155	4697
380.38	4658
380.606	4681
380.831	4572
381.057	4679
381.282	4647
381.507	4647
381.733	4756
381.958	4667
382.184	4782
382.409	4837
382.634	4854
382.86	4914
383.085	4877
383.31	4986
383.535	5065
383.761	5064
383.986	5174
384.211	5304
384.436	5365
384.662	5391
384.887	5501
385.112	5492
385.337	5488
385.562	5590
385.787	5616
386.013	5591
386.238	5723
386.463	5642
386.688	5626
386.913	5541
387.138	5517
387.363	5462
387.588	5422
387.813	5445
388.038	5408
388.263	5451
388.488	5437
388.713	5462
388.938	5531
389.163	5449
389.387	5478
389.612	5336
389.837	5444
390.062	5412
390.287	5467
390.512	5398
390.736	5416
390.961	5566
391.186	5589
391.411	5803
391.636	5969
391.86	6065
392.085	6112
392.31	6038
392.534	5913
392.759	5755
392.984	5704
393.208	5651
393.433	5695
393.658	5641
393.882	5659
394.107	5689
394.331	5753
394.556	5742
394.78	5788
395.005	5913
395.229	5865
395.454	6115
395.678	6231
395.903	6204
396.127	6251
396.352	6085
396.576	5872
396.801	5809
397.025	5981
397.249	6079
397.474	6218
397.698	6172
397.922	6369
398.147	6392
398.371	6559
398.595	6765
398.82	7032
399.044	7585
399.268	8316
399.492	9406
399.717	9986
399.941	9842
400.165	9257
400.389	8576
400.613	7817
400.837	7241
401.062	7042
401.286	7046
401.51	7056
401.734	6990
401.958	7175
402.182	7259
402.406	7368
402.63	7433
402.854	7506
403.078	7606
403.302	7739
403.526	7922
403.75	7953
403.974	8075
404.198	8125
404.422	8334
404.645	8524
404.869	8793
405.093	9509
405.317	10202
405.541	10040
405.765	8952
405.988	8435
406.212	8431
406.436	8620
406.66	8553
406.883	8438
407.107	8977
407.331	9426
407.555	10108
407.778	9549
408.002	8871
408.226	8454
408.449	8396
408.673	8240
408.896	8353
409.12	8454
409.344	7957
409.567	7658
409.791	7664
410.014	7534
410.238	7513
410.461	7577
410.685	7571
410.908	7733
411.132	8012
411.355	8039
411.578	7691
411.802	7569
412.025	7983
412.249	8608
412.472	9401
412.695	10076
412.919	9315
413.142	8749
413.365	8089
413.589	7814
413.812	7381
414.035	7342
414.258	7302
414.482	7340
414.705	7232
414.928	7129
415.151	7093
415.374	7090
415.597	6939
415.821	6927
416.044	7026
416.267	6962
416.49	6817
416.713	6699
416.936	6904
417.159	7006
417.382	7298
417.605	7518
417.828	7653
418.051	7358
418.274	7125
418.497	6957
418.72	7183
418.943	7096
419.166	7540
419.389	8054
419.611	8103
419.834	8101
420.057	8471
420.28	8962
420.503	8689
420.726	8249
420.948	8054
421.171	8102
421.394	7845
421.617	7273
421.839	7291
422.062	7320
422.285	7364
422.507	8018
422.73	8651
422.953	7858
423.175	7421
423.398	7463
423.621	7538
423.843	7751
424.066	7653
424.288	7581
424.511	7784
424.733	8319
424.956	8927
425.178	8276
425.401	8385
425.623	8291
425.846	7226
426.068	7177
426.291	7048
426.513	7080
426.735	7178
426.958	7787
427.18	8793
427.402	10253
427.625	10949
427.847	10323
428.069	10094
428.292	8283
428.514	7193
428.736	6690
428.958	6589
429.181	6395
429.403	6355
429.625	6522
429.847	6904
430.069	7435
430.292	6855
430.514	6237
430.736	6233
430.958	6094
431.18	6073
431.402	6097
431.624	6001
431.846	6193
432.068	6130
432.29	6269
432.512	6123
432.734	6223
432.956	6094
433.178	6301
433.4	6192
433.622	6170
433.844	6126
434.066	6198
434.287	6264
434.509	6528
434.731	6714
434.953	6796
435.175	6957
435.397	7045
435.618	7014
435.84	7483
436.062	8507
436.284	8373
436.505	6937
436.727	6733
436.949	6323
437.17	6171
437.392	6238
437.614	6445
437.835	6935
438.057	8040
438.278	8633
438.5	8501
438.721	9474
438.943	8078
439.165	6808
439.386	6703
439.608	6710
439.829	6843
440.05	7465
440.272	7953
440.493	6919
440.715	6570
440.936	6445
441.158	6442
441.379	6706
441.6	7064
441.822	7305
442.043	7758
442.264	8661
442.486	8266
442.707	7276
442.928	7158
443.149	7477
443.371	7765
443.592	8283
443.813	9371
444.034	9131
444.255	7906
444.476	7641
444.698	7883
444.919	8012
445.14	7813
445.361	7766
445.582	8045
445.803	9031
446.024	9691
446.245	9200
446.466	8029
446.687	6857
446.908	6459
447.129	6211
447.35	6036
447.571	6017
447.792	5886
448.013	6023
448.234	6296
448.455	7125
448.675	8485
448.896	8799
449.117	7106
449.338	7584
449.559	9052
449.779	9212
450	6830
450.221	6142
450.442	5995
450.662	5920
450.883	6106
451.104	6276
451.324	6016
451.545	5692
451.766	5617
451.986	5485
452.207	5420
452.428	5355
452.648	5504
452.869	5605
453.089	5630
453.31	5659
453.53	5376
453.751	5429
453.971	5579
454.192	5748
454.412	5426
454.633	5367
454.853	5330
455.073	5294
455.294	5879
455.514	6465
455.734	5774
455.955	5144
456.175	5081
456.395	4992
456.616	5027
456.836	5081
457.056	5040
457.276	5002
457.497	5215
457.717	5107
457.937	5239
458.157	5320
458.377	5493
458.598	5955
458.818	6896
459.038	7699
459.258	7418
459.478	6458
459.698	6288
459.918	6352
460.138	6485
460.358	6722
460.578	6713
460.798	6785
461.018	6785
461.238	6697
461.458	6703
461.678	6703
461.898	6805
462.118	6797
462.338	7196
462.558	7309
462.777	7543
462.997	8154
463.217	8688
463.437	8345
463.657	7753
463.876	7668
464.096	7728
464.316	7670
464.536	7794
464.755	7539
464.975	7537
465.195	8101
465.414	8242
465.634	7032
465.854	6534
466.073	6283
466.293	6007
466.512	5858
466.732	5789
466.951	5837
467.171	5905
467.391	6010
467.61	6374
467.829	6927
468.049	9088
468.268	11295
468.488	8017
468.707	6696
468.927	6285
469.146	6044
469.365	5983
469.585	5940
469.804	6215
470.023	6329
470.243	6293
470.462	6394
470.681	6588
470.901	6458
471.12	6264
471.339	6394
471.558	6584
471.777	6803
471.997	7919
472.216	13000
472.435	15619
472.654	14305
472.873	9285
473.092	7871
473.311	7225
473.53	6874
473.749	6699
473.968	7253
474.187	8353
474.406	7513
474.625	6377
474.844	6182
475.063	5937
475.282	5922
475.501	6099
475.72	6017
475.939	6045
476.158	6059
476.377	6085
476.596	5984
476.814	6281
477.033	6330
477.252	6359
477.471	6405
477.69	6589
477.908	6655
478.127	6796
478.346	6926
478.564	6899
478.783	7124
479.002	7303
479.22	7465
479.439	7569
479.658	7805
479.876	7996
480.095	8263
480.313	8952
480.532	9271
480.751	10465
480.969	14480
481.188	15619
481.406	15619
481.624	15206
481.843	12003
482.061	10376
482.28	9379
482.498	8810
482.717	8263
482.935	8031
483.153	7800
483.372	7684
483.59	7523
483.808	7391
484.027	7306
484.245	7352
484.463	7253
484.681	7391
484.9	7392
485.118	7336
485.336	7407
485.554	7393
485.772	7434
485.99	7487
486.209	7517
486.427	7531
486.645	7633
486.863	7817
487.081	7690
487.299	7643
487.517	7584
487.735	7619
487.953	7594
488.171	7624
488.389	7704
488.607	7691
488.825	7683
489.043	7830
489.261	7906
489.479	7966
489.696	8162
489.914	8311
490.132	8445
490.35	8632
490.568	8979
490.786	9290
491.003	9667
491.221	10419
491.439	11096
491.657	11161
491.874	11105
492.092	11304
492.31	11490
492.527	12110
492.745	12482
492.963	12260
493.18	11883
493.398	11576
493.615	11378
493.833	10919
494.05	10677
494.268	10413
494.485	10238
494.703	10037
494.92	9992
495.138	9851
495.355	9683
495.573	9614
495.79	9558
496.008	9426
496.225	9365
496.442	9253
496.66	9274
496.877	9227
497.094	9225
497.312	9280
497.529	9489
497.746	9668
497.963	9787
498.181	10250
498.398	10379
498.615	10773
498.832	11258
499.049	11697
499.267	12202
499.484	12861
499.701	13502
499.918	14138
500.135	14810
500.352	15373
500.569	15619
500.786	15619
501.003	15266
501.22	14623
501.437	14003
501.654	13257
501.871	12708
502.088	11867
502.305	11237
502.522	10657
502.739	10215
502.956	9774
503.172	9440
503.389	9261
503.606	9216
503.823	9017
504.04	8953
504.256	8927
504.473	9088
504.69	8995
504.907	8776
505.123	8463
505.34	8128
505.557	8042
505.773	7903
505.99	7793
506.207	7736
506.423	7692
506.64	7533
506.856	7396
507.073	7415
507.289	7290
507.506	7270
507.722	7507
507.939	7605
508.155	7102
508.372	6960
508.588	6840
508.805	7000
509.021	7076
509.238	7282
509.454	7190
509.67	6977
509.887	6887
510.103	6914
510.319	7161
510.536	8873
510.752	13518
510.968	8780
511.184	7082
511.401	7137
511.617	7743
511.833	8951
512.049	8993
512.265	8115
512.481	7606
512.698	7294
512.914	7084
513.13	6844
513.346	6783
513.562	6805
513.778	6745
513.994	6726
514.21	7057
514.426	7211
514.642	7666
514.858	7805
515.074	8435
515.29	10512
515.506	13968
515.721	10025
515.937	7977
516.153	7565
516.369	7413
516.585	7469
516.801	7623
517.016	7626
517.232	7973
517.448	8101
517.664	8235
517.879	8159
518.095	8085
518.311	8056
518.527	7818
518.742	7532
518.958	7323
519.173	7118
519.389	7040
519.605	6828
519.82	6806
520.036	7013
520.251	7208
520.467	7295
520.682	7113
520.898	7176
521.113	7430
521.329	7893
521.544	8976
521.76	12115
521.975	15619
522.19	14490
522.406	8433
522.621	7034
522.836	6537
523.052	6289
523.267	6010
523.482	5877
523.698	5850
523.913	5948
524.128	5802
524.343	5746
524.559	5581
524.774	5530
524.989	5562
525.204	5658
525.419	5630
525.634	5484
525.849	5489
526.064	5362
526.28	5312
526.495	5282
526.71	5265
526.925	5223
527.14	5209
527.355	5217
527.57	5239
527.785	5184
527.999	5197
528.214	5207
528.429	5243
528.644	5242
528.859	5244
529.074	5179
529.289	5670
529.503	6658
529.718	5978
529.933	5534
530.148	5328
530.363	5318
530.577	5186
530.792	5174
531.007	5186
531.221	5216
531.436	5153
531.651	5173
531.865	5200
532.08	5189
532.295	5082
532.509	5125
532.724	5081
532.938	5087
533.153	5107
533.367	5136
533.582	5088
533.796	5006
534.011	5105
534.225	5054
534.44	5045
534.654	5066
534.868	4985
535.083	4985
535.297	4969
535.511	5028
535.726	5110
535.94	5051
536.154	5024
536.369	4777
536.583	4778
536.797	4838
537.011	4751
537.225	4700
537.44	4745
537.654	4771
537.868	4725
538.082	4809
538.296	4835
538.51	4718
538.724	4728
538.938	4701
539.153	4686
539.367	4770
539.581	4795
539.795	4711
540.009	4670
540.222	4640
540.436	4677
540.65	4713
540.864	4707
