Data from Circ_1997_H10_HRD10591_00086.txt Node
Date: Wed Jan 03 11:29:44 EST 2024
User: Yrep
Spectrometer: HR+D1059
Trigger mode: 1
Integration Time (sec): 1.000000E-1
Scans to average: 1
Electric dark correction enabled: true
Nonlinearity correction enabled: false
Boxcar width: 0
XAxis mode: Wavelengths
Number of Pixels in Spectrum: 2048
>>>>>Begin Spectral Data<<<<<
223.165	-21.44
223.4	-21.44
223.635	-21.44
223.869	-15.44
224.104	-16.44
224.338	-15.44
224.573	0.56
224.808	-12.44
225.042	-15.44
225.277	-14.44
225.511	-5.44
225.746	0.56
225.98	3.56
226.215	13.56
226.449	12.56
226.683	27.56
226.918	26.56
227.152	31.56
227.387	45.56
227.621	40.56
227.856	45.56
228.09	59.56
228.324	45.56
228.559	60.56
228.793	64.56
229.027	73.56
229.262	74.56
229.496	81.56
229.73	100.56
229.964	98.56
230.199	84.56
230.433	80.56
230.667	91.56
230.901	71.56
231.136	82.56
231.37	83.56
231.604	85.56
231.838	74.56
232.072	82.56
232.306	100.56
232.541	74.56
232.775	77.56
233.009	86.56
233.243	77.56
233.477	75.56
233.711	83.56
233.945	89.56
234.179	79.56
234.413	75.56
234.647	78.56
234.881	68.56
235.115	76.56
235.349	65.56
235.583	81.56
235.817	89.56
236.051	92.56
236.285	90.56
236.519	83.56
236.753	77.56
236.987	80.56
237.221	84.56
237.455	89.56
237.689	81.56
237.922	87.56
238.156	81.56
238.39	79.56
238.624	71.56
238.858	69.56
239.091	72.56
239.325	67.56
239.559	84.56
239.793	65.56
240.027	79.56
240.26	79.56
240.494	84.56
240.728	75.56
240.961	88.56
241.195	69.56
241.429	73.56
241.662	81.56
241.896	66.56
242.13	65.56
242.363	81.56
242.597	82.56
242.83	84.56
243.064	88.56
243.298	81.56
243.531	87.56
243.765	73.56
243.998	74.56
244.232	92.56
244.465	98.56
244.699	77.56
244.932	80.56
245.166	76.56
245.399	85.56
245.633	82.56
245.866	74.56
246.099	76.56
246.333	80.56
246.566	85.56
246.8	68.56
247.033	77.56
247.266	87.56
247.5	89.56
247.733	81.56
247.966	93.56
248.2	83.56
248.433	85.56
248.666	83.56
248.899	97.56
249.133	93.56
249.366	111.56
249.599	116.56
249.832	73.56
250.066	81.56
250.299	88.56
250.532	97.56
250.765	81.56
250.998	78.56
251.231	78.56
251.465	75.56
251.698	86.56
251.931	89.56
252.164	83.56
252.397	81.56
252.63	79.56
252.863	86.56
253.096	95.56
253.329	71.56
253.562	77.56
253.795	81.56
254.028	77.56
254.261	84.56
254.494	93.56
254.727	95.56
254.96	77.56
255.193	81.56
255.426	97.56
255.659	76.56
255.892	87.56
256.124	92.56
256.357	88.56
256.59	92.56
256.823	82.56
257.056	83.56
257.289	81.56
257.521	97.56
257.754	98.56
257.987	88.56
258.22	100.56
258.452	100.56
258.685	93.56
258.918	89.56
259.151	85.56
259.383	100.56
259.616	92.56
259.849	95.56
260.081	92.56
260.314	81.56
260.547	83.56
260.779	108.56
261.012	125.56
261.244	116.56
261.477	124.56
261.71	100.56
261.942	128.56
262.175	149.56
262.407	98.56
262.64	92.56
262.872	84.56
263.105	79.56
263.337	93.56
263.57	85.56
263.802	79.56
264.035	75.56
264.267	92.56
264.499	90.56
264.732	81.56
264.964	68.56
265.197	93.56
265.429	83.56
265.661	99.56
265.894	82.56
266.126	91.56
266.358	87.56
266.591	77.56
266.823	88.56
267.055	81.56
267.287	67.56
267.52	89.56
267.752	81.56
267.984	82.56
268.216	87.56
268.448	95.56
268.681	100.56
268.913	87.56
269.145	97.56
269.377	95.56
269.609	81.56
269.841	74.56
270.073	90.56
270.306	73.56
270.538	109.56
270.77	80.56
271.002	107.56
271.234	90.56
271.466	91.56
271.698	96.56
271.93	90.56
272.162	84.56
272.394	93.56
272.626	95.56
272.858	92.56
273.09	98.56
273.322	89.56
273.553	87.56
273.785	82.56
274.017	73.56
274.249	84.56
274.481	86.56
274.713	99.56
274.945	99.56
275.176	105.56
275.408	93.56
275.64	101.56
275.872	131.56
276.104	130.56
276.335	121.56
276.567	120.56
276.799	161.56
277.031	192.56
277.262	228.56
277.494	181.56
277.726	124.56
277.957	78.56
278.189	92.56
278.421	89.56
278.652	95.56
278.884	98.56
279.115	91.56
279.347	111.56
279.579	105.56
279.81	161.56
280.042	228.56
280.273	303.56
280.505	199.56
280.736	115.56
280.968	97.56
281.199	97.56
281.431	89.56
281.662	93.56
281.894	102.56
282.125	97.56
282.356	144.56
282.588	187.56
282.819	134.56
283.051	95.56
283.282	85.56
283.513	104.56
283.745	81.56
283.976	91.56
284.207	96.56
284.439	99.56
284.67	97.56
284.901	94.56
285.132	95.56
285.364	87.56
285.595	105.56
285.826	94.56
286.057	99.56
286.288	86.56
286.52	93.56
286.751	76.56
286.982	91.56
287.213	79.56
287.444	86.56
287.675	90.56
287.906	97.56
288.138	96.56
288.369	101.56
288.6	90.56
288.831	87.56
289.062	95.56
289.293	93.56
289.524	94.56
289.755	86.56
289.986	74.56
290.217	89.56
290.448	92.56
290.679	104.56
290.91	89.56
291.141	115.56
291.371	98.56
291.602	91.56
291.833	79.56
292.064	86.56
292.295	83.56
292.526	101.56
292.757	101.56
292.987	91.56
293.218	78.56
293.449	81.56
293.68	81.56
293.91	91.56
294.141	100.56
294.372	103.56
294.603	90.56
294.833	81.56
295.064	91.56
295.295	98.56
295.525	95.56
295.756	107.56
295.987	129.56
296.217	165.56
296.448	151.56
296.679	79.56
296.909	85.56
297.14	95.56
297.37	99.56
297.601	101.56
297.831	101.56
298.062	98.56
298.292	81.56
298.523	98.56
298.753	101.56
298.984	96.56
299.214	96.56
299.445	89.56
299.675	101.56
299.905	98.56
300.136	90.56
300.366	102.56
300.597	99.56
300.827	106.56
301.057	113.56
301.288	123.56
301.518	111.56
301.748	97.56
301.979	108.56
302.209	100.56
302.439	96.56
302.669	90.56
302.9	93.56
303.13	123.56
303.36	129.56
303.59	154.56
303.82	175.56
304.051	101.56
304.281	106.56
304.511	92.56
304.741	88.56
304.971	96.56
305.201	92.56
305.431	98.56
305.661	101.56
305.891	105.56
306.121	117.56
306.352	108.56
306.582	115.56
306.812	101.56
307.042	143.56
307.272	199.56
307.502	212.56
307.731	182.56
307.961	149.56
308.191	107.56
308.421	78.56
308.651	101.56
308.881	89.56
309.111	98.56
309.341	95.56
309.571	115.56
309.8	99.56
310.03	99.56
310.26	121.56
310.49	105.56
310.72	119.56
310.949	119.56
311.179	113.56
311.409	106.56
311.639	100.56
311.868	115.56
312.098	110.56
312.328	101.56
312.557	124.56
312.787	131.56
313.017	122.56
313.246	108.56
313.476	101.56
313.706	98.56
313.935	102.56
314.165	122.56
314.394	120.56
314.624	102.56
314.853	101.56
315.083	95.56
315.312	100.56
315.542	86.56
315.771	93.56
316.001	97.56
316.23	103.56
316.46	100.56
316.689	99.56
316.919	105.56
317.148	85.56
317.377	103.56
317.607	104.56
317.836	123.56
318.065	95.56
318.295	99.56
318.524	99.56
318.753	95.56
318.983	94.56
319.212	101.56
319.441	116.56
319.67	127.56
319.9	102.56
320.129	99.56
320.358	102.56
320.587	95.56
320.816	115.56
321.046	122.56
321.275	105.56
321.504	107.56
321.733	83.56
321.962	97.56
322.191	98.56
322.42	115.56
322.649	147.56
322.878	130.56
323.108	140.56
323.337	160.56
323.566	173.56
323.795	197.56
324.024	276.56
324.253	498.56
324.482	1107.56
324.71	2341.56
324.939	3104.56
325.168	1108.56
325.397	301.56
325.626	188.56
325.855	147.56
326.084	141.56
326.313	151.56
326.542	183.56
326.77	289.56
326.999	551.56
327.228	1180.56
327.457	2178.56
327.686	1756.56
327.914	645.56
328.143	672.56
328.372	866.56
328.6	450.56
328.829	217.56
329.058	224.56
329.287	214.56
329.515	220.56
329.744	308.56
329.972	643.56
330.201	1324.56
330.43	1929.56
330.658	807.56
330.887	349.56
331.115	218.56
331.344	135.56
331.572	135.56
331.801	139.56
332.03	145.56
332.258	119.56
332.486	114.56
332.715	105.56
332.943	127.56
333.172	133.56
333.4	155.56
333.629	183.56
333.857	273.56
334.085	561.56
334.314	1249.56
334.542	2396.56
334.771	2260.56
334.999	543.56
335.227	209.56
335.455	132.56
335.684	127.56
335.912	135.56
336.14	127.56
336.369	119.56
336.597	112.56
336.825	98.56
337.053	96.56
337.281	105.56
337.51	97.56
337.738	107.56
337.966	103.56
338.194	108.56
338.422	131.56
338.65	95.56
338.878	112.56
339.106	95.56
339.334	92.56
339.562	98.56
339.79	106.56
340.018	107.56
340.246	97.56
340.474	97.56
340.702	104.56
340.93	103.56
341.158	108.56
341.386	108.56
341.614	112.56
341.842	87.56
342.07	111.56
342.298	106.56
342.526	95.56
342.754	104.56
342.981	92.56
343.209	91.56
343.437	95.56
343.665	109.56
343.893	93.56
344.12	104.56
344.348	104.56
344.576	91.56
344.804	107.56
345.031	99.56
345.259	113.56
345.487	103.56
345.714	108.56
345.942	111.56
346.17	103.56
346.397	98.56
346.625	113.56
346.853	94.56
347.08	87.56
347.308	109.56
347.535	120.56
347.763	110.56
347.99	120.56
348.218	113.56
348.445	120.56
348.673	130.56
348.9	112.56
349.128	105.56
349.355	86.56
349.583	96.56
349.81	100.56
350.037	115.56
350.265	113.56
350.492	109.56
350.72	96.56
350.947	99.56
351.174	123.56
351.402	126.56
351.629	121.56
351.856	103.56
352.083	111.56
352.311	104.56
352.538	140.56
352.765	126.56
352.992	140.56
353.22	123.56
353.447	111.56
353.674	106.56
353.901	96.56
354.128	110.56
354.355	106.56
354.583	99.56
354.81	106.56
355.037	103.56
355.264	98.56
355.491	97.56
355.718	84.56
355.945	100.56
356.172	110.56
356.399	79.56
356.626	91.56
356.853	100.56
357.08	100.56
357.307	103.56
357.534	92.56
357.761	98.56
357.988	88.56
358.215	86.56
358.441	84.56
358.668	92.56
358.895	96.56
359.122	85.56
359.349	83.56
359.576	96.56
359.802	100.56
360.029	138.56
360.256	161.56
360.483	128.56
360.709	91.56
360.936	99.56
361.163	93.56
361.39	88.56
361.616	110.56
361.843	104.56
362.07	115.56
362.296	103.56
362.523	108.56
362.749	98.56
362.976	103.56
363.203	103.56
363.429	95.56
363.656	98.56
363.882	93.56
364.109	90.56
364.335	106.56
364.562	94.56
364.788	104.56
365.015	105.56
365.241	115.56
365.468	109.56
365.694	145.56
365.92	107.56
366.147	104.56
366.373	104.56
366.599	92.56
366.826	93.56
367.052	95.56
367.278	99.56
367.505	98.56
367.731	101.56
367.957	92.56
368.184	99.56
368.41	101.56
368.636	130.56
368.862	140.56
369.089	139.56
369.315	99.56
369.541	105.56
369.767	114.56
369.993	84.56
370.219	100.56
370.445	83.56
370.672	90.56
370.898	94.56
371.124	101.56
371.35	92.56
371.576	84.56
371.802	81.56
372.028	85.56
372.254	83.56
372.48	96.56
372.706	104.56
372.932	86.56
373.158	85.56
373.384	97.56
373.61	84.56
373.835	105.56
374.061	103.56
374.287	93.56
374.513	100.56
374.739	84.56
374.965	90.56
375.191	89.56
375.416	95.56
375.642	92.56
375.868	89.56
376.094	96.56
376.319	79.56
376.545	104.56
376.771	99.56
376.997	107.56
377.222	100.56
377.448	99.56
377.674	93.56
377.899	83.56
378.125	81.56
378.35	82.56
378.576	99.56
378.802	83.56
379.027	92.56
379.253	101.56
379.478	105.56
379.704	100.56
379.929	98.56
380.155	96.56
380.38	108.56
380.606	99.56
380.831	91.56
381.057	114.56
381.282	97.56
381.507	96.56
381.733	91.56
381.958	106.56
382.184	102.56
382.409	99.56
382.634	105.56
382.86	95.56
383.085	101.56
383.31	95.56
383.535	107.56
383.761	102.56
383.986	92.56
384.211	94.56
384.436	96.56
384.662	108.56
384.887	97.56
385.112	94.56
385.337	98.56
385.562	112.56
385.787	98.56
386.013	113.56
386.238	123.56
386.463	106.56
386.688	104.56
386.913	103.56
387.138	94.56
387.363	91.56
387.588	108.56
387.813	105.56
388.038	99.56
388.263	103.56
388.488	111.56
388.713	106.56
388.938	98.56
389.163	95.56
389.387	90.56
389.612	90.56
389.837	93.56
390.062	102.56
390.287	76.56
390.512	83.56
390.736	93.56
390.961	86.56
391.186	90.56
391.411	101.56
391.636	101.56
391.86	91.56
392.085	90.56
392.31	105.56
392.534	82.56
392.759	91.56
392.984	94.56
393.208	75.56
393.433	90.56
393.658	95.56
393.882	88.56
394.107	100.56
394.331	83.56
394.556	74.56
394.78	96.56
395.005	88.56
395.229	93.56
395.454	95.56
395.678	93.56
395.903	95.56
396.127	99.56
396.352	85.56
396.576	87.56
396.801	92.56
397.025	87.56
397.249	93.56
397.474	98.56
397.698	84.56
397.922	94.56
398.147	82.56
398.371	83.56
398.595	108.56
398.82	88.56
399.044	84.56
399.268	85.56
399.492	98.56
399.717	93.56
399.941	99.56
400.165	115.56
400.389	101.56
400.613	81.56
400.837	89.56
401.062	98.56
401.286	100.56
401.51	98.56
401.734	74.56
401.958	113.56
402.182	154.56
402.406	217.56
402.63	155.56
402.854	116.56
403.078	101.56
403.302	93.56
403.526	93.56
403.75	92.56
403.974	89.56
404.198	92.56
404.422	96.56
404.645	104.56
404.869	106.56
405.093	135.56
405.317	155.56
405.541	152.56
405.765	127.56
405.988	152.56
406.212	239.56
406.436	383.56
406.66	228.56
406.883	129.56
407.107	106.56
407.331	114.56
407.555	138.56
407.778	114.56
408.002	98.56
408.226	94.56
408.449	100.56
408.673	98.56
408.896	91.56
409.12	96.56
409.344	104.56
409.567	99.56
409.791	95.56
410.014	92.56
410.238	108.56
410.461	91.56
410.685	98.56
410.908	105.56
411.132	93.56
411.355	114.56
411.578	98.56
411.802	92.56
412.025	105.56
412.249	110.56
412.472	131.56
412.695	146.56
412.919	103.56
413.142	96.56
413.365	91.56
413.589	96.56
413.812	100.56
414.035	94.56
414.258	102.56
414.482	101.56
414.705	105.56
414.928	101.56
415.151	90.56
415.374	84.56
415.597	88.56
415.821	88.56
416.044	90.56
416.267	93.56
416.49	82.56
416.713	89.56
416.936	100.56
417.159	103.56
417.382	103.56
417.605	118.56
417.828	123.56
418.051	104.56
418.274	106.56
418.497	93.56
418.72	83.56
418.943	96.56
419.166	92.56
419.389	95.56
419.611	96.56
419.834	98.56
420.057	109.56
420.28	98.56
420.503	103.56
420.726	90.56
420.948	101.56
421.171	95.56
421.394	100.56
421.617	95.56
421.839	96.56
422.062	81.56
422.285	88.56
422.507	103.56
422.73	112.56
422.953	94.56
423.175	103.56
423.398	87.56
423.621	89.56
423.843	92.56
424.066	104.56
424.288	84.56
424.511	99.56
424.733	100.56
424.956	117.56
425.178	108.56
425.401	110.56
425.623	112.56
425.846	99.56
426.068	99.56
426.291	110.56
426.513	97.56
426.735	102.56
426.958	99.56
427.18	138.56
427.402	196.56
427.625	303.56
427.847	260.56
428.069	259.56
428.292	129.56
428.514	111.56
428.736	87.56
428.958	94.56
429.181	89.56
429.403	96.56
429.625	103.56
429.847	93.56
430.069	109.56
430.292	96.56
430.514	88.56
430.736	93.56
430.958	87.56
431.18	83.56
431.402	100.56
431.624	93.56
431.846	101.56
432.068	85.56
432.29	83.56
432.512	95.56
432.734	93.56
432.956	99.56
433.178	108.56
433.4	119.56
433.622	84.56
433.844	113.56
434.066	97.56
434.287	84.56
434.509	98.56
434.731	96.56
434.953	100.56
435.175	88.56
435.397	84.56
435.618	104.56
435.84	95.56
436.062	149.56
436.284	124.56
436.505	95.56
436.727	102.56
436.949	107.56
437.17	104.56
437.392	107.56
437.614	96.56
437.835	141.56
438.057	177.56
438.278	123.56
438.5	120.56
438.721	153.56
438.943	126.56
439.165	85.56
439.386	88.56
439.608	99.56
439.829	100.56
440.05	160.56
440.272	215.56
440.493	128.56
440.715	99.56
440.936	101.56
441.158	110.56
441.379	96.56
441.6	112.56
441.822	102.56
442.043	111.56
442.264	130.56
442.486	137.56
442.707	113.56
442.928	135.56
443.149	179.56
443.371	213.56
443.592	145.56
443.813	128.56
444.034	128.56
444.255	91.56
444.476	92.56
444.698	99.56
444.919	107.56
445.14	138.56
445.361	143.56
445.582	138.56
445.803	207.56
446.024	176.56
446.245	188.56
446.466	123.56
446.687	106.56
446.908	96.56
447.129	97.56
447.35	105.56
447.571	102.56
447.792	90.56
448.013	111.56
448.234	112.56
448.455	108.56
448.675	131.56
448.896	124.56
449.117	105.56
449.338	110.56
449.559	168.56
449.779	146.56
450	107.56
450.221	100.56
450.442	85.56
450.662	115.56
450.883	140.56
451.104	155.56
451.324	129.56
451.545	87.56
451.766	92.56
451.986	85.56
452.207	102.56
452.428	103.56
452.648	105.56
452.869	129.56
453.089	141.56
453.31	132.56
453.53	106.56
453.751	95.56
453.971	121.56
454.192	136.56
454.412	108.56
454.633	95.56
454.853	96.56
455.073	95.56
455.294	107.56
455.514	107.56
455.734	111.56
455.955	91.56
456.175	90.56
456.395	84.56
456.616	92.56
456.836	91.56
457.056	100.56
457.276	86.56
457.497	97.56
457.717	97.56
457.937	88.56
458.157	85.56
458.377	111.56
458.598	119.56
458.818	243.56
459.038	275.56
459.258	162.56
459.478	125.56
459.698	90.56
459.918	87.56
460.138	92.56
460.358	87.56
460.578	94.56
460.798	107.56
461.018	108.56
461.238	91.56
461.458	91.56
461.678	83.56
461.898	85.56
462.118	97.56
462.338	95.56
462.558	89.56
462.777	96.56
462.997	104.56
463.217	130.56
463.437	104.56
463.657	83.56
463.876	79.56
464.096	96.56
464.316	113.56
464.536	91.56
464.755	113.56
464.975	140.56
465.195	267.56
465.414	242.56
465.634	111.56
465.854	81.56
466.073	115.56
466.293	100.56
466.512	106.56
466.732	93.56
466.951	98.56
467.171	115.56
467.391	119.56
467.61	169.56
467.829	254.56
468.049	766.56
468.268	1123.56
468.488	270.56
468.707	127.56
468.927	103.56
469.146	94.56
469.365	96.56
469.585	96.56
469.804	110.56
470.023	104.56
470.243	120.56
470.462	132.56
470.681	158.56
470.901	109.56
471.12	113.56
471.339	121.56
471.558	135.56
471.777	174.56
471.997	372.56
472.216	1559.56
472.435	3458.56
472.654	747.56
472.873	193.56
473.092	119.56
473.311	101.56
473.53	111.56
473.749	89.56
473.968	121.56
474.187	137.56
474.406	121.56
474.625	89.56
474.844	97.56
475.063	104.56
475.282	91.56
475.501	81.56
475.72	107.56
475.939	100.56
476.158	100.56
476.377	99.56
476.596	87.56
476.814	115.56
477.033	111.56
477.252	108.56
477.471	87.56
477.69	104.56
477.908	103.56
478.127	91.56
478.346	91.56
478.564	104.56
478.783	101.56
479.002	109.56
479.22	121.56
479.439	131.56
479.658	142.56
479.876	139.56
480.095	144.56
480.313	151.56
480.532	204.56
480.751	338.56
480.969	1378.56
481.188	5980.56
481.406	3276.56
481.624	452.56
481.843	156.56
482.061	126.56
482.28	111.56
482.498	119.56
482.717	104.56
482.935	99.56
483.153	103.56
483.372	86.56
483.59	103.56
483.808	83.56
484.027	97.56
484.245	97.56
484.463	99.56
484.681	119.56
484.9	104.56
485.118	106.56
485.336	102.56
485.554	105.56
485.772	103.56
485.99	106.56
486.209	110.56
486.427	115.56
486.645	105.56
486.863	137.56
487.081	97.56
487.299	99.56
487.517	108.56
487.735	93.56
487.953	108.56
488.171	98.56
488.389	101.56
488.607	100.56
488.825	101.56
489.043	83.56
489.261	101.56
489.479	85.56
489.696	100.56
489.914	110.56
490.132	98.56
490.35	65.56
490.568	95.56
490.786	97.56
491.003	90.56
491.221	95.56
491.439	95.56
491.657	99.56
491.874	98.56
492.092	84.56
492.31	92.56
492.527	105.56
492.745	98.56
492.963	94.56
493.18	106.56
493.398	75.56
493.615	114.56
493.833	104.56
494.05	93.56
494.268	95.56
494.485	94.56
494.703	97.56
494.92	89.56
495.138	77.56
495.355	97.56
495.573	107.56
495.79	97.56
496.008	107.56
496.225	115.56
496.442	98.56
496.66	101.56
496.877	96.56
497.094	96.56
497.312	100.56
497.529	85.56
497.746	98.56
497.963	103.56
498.181	90.56
498.398	101.56
498.615	125.56
498.832	106.56
499.049	97.56
499.267	95.56
499.484	101.56
499.701	99.56
499.918	109.56
500.135	106.56
500.352	86.56
500.569	98.56
500.786	98.56
501.003	88.56
501.22	84.56
501.437	97.56
501.654	110.56
501.871	125.56
502.088	100.56
502.305	99.56
502.522	81.56
502.739	94.56
502.956	98.56
503.172	106.56
503.389	103.56
503.606	117.56
503.823	100.56
504.04	104.56
504.256	95.56
504.473	92.56
504.69	109.56
504.907	100.56
505.123	109.56
505.34	94.56
505.557	90.56
505.773	85.56
505.99	96.56
506.207	87.56
506.423	101.56
506.64	95.56
506.856	93.56
507.073	102.56
507.289	106.56
507.506	105.56
507.722	143.56
507.939	139.56
508.155	103.56
508.372	104.56
508.588	113.56
508.805	112.56
509.021	100.56
509.238	118.56
509.454	96.56
509.67	112.56
509.887	127.56
510.103	154.56
510.319	261.56
510.536	1055.56
510.752	3859.56
510.968	998.56
511.184	200.56
