Data from Circ_1997_H10_HRD10591_00092.txt Node
Date: Wed Jan 03 11:29:46 EST 2024
User: Yrep
Spectrometer: HR+D1059
Trigger mode: 1
Integration Time (sec): 1.000000E-1
Scans to average: 1
Electric dark correction enabled: true
Nonlinearity correction enabled: false
Boxcar width: 0
XAxis mode: Wavelengths
Number of Pixels in Spectrum: 2048
>>>>>Begin Spectral Data<<<<<
223.165	-28.44
223.4	-28.44
223.635	-28.44
223.869	-15.44
224.104	-19.44
224.338	-7.44
224.573	-24.44
224.808	-18.44
225.042	-5.44
225.277	-9.44
225.511	-3.44
225.746	-2.44
225.98	15.56
226.215	17.56
226.449	4.56
226.683	26.56
226.918	31.56
227.152	38.56
227.387	45.56
227.621	37.56
227.856	35.56
228.09	23.56
228.324	49.56
228.559	56.56
228.793	170.56
229.027	486.56
229.262	539.56
229.496	668.56
229.73	928.56
229.964	940.56
230.199	622.56
230.433	525.56
230.667	516.56
230.901	510.56
231.136	471.56
231.37	485.56
231.604	506.56
231.838	509.56
232.072	503.56
232.306	515.56
232.541	517.56
232.775	531.56
233.009	531.56
233.243	526.56
233.477	538.56
233.711	526.56
233.945	566.56
234.179	563.56
234.413	545.56
234.647	533.56
234.881	550.56
235.115	585.56
235.349	602.56
235.583	632.56
235.817	652.56
236.051	718.56
236.285	685.56
236.519	700.56
236.753	783.56
236.987	993.56
237.221	1574.56
237.455	1664.56
237.689	992.56
237.922	833.56
238.156	787.56
238.39	752.56
238.624	740.56
238.858	719.56
239.091	755.56
239.325	749.56
239.559	781.56
239.793	812.56
240.027	903.56
240.26	1045.56
240.494	1085.56
240.728	1075.56
240.961	982.56
241.195	914.56
241.429	870.56
241.662	886.56
241.896	876.56
242.13	889.56
242.363	895.56
242.597	940.56
242.83	978.56
243.064	955.56
243.298	952.56
243.531	979.56
243.765	977.56
243.998	1016.56
244.232	1038.56
244.465	1016.56
244.699	1046.56
244.932	1036.56
245.166	1049.56
245.399	1059.56
245.633	1035.56
245.866	1060.56
246.099	1068.56
246.333	1092.56
246.566	1092.56
246.8	1137.56
247.033	1141.56
247.266	1215.56
247.5	1268.56
247.733	1307.56
247.966	1326.56
248.2	1342.56
248.433	1351.56
248.666	1430.56
248.899	1589.56
249.133	1723.56
249.366	1755.56
249.599	1752.56
249.832	1766.56
250.066	1994.56
250.299	2845.56
250.532	3835.56
250.765	3396.56
250.998	2719.56
251.231	2290.56
251.465	1919.56
251.698	1818.56
251.931	1751.56
252.164	1721.56
252.397	1719.56
252.63	1751.56
252.863	1840.56
253.096	1928.56
253.329	1977.56
253.562	1882.56
253.795	1834.56
254.028	1873.56
254.261	1972.56
254.494	2208.56
254.727	2574.56
254.96	2648.56
255.193	2482.56
255.426	2653.56
255.659	3404.56
255.892	5303.56
256.124	6998.56
256.357	5404.56
256.59	3671.56
256.823	2913.56
257.056	2545.56
257.289	2384.56
257.521	2277.56
257.754	2162.56
257.987	2113.56
258.22	2036.56
258.452	1990.56
258.685	2003.56
258.918	2026.56
259.151	2024.56
259.383	2070.56
259.616	2064.56
259.849	2145.56
260.081	2267.56
260.314	2461.56
260.547	2338.56
260.779	2175.56
261.012	2145.56
261.244	2124.56
261.477	2046.56
261.71	2080.56
261.942	2122.56
262.175	2222.56
262.407	2046.56
262.64	1974.56
262.872	1931.56
263.105	1927.56
263.337	1967.56
263.57	1996.56
263.802	1913.56
264.035	1955.56
264.267	1957.56
264.499	1977.56
264.732	1953.56
264.964	1996.56
265.197	2021.56
265.429	1974.56
265.661	2018.56
265.894	2017.56
266.126	1988.56
266.358	2071.56
266.591	2111.56
266.823	2146.56
267.055	2164.56
267.287	2188.56
267.52	2088.56
267.752	2132.56
267.984	2133.56
268.216	2198.56
268.448	2231.56
268.681	2322.56
268.913	2460.56
269.145	2599.56
269.377	2588.56
269.609	2495.56
269.841	2526.56
270.073	2623.56
270.306	2920.56
270.538	3062.56
270.77	2883.56
271.002	2705.56
271.234	2766.56
271.466	2942.56
271.698	3087.56
271.93	3036.56
272.162	3020.56
272.394	2948.56
272.626	2798.56
272.858	2699.56
273.09	2620.56
273.322	2642.56
273.553	2617.56
273.785	2609.56
274.017	2657.56
274.249	2705.56
274.481	2703.56
274.713	2771.56
274.945	2828.56
275.176	2832.56
275.408	2888.56
275.64	2963.56
275.872	3063.56
276.104	3039.56
276.335	3070.56
276.567	3246.56
276.799	3590.56
277.031	4151.56
277.262	4379.56
277.494	4021.56
277.726	3543.56
277.957	3299.56
278.189	3245.56
278.421	3111.56
278.652	3081.56
278.884	3039.56
279.115	3095.56
279.347	3200.56
279.579	3287.56
279.81	3544.56
280.042	4040.56
280.273	4473.56
280.505	4027.56
280.736	3561.56
280.968	3322.56
281.199	3203.56
281.431	3154.56
281.662	3098.56
281.894	3107.56
282.125	3164.56
282.356	3427.56
282.588	3602.56
282.819	3281.56
283.051	3080.56
283.282	3002.56
283.513	3096.56
283.745	3129.56
283.976	3144.56
284.207	3103.56
284.439	3102.56
284.67	3100.56
284.901	3092.56
285.132	3092.56
285.364	3043.56
285.595	3102.56
285.826	3092.56
286.057	3212.56
286.288	3163.56
286.52	3130.56
286.751	3124.56
286.982	3166.56
287.213	3179.56
287.444	3222.56
287.675	3294.56
287.906	3366.56
288.138	3394.56
288.369	3421.56
288.6	3367.56
288.831	3311.56
289.062	3227.56
289.293	3236.56
289.524	3289.56
289.755	3247.56
289.986	3250.56
290.217	3226.56
290.448	3274.56
290.679	3260.56
290.91	3232.56
291.141	3216.56
291.371	3223.56
291.602	3253.56
291.833	3185.56
292.064	3223.56
292.295	3180.56
292.526	3243.56
292.757	3221.56
292.987	3158.56
293.218	3144.56
293.449	3192.56
293.68	3238.56
293.91	3230.56
294.141	3199.56
294.372	3155.56
294.603	3209.56
294.833	3244.56
295.064	3269.56
295.295	3226.56
295.525	3262.56
295.756	3343.56
295.987	3460.56
296.217	3698.56
296.448	3643.56
296.679	3349.56
296.909	3246.56
297.14	3342.56
297.37	3391.56
297.601	3371.56
297.831	3436.56
298.062	3431.56
298.292	3422.56
298.523	3525.56
298.753	3527.56
298.984	3470.56
299.214	3511.56
299.445	3474.56
299.675	3554.56
299.905	3630.56
300.136	3535.56
300.366	3565.56
300.597	3583.56
300.827	3698.56
301.057	3796.56
301.288	3864.56
301.518	3745.56
301.748	3825.56
301.979	3943.56
302.209	3967.56
302.439	3848.56
302.669	3789.56
302.9	3800.56
303.13	3828.56
303.36	3953.56
303.59	4142.56
303.82	4206.56
304.051	4016.56
304.281	3862.56
304.511	3760.56
304.741	3730.56
304.971	3742.56
305.201	3704.56
305.431	3709.56
305.661	3767.56
305.891	3692.56
306.121	3765.56
306.352	3814.56
306.582	3836.56
306.812	3748.56
307.042	3978.56
307.272	4332.56
307.502	4513.56
307.731	4328.56
307.961	4034.56
308.191	3822.56
308.421	3789.56
308.651	3799.56
308.881	3821.56
309.111	3856.56
309.341	3920.56
309.571	4055.56
309.8	4077.56
310.03	4184.56
310.26	4227.56
310.49	4196.56
310.72	4411.56
310.949	4574.56
311.179	4463.56
311.409	4209.56
311.639	4245.56
311.868	4290.56
312.098	4286.56
312.328	4418.56
312.557	4630.56
312.787	4728.56
313.017	4490.56
313.246	4370.56
313.476	4259.56
313.706	4328.56
313.935	4435.56
314.165	4597.56
314.394	4607.56
314.624	4561.56
314.853	4429.56
315.083	4361.56
315.312	4247.56
315.542	4264.56
315.771	4180.56
316.001	4167.56
316.23	4240.56
316.46	4268.56
316.689	4314.56
316.919	4370.56
317.148	4460.56
317.377	4410.56
317.607	4355.56
317.836	4375.56
318.065	4256.56
318.295	4328.56
318.524	4298.56
318.753	4291.56
318.983	4310.56
319.212	4340.56
319.441	4425.56
319.67	4393.56
319.9	4259.56
320.129	4318.56
320.358	4342.56
320.587	4432.56
320.816	4472.56
321.046	4623.56
321.275	4597.56
321.504	4557.56
321.733	4622.56
321.962	4728.56
322.191	4862.56
322.42	4964.56
322.649	5151.56
322.878	5305.56
323.108	5392.56
323.337	5796.56
323.566	6093.56
323.795	6429.56
324.024	7388.56
324.253	10090.56
324.482	14529.56
324.71	15616.56
324.939	15616.56
325.168	15182.56
325.397	8340.56
325.626	6790.56
325.855	6299.56
326.084	6197.56
326.313	6296.56
326.542	6746.56
326.77	7860.56
326.999	10248.56
327.228	14318.56
327.457	15616.56
327.686	15616.56
327.914	13736.56
328.143	13279.56
328.372	14032.56
328.6	11234.56
328.829	9070.56
329.058	9317.56
329.287	9411.56
329.515	9739.56
329.744	11575.56
329.972	14597.56
330.201	15616.56
330.43	15616.56
330.658	15324.56
330.887	11596.56
331.115	9406.56
331.344	7994.56
331.572	7653.56
331.801	7669.56
332.03	7597.56
332.258	7345.56
332.486	7407.56
332.715	7653.56
332.943	8052.56
333.172	8526.56
333.4	9301.56
333.629	10547.56
333.857	12687.56
334.085	15294.56
334.314	15616.56
334.542	15616.56
334.771	15616.56
334.999	14758.56
335.227	10607.56
335.455	8844.56
335.684	7945.56
335.912	7427.56
336.14	7050.56
336.369	6772.56
336.597	6798.56
336.825	6556.56
337.053	6255.56
337.281	6005.56
337.51	5912.56
337.738	5862.56
337.966	5845.56
338.194	5858.56
338.422	5685.56
338.65	5492.56
338.878	5438.56
339.106	5358.56
339.334	5370.56
339.562	5326.56
339.79	5229.56
340.018	5269.56
340.246	5180.56
340.474	5256.56
340.702	5118.56
340.93	5137.56
341.158	5160.56
341.386	5126.56
341.614	5108.56
341.842	5052.56
342.07	4980.56
342.298	4971.56
342.526	4915.56
342.754	4882.56
342.981	4961.56
343.209	5006.56
343.437	5224.56
343.665	5470.56
343.893	5706.56
344.12	5652.56
344.348	5494.56
344.576	5372.56
344.804	5341.56
345.031	5332.56
345.259	5311.56
345.487	5110.56
345.714	5022.56
345.942	4862.56
346.17	4784.56
346.397	4814.56
346.625	4764.56
346.853	4799.56
347.08	4795.56
347.308	4765.56
347.535	5034.56
347.763	4954.56
347.99	4835.56
348.218	4960.56
348.445	5086.56
348.673	4876.56
348.9	4762.56
349.128	4688.56
349.355	4606.56
349.583	4568.56
349.81	4671.56
350.037	4615.56
350.265	4539.56
350.492	4574.56
350.72	4592.56
350.947	4695.56
351.174	4847.56
351.402	4886.56
351.629	4812.56
351.856	4859.56
352.083	4983.56
352.311	4989.56
352.538	4959.56
352.765	4949.56
352.992	4869.56
353.22	4747.56
353.447	4733.56
353.674	4624.56
353.901	4531.56
354.128	4462.56
354.355	4441.56
354.583	4480.56
354.81	4486.56
355.037	4459.56
355.264	4416.56
355.491	4377.56
355.718	4461.56
355.945	4425.56
356.172	4361.56
356.399	4383.56
356.626	4408.56
356.853	4434.56
357.08	4444.56
357.307	4354.56
357.534	4386.56
357.761	4426.56
357.988	4426.56
358.215	4447.56
358.441	4434.56
358.668	4453.56
358.895	4543.56
359.122	4603.56
359.349	4639.56
359.576	4896.56
359.802	5228.56
360.029	5588.56
360.256	5437.56
360.483	5106.56
360.709	4729.56
360.936	4723.56
361.163	4706.56
361.39	4862.56
361.616	4844.56
361.843	4738.56
362.07	4808.56
362.296	4777.56
362.523	4739.56
362.749	4746.56
362.976	4659.56
363.203	4642.56
363.429	4547.56
363.656	4598.56
363.882	4609.56
364.109	4528.56
364.335	4582.56
364.562	4585.56
364.788	4591.56
365.015	4562.56
365.241	4564.56
365.468	4589.56
365.694	4708.56
365.92	4667.56
366.147	4531.56
366.373	4527.56
366.599	4557.56
366.826	4522.56
367.052	4443.56
367.278	4564.56
367.505	4595.56
367.731	4555.56
367.957	4587.56
368.184	4659.56
368.41	4757.56
368.636	4814.56
368.862	4762.56
369.089	4599.56
369.315	4634.56
369.541	4647.56
369.767	4591.56
369.993	4651.56
370.219	4625.56
370.445	4662.56
370.672	4710.56
370.898	4714.56
371.124	4698.56
371.35	4772.56
371.576	4741.56
371.802	4709.56
372.028	4714.56
372.254	4742.56
372.48	4782.56
372.706	4876.56
372.932	4868.56
373.158	4777.56
373.384	4804.56
373.61	4814.56
373.835	4863.56
374.061	4808.56
374.287	4887.56
374.513	4944.56
374.739	5086.56
374.965	5167.56
375.191	5142.56
375.416	5016.56
375.642	4950.56
375.868	4823.56
376.094	4753.56
376.319	4744.56
376.545	4688.56
376.771	4756.56
376.997	4754.56
377.222	4670.56
377.448	4727.56
377.674	4648.56
377.899	4657.56
378.125	4702.56
378.35	4635.56
378.576	4595.56
378.802	4600.56
379.027	4646.56
379.253	4681.56
379.478	4643.56
379.704	4667.56
379.929	4684.56
380.155	4719.56
380.38	4716.56
380.606	4813.56
380.831	4685.56
381.057	4790.56
381.282	4746.56
381.507	4666.56
381.733	4822.56
381.958	4873.56
382.184	4867.56
382.409	4937.56
382.634	4899.56
382.86	4928.56
383.085	4991.56
383.31	5081.56
383.535	5199.56
383.761	5262.56
383.986	5283.56
384.211	5372.56
384.436	5434.56
384.662	5497.56
384.887	5603.56
385.112	5549.56
385.337	5572.56
385.562	5666.56
385.787	5650.56
386.013	5812.56
386.238	5815.56
386.463	5762.56
386.688	5717.56
386.913	5609.56
387.138	5585.56
387.363	5546.56
387.588	5486.56
387.813	5514.56
388.038	5509.56
388.263	5550.56
388.488	5602.56
388.713	5540.56
388.938	5582.56
389.163	5541.56
389.387	5535.56
389.612	5412.56
389.837	5454.56
390.062	5436.56
390.287	5489.56
390.512	5478.56
390.736	5582.56
390.961	5659.56
391.186	5715.56
391.411	5884.56
391.636	6074.56
391.86	6119.56
392.085	6205.56
392.31	6071.56
392.534	5997.56
392.759	5907.56
392.984	5772.56
393.208	5737.56
393.433	5699.56
393.658	5784.56
393.882	5773.56
394.107	5812.56
394.331	5872.56
394.556	5844.56
394.78	5891.56
395.005	6023.56
395.229	5979.56
395.454	6169.56
395.678	6278.56
395.903	6326.56
396.127	6373.56
396.352	6110.56
396.576	5980.56
396.801	5943.56
397.025	6071.56
397.249	6105.56
397.474	6284.56
397.698	6351.56
397.922	6476.56
398.147	6631.56
398.371	6647.56
398.595	6827.56
398.82	7132.56
399.044	7608.56
399.268	8482.56
399.492	9512.56
399.717	10170.56
399.941	9813.56
400.165	9381.56
400.389	8619.56
400.613	7907.56
400.837	7315.56
401.062	7251.56
401.286	7099.56
401.51	7134.56
401.734	7080.56
401.958	7251.56
402.182	7307.56
402.406	7539.56
402.63	7552.56
402.854	7673.56
403.078	7795.56
403.302	7906.56
403.526	7961.56
403.75	8100.56
403.974	8170.56
404.198	8178.56
404.422	8475.56
404.645	8682.56
404.869	9003.56
405.093	9686.56
405.317	10620.56
405.541	10312.56
405.765	9275.56
405.988	8635.56
406.212	8574.56
406.436	8771.56
406.66	8709.56
406.883	8636.56
407.107	9096.56
407.331	9679.56
407.555	10195.56
407.778	9857.56
408.002	8961.56
408.226	8573.56
408.449	8494.56
408.673	8369.56
408.896	8450.56
409.12	8660.56
409.344	8068.56
409.567	7754.56
409.791	7732.56
410.014	7574.56
410.238	7615.56
410.461	7607.56
410.685	7738.56
410.908	7841.56
411.132	8090.56
411.355	8315.56
411.578	7824.56
411.802	7790.56
412.025	8049.56
412.249	8714.56
412.472	9639.56
412.695	10511.56
412.919	9532.56
413.142	8857.56
413.365	8310.56
413.589	7904.56
413.812	7635.56
414.035	7384.56
414.258	7536.56
414.482	7378.56
414.705	7297.56
414.928	7194.56
415.151	7201.56
415.374	7117.56
415.597	7072.56
415.821	7021.56
416.044	7125.56
416.267	7000.56
416.49	6916.56
416.713	6837.56
416.936	7039.56
417.159	7146.56
417.382	7402.56
417.605	7644.56
417.828	7807.56
418.051	7540.56
418.274	7191.56
418.497	7136.56
418.72	7211.56
418.943	7174.56
419.166	7622.56
419.389	8154.56
419.611	8251.56
419.834	8309.56
420.057	8638.56
420.28	9226.56
420.503	8859.56
420.726	8334.56
420.948	8117.56
421.171	8405.56
421.394	8039.56
421.617	7443.56
421.839	7356.56
422.062	7410.56
422.285	7585.56
422.507	8112.56
422.73	8825.56
422.953	7954.56
423.175	7606.56
423.398	7566.56
423.621	7602.56
423.843	7848.56
424.066	7805.56
424.288	7649.56
424.511	8005.56
424.733	8455.56
424.956	9091.56
425.178	8464.56
425.401	8743.56
425.623	8474.56
425.846	7323.56
426.068	7250.56
426.291	7162.56
426.513	7199.56
426.735	7415.56
426.958	7912.56
427.18	8978.56
427.402	10636.56
427.625	11403.56
427.847	10858.56
428.069	10668.56
428.292	8510.56
428.514	7281.56
428.736	6919.56
428.958	6838.56
429.181	6551.56
429.403	6477.56
429.625	6710.56
429.847	6999.56
430.069	7617.56
430.292	7074.56
430.514	6352.56
430.736	6414.56
430.958	6306.56
431.18	6148.56
431.402	6241.56
431.624	6188.56
431.846	6290.56
432.068	6226.56
432.29	6309.56
432.512	6203.56
432.734	6286.56
432.956	6245.56
433.178	6426.56
433.4	6370.56
433.622	6210.56
433.844	6293.56
434.066	6344.56
434.287	6375.56
434.509	6645.56
434.731	6749.56
434.953	6965.56
435.175	7071.56
435.397	7211.56
435.618	7150.56
435.84	7748.56
436.062	8858.56
436.284	8639.56
436.505	7130.56
436.727	6854.56
436.949	6509.56
437.17	6304.56
437.392	6297.56
437.614	6533.56
437.835	7046.56
438.057	8254.56
438.278	8939.56
438.5	8701.56
438.721	9772.56
438.943	8302.56
439.165	6876.56
439.386	6754.56
439.608	6827.56
439.829	7038.56
440.05	7671.56
440.272	8232.56
440.493	7101.56
440.715	6698.56
440.936	6630.56
441.158	6684.56
441.379	6738.56
441.6	7137.56
441.822	7409.56
442.043	7977.56
442.264	8936.56
442.486	8484.56
442.707	7474.56
442.928	7349.56
443.149	7748.56
443.371	7993.56
443.592	8546.56
443.813	9646.56
444.034	9388.56
444.255	7990.56
444.476	7782.56
444.698	7956.56
444.919	8107.56
445.14	7953.56
445.361	7902.56
445.582	8397.56
445.803	9399.56
446.024	10198.56
446.245	9546.56
446.466	8300.56
446.687	6929.56
446.908	6644.56
447.129	6255.56
447.35	6178.56
447.571	6160.56
447.792	6002.56
448.013	6117.56
448.234	6410.56
448.455	7234.56
448.675	8672.56
448.896	9062.56
449.117	7330.56
449.338	7681.56
449.559	9280.56
449.779	9468.56
450	7038.56
450.221	6244.56
450.442	6036.56
450.662	6011.56
450.883	6313.56
451.104	6400.56
451.324	6078.56
451.545	5930.56
451.766	5719.56
451.986	5556.56
452.207	5509.56
452.428	5516.56
452.648	5567.56
452.869	5650.56
453.089	5736.56
453.31	5802.56
453.53	5633.56
453.751	5573.56
453.971	5646.56
454.192	5907.56
454.412	5487.56
454.633	5417.56
454.853	5468.56
455.073	5380.56
455.294	5821.56
455.514	6639.56
455.734	5879.56
455.955	5183.56
456.175	5149.56
456.395	5144.56
456.616	5093.56
456.836	5106.56
457.056	5134.56
457.276	5111.56
457.497	5351.56
457.717	5324.56
457.937	5320.56
458.157	5416.56
458.377	5613.56
458.598	6072.56
458.818	7147.56
459.038	8114.56
459.258	7761.56
459.478	6604.56
459.698	6365.56
459.918	6412.56
460.138	6569.56
460.358	6793.56
460.578	6780.56
460.798	6988.56
461.018	6935.56
461.238	6753.56
461.458	6791.56
461.678	6712.56
461.898	6904.56
462.118	6887.56
462.338	7285.56
462.558	7444.56
462.777	7754.56
462.997	8386.56
463.217	8745.56
463.437	8486.56
463.657	8029.56
463.876	7740.56
464.096	7841.56
464.316	7834.56
464.536	7869.56
464.755	7623.56
464.975	7708.56
465.195	8324.56
465.414	8665.56
465.634	7178.56
465.854	6634.56
466.073	6403.56
466.293	6146.56
466.512	6006.56
466.732	5885.56
466.951	5950.56
467.171	5987.56
467.391	6160.56
467.61	6594.56
467.829	7192.56
468.049	9703.56
468.268	12149.56
468.488	8332.56
468.707	6850.56
468.927	6444.56
469.146	6148.56
469.365	6121.56
469.585	6164.56
469.804	6298.56
470.023	6408.56
470.243	6419.56
470.462	6605.56
470.681	6829.56
470.901	6577.56
471.12	6426.56
471.339	6487.56
471.558	6651.56
471.777	6997.56
471.997	8324.56
472.216	13808.56
472.435	15616.56
472.654	14795.56
472.873	9676.56
473.092	8025.56
473.311	7378.56
473.53	6941.56
473.749	6852.56
473.968	7314.56
474.187	8443.56
474.406	7687.56
474.625	6552.56
474.844	6157.56
475.063	6058.56
475.282	6073.56
475.501	6036.56
475.72	6091.56
475.939	6171.56
476.158	6129.56
476.377	6143.56
476.596	6108.56
476.814	6365.56
477.033	6469.56
477.252	6356.56
477.471	6458.56
477.69	6699.56
477.908	6793.56
478.127	6932.56
478.346	6898.56
478.564	7090.56
478.783	7283.56
479.002	7436.56
479.22	7432.56
479.439	7839.56
479.658	8033.56
479.876	8148.56
480.095	8522.56
480.313	9156.56
480.532	9443.56
480.751	10824.56
480.969	14973.56
481.188	15616.56
481.406	15616.56
481.624	15548.56
481.843	12379.56
482.061	10589.56
482.28	9503.56
482.498	8901.56
482.717	8432.56
482.935	8138.56
483.153	7987.56
483.372	7812.56
483.59	7648.56
483.808	7570.56
484.027	7494.56
484.245	7479.56
484.463	7370.56
484.681	7418.56
484.9	7545.56
485.118	7527.56
485.336	7431.56
485.554	7532.56
485.772	7671.56
485.99	7591.56
486.209	7644.56
486.427	7628.56
486.645	7804.56
486.863	7978.56
487.081	7946.56
