Data from Circ_1997_H10_HRD10591_00003.txt Node
Date: Wed Jan 03 11:29:28 EST 2024
User: Yrep
Spectrometer: HR+D1059
Trigger mode: 1
Integration Time (sec): 1.000000E-1
Scans to average: 1
Electric dark correction enabled: true
Nonlinearity correction enabled: false
Boxcar width: 0
XAxis mode: Wavelengths
Number of Pixels in Spectrum: 2048
>>>>>Begin Spectral Data<<<<<
223.165	-7.38
223.4	-7.38
223.635	-7.38
223.869	-32.38
224.104	-14.38
224.338	-22.38
224.573	-5.38
224.808	-22.38
225.042	-11.38
225.277	3.62
225.511	2.62
225.746	-2.38
225.98	-0.38
226.215	7.62
226.449	22.62
226.683	19.62
226.918	31.62
227.152	30.62
227.387	39.62
227.621	39.62
227.856	39.62
228.09	50.62
228.324	51.62
228.559	57.62
228.793	66.62
229.027	77.62
229.262	69.62
229.496	78.62
229.73	109.62
229.964	90.62
230.199	67.62
230.433	79.62
230.667	78.62
230.901	70.62
231.136	91.62
231.37	79.62
231.604	69.62
231.838	89.62
232.072	75.62
232.306	83.62
232.541	73.62
232.775	63.62
233.009	81.62
233.243	79.62
233.477	85.62
233.711	80.62
233.945	79.62
234.179	78.62
234.413	79.62
234.647	70.62
234.881	90.62
235.115	78.62
235.349	88.62
235.583	71.62
235.817	63.62
236.051	74.62
236.285	75.62
236.519	94.62
236.753	82.62
236.987	78.62
237.221	89.62
237.455	87.62
237.689	71.62
237.922	85.62
238.156	89.62
238.39	75.62
238.624	64.62
238.858	75.62
239.091	82.62
239.325	82.62
239.559	88.62
239.793	81.62
240.027	86.62
240.26	77.62
240.494	94.62
240.728	71.62
240.961	71.62
241.195	80.62
241.429	75.62
241.662	75.62
241.896	82.62
242.13	80.62
242.363	74.62
242.597	81.62
242.83	81.62
243.064	70.62
243.298	79.62
243.531	92.62
243.765	79.62
243.998	81.62
244.232	88.62
244.465	70.62
244.699	96.62
244.932	75.62
245.166	69.62
245.399	87.62
245.633	71.62
245.866	80.62
246.099	79.62
246.333	87.62
246.566	88.62
246.8	79.62
247.033	85.62
247.266	83.62
247.5	90.62
247.733	82.62
247.966	83.62
248.2	90.62
248.433	80.62
248.666	62.62
248.899	72.62
249.133	101.62
249.366	112.62
249.599	107.62
249.832	83.62
250.066	81.62
250.299	90.62
250.532	87.62
250.765	91.62
250.998	74.62
251.231	77.62
251.465	80.62
251.698	75.62
251.931	85.62
252.164	95.62
252.397	83.62
252.63	90.62
252.863	63.62
253.096	85.62
253.329	89.62
253.562	86.62
253.795	71.62
254.028	107.62
254.261	78.62
254.494	88.62
254.727	77.62
254.96	89.62
255.193	69.62
255.426	73.62
255.659	93.62
255.892	81.62
256.124	111.62
256.357	92.62
256.59	94.62
256.823	79.62
257.056	80.62
257.289	66.62
257.521	87.62
257.754	87.62
257.987	90.62
258.22	87.62
258.452	86.62
258.685	81.62
258.918	73.62
259.151	85.62
259.383	82.62
259.616	85.62
259.849	83.62
260.081	89.62
260.314	96.62
260.547	86.62
260.779	78.62
261.012	99.62
261.244	100.62
261.477	84.62
261.71	108.62
261.942	126.62
262.175	136.62
262.407	101.62
262.64	83.62
262.872	84.62
263.105	86.62
263.337	75.62
263.57	89.62
263.802	80.62
264.035	85.62
264.267	77.62
264.499	85.62
264.732	98.62
264.964	86.62
265.197	77.62
265.429	94.62
265.661	85.62
265.894	93.62
266.126	89.62
266.358	97.62
266.591	71.62
266.823	81.62
267.055	65.62
267.287	73.62
267.52	90.62
267.752	81.62
267.984	82.62
268.216	90.62
268.448	72.62
268.681	94.62
268.913	87.62
269.145	90.62
269.377	96.62
269.609	77.62
269.841	82.62
270.073	93.62
270.306	91.62
270.538	88.62
270.77	93.62
271.002	94.62
271.234	91.62
271.466	96.62
271.698	98.62
271.93	96.62
272.162	93.62
272.394	66.62
272.626	88.62
272.858	80.62
273.09	66.62
273.322	82.62
273.553	83.62
273.785	92.62
274.017	93.62
274.249	81.62
274.481	93.62
274.713	94.62
274.945	91.62
275.176	94.62
275.408	101.62
275.64	87.62
275.872	115.62
276.104	107.62
276.335	104.62
276.567	115.62
276.799	128.62
277.031	162.62
277.262	175.62
277.494	133.62
277.726	93.62
277.957	105.62
278.189	85.62
278.421	87.62
278.652	93.62
278.884	93.62
279.115	86.62
279.347	84.62
279.579	95.62
279.81	114.62
280.042	167.62
280.273	194.62
280.505	137.62
280.736	107.62
280.968	94.62
281.199	70.62
281.431	94.62
281.662	96.62
281.894	101.62
282.125	113.62
282.356	137.62
282.588	161.62
282.819	125.62
283.051	102.62
283.282	85.62
283.513	95.62
283.745	94.62
283.976	93.62
284.207	92.62
284.439	88.62
284.67	104.62
284.901	89.62
285.132	74.62
285.364	90.62
285.595	79.62
285.826	81.62
286.057	95.62
286.288	86.62
286.52	95.62
286.751	83.62
286.982	90.62
287.213	83.62
287.444	89.62
287.675	92.62
287.906	95.62
288.138	92.62
288.369	95.62
288.6	96.62
288.831	96.62
289.062	87.62
289.293	87.62
289.524	83.62
289.755	82.62
289.986	83.62
290.217	83.62
290.448	80.62
290.679	103.62
290.91	87.62
291.141	93.62
291.371	103.62
291.602	92.62
291.833	86.62
292.064	90.62
292.295	85.62
292.526	92.62
292.757	102.62
292.987	98.62
293.218	97.62
293.449	96.62
293.68	80.62
293.91	74.62
294.141	104.62
294.372	97.62
294.603	97.62
294.833	96.62
295.064	91.62
295.295	80.62
295.525	95.62
295.756	102.62
295.987	130.62
296.217	155.62
296.448	127.62
296.679	101.62
296.909	92.62
297.14	87.62
297.37	100.62
297.601	74.62
297.831	94.62
298.062	82.62
298.292	97.62
298.523	87.62
298.753	89.62
298.984	97.62
299.214	100.62
299.445	90.62
299.675	104.62
299.905	91.62
300.136	109.62
300.366	81.62
300.597	102.62
300.827	95.62
301.057	97.62
301.288	122.62
301.518	82.62
301.748	93.62
301.979	127.62
302.209	93.62
302.439	97.62
302.669	91.62
302.9	91.62
303.13	96.62
303.36	99.62
303.59	110.62
303.82	125.62
304.051	99.62
304.281	92.62
304.511	89.62
304.741	99.62
304.971	78.62
305.201	89.62
305.431	70.62
305.661	91.62
305.891	105.62
306.121	100.62
306.352	133.62
306.582	110.62
306.812	105.62
307.042	112.62
307.272	137.62
307.502	157.62
307.731	151.62
307.961	109.62
308.191	92.62
308.421	92.62
308.651	107.62
308.881	85.62
309.111	99.62
309.341	103.62
309.571	110.62
309.8	108.62
310.03	111.62
310.26	98.62
310.49	87.62
310.72	101.62
310.949	120.62
311.179	121.62
311.409	103.62
311.639	104.62
311.868	106.62
312.098	91.62
312.328	99.62
312.557	115.62
312.787	125.62
313.017	114.62
313.246	108.62
313.476	87.62
313.706	101.62
313.935	102.62
314.165	109.62
314.394	110.62
314.624	107.62
314.853	113.62
315.083	103.62
315.312	96.62
315.542	91.62
315.771	90.62
316.001	93.62
316.23	99.62
316.46	86.62
316.689	89.62
316.919	95.62
317.148	101.62
317.377	107.62
317.607	109.62
317.836	88.62
318.065	97.62
318.295	95.62
318.524	85.62
318.753	92.62
318.983	104.62
319.212	115.62
319.441	111.62
319.67	117.62
319.9	104.62
320.129	102.62
320.358	105.62
320.587	96.62
320.816	106.62
321.046	82.62
321.275	92.62
321.504	92.62
321.733	101.62
321.962	102.62
322.191	101.62
322.42	113.62
322.649	129.62
322.878	131.62
323.108	137.62
323.337	141.62
323.566	173.62
323.795	179.62
324.024	279.62
324.253	562.62
324.482	1220.62
324.71	2611.62
324.939	3479.62
325.168	1210.62
325.397	341.62
325.626	208.62
325.855	165.62
326.084	142.62
326.313	162.62
326.542	176.62
326.77	300.62
326.999	650.62
327.228	1414.62
327.457	2624.62
327.686	2075.62
327.914	597.62
328.143	477.62
328.372	521.62
328.6	305.62
328.829	184.62
329.058	179.62
329.287	193.62
329.515	176.62
329.744	228.62
329.972	366.62
330.201	744.62
330.43	1075.62
330.658	497.62
330.887	289.62
331.115	178.62
331.344	115.62
331.572	112.62
331.801	126.62
332.03	126.62
332.258	119.62
332.486	98.62
332.715	97.62
332.943	119.62
333.172	112.62
333.4	116.62
333.629	136.62
333.857	199.62
334.085	360.62
334.314	693.62
334.542	1342.62
334.771	1274.62
334.999	350.62
335.227	173.62
335.455	126.62
335.684	115.62
335.912	105.62
336.14	109.62
336.369	100.62
336.597	106.62
336.825	92.62
337.053	98.62
337.281	92.62
337.51	92.62
337.738	103.62
337.966	97.62
338.194	105.62
338.422	105.62
338.65	94.62
338.878	113.62
339.106	83.62
339.334	95.62
339.562	89.62
339.79	89.62
340.018	84.62
340.246	95.62
340.474	93.62
340.702	98.62
340.93	87.62
341.158	95.62
341.386	74.62
341.614	93.62
341.842	86.62
342.07	95.62
342.298	85.62
342.526	97.62
342.754	93.62
342.981	81.62
343.209	99.62
343.437	95.62
343.665	75.62
343.893	92.62
344.12	90.62
344.348	85.62
344.576	101.62
344.804	103.62
345.031	97.62
345.259	105.62
345.487	113.62
345.714	104.62
345.942	101.62
346.17	94.62
346.397	102.62
346.625	108.62
346.853	105.62
347.08	98.62
347.308	111.62
347.535	94.62
347.763	96.62
347.99	112.62
348.218	120.62
348.445	124.62
348.673	117.62
348.9	106.62
349.128	103.62
349.355	106.62
349.583	96.62
349.81	94.62
350.037	98.62
350.265	85.62
350.492	83.62
350.72	100.62
350.947	110.62
351.174	121.62
351.402	131.62
351.629	98.62
351.856	113.62
352.083	98.62
352.311	122.62
352.538	130.62
352.765	135.62
352.992	133.62
353.22	130.62
353.447	119.62
353.674	95.62
353.901	89.62
354.128	84.62
354.355	83.62
354.583	107.62
354.81	109.62
355.037	97.62
355.264	94.62
355.491	94.62
355.718	91.62
355.945	115.62
356.172	97.62
356.399	97.62
356.626	94.62
356.853	88.62
357.08	90.62
357.307	94.62
357.534	95.62
357.761	84.62
357.988	98.62
358.215	106.62
358.441	111.62
358.668	109.62
358.895	104.62
359.122	110.62
359.349	94.62
359.576	107.62
359.802	103.62
360.029	157.62
360.256	146.62
360.483	119.62
360.709	93.62
360.936	88.62
361.163	108.62
361.39	104.62
361.616	110.62
361.843	93.62
362.07	111.62
362.296	106.62
362.523	96.62
362.749	104.62
362.976	92.62
363.203	83.62
363.429	93.62
363.656	92.62
363.882	80.62
364.109	94.62
364.335	107.62
364.562	120.62
364.788	96.62
365.015	98.62
365.241	105.62
365.468	123.62
365.694	134.62
365.92	105.62
366.147	105.62
366.373	111.62
366.599	98.62
366.826	95.62
367.052	79.62
367.278	90.62
367.505	96.62
367.731	89.62
367.957	98.62
368.184	95.62
368.41	110.62
368.636	117.62
368.862	128.62
369.089	105.62
369.315	107.62
369.541	108.62
369.767	104.62
369.993	95.62
370.219	105.62
370.445	74.62
370.672	102.62
370.898	74.62
371.124	82.62
371.35	104.62
371.576	99.62
371.802	92.62
372.028	74.62
372.254	104.62
372.48	90.62
372.706	96.62
372.932	90.62
373.158	67.62
373.384	108.62
373.61	84.62
373.835	105.62
374.061	94.62
374.287	89.62
374.513	81.62
374.739	85.62
374.965	92.62
375.191	80.62
375.416	93.62
375.642	81.62
375.868	96.62
376.094	94.62
376.319	99.62
376.545	91.62
376.771	106.62
376.997	99.62
377.222	97.62
377.448	92.62
377.674	105.62
377.899	96.62
378.125	104.62
378.35	100.62
378.576	97.62
378.802	78.62
379.027	92.62
379.253	94.62
379.478	83.62
379.704	91.62
379.929	92.62
380.155	77.62
380.38	85.62
380.606	111.62
380.831	91.62
381.057	109.62
381.282	107.62
381.507	96.62
381.733	90.62
381.958	90.62
382.184	104.62
382.409	102.62
382.634	118.62
382.86	89.62
383.085	103.62
383.31	90.62
383.535	110.62
383.761	99.62
383.986	93.62
384.211	103.62
384.436	107.62
384.662	106.62
384.887	107.62
385.112	109.62
385.337	112.62
385.562	128.62
385.787	121.62
386.013	129.62
386.238	115.62
386.463	117.62
386.688	125.62
386.913	98.62
387.138	116.62
387.363	104.62
387.588	111.62
387.813	113.62
388.038	119.62
388.263	110.62
388.488	104.62
388.713	107.62
388.938	94.62
389.163	75.62
389.387	95.62
389.612	98.62
389.837	85.62
390.062	107.62
390.287	88.62
390.512	87.62
390.736	83.62
390.961	94.62
391.186	91.62
391.411	94.62
391.636	86.62
391.86	100.62
392.085	101.62
392.31	87.62
392.534	94.62
392.759	95.62
392.984	86.62
393.208	92.62
393.433	97.62
393.658	96.62
393.882	83.62
394.107	92.62
394.331	76.62
394.556	78.62
394.78	79.62
395.005	88.62
395.229	81.62
395.454	76.62
395.678	84.62
395.903	90.62
396.127	97.62
396.352	88.62
396.576	103.62
396.801	94.62
397.025	99.62
397.249	90.62
397.474	92.62
397.698	89.62
397.922	89.62
398.147	91.62
398.371	101.62
398.595	95.62
398.82	88.62
399.044	93.62
399.268	79.62
399.492	81.62
399.717	95.62
399.941	98.62
400.165	91.62
400.389	106.62
400.613	83.62
400.837	94.62
401.062	83.62
401.286	97.62
401.51	95.62
401.734	85.62
401.958	102.62
402.182	136.62
402.406	189.62
402.63	155.62
402.854	94.62
403.078	110.62
403.302	83.62
403.526	93.62
403.75	90.62
403.974	101.62
404.198	90.62
404.422	90.62
404.645	94.62
404.869	98.62
405.093	110.62
405.317	160.62
405.541	154.62
405.765	128.62
405.988	138.62
406.212	225.62
406.436	289.62
406.66	201.62
406.883	125.62
407.107	92.62
407.331	108.62
407.555	113.62
407.778	107.62
408.002	85.62
408.226	91.62
408.449	87.62
408.673	95.62
408.896	101.62
409.12	105.62
409.344	107.62
409.567	95.62
409.791	90.62
410.014	101.62
410.238	97.62
410.461	88.62
410.685	88.62
410.908	93.62
411.132	92.62
411.355	107.62
411.578	91.62
411.802	106.62
412.025	101.62
412.249	111.62
412.472	120.62
412.695	151.62
412.919	123.62
413.142	98.62
413.365	81.62
413.589	92.62
413.812	79.62
414.035	94.62
414.258	90.62
414.482	87.62
414.705	91.62
414.928	99.62
415.151	103.62
415.374	96.62
415.597	75.62
415.821	92.62
416.044	85.62
416.267	69.62
416.49	88.62
416.713	93.62
416.936	83.62
417.159	90.62
417.382	97.62
417.605	99.62
417.828	112.62
418.051	100.62
418.274	93.62
418.497	81.62
418.72	83.62
418.943	99.62
419.166	88.62
419.389	86.62
419.611	90.62
419.834	94.62
420.057	79.62
420.28	104.62
420.503	92.62
420.726	87.62
420.948	87.62
421.171	108.62
421.394	98.62
421.617	99.62
421.839	94.62
422.062	81.62
422.285	95.62
422.507	112.62
422.73	104.62
422.953	99.62
423.175	99.62
423.398	85.62
423.621	93.62
423.843	80.62
424.066	91.62
424.288	94.62
424.511	86.62
424.733	100.62
424.956	126.62
425.178	116.62
425.401	134.62
425.623	112.62
425.846	99.62
426.068	93.62
426.291	101.62
426.513	113.62
426.735	100.62
426.958	98.62
427.18	113.62
427.402	209.62
427.625	263.62
427.847	242.62
428.069	224.62
428.292	120.62
428.514	90.62
428.736	89.62
428.958	93.62
429.181	94.62
429.403	98.62
429.625	87.62
429.847	87.62
430.069	109.62
430.292	114.62
430.514	82.62
430.736	86.62
430.958	80.62
431.18	92.62
431.402	93.62
431.624	90.62
431.846	69.62
432.068	79.62
432.29	81.62
432.512	93.62
432.734	84.62
432.956	90.62
433.178	109.62
433.4	121.62
433.622	102.62
433.844	102.62
434.066	96.62
434.287	92.62
434.509	76.62
434.731	101.62
434.953	91.62
435.175	89.62
435.397	86.62
435.618	102.62
435.84	114.62
436.062	153.62
436.284	146.62
436.505	120.62
436.727	110.62
436.949	89.62
437.17	100.62
437.392	98.62
437.614	113.62
437.835	135.62
438.057	152.62
438.278	142.62
438.5	115.62
438.721	152.62
438.943	114.62
439.165	89.62
439.386	91.62
439.608	92.62
439.829	113.62
440.05	168.62
440.272	215.62
440.493	106.62
440.715	87.62
440.936	96.62
441.158	94.62
441.379	83.62
441.6	92.62
441.822	103.62
442.043	99.62
442.264	135.62
442.486	114.62
442.707	108.62
442.928	142.62
443.149	180.62
443.371	182.62
443.592	140.62
443.813	133.62
444.034	117.62
444.255	96.62
444.476	100.62
444.698	80.62
444.919	94.62
445.14	134.62
445.361	134.62
445.582	141.62
445.803	218.62
446.024	192.62
446.245	189.62
446.466	139.62
446.687	95.62
446.908	91.62
447.129	90.62
447.35	93.62
447.571	109.62
447.792	99.62
448.013	107.62
448.234	116.62
448.455	114.62
448.675	147.62
448.896	139.62
449.117	105.62
449.338	123.62
449.559	146.62
449.779	166.62
450	114.62
450.221	97.62
450.442	98.62
450.662	103.62
450.883	131.62
451.104	139.62
451.324	109.62
451.545	97.62
451.766	85.62
451.986	79.62
452.207	91.62
452.428	101.62
452.648	113.62
452.869	133.62
453.089	146.62
453.31	117.62
453.53	102.62
453.751	103.62
453.971	112.62
454.192	139.62
454.412	103.62
454.633	90.62
454.853	69.62
455.073	92.62
455.294	91.62
455.514	109.62
455.734	98.62
455.955	73.62
456.175	78.62
456.395	91.62
456.616	81.62
456.836	93.62
457.056	74.62
457.276	90.62
457.497	76.62
457.717	93.62
457.937	93.62
458.157	91.62
458.377	105.62
458.598	130.62
458.818	190.62
459.038	245.62
459.258	147.62
459.478	107.62
459.698	87.62
459.918	81.62
460.138	83.62
460.358	80.62
460.578	88.62
460.798	73.62
461.018	89.62
461.238	91.62
461.458	81.62
461.678	94.62
461.898	91.62
462.118	80.62
462.338	88.62
462.558	88.62
462.777	86.62
462.997	97.62
463.217	94.62
463.437	95.62
463.657	89.62
463.876	98.62
464.096	91.62
464.316	95.62
464.536	105.62
464.755	95.62
464.975	122.62
465.195	236.62
465.414	220.62
465.634	109.62
465.854	98.62
466.073	104.62
466.293	96.62
466.512	89.62
466.732	85.62
466.951	103.62
467.171	104.62
467.391	103.62
467.61	155.62
467.829	174.62
468.049	401.62
468.268	567.62
468.488	173.62
468.707	102.62
468.927	88.62
469.146	92.62
469.365	99.62
469.585	82.62
469.804	94.62
470.023	104.62
470.243	95.62
470.462	115.62
470.681	140.62
470.901	95.62
471.12	98.62
471.339	99.62
471.558	104.62
471.777	125.62
471.997	234.62
472.216	728.62
472.435	1722.62
472.654	433.62
472.873	137.62
473.092	99.62
473.311	107.62
473.53	82.62
473.749	95.62
473.968	106.62
474.187	120.62
474.406	118.62
474.625	103.62
474.844	77.62
475.063	89.62
475.282	103.62
475.501	88.62
475.72	93.62
475.939	91.62
476.158	85.62
476.377	90.62
476.596	91.62
476.814	95.62
477.033	101.62
477.252	89.62
477.471	96.62
477.69	91.62
477.908	90.62
478.127	97.62
478.346	87.62
478.564	91.62
478.783	99.62
479.002	94.62
479.22	112.62
479.439	109.62
479.658	138.62
479.876	116.62
480.095	108.62
480.313	109.62
480.532	139.62
480.751	224.62
480.969	717.62
481.188	2972.62
481.406	1746.62
481.624	275.62
481.843	127.62
482.061	104.62
482.28	85.62
482.498	89.62
482.717	101.62
482.935	89.62
483.153	98.62
483.372	99.62
483.59	90.62
483.808	97.62
484.027	90.62
484.245	93.62
484.463	92.62
484.681	115.62
484.9	87.62
485.118	96.62
485.336	88.62
485.554	98.62
485.772	106.62
485.99	103.62
486.209	101.62
486.427	118.62
486.645	131.62
486.863	122.62
487.081	101.62
487.299	88.62
487.517	84.62
487.735	94.62
487.953	95.62
488.171	105.62
488.389	93.62
488.607	103.62
488.825	90.62
489.043	97.62
489.261	76.62
489.479	81.62
489.696	98.62
489.914	83.62
490.132	97.62
490.35	104.62
490.568	80.62
490.786	73.62
491.003	78.62
491.221	94.62
491.439	92.62
491.657	87.62
491.874	89.62
492.092	91.62
492.31	93.62
492.527	111.62
492.745	101.62
492.963	97.62
493.18	93.62
493.398	98.62
493.615	94.62
493.833	95.62
494.05	85.62
494.268	104.62
494.485	96.62
494.703	83.62
494.92	97.62
495.138	96.62
495.355	95.62
495.573	88.62
495.79	89.62
496.008	94.62
496.225	73.62
496.442	73.62
496.66	84.62
496.877	83.62
497.094	91.62
497.312	87.62
497.529	81.62
497.746	101.62
497.963	93.62
498.181	100.62
498.398	113.62
498.615	121.62
498.832	119.62
499.049	90.62
499.267	95.62
499.484	88.62
499.701	91.62
499.918	89.62
500.135	68.62
500.352	93.62
500.569	94.62
500.786	108.62
501.003	89.62
501.22	80.62
501.437	87.62
501.654	104.62
501.871	137.62
502.088	105.62
502.305	95.62
502.522	97.62
502.739	75.62
502.956	96.62
503.172	92.62
503.389	105.62
503.606	124.62
503.823	94.62
504.04	96.62
504.256	101.62
504.473	82.62
504.69	79.62
504.907	89.62
505.123	89.62
505.34	92.62
505.557	94.62
505.773	92.62
505.99	92.62
506.207	92.62
506.423	99.62
506.64	83.62
506.856	99.62
507.073	86.62
507.289	109.62
507.506	115.62
507.722	130.62
507.939	133.62
508.155	101.62
508.372	89.62
508.588	96.62
508.805	92.62
509.021	105.62
509.238	104.62
509.454	85.62
509.67	107.62
509.887	120.62
510.103	130.62
510.319	241.62
510.536	833.62
510.752	2915.62
510.968	800.62
511.184	183.62
511.401	126.62
511.617	104.62
511.833	107.62
512.049	99.62
512.265	85.62
512.481	90.62
512.698	92.62
512.914	101.62
513.13	89.62
