Data from Circ_1997_H10_HRD10591_00069.txt Node
Date: Wed Jan 03 11:29:41 EST 2024
User: Yrep
Spectrometer: HR+D1059
Trigger mode: 1
Integration Time (sec): 1.000000E-1
Scans to average: 1
Electric dark correction enabled: true
Nonlinearity correction enabled: false
Boxcar width: 0
XAxis mode: Wavelengths
Number of Pixels in Spectrum: 2048
>>>>>Begin Spectral Data<<<<<
223.165	-7.56
223.4	-7.56
223.635	-7.56
223.869	-26.56
224.104	-24.56
224.338	-9.56
224.573	-7.56
224.808	-7.56
225.042	-4.56
225.277	-22.56
225.511	-1.56
225.746	6.44
225.98	0.44
226.215	19.44
226.449	16.44
226.683	26.44
226.918	17.44
227.152	25.44
227.387	23.44
227.621	36.44
227.856	40.44
228.09	47.44
228.324	46.44
228.559	49.44
228.793	55.44
229.027	63.44
229.262	68.44
229.496	66.44
229.73	98.44
229.964	101.44
230.199	83.44
230.433	81.44
230.667	97.44
230.901	74.44
231.136	81.44
231.37	70.44
231.604	77.44
231.838	70.44
232.072	72.44
232.306	76.44
232.541	91.44
232.775	92.44
233.009	65.44
233.243	82.44
233.477	78.44
233.711	83.44
233.945	86.44
234.179	58.44
234.413	78.44
234.647	87.44
234.881	71.44
235.115	91.44
235.349	86.44
235.583	60.44
235.817	75.44
236.051	86.44
236.285	79.44
236.519	83.44
236.753	81.44
236.987	78.44
237.221	92.44
237.455	93.44
237.689	82.44
237.922	85.44
238.156	84.44
238.39	84.44
238.624	76.44
238.858	73.44
239.091	69.44
239.325	78.44
239.559	77.44
239.793	78.44
240.027	73.44
240.26	90.44
240.494	81.44
240.728	80.44
240.961	80.44
241.195	72.44
241.429	86.44
241.662	69.44
241.896	66.44
242.13	70.44
242.363	69.44
242.597	89.44
242.83	78.44
243.064	84.44
243.298	88.44
243.531	75.44
243.765	82.44
243.998	86.44
244.232	81.44
244.465	81.44
244.699	70.44
244.932	78.44
245.166	86.44
245.399	85.44
245.633	78.44
245.866	74.44
246.099	84.44
246.333	80.44
246.566	79.44
246.8	59.44
247.033	84.44
247.266	81.44
247.5	79.44
247.733	68.44
247.966	76.44
248.2	64.44
248.433	63.44
248.666	92.44
248.899	95.44
249.133	81.44
249.366	109.44
249.599	111.44
249.832	85.44
250.066	79.44
250.299	80.44
250.532	88.44
250.765	78.44
250.998	88.44
251.231	78.44
251.465	83.44
251.698	79.44
251.931	88.44
252.164	91.44
252.397	83.44
252.63	80.44
252.863	72.44
253.096	80.44
253.329	78.44
253.562	83.44
253.795	79.44
254.028	82.44
254.261	70.44
254.494	69.44
254.727	79.44
254.96	74.44
255.193	81.44
255.426	93.44
255.659	76.44
255.892	90.44
256.124	101.44
256.357	86.44
256.59	85.44
256.823	87.44
257.056	103.44
257.289	91.44
257.521	91.44
257.754	74.44
257.987	72.44
258.22	91.44
258.452	90.44
258.685	96.44
258.918	99.44
259.151	91.44
259.383	88.44
259.616	88.44
259.849	83.44
260.081	79.44
260.314	83.44
260.547	79.44
260.779	81.44
261.012	100.44
261.244	101.44
261.477	108.44
261.71	104.44
261.942	122.44
262.175	132.44
262.407	100.44
262.64	75.44
262.872	82.44
263.105	63.44
263.337	80.44
263.57	70.44
263.802	94.44
264.035	75.44
264.267	82.44
264.499	74.44
264.732	83.44
264.964	101.44
265.197	94.44
265.429	80.44
265.661	69.44
265.894	69.44
266.126	90.44
266.358	79.44
266.591	76.44
266.823	82.44
267.055	78.44
267.287	90.44
267.52	82.44
267.752	89.44
267.984	98.44
268.216	79.44
268.448	82.44
268.681	86.44
268.913	92.44
269.145	74.44
269.377	81.44
269.609	80.44
269.841	79.44
270.073	87.44
270.306	77.44
270.538	87.44
270.77	94.44
271.002	80.44
271.234	94.44
271.466	88.44
271.698	80.44
271.93	92.44
272.162	82.44
272.394	81.44
272.626	92.44
272.858	90.44
273.09	98.44
273.322	87.44
273.553	76.44
273.785	79.44
274.017	87.44
274.249	89.44
274.481	89.44
274.713	92.44
274.945	102.44
275.176	106.44
275.408	92.44
275.64	126.44
275.872	138.44
276.104	84.44
276.335	102.44
276.567	105.44
276.799	145.44
277.031	181.44
277.262	200.44
277.494	135.44
277.726	99.44
277.957	92.44
278.189	91.44
278.421	97.44
278.652	89.44
278.884	97.44
279.115	78.44
279.347	91.44
279.579	105.44
279.81	145.44
280.042	215.44
280.273	275.44
280.505	184.44
280.736	127.44
280.968	90.44
281.199	95.44
281.431	103.44
281.662	105.44
281.894	94.44
282.125	117.44
282.356	122.44
282.588	174.44
282.819	124.44
283.051	98.44
283.282	88.44
283.513	86.44
283.745	85.44
283.976	82.44
284.207	87.44
284.439	91.44
284.67	81.44
284.901	89.44
285.132	87.44
285.364	94.44
285.595	92.44
285.826	77.44
286.057	92.44
286.288	79.44
286.52	78.44
286.751	74.44
286.982	84.44
287.213	97.44
287.444	80.44
287.675	76.44
287.906	86.44
288.138	79.44
288.369	88.44
288.6	97.44
288.831	91.44
289.062	92.44
289.293	84.44
289.524	96.44
289.755	88.44
289.986	84.44
290.217	74.44
290.448	86.44
290.679	97.44
290.91	104.44
291.141	96.44
291.371	79.44
291.602	80.44
291.833	80.44
292.064	72.44
292.295	88.44
292.526	91.44
292.757	91.44
292.987	87.44
293.218	84.44
293.449	91.44
293.68	94.44
293.91	81.44
294.141	86.44
294.372	77.44
294.603	90.44
294.833	91.44
295.064	86.44
295.295	92.44
295.525	88.44
295.756	90.44
295.987	135.44
296.217	175.44
296.448	139.44
296.679	87.44
296.909	88.44
297.14	93.44
297.37	93.44
297.601	95.44
297.831	91.44
298.062	98.44
298.292	101.44
298.523	81.44
298.753	85.44
298.984	91.44
299.214	102.44
299.445	88.44
299.675	90.44
299.905	101.44
300.136	96.44
300.366	94.44
300.597	92.44
300.827	85.44
301.057	107.44
301.288	108.44
301.518	102.44
301.748	95.44
301.979	120.44
302.209	100.44
302.439	88.44
302.669	85.44
302.9	95.44
303.13	101.44
303.36	103.44
303.59	136.44
303.82	129.44
304.051	109.44
304.281	94.44
304.511	91.44
304.741	88.44
304.971	89.44
305.201	80.44
305.431	88.44
305.661	86.44
305.891	86.44
306.121	94.44
306.352	119.44
306.582	118.44
306.812	108.44
307.042	119.44
307.272	156.44
307.502	195.44
307.731	188.44
307.961	132.44
308.191	88.44
308.421	109.44
308.651	85.44
308.881	109.44
309.111	90.44
309.341	95.44
309.571	92.44
309.8	88.44
310.03	100.44
310.26	104.44
310.49	109.44
310.72	106.44
310.949	119.44
311.179	106.44
311.409	120.44
311.639	101.44
311.868	101.44
312.098	100.44
312.328	110.44
312.557	102.44
312.787	119.44
313.017	108.44
313.246	101.44
313.476	98.44
313.706	105.44
313.935	89.44
314.165	113.44
314.394	110.44
314.624	107.44
314.853	94.44
315.083	109.44
315.312	85.44
315.542	96.44
315.771	98.44
316.001	79.44
316.23	92.44
316.46	81.44
316.689	90.44
316.919	90.44
317.148	102.44
317.377	116.44
317.607	96.44
317.836	105.44
318.065	72.44
318.295	75.44
318.524	104.44
318.753	82.44
318.983	98.44
319.212	109.44
319.441	121.44
319.67	103.44
319.9	98.44
320.129	91.44
320.358	94.44
320.587	123.44
320.816	109.44
321.046	112.44
321.275	99.44
321.504	100.44
321.733	103.44
321.962	88.44
322.191	112.44
322.42	103.44
322.649	123.44
322.878	136.44
323.108	129.44
323.337	159.44
323.566	157.44
323.795	192.44
324.024	277.44
324.253	574.44
324.482	1293.44
324.71	2686.44
324.939	3472.44
325.168	1201.44
325.397	322.44
325.626	181.44
325.855	152.44
326.084	153.44
326.313	148.44
326.542	217.44
326.77	296.44
326.999	635.44
327.228	1374.44
327.457	2621.44
327.686	2010.44
327.914	653.44
328.143	592.44
328.372	749.44
328.6	417.44
328.829	202.44
329.058	204.44
329.287	205.44
329.515	183.44
329.744	272.44
329.972	566.44
330.201	1172.44
330.43	1644.44
330.658	727.44
330.887	317.44
331.115	196.44
331.344	138.44
331.572	133.44
331.801	148.44
332.03	129.44
332.258	121.44
332.486	109.44
332.715	104.44
332.943	109.44
333.172	119.44
333.4	150.44
333.629	177.44
333.857	246.44
334.085	522.44
334.314	1105.44
334.542	2118.44
334.771	1991.44
334.999	495.44
335.227	174.44
335.455	146.44
335.684	120.44
335.912	105.44
336.14	112.44
336.369	106.44
336.597	110.44
336.825	116.44
337.053	110.44
337.281	111.44
337.51	103.44
337.738	104.44
337.966	103.44
338.194	105.44
338.422	98.44
338.65	104.44
338.878	111.44
339.106	81.44
339.334	91.44
339.562	84.44
339.79	100.44
340.018	99.44
340.246	92.44
340.474	104.44
340.702	102.44
340.93	89.44
341.158	93.44
341.386	94.44
341.614	87.44
341.842	93.44
342.07	90.44
342.298	92.44
342.526	88.44
342.754	98.44
342.981	96.44
343.209	96.44
343.437	90.44
343.665	92.44
343.893	80.44
344.12	80.44
344.348	101.44
344.576	88.44
344.804	98.44
345.031	105.44
345.259	109.44
345.487	112.44
345.714	109.44
345.942	86.44
346.17	102.44
346.397	91.44
346.625	90.44
346.853	91.44
347.08	91.44
347.308	94.44
347.535	101.44
347.763	106.44
347.99	88.44
348.218	107.44
348.445	126.44
348.673	103.44
348.9	94.44
349.128	102.44
349.355	82.44
349.583	101.44
349.81	84.44
350.037	103.44
350.265	95.44
350.492	92.44
350.72	81.44
350.947	102.44
351.174	116.44
351.402	132.44
351.629	109.44
351.856	97.44
352.083	114.44
352.311	101.44
352.538	121.44
352.765	111.44
352.992	104.44
353.22	123.44
353.447	111.44
353.674	101.44
353.901	86.44
354.128	93.44
354.355	94.44
354.583	106.44
354.81	96.44
355.037	97.44
355.264	91.44
355.491	93.44
355.718	88.44
355.945	89.44
356.172	88.44
356.399	89.44
356.626	80.44
356.853	80.44
357.08	97.44
357.307	84.44
357.534	86.44
357.761	89.44
357.988	94.44
358.215	91.44
358.441	90.44
358.668	96.44
358.895	79.44
359.122	92.44
359.349	76.44
359.576	95.44
359.802	108.44
360.029	140.44
360.256	143.44
360.483	121.44
360.709	98.44
360.936	103.44
361.163	84.44
361.39	107.44
361.616	110.44
361.843	99.44
362.07	104.44
362.296	100.44
362.523	85.44
362.749	99.44
362.976	87.44
363.203	92.44
363.429	76.44
363.656	91.44
363.882	92.44
364.109	77.44
364.335	83.44
364.562	82.44
364.788	100.44
365.015	94.44
365.241	109.44
365.468	101.44
365.694	121.44
365.92	117.44
366.147	104.44
366.373	91.44
366.599	96.44
366.826	88.44
367.052	70.44
367.278	91.44
367.505	100.44
367.731	95.44
367.957	103.44
368.184	109.44
368.41	101.44
368.636	132.44
368.862	134.44
369.089	109.44
369.315	91.44
369.541	96.44
369.767	94.44
369.993	87.44
370.219	103.44
370.445	99.44
370.672	83.44
370.898	73.44
371.124	103.44
371.35	98.44
371.576	89.44
371.802	88.44
372.028	83.44
372.254	85.44
372.48	82.44
372.706	92.44
372.932	84.44
373.158	81.44
373.384	93.44
373.61	105.44
373.835	89.44
374.061	89.44
374.287	102.44
374.513	102.44
374.739	91.44
374.965	84.44
375.191	87.44
375.416	91.44
375.642	85.44
375.868	91.44
376.094	84.44
376.319	101.44
376.545	91.44
376.771	98.44
376.997	100.44
377.222	111.44
377.448	82.44
377.674	93.44
377.899	80.44
378.125	84.44
378.35	89.44
378.576	92.44
378.802	87.44
379.027	86.44
379.253	89.44
379.478	86.44
379.704	97.44
379.929	101.44
380.155	84.44
380.38	89.44
380.606	94.44
380.831	86.44
381.057	93.44
381.282	106.44
381.507	92.44
381.733	97.44
381.958	89.44
382.184	95.44
382.409	105.44
382.634	98.44
382.86	106.44
383.085	94.44
383.31	96.44
383.535	109.44
383.761	96.44
383.986	103.44
384.211	97.44
384.436	105.44
384.662	89.44
384.887	95.44
385.112	111.44
385.337	97.44
385.562	101.44
385.787	89.44
386.013	98.44
386.238	107.44
386.463	92.44
386.688	96.44
386.913	96.44
387.138	109.44
387.363	92.44
387.588	88.44
387.813	93.44
388.038	101.44
388.263	97.44
388.488	90.44
388.713	90.44
388.938	88.44
389.163	86.44
389.387	86.44
389.612	87.44
389.837	89.44
390.062	97.44
390.287	86.44
390.512	96.44
390.736	94.44
390.961	90.44
391.186	90.44
391.411	90.44
391.636	85.44
391.86	77.44
392.085	72.44
392.31	93.44
392.534	88.44
392.759	92.44
392.984	89.44
393.208	85.44
393.433	89.44
393.658	99.44
393.882	101.44
394.107	82.44
394.331	81.44
394.556	81.44
394.78	104.44
395.005	91.44
395.229	85.44
395.454	94.44
395.678	82.44
395.903	87.44
396.127	88.44
396.352	81.44
396.576	100.44
396.801	92.44
397.025	68.44
397.249	91.44
397.474	79.44
397.698	80.44
397.922	95.44
398.147	89.44
398.371	86.44
398.595	85.44
398.82	93.44
399.044	87.44
399.268	87.44
399.492	82.44
399.717	94.44
399.941	92.44
400.165	89.44
400.389	95.44
400.613	103.44
400.837	98.44
401.062	85.44
401.286	88.44
401.51	94.44
401.734	88.44
401.958	101.44
402.182	148.44
402.406	188.44
402.63	150.44
402.854	108.44
403.078	102.44
403.302	93.44
403.526	84.44
403.75	86.44
403.974	92.44
404.198	87.44
404.422	88.44
404.645	102.44
404.869	96.44
405.093	134.44
405.317	162.44
405.541	159.44
405.765	107.44
405.988	126.44
406.212	200.44
406.436	306.44
406.66	192.44
406.883	135.44
407.107	111.44
407.331	104.44
407.555	112.44
407.778	105.44
408.002	106.44
408.226	87.44
408.449	81.44
408.673	101.44
408.896	108.44
409.12	96.44
409.344	76.44
409.567	74.44
409.791	81.44
410.014	95.44
410.238	93.44
410.461	89.44
410.685	89.44
410.908	104.44
411.132	105.44
411.355	112.44
411.578	97.44
411.802	92.44
412.025	88.44
412.249	109.44
412.472	112.44
412.695	154.44
412.919	110.44
413.142	103.44
413.365	86.44
413.589	90.44
413.812	91.44
414.035	87.44
414.258	109.44
414.482	101.44
414.705	81.44
414.928	76.44
415.151	81.44
415.374	93.44
415.597	87.44
415.821	105.44
416.044	98.44
416.267	81.44
416.49	93.44
416.713	94.44
416.936	98.44
417.159	91.44
417.382	93.44
417.605	105.44
417.828	120.44
418.051	90.44
418.274	93.44
418.497	85.44
418.72	100.44
418.943	70.44
419.166	92.44
419.389	95.44
419.611	94.44
419.834	108.44
420.057	85.44
420.28	92.44
420.503	91.44
420.726	89.44
420.948	85.44
421.171	113.44
421.394	100.44
421.617	82.44
421.839	95.44
422.062	91.44
422.285	113.44
422.507	101.44
422.73	109.44
422.953	90.44
423.175	92.44
423.398	92.44
423.621	94.44
423.843	79.44
424.066	92.44
424.288	78.44
424.511	87.44
424.733	107.44
424.956	113.44
425.178	120.44
425.401	106.44
425.623	105.44
425.846	85.44
426.068	106.44
426.291	84.44
426.513	78.44
426.735	106.44
426.958	103.44
427.18	125.44
427.402	188.44
427.625	300.44
427.847	285.44
428.069	277.44
428.292	134.44
428.514	121.44
428.736	104.44
428.958	90.44
429.181	94.44
429.403	76.44
429.625	78.44
429.847	99.44
430.069	112.44
430.292	99.44
430.514	75.44
430.736	87.44
430.958	87.44
431.18	91.44
431.402	90.44
431.624	89.44
431.846	80.44
432.068	114.44
432.29	77.44
432.512	71.44
432.734	76.44
432.956	88.44
433.178	104.44
433.4	121.44
433.622	93.44
433.844	90.44
434.066	89.44
434.287	83.44
434.509	92.44
434.731	88.44
434.953	85.44
435.175	83.44
435.397	91.44
435.618	102.44
435.84	123.44
436.062	152.44
436.284	133.44
436.505	105.44
436.727	107.44
436.949	96.44
437.17	94.44
437.392	92.44
437.614	93.44
437.835	137.44
438.057	145.44
438.278	133.44
438.5	117.44
438.721	153.44
438.943	114.44
439.165	93.44
439.386	91.44
439.608	105.44
439.829	111.44
440.05	175.44
440.272	205.44
440.493	117.44
440.715	82.44
440.936	87.44
441.158	98.44
441.379	81.44
441.6	104.44
441.822	101.44
442.043	106.44
442.264	120.44
442.486	128.44
442.707	113.44
442.928	123.44
443.149	173.44
443.371	177.44
443.592	144.44
443.813	136.44
444.034	111.44
444.255	106.44
444.476	98.44
444.698	88.44
444.919	94.44
445.14	149.44
445.361	146.44
445.582	144.44
445.803	222.44
446.024	194.44
446.245	200.44
446.466	128.44
446.687	111.44
446.908	98.44
447.129	92.44
447.35	100.44
447.571	106.44
447.792	95.44
448.013	104.44
448.234	122.44
448.455	117.44
448.675	147.44
448.896	168.44
449.117	121.44
449.338	122.44
449.559	174.44
449.779	163.44
450	108.44
450.221	87.44
450.442	92.44
450.662	98.44
450.883	125.44
451.104	140.44
451.324	101.44
451.545	97.44
451.766	92.44
451.986	97.44
452.207	95.44
452.428	86.44
452.648	110.44
452.869	122.44
453.089	152.44
453.31	145.44
453.53	89.44
453.751	105.44
453.971	104.44
454.192	148.44
454.412	95.44
454.633	81.44
454.853	92.44
455.073	87.44
455.294	91.44
455.514	113.44
455.734	80.44
455.955	90.44
456.175	87.44
456.395	77.44
456.616	92.44
456.836	83.44
457.056	83.44
457.276	84.44
457.497	77.44
457.717	76.44
457.937	95.44
458.157	90.44
458.377	89.44
458.598	124.44
458.818	226.44
459.038	237.44
459.258	151.44
459.478	95.44
459.698	86.44
459.918	86.44
460.138	84.44
460.358	90.44
460.578	83.44
460.798	92.44
461.018	101.44
461.238	95.44
461.458	85.44
461.678	77.44
461.898	83.44
462.118	83.44
462.338	94.44
462.558	85.44
462.777	104.44
462.997	99.44
463.217	106.44
463.437	99.44
463.657	96.44
463.876	99.44
464.096	101.44
464.316	87.44
464.536	118.44
464.755	109.44
464.975	136.44
465.195	246.44
465.414	241.44
465.634	110.44
465.854	98.44
466.073	91.44
466.293	103.44
466.512	100.44
466.732	93.44
466.951	88.44
467.171	108.44
467.391	114.44
467.61	152.44
467.829	238.44
468.049	616.44
468.268	914.44
468.488	230.44
468.707	116.44
468.927	85.44
469.146	98.44
469.365	97.44
469.585	101.44
469.804	108.44
470.023	109.44
470.243	104.44
470.462	119.44
470.681	148.44
470.901	103.44
471.12	117.44
471.339	103.44
471.558	114.44
471.777	160.44
471.997	330.44
472.216	1284.44
472.435	2890.44
472.654	651.44
472.873	168.44
473.092	105.44
473.311	104.44
473.53	97.44
473.749	99.44
473.968	110.44
474.187	128.44
474.406	121.44
474.625	89.44
474.844	98.44
475.063	96.44
475.282	96.44
475.501	93.44
475.72	97.44
475.939	98.44
476.158	102.44
476.377	98.44
476.596	95.44
476.814	100.44
477.033	97.44
477.252	96.44
477.471	86.44
477.69	88.44
477.908	95.44
478.127	89.44
478.346	94.44
478.564	97.44
478.783	99.44
479.002	117.44
479.22	115.44
479.439	137.44
479.658	139.44
479.876	124.44
480.095	116.44
480.313	153.44
480.532	188.44
480.751	318.44
480.969	1193.44
481.188	5095.44
481.406	2786.44
481.624	399.44
481.843	134.44
482.061	106.44
482.28	102.44
482.498	97.44
482.717	91.44
482.935	96.44
483.153	95.44
483.372	95.44
483.59	106.44
483.808	90.44
484.027	96.44
484.245	99.44
484.463	96.44
484.681	95.44
484.9	87.44
485.118	88.44
485.336	104.44
485.554	106.44
485.772	108.44
485.99	89.44
486.209	97.44
486.427	106.44
486.645	107.44
486.863	126.44
487.081	116.44
487.299	95.44
487.517	96.44
487.735	95.44
487.953	90.44
488.171	105.44
488.389	100.44
488.607	94.44
488.825	98.44
489.043	91.44
489.261	104.44
489.479	106.44
489.696	78.44
489.914	91.44
490.132	92.44
490.35	91.44
490.568	94.44
490.786	92.44
491.003	94.44
491.221	93.44
491.439	114.44
491.657	91.44
491.874	92.44
492.092	88.44
492.31	104.44
492.527	97.44
492.745	93.44
492.963	91.44
493.18	105.44
493.398	98.44
493.615	96.44
493.833	108.44
494.05	78.44
494.268	85.44
494.485	92.44
494.703	88.44
494.92	83.44
495.138	93.44
495.355	95.44
495.573	80.44
495.79	98.44
496.008	88.44
496.225	81.44
496.442	86.44
496.66	93.44
496.877	96.44
497.094	104.44
497.312	86.44
497.529	87.44
497.746	85.44
497.963	95.44
498.181	92.44
498.398	97.44
498.615	121.44
498.832	104.44
499.049	95.44
499.267	101.44
499.484	88.44
499.701	86.44
499.918	84.44
500.135	89.44
500.352	89.44
500.569	87.44
500.786	93.44
501.003	89.44
501.22	93.44
501.437	95.44
501.654	89.44
501.871	122.44
502.088	81.44
502.305	85.44
502.522	93.44
502.739	112.44
502.956	97.44
503.172	98.44
503.389	104.44
503.606	126.44
503.823	118.44
504.04	85.44
504.256	107.44
504.473	88.44
504.69	98.44
504.907	101.44
505.123	101.44
505.34	89.44
505.557	94.44
505.773	102.44
505.99	97.44
506.207	96.44
506.423	100.44
506.64	83.44
506.856	85.44
507.073	105.44
507.289	76.44
507.506	111.44
507.722	137.44
507.939	134.44
508.155	111.44
508.372	102.44
508.588	94.44
508.805	107.44
509.021	94.44
509.238	102.44
509.454	96.44
509.67	119.44
509.887	109.44
510.103	148.44
510.319	235.44
510.536	883.44
510.752	3076.44
510.968	815.44
511.184	180.44
511.401	132.44
511.617	127.44
511.833	103.44
512.049	101.44
512.265	94.44
512.481	89.44
512.698	93.44
512.914	95.44
513.13	91.44
