Data from Circ_1997_H10_HRD10591_00005.txt Node
Date: Wed Jan 03 11:29:28 EST 2024
User: Yrep
Spectrometer: HR+D1059
Trigger mode: 1
Integration Time (sec): 1.000000E-1
Scans to average: 1
Electric dark correction enabled: true
Nonlinearity correction enabled: false
Boxcar width: 0
XAxis mode: Wavelengths
Number of Pixels in Spectrum: 2048
>>>>>Begin Spectral Data<<<<<
223.165	-21.12
223.4	-21.12
223.635	-21.12
223.869	-20.12
224.104	-29.12
224.338	-11.12
224.573	-3.12
224.808	-25.12
225.042	-5.12
225.277	-3.12
225.511	-1.12
225.746	-11.12
225.98	14.88
226.215	5.88
226.449	14.88
226.683	27.88
226.918	31.88
227.152	34.88
227.387	20.88
227.621	50.88
227.856	38.88
228.09	55.88
228.324	59.88
228.559	60.88
228.793	44.88
229.027	54.88
229.262	58.88
229.496	81.88
229.73	82.88
229.964	85.88
230.199	92.88
230.433	91.88
230.667	77.88
230.901	78.88
231.136	78.88
231.37	81.88
231.604	91.88
231.838	83.88
232.072	75.88
232.306	88.88
232.541	75.88
232.775	87.88
233.009	81.88
233.243	81.88
233.477	83.88
233.711	78.88
233.945	80.88
234.179	75.88
234.413	89.88
234.647	90.88
234.881	71.88
235.115	92.88
235.349	84.88
235.583	95.88
235.817	66.88
236.051	70.88
236.285	84.88
236.519	92.88
236.753	83.88
236.987	92.88
237.221	91.88
237.455	87.88
237.689	82.88
237.922	73.88
238.156	85.88
238.39	68.88
238.624	68.88
238.858	69.88
239.091	57.88
239.325	89.88
239.559	81.88
239.793	71.88
240.027	68.88
240.26	80.88
240.494	87.88
240.728	98.88
240.961	83.88
241.195	76.88
241.429	67.88
241.662	88.88
241.896	81.88
242.13	83.88
242.363	72.88
242.597	77.88
242.83	77.88
243.064	80.88
243.298	80.88
243.531	81.88
243.765	76.88
243.998	76.88
244.232	70.88
244.465	92.88
244.699	86.88
244.932	80.88
245.166	78.88
245.399	77.88
245.633	81.88
245.866	80.88
246.099	90.88
246.333	78.88
246.566	75.88
246.8	74.88
247.033	76.88
247.266	85.88
247.5	76.88
247.733	73.88
247.966	71.88
248.2	82.88
248.433	82.88
248.666	78.88
248.899	77.88
249.133	93.88
249.366	102.88
249.599	102.88
249.832	93.88
250.066	90.88
250.299	75.88
250.532	79.88
250.765	83.88
250.998	74.88
251.231	81.88
251.465	93.88
251.698	74.88
251.931	83.88
252.164	88.88
252.397	62.88
252.63	86.88
252.863	87.88
253.096	83.88
253.329	82.88
253.562	73.88
253.795	70.88
254.028	86.88
254.261	66.88
254.494	76.88
254.727	65.88
254.96	80.88
255.193	77.88
255.426	89.88
255.659	84.88
255.892	90.88
256.124	103.88
256.357	82.88
256.59	84.88
256.823	86.88
257.056	99.88
257.289	80.88
257.521	103.88
257.754	86.88
257.987	66.88
258.22	80.88
258.452	84.88
258.685	100.88
258.918	88.88
259.151	84.88
259.383	75.88
259.616	78.88
259.849	83.88
260.081	86.88
260.314	82.88
260.547	86.88
260.779	80.88
261.012	87.88
261.244	80.88
261.477	93.88
261.71	91.88
261.942	96.88
262.175	107.88
262.407	95.88
262.64	89.88
262.872	91.88
263.105	77.88
263.337	83.88
263.57	80.88
263.802	79.88
264.035	79.88
264.267	77.88
264.499	78.88
264.732	77.88
264.964	83.88
265.197	83.88
265.429	75.88
265.661	81.88
265.894	88.88
266.126	82.88
266.358	79.88
266.591	78.88
266.823	80.88
267.055	78.88
267.287	74.88
267.52	89.88
267.752	91.88
267.984	79.88
268.216	75.88
268.448	82.88
268.681	65.88
268.913	94.88
269.145	82.88
269.377	92.88
269.609	85.88
269.841	80.88
270.073	73.88
270.306	81.88
270.538	91.88
270.77	80.88
271.002	74.88
271.234	69.88
271.466	82.88
271.698	82.88
271.93	85.88
272.162	87.88
272.394	90.88
272.626	82.88
272.858	87.88
273.09	95.88
273.322	71.88
273.553	90.88
273.785	82.88
274.017	84.88
274.249	84.88
274.481	91.88
274.713	92.88
274.945	87.88
275.176	87.88
275.408	89.88
275.64	90.88
275.872	76.88
276.104	91.88
276.335	75.88
276.567	106.88
276.799	105.88
277.031	116.88
277.262	111.88
277.494	102.88
277.726	93.88
277.957	94.88
278.189	88.88
278.421	79.88
278.652	82.88
278.884	86.88
279.115	90.88
279.347	75.88
279.579	94.88
279.81	104.88
280.042	113.88
280.273	137.88
280.505	111.88
280.736	91.88
280.968	92.88
281.199	93.88
281.431	83.88
281.662	90.88
281.894	94.88
282.125	99.88
282.356	112.88
282.588	126.88
282.819	98.88
283.051	80.88
283.282	84.88
283.513	85.88
283.745	82.88
283.976	97.88
284.207	82.88
284.439	74.88
284.67	93.88
284.901	76.88
285.132	78.88
285.364	83.88
285.595	86.88
285.826	84.88
286.057	89.88
286.288	94.88
286.52	88.88
286.751	97.88
286.982	84.88
287.213	86.88
287.444	95.88
287.675	79.88
287.906	101.88
288.138	91.88
288.369	96.88
288.6	87.88
288.831	97.88
289.062	82.88
289.293	76.88
289.524	84.88
289.755	104.88
289.986	86.88
290.217	69.88
290.448	86.88
290.679	80.88
290.91	96.88
291.141	89.88
291.371	102.88
291.602	88.88
291.833	88.88
292.064	76.88
292.295	83.88
292.526	98.88
292.757	80.88
292.987	86.88
293.218	91.88
293.449	87.88
293.68	97.88
293.91	96.88
294.141	83.88
294.372	91.88
294.603	86.88
294.833	89.88
295.064	93.88
295.295	91.88
295.525	85.88
295.756	97.88
295.987	96.88
296.217	130.88
296.448	126.88
296.679	95.88
296.909	97.88
297.14	88.88
297.37	93.88
297.601	86.88
297.831	78.88
298.062	114.88
298.292	89.88
298.523	79.88
298.753	87.88
298.984	85.88
299.214	84.88
299.445	98.88
299.675	84.88
299.905	96.88
300.136	96.88
300.366	83.88
300.597	102.88
300.827	98.88
301.057	109.88
301.288	117.88
301.518	91.88
301.748	95.88
301.979	98.88
302.209	92.88
302.439	78.88
302.669	88.88
302.9	110.88
303.13	105.88
303.36	105.88
303.59	112.88
303.82	116.88
304.051	90.88
304.281	86.88
304.511	79.88
304.741	102.88
304.971	86.88
305.201	91.88
305.431	83.88
305.661	83.88
305.891	97.88
306.121	76.88
306.352	100.88
306.582	115.88
306.812	91.88
307.042	82.88
307.272	100.88
307.502	115.88
307.731	109.88
307.961	114.88
308.191	74.88
308.421	101.88
308.651	79.88
308.881	83.88
309.111	85.88
309.341	98.88
309.571	95.88
309.8	100.88
310.03	86.88
310.26	88.88
310.49	74.88
310.72	90.88
310.949	102.88
311.179	93.88
311.409	108.88
311.639	94.88
311.868	101.88
312.098	98.88
312.328	91.88
312.557	99.88
312.787	95.88
313.017	117.88
313.246	114.88
313.476	92.88
313.706	94.88
313.935	82.88
314.165	103.88
314.394	93.88
314.624	87.88
314.853	92.88
315.083	103.88
315.312	98.88
315.542	86.88
315.771	87.88
316.001	83.88
316.23	91.88
316.46	88.88
316.689	82.88
316.919	88.88
317.148	110.88
317.377	98.88
317.607	76.88
317.836	89.88
318.065	87.88
318.295	91.88
318.524	89.88
318.753	98.88
318.983	100.88
319.212	103.88
319.441	112.88
319.67	87.88
319.9	93.88
320.129	98.88
320.358	92.88
320.587	92.88
320.816	105.88
321.046	108.88
321.275	94.88
321.504	86.88
321.733	104.88
321.962	106.88
322.191	115.88
322.42	101.88
322.649	109.88
322.878	127.88
323.108	133.88
323.337	124.88
323.566	124.88
323.795	158.88
324.024	223.88
324.253	404.88
324.482	899.88
324.71	1949.88
324.939	2614.88
325.168	941.88
325.397	263.88
325.626	151.88
325.855	130.88
326.084	136.88
326.313	123.88
326.542	182.88
326.77	253.88
326.999	488.88
327.228	1066.88
327.457	1978.88
327.686	1568.88
327.914	456.88
328.143	310.88
328.372	314.88
328.6	191.88
328.829	148.88
329.058	140.88
329.287	140.88
329.515	128.88
329.744	179.88
329.972	229.88
330.201	418.88
330.43	594.88
330.658	278.88
330.887	190.88
331.115	131.88
331.344	118.88
331.572	116.88
331.801	106.88
332.03	118.88
332.258	117.88
332.486	102.88
332.715	95.88
332.943	94.88
333.172	112.88
333.4	107.88
333.629	130.88
333.857	156.88
334.085	220.88
334.314	403.88
334.542	689.88
334.771	707.88
334.999	225.88
335.227	114.88
335.455	107.88
335.684	106.88
335.912	89.88
336.14	81.88
336.369	101.88
336.597	91.88
336.825	97.88
337.053	107.88
337.281	104.88
337.51	87.88
337.738	96.88
337.966	114.88
338.194	103.88
338.422	103.88
338.65	95.88
338.878	100.88
339.106	84.88
339.334	90.88
339.562	95.88
339.79	86.88
340.018	91.88
340.246	99.88
340.474	80.88
340.702	94.88
340.93	87.88
341.158	99.88
341.386	92.88
341.614	85.88
341.842	84.88
342.07	81.88
342.298	92.88
342.526	91.88
342.754	89.88
342.981	91.88
343.209	92.88
343.437	92.88
343.665	97.88
343.893	98.88
344.12	97.88
344.348	88.88
344.576	78.88
344.804	82.88
345.031	100.88
345.259	99.88
345.487	93.88
345.714	89.88
345.942	88.88
346.17	97.88
346.397	104.88
346.625	91.88
346.853	106.88
347.08	82.88
347.308	96.88
347.535	94.88
347.763	96.88
347.99	90.88
348.218	99.88
348.445	99.88
348.673	87.88
348.9	106.88
349.128	100.88
349.355	89.88
349.583	89.88
349.81	84.88
350.037	78.88
350.265	77.88
350.492	95.88
350.72	97.88
350.947	118.88
351.174	115.88
351.402	94.88
351.629	110.88
351.856	97.88
352.083	89.88
352.311	121.88
352.538	107.88
352.765	110.88
352.992	121.88
353.22	120.88
353.447	102.88
353.674	106.88
353.901	96.88
354.128	90.88
354.355	90.88
354.583	85.88
354.81	91.88
355.037	98.88
355.264	100.88
355.491	92.88
355.718	87.88
355.945	96.88
356.172	82.88
356.399	103.88
356.626	93.88
356.853	90.88
357.08	93.88
357.307	102.88
357.534	105.88
357.761	93.88
357.988	111.88
358.215	88.88
358.441	86.88
358.668	85.88
358.895	88.88
359.122	104.88
359.349	90.88
359.576	91.88
359.802	89.88
360.029	119.88
360.256	126.88
360.483	87.88
360.709	94.88
360.936	82.88
361.163	90.88
361.39	105.88
361.616	88.88
361.843	97.88
362.07	97.88
362.296	98.88
362.523	84.88
362.749	105.88
362.976	89.88
363.203	98.88
363.429	92.88
363.656	91.88
363.882	93.88
364.109	87.88
364.335	80.88
364.562	97.88
364.788	113.88
365.015	96.88
365.241	84.88
365.468	95.88
365.694	100.88
365.92	87.88
366.147	93.88
366.373	84.88
366.599	101.88
366.826	96.88
367.052	91.88
367.278	94.88
367.505	103.88
367.731	95.88
367.957	105.88
368.184	98.88
368.41	97.88
368.636	109.88
368.862	137.88
369.089	101.88
369.315	94.88
369.541	100.88
369.767	91.88
369.993	91.88
370.219	81.88
370.445	88.88
370.672	91.88
370.898	92.88
371.124	100.88
371.35	95.88
371.576	88.88
371.802	83.88
372.028	76.88
372.254	87.88
372.48	88.88
372.706	83.88
372.932	75.88
373.158	99.88
373.384	94.88
373.61	90.88
373.835	86.88
374.061	91.88
374.287	84.88
374.513	86.88
374.739	99.88
374.965	102.88
375.191	105.88
375.416	87.88
375.642	76.88
375.868	95.88
376.094	96.88
376.319	79.88
376.545	80.88
376.771	88.88
376.997	81.88
377.222	96.88
377.448	99.88
377.674	77.88
377.899	86.88
378.125	92.88
378.35	84.88
378.576	83.88
378.802	91.88
379.027	94.88
379.253	99.88
379.478	76.88
379.704	89.88
379.929	92.88
380.155	98.88
380.38	97.88
380.606	93.88
380.831	82.88
381.057	94.88
381.282	103.88
381.507	90.88
381.733	86.88
381.958	103.88
382.184	92.88
382.409	99.88
382.634	108.88
382.86	87.88
383.085	105.88
383.31	106.88
383.535	99.88
383.761	84.88
383.986	105.88
384.211	118.88
384.436	103.88
384.662	107.88
384.887	115.88
385.112	116.88
385.337	103.88
385.562	112.88
385.787	96.88
386.013	104.88
386.238	111.88
386.463	99.88
386.688	122.88
386.913	88.88
387.138	123.88
387.363	90.88
387.588	96.88
387.813	122.88
388.038	110.88
388.263	119.88
388.488	113.88
388.713	103.88
388.938	118.88
389.163	99.88
389.387	93.88
389.612	98.88
389.837	88.88
390.062	97.88
390.287	96.88
390.512	110.88
390.736	98.88
390.961	84.88
391.186	88.88
391.411	96.88
391.636	83.88
391.86	87.88
392.085	99.88
392.31	95.88
392.534	82.88
392.759	86.88
392.984	108.88
393.208	99.88
393.433	105.88
393.658	93.88
393.882	98.88
394.107	96.88
394.331	89.88
394.556	81.88
394.78	96.88
395.005	89.88
395.229	69.88
395.454	80.88
395.678	89.88
395.903	84.88
396.127	111.88
396.352	81.88
396.576	80.88
396.801	88.88
397.025	86.88
397.249	88.88
397.474	85.88
397.698	84.88
397.922	87.88
398.147	93.88
398.371	78.88
398.595	100.88
398.82	94.88
399.044	86.88
399.268	87.88
399.492	96.88
399.717	82.88
399.941	86.88
400.165	95.88
400.389	101.88
400.613	89.88
400.837	88.88
401.062	94.88
401.286	94.88
401.51	83.88
401.734	91.88
401.958	97.88
402.182	111.88
402.406	146.88
402.63	118.88
402.854	94.88
403.078	90.88
403.302	80.88
403.526	89.88
403.75	96.88
403.974	92.88
404.198	97.88
404.422	91.88
404.645	89.88
404.869	101.88
405.093	103.88
405.317	116.88
405.541	120.88
405.765	111.88
405.988	122.88
406.212	159.88
406.436	206.88
406.66	146.88
406.883	108.88
407.107	95.88
407.331	93.88
407.555	104.88
407.778	93.88
408.002	87.88
408.226	88.88
408.449	83.88
408.673	99.88
408.896	89.88
409.12	80.88
409.344	95.88
409.567	70.88
409.791	85.88
410.014	97.88
410.238	90.88
410.461	84.88
410.685	98.88
410.908	92.88
411.132	110.88
411.355	88.88
411.578	97.88
411.802	91.88
412.025	76.88
412.249	93.88
412.472	89.88
412.695	111.88
412.919	112.88
413.142	79.88
413.365	96.88
413.589	99.88
413.812	91.88
414.035	98.88
414.258	95.88
414.482	96.88
414.705	90.88
414.928	100.88
415.151	83.88
415.374	87.88
415.597	93.88
415.821	87.88
416.044	87.88
416.267	98.88
416.49	92.88
416.713	79.88
416.936	92.88
417.159	91.88
417.382	88.88
417.605	84.88
417.828	95.88
418.051	96.88
418.274	80.88
418.497	95.88
418.72	77.88
418.943	97.88
419.166	86.88
419.389	89.88
419.611	76.88
419.834	98.88
420.057	91.88
420.28	84.88
420.503	88.88
420.726	80.88
420.948	94.88
421.171	97.88
421.394	92.88
421.617	82.88
421.839	97.88
422.062	94.88
422.285	95.88
422.507	102.88
422.73	112.88
422.953	93.88
423.175	93.88
423.398	91.88
423.621	90.88
423.843	99.88
424.066	74.88
424.288	100.88
424.511	83.88
424.733	104.88
424.956	119.88
425.178	99.88
425.401	110.88
425.623	102.88
425.846	95.88
426.068	92.88
426.291	89.88
426.513	83.88
426.735	98.88
426.958	100.88
427.18	118.88
427.402	129.88
427.625	185.88
427.847	198.88
428.069	177.88
428.292	103.88
428.514	101.88
428.736	91.88
428.958	79.88
429.181	64.88
429.403	86.88
429.625	80.88
429.847	94.88
430.069	94.88
430.292	97.88
430.514	85.88
430.736	92.88
430.958	89.88
431.18	94.88
431.402	91.88
431.624	83.88
431.846	86.88
432.068	82.88
432.29	74.88
432.512	83.88
432.734	90.88
432.956	99.88
433.178	86.88
433.4	97.88
433.622	89.88
433.844	98.88
434.066	98.88
434.287	84.88
434.509	83.88
434.731	92.88
434.953	76.88
435.175	92.88
435.397	95.88
435.618	84.88
435.84	109.88
436.062	126.88
436.284	112.88
436.505	104.88
436.727	112.88
436.949	99.88
437.17	83.88
437.392	73.88
437.614	92.88
437.835	113.88
438.057	131.88
438.278	115.88
438.5	112.88
438.721	129.88
438.943	107.88
439.165	82.88
439.386	100.88
439.608	100.88
439.829	108.88
440.05	123.88
440.272	155.88
440.493	102.88
440.715	94.88
440.936	105.88
441.158	93.88
441.379	92.88
441.6	87.88
441.822	96.88
442.043	82.88
442.264	93.88
442.486	98.88
442.707	103.88
442.928	105.88
443.149	146.88
443.371	144.88
443.592	104.88
443.813	115.88
444.034	110.88
444.255	80.88
444.476	94.88
444.698	94.88
444.919	80.88
445.14	131.88
445.361	134.88
445.582	122.88
445.803	141.88
446.024	154.88
446.245	146.88
446.466	123.88
446.687	90.88
446.908	86.88
447.129	88.88
447.35	84.88
447.571	93.88
447.792	102.88
448.013	84.88
448.234	100.88
448.455	96.88
448.675	132.88
448.896	118.88
449.117	96.88
449.338	95.88
449.559	136.88
449.779	137.88
450	86.88
450.221	92.88
450.442	96.88
450.662	110.88
450.883	105.88
451.104	104.88
451.324	86.88
451.545	97.88
451.766	73.88
451.986	78.88
452.207	94.88
452.428	82.88
452.648	100.88
452.869	113.88
453.089	111.88
453.31	127.88
453.53	108.88
453.751	91.88
453.971	96.88
454.192	99.88
454.412	87.88
454.633	73.88
454.853	82.88
455.073	95.88
455.294	76.88
455.514	95.88
455.734	97.88
455.955	80.88
456.175	90.88
456.395	72.88
456.616	95.88
456.836	87.88
457.056	88.88
457.276	73.88
457.497	91.88
457.717	94.88
457.937	72.88
458.157	86.88
458.377	104.88
458.598	106.88
458.818	145.88
459.038	174.88
459.258	128.88
459.478	88.88
459.698	108.88
459.918	87.88
460.138	85.88
460.358	94.88
460.578	88.88
460.798	89.88
461.018	91.88
461.238	84.88
461.458	86.88
461.678	72.88
461.898	86.88
462.118	94.88
462.338	97.88
462.558	85.88
462.777	90.88
462.997	90.88
463.217	79.88
463.437	88.88
463.657	88.88
463.876	82.88
464.096	91.88
464.316	84.88
464.536	95.88
464.755	78.88
464.975	98.88
465.195	151.88
465.414	151.88
465.634	92.88
465.854	86.88
466.073	101.88
466.293	87.88
466.512	75.88
466.732	95.88
466.951	83.88
467.171	85.88
467.391	93.88
467.61	116.88
467.829	140.88
468.049	256.88
468.268	365.88
468.488	136.88
468.707	97.88
468.927	90.88
469.146	82.88
469.365	83.88
469.585	90.88
469.804	95.88
470.023	88.88
470.243	87.88
470.462	86.88
470.681	112.88
470.901	93.88
471.12	93.88
471.339	92.88
471.558	117.88
471.777	111.88
471.997	167.88
472.216	441.88
472.435	995.88
472.654	289.88
472.873	122.88
473.092	88.88
473.311	107.88
473.53	102.88
473.749	99.88
473.968	99.88
474.187	110.88
474.406	100.88
474.625	83.88
474.844	92.88
475.063	87.88
475.282	84.88
475.501	99.88
475.72	95.88
475.939	78.88
476.158	76.88
476.377	89.88
476.596	90.88
476.814	91.88
477.033	95.88
477.252	87.88
477.471	88.88
477.69	99.88
477.908	85.88
478.127	97.88
478.346	97.88
478.564	95.88
478.783	112.88
479.002	95.88
479.22	96.88
479.439	102.88
479.658	111.88
479.876	114.88
480.095	92.88
480.313	115.88
480.532	108.88
480.751	170.88
480.969	446.88
481.188	1681.88
481.406	1037.88
481.624	205.88
481.843	93.88
482.061	104.88
482.28	93.88
482.498	83.88
482.717	96.88
482.935	86.88
483.153	100.88
483.372	75.88
483.59	87.88
483.808	92.88
484.027	88.88
484.245	93.88
484.463	90.88
484.681	98.88
484.9	89.88
485.118	103.88
485.336	94.88
485.554	92.88
485.772	89.88
485.99	96.88
486.209	99.88
486.427	99.88
486.645	109.88
486.863	127.88
487.081	106.88
487.299	98.88
487.517	98.88
487.735	75.88
487.953	94.88
488.171	97.88
488.389	96.88
488.607	112.88
488.825	86.88
489.043	86.88
489.261	87.88
489.479	85.88
489.696	87.88
489.914	88.88
490.132	89.88
490.35	91.88
490.568	92.88
490.786	83.88
491.003	90.88
491.221	99.88
491.439	91.88
491.657	80.88
491.874	80.88
492.092	83.88
492.31	92.88
492.527	83.88
492.745	82.88
492.963	91.88
493.18	92.88
493.398	96.88
493.615	99.88
493.833	96.88
494.05	87.88
494.268	84.88
494.485	107.88
494.703	91.88
494.92	86.88
495.138	82.88
495.355	87.88
495.573	87.88
495.79	75.88
496.008	83.88
496.225	102.88
496.442	96.88
496.66	97.88
496.877	91.88
497.094	78.88
497.312	70.88
497.529	104.88
497.746	94.88
497.963	97.88
498.181	95.88
498.398	86.88
498.615	111.88
498.832	104.88
499.049	104.88
499.267	92.88
499.484	100.88
499.701	96.88
499.918	106.88
500.135	99.88
500.352	97.88
500.569	92.88
500.786	90.88
501.003	87.88
501.22	88.88
501.437	94.88
501.654	87.88
501.871	101.88
502.088	98.88
502.305	96.88
502.522	97.88
502.739	97.88
502.956	89.88
503.172	94.88
503.389	104.88
503.606	94.88
503.823	108.88
504.04	99.88
504.256	82.88
504.473	87.88
504.69	89.88
504.907	97.88
505.123	96.88
505.34	95.88
505.557	95.88
505.773	86.88
505.99	75.88
506.207	89.88
506.423	91.88
506.64	87.88
506.856	83.88
507.073	75.88
507.289	89.88
507.506	114.88
507.722	119.88
507.939	100.88
508.155	94.88
508.372	89.88
508.588	95.88
508.805	89.88
509.021	82.88
509.238	95.88
509.454	107.88
509.67	98.88
509.887	98.88
510.103	122.88
510.319	190.88
510.536	646.88
510.752	2031.88
510.968	575.88
511.184	152.88
511.401	111.88
511.617	100.88
511.833	95.88
512.049	100.88
512.265	93.88
512.481	95.88
512.698	87.88
512.914	91.88
513.13	93.88
513.346	88.88
513.562	93.88
513.778	95.88
513.994	90.88
514.21	94.88
514.426	116.88
514.642	126.88
514.858	114.88
515.074	145.88
515.29	418.88
