Data from Circ_1997_H10_HRD10591_00057.txt Node
Date: Wed Jan 03 11:29:39 EST 2024
User: Yrep
Spectrometer: HR+D1059
Trigger mode: 1
Integration Time (sec): 1.000000E-1
Scans to average: 1
Electric dark correction enabled: true
Nonlinearity correction enabled: false
Boxcar width: 0
XAxis mode: Wavelengths
Number of Pixels in Spectrum: 2048
>>>>>Begin Spectral Data<<<<<
223.165	-18.06
223.4	-18.06
223.635	-18.06
223.869	-16.06
224.104	-21.06
224.338	-17.06
224.573	-11.06
224.808	-20.06
225.042	2.94
225.277	2.94
225.511	0.94
225.746	-3.06
225.98	6.94
226.215	24.94
226.449	9.94
226.683	14.94
226.918	18.94
227.152	23.94
227.387	20.94
227.621	33.94
227.856	38.94
228.09	46.94
228.324	48.94
228.559	52.94
228.793	62.94
229.027	73.94
229.262	77.94
229.496	94.94
229.73	104.94
229.964	89.94
230.199	92.94
230.433	84.94
230.667	74.94
230.901	84.94
231.136	88.94
231.37	79.94
231.604	78.94
231.838	69.94
232.072	90.94
232.306	82.94
232.541	70.94
232.775	75.94
233.009	85.94
233.243	82.94
233.477	68.94
233.711	75.94
233.945	73.94
234.179	65.94
234.413	92.94
234.647	76.94
234.881	79.94
235.115	81.94
235.349	76.94
235.583	80.94
235.817	80.94
236.051	88.94
236.285	80.94
236.519	84.94
236.753	85.94
236.987	72.94
237.221	92.94
237.455	81.94
237.689	74.94
237.922	67.94
238.156	72.94
238.39	83.94
238.624	73.94
238.858	71.94
239.091	75.94
239.325	78.94
239.559	86.94
239.793	90.94
240.027	86.94
240.26	82.94
240.494	78.94
240.728	96.94
240.961	76.94
241.195	79.94
241.429	85.94
241.662	61.94
241.896	71.94
242.13	76.94
242.363	96.94
242.597	77.94
242.83	84.94
243.064	75.94
243.298	84.94
243.531	77.94
243.765	84.94
243.998	84.94
244.232	74.94
244.465	90.94
244.699	90.94
244.932	79.94
245.166	77.94
245.399	68.94
245.633	82.94
245.866	72.94
246.099	87.94
246.333	88.94
246.566	95.94
246.8	77.94
247.033	76.94
247.266	65.94
247.5	80.94
247.733	74.94
247.966	72.94
248.2	85.94
248.433	97.94
248.666	80.94
248.899	81.94
249.133	94.94
249.366	111.94
249.599	120.94
249.832	86.94
250.066	89.94
250.299	91.94
250.532	87.94
250.765	82.94
250.998	79.94
251.231	72.94
251.465	88.94
251.698	72.94
251.931	86.94
252.164	92.94
252.397	82.94
252.63	99.94
252.863	83.94
253.096	75.94
253.329	89.94
253.562	83.94
253.795	84.94
254.028	77.94
254.261	81.94
254.494	95.94
254.727	90.94
254.96	84.94
255.193	77.94
255.426	79.94
255.659	88.94
255.892	96.94
256.124	94.94
256.357	91.94
256.59	94.94
256.823	83.94
257.056	72.94
257.289	96.94
257.521	76.94
257.754	87.94
257.987	93.94
258.22	91.94
258.452	93.94
258.685	92.94
258.918	91.94
259.151	87.94
259.383	82.94
259.616	67.94
259.849	94.94
260.081	98.94
260.314	88.94
260.547	97.94
260.779	86.94
261.012	109.94
261.244	116.94
261.477	96.94
261.71	106.94
261.942	144.94
262.175	134.94
262.407	95.94
262.64	79.94
262.872	81.94
263.105	84.94
263.337	77.94
263.57	83.94
263.802	79.94
264.035	78.94
264.267	79.94
264.499	72.94
264.732	104.94
264.964	81.94
265.197	87.94
265.429	81.94
265.661	80.94
265.894	94.94
266.126	90.94
266.358	86.94
266.591	89.94
266.823	85.94
267.055	87.94
267.287	82.94
267.52	86.94
267.752	74.94
267.984	98.94
268.216	85.94
268.448	93.94
268.681	95.94
268.913	83.94
269.145	102.94
269.377	95.94
269.609	84.94
269.841	62.94
270.073	84.94
270.306	84.94
270.538	86.94
270.77	79.94
271.002	78.94
271.234	88.94
271.466	88.94
271.698	97.94
271.93	92.94
272.162	97.94
272.394	78.94
272.626	94.94
272.858	80.94
273.09	74.94
273.322	81.94
273.553	82.94
273.785	90.94
274.017	71.94
274.249	98.94
274.481	90.94
274.713	96.94
274.945	99.94
275.176	96.94
275.408	82.94
275.64	116.94
275.872	117.94
276.104	104.94
276.335	100.94
276.567	101.94
276.799	155.94
277.031	198.94
277.262	212.94
277.494	160.94
277.726	101.94
277.957	107.94
278.189	106.94
278.421	96.94
278.652	92.94
278.884	96.94
279.115	103.94
279.347	91.94
279.579	101.94
279.81	138.94
280.042	218.94
280.273	282.94
280.505	186.94
280.736	103.94
280.968	96.94
281.199	82.94
281.431	92.94
281.662	94.94
281.894	102.94
282.125	101.94
282.356	152.94
282.588	170.94
282.819	122.94
283.051	89.94
283.282	98.94
283.513	96.94
283.745	80.94
283.976	102.94
284.207	84.94
284.439	99.94
284.67	93.94
284.901	84.94
285.132	96.94
285.364	89.94
285.595	82.94
285.826	90.94
286.057	104.94
286.288	90.94
286.52	87.94
286.751	82.94
286.982	94.94
287.213	83.94
287.444	102.94
287.675	89.94
287.906	80.94
288.138	102.94
288.369	96.94
288.6	101.94
288.831	100.94
289.062	93.94
289.293	95.94
289.524	88.94
289.755	88.94
289.986	81.94
290.217	84.94
290.448	89.94
290.679	86.94
290.91	82.94
291.141	91.94
291.371	97.94
291.602	83.94
291.833	87.94
292.064	80.94
292.295	103.94
292.526	89.94
292.757	92.94
292.987	89.94
293.218	91.94
293.449	87.94
293.68	88.94
293.91	90.94
294.141	96.94
294.372	86.94
294.603	82.94
294.833	94.94
295.064	76.94
295.295	86.94
295.525	93.94
295.756	105.94
295.987	129.94
296.217	169.94
296.448	151.94
296.679	97.94
296.909	89.94
297.14	95.94
297.37	84.94
297.601	94.94
297.831	101.94
298.062	92.94
298.292	95.94
298.523	103.94
298.753	90.94
298.984	89.94
299.214	94.94
299.445	95.94
299.675	104.94
299.905	102.94
300.136	90.94
300.366	90.94
300.597	98.94
300.827	93.94
301.057	106.94
301.288	112.94
301.518	105.94
301.748	104.94
301.979	112.94
302.209	103.94
302.439	106.94
302.669	85.94
302.9	89.94
303.13	89.94
303.36	121.94
303.59	128.94
303.82	150.94
304.051	117.94
304.281	110.94
304.511	96.94
304.741	85.94
304.971	84.94
305.201	90.94
305.431	94.94
305.661	93.94
305.891	99.94
306.121	100.94
306.352	109.94
306.582	113.94
306.812	109.94
307.042	136.94
307.272	160.94
307.502	193.94
307.731	175.94
307.961	132.94
308.191	92.94
308.421	96.94
308.651	96.94
308.881	95.94
309.111	98.94
309.341	108.94
309.571	111.94
309.8	108.94
310.03	102.94
310.26	101.94
310.49	107.94
310.72	112.94
310.949	141.94
311.179	128.94
311.409	104.94
311.639	102.94
311.868	98.94
312.098	107.94
312.328	95.94
312.557	120.94
312.787	133.94
313.017	112.94
313.246	103.94
313.476	95.94
313.706	97.94
313.935	111.94
314.165	121.94
314.394	111.94
314.624	119.94
314.853	119.94
315.083	101.94
315.312	98.94
315.542	98.94
315.771	90.94
316.001	76.94
316.23	96.94
316.46	94.94
316.689	95.94
316.919	101.94
317.148	98.94
317.377	107.94
317.607	105.94
317.836	104.94
318.065	91.94
318.295	106.94
318.524	103.94
318.753	105.94
318.983	109.94
319.212	103.94
319.441	117.94
319.67	117.94
319.9	85.94
320.129	95.94
320.358	95.94
320.587	104.94
320.816	116.94
321.046	120.94
321.275	105.94
321.504	107.94
321.733	89.94
321.962	111.94
322.191	114.94
322.42	114.94
322.649	142.94
322.878	140.94
323.108	151.94
323.337	168.94
323.566	170.94
323.795	207.94
324.024	294.94
324.253	609.94
324.482	1440.94
324.71	3118.94
324.939	4105.94
325.168	1388.94
325.397	374.94
325.626	199.94
325.855	162.94
326.084	168.94
326.313	167.94
326.542	225.94
326.77	350.94
326.999	730.94
327.228	1630.94
327.457	3066.94
327.686	2412.94
327.914	748.94
328.143	621.94
328.372	780.94
328.6	436.94
328.829	222.94
329.058	212.94
329.287	227.94
329.515	210.94
329.744	308.94
329.972	572.94
330.201	1240.94
330.43	1781.94
330.658	752.94
330.887	359.94
331.115	222.94
331.344	138.94
331.572	135.94
331.801	136.94
332.03	141.94
332.258	121.94
332.486	111.94
332.715	114.94
332.943	126.94
333.172	128.94
333.4	138.94
333.629	176.94
333.857	266.94
334.085	526.94
334.314	1158.94
334.542	2211.94
334.771	2038.94
334.999	518.94
335.227	196.94
335.455	148.94
335.684	116.94
335.912	93.94
336.14	117.94
336.369	108.94
336.597	121.94
336.825	114.94
337.053	106.94
337.281	96.94
337.51	95.94
337.738	109.94
337.966	107.94
338.194	118.94
338.422	112.94
338.65	96.94
338.878	96.94
339.106	91.94
339.334	96.94
339.562	84.94
339.79	86.94
340.018	105.94
340.246	99.94
340.474	111.94
340.702	99.94
340.93	94.94
341.158	92.94
341.386	100.94
341.614	100.94
341.842	97.94
342.07	108.94
342.298	91.94
342.526	98.94
342.754	85.94
342.981	91.94
343.209	96.94
343.437	103.94
343.665	86.94
343.893	80.94
344.12	79.94
344.348	93.94
344.576	93.94
344.804	90.94
345.031	115.94
345.259	111.94
345.487	125.94
345.714	104.94
345.942	90.94
346.17	104.94
346.397	100.94
346.625	78.94
346.853	114.94
347.08	84.94
347.308	91.94
347.535	111.94
347.763	119.94
347.99	103.94
348.218	118.94
348.445	110.94
348.673	116.94
348.9	101.94
349.128	104.94
349.355	86.94
349.583	100.94
349.81	99.94
350.037	100.94
350.265	98.94
350.492	108.94
350.72	90.94
350.947	111.94
351.174	138.94
351.402	122.94
351.629	106.94
351.856	114.94
352.083	112.94
352.311	109.94
352.538	116.94
352.765	130.94
352.992	122.94
353.22	104.94
353.447	107.94
353.674	109.94
353.901	104.94
354.128	102.94
354.355	103.94
354.583	90.94
354.81	98.94
355.037	87.94
355.264	95.94
355.491	91.94
355.718	69.94
355.945	104.94
356.172	99.94
356.399	97.94
356.626	97.94
356.853	83.94
357.08	96.94
357.307	95.94
357.534	96.94
357.761	89.94
357.988	89.94
358.215	82.94
358.441	88.94
358.668	94.94
358.895	92.94
359.122	89.94
359.349	100.94
359.576	90.94
359.802	109.94
360.029	132.94
360.256	162.94
360.483	116.94
360.709	110.94
360.936	101.94
361.163	107.94
361.39	117.94
361.616	103.94
361.843	92.94
362.07	97.94
362.296	101.94
362.523	112.94
362.749	101.94
362.976	104.94
363.203	101.94
363.429	80.94
363.656	98.94
363.882	93.94
364.109	94.94
364.335	108.94
364.562	94.94
364.788	93.94
365.015	109.94
365.241	96.94
365.468	120.94
365.694	132.94
365.92	102.94
366.147	89.94
366.373	99.94
366.599	97.94
366.826	84.94
367.052	85.94
367.278	91.94
367.505	91.94
367.731	96.94
367.957	97.94
368.184	110.94
368.41	99.94
368.636	123.94
368.862	141.94
369.089	128.94
369.315	84.94
369.541	90.94
369.767	102.94
369.993	105.94
370.219	107.94
370.445	99.94
370.672	84.94
370.898	76.94
371.124	90.94
371.35	89.94
371.576	101.94
371.802	97.94
372.028	89.94
372.254	93.94
372.48	78.94
372.706	76.94
372.932	89.94
373.158	96.94
373.384	97.94
373.61	90.94
373.835	97.94
374.061	101.94
374.287	94.94
374.513	113.94
374.739	80.94
374.965	92.94
375.191	97.94
375.416	86.94
375.642	88.94
375.868	85.94
376.094	85.94
376.319	101.94
376.545	86.94
376.771	90.94
376.997	86.94
377.222	75.94
377.448	97.94
377.674	90.94
377.899	96.94
378.125	85.94
378.35	96.94
378.576	92.94
378.802	94.94
379.027	87.94
379.253	93.94
379.478	95.94
379.704	95.94
379.929	70.94
380.155	113.94
380.38	96.94
380.606	92.94
380.831	97.94
381.057	96.94
381.282	93.94
381.507	87.94
381.733	95.94
381.958	98.94
382.184	89.94
382.409	103.94
382.634	102.94
382.86	101.94
383.085	90.94
383.31	95.94
383.535	87.94
383.761	93.94
383.986	99.94
384.211	95.94
384.436	104.94
384.662	104.94
384.887	94.94
385.112	93.94
385.337	96.94
385.562	100.94
385.787	108.94
386.013	116.94
386.238	121.94
386.463	96.94
386.688	111.94
386.913	98.94
387.138	110.94
387.363	88.94
387.588	95.94
387.813	93.94
388.038	109.94
388.263	101.94
388.488	98.94
388.713	101.94
388.938	101.94
389.163	105.94
389.387	87.94
389.612	76.94
389.837	85.94
390.062	104.94
390.287	92.94
390.512	95.94
390.736	79.94
390.961	95.94
391.186	98.94
391.411	76.94
391.636	77.94
391.86	82.94
392.085	77.94
392.31	91.94
392.534	99.94
392.759	89.94
392.984	88.94
393.208	87.94
393.433	92.94
393.658	97.94
393.882	90.94
394.107	92.94
394.331	84.94
394.556	99.94
394.78	84.94
395.005	91.94
395.229	82.94
395.454	100.94
395.678	87.94
395.903	91.94
396.127	99.94
396.352	100.94
396.576	101.94
396.801	91.94
397.025	84.94
397.249	98.94
397.474	95.94
397.698	87.94
397.922	82.94
398.147	94.94
398.371	97.94
398.595	89.94
398.82	90.94
399.044	75.94
399.268	95.94
399.492	79.94
399.717	88.94
399.941	93.94
400.165	79.94
400.389	101.94
400.613	88.94
400.837	106.94
401.062	87.94
401.286	99.94
401.51	97.94
401.734	95.94
401.958	124.94
402.182	151.94
402.406	218.94
402.63	165.94
402.854	105.94
403.078	89.94
403.302	103.94
403.526	83.94
403.75	80.94
403.974	89.94
404.198	91.94
404.422	98.94
404.645	103.94
404.869	102.94
405.093	137.94
405.317	145.94
405.541	169.94
405.765	127.94
405.988	148.94
406.212	223.94
406.436	321.94
406.66	223.94
406.883	108.94
407.107	93.94
407.331	114.94
407.555	124.94
407.778	101.94
408.002	100.94
408.226	92.94
408.449	90.94
408.673	95.94
408.896	103.94
409.12	95.94
409.344	102.94
409.567	85.94
409.791	97.94
410.014	102.94
410.238	88.94
410.461	89.94
410.685	93.94
410.908	96.94
411.132	106.94
411.355	105.94
411.578	89.94
411.802	88.94
412.025	90.94
412.249	109.94
412.472	118.94
412.695	166.94
412.919	112.94
413.142	86.94
413.365	82.94
413.589	78.94
413.812	82.94
414.035	93.94
414.258	102.94
414.482	99.94
414.705	93.94
414.928	94.94
415.151	82.94
415.374	100.94
415.597	92.94
415.821	108.94
416.044	85.94
416.267	93.94
416.49	96.94
416.713	88.94
416.936	91.94
417.159	93.94
417.382	96.94
417.605	104.94
417.828	94.94
418.051	106.94
418.274	96.94
418.497	87.94
418.72	85.94
418.943	82.94
419.166	94.94
419.389	104.94
419.611	90.94
419.834	95.94
420.057	105.94
420.28	98.94
420.503	98.94
420.726	88.94
420.948	80.94
421.171	103.94
421.394	105.94
421.617	105.94
421.839	92.94
422.062	85.94
422.285	82.94
422.507	100.94
422.73	119.94
422.953	101.94
423.175	85.94
423.398	81.94
423.621	90.94
423.843	90.94
424.066	86.94
424.288	78.94
424.511	99.94
424.733	120.94
424.956	150.94
425.178	121.94
425.401	132.94
425.623	116.94
425.846	111.94
426.068	106.94
426.291	102.94
426.513	85.94
426.735	103.94
426.958	104.94
427.18	142.94
427.402	215.94
427.625	299.94
427.847	292.94
428.069	276.94
428.292	147.94
428.514	113.94
428.736	88.94
428.958	76.94
429.181	92.94
429.403	98.94
429.625	97.94
429.847	106.94
430.069	122.94
430.292	94.94
430.514	88.94
430.736	85.94
430.958	86.94
431.18	76.94
431.402	90.94
431.624	93.94
431.846	88.94
432.068	87.94
432.29	87.94
432.512	85.94
432.734	85.94
432.956	90.94
433.178	97.94
433.4	121.94
433.622	85.94
433.844	95.94
434.066	92.94
434.287	86.94
434.509	97.94
434.731	73.94
434.953	95.94
435.175	94.94
435.397	101.94
435.618	84.94
435.84	119.94
436.062	182.94
436.284	153.94
436.505	120.94
436.727	126.94
436.949	111.94
437.17	89.94
437.392	104.94
437.614	121.94
437.835	140.94
438.057	171.94
438.278	130.94
438.5	138.94
438.721	158.94
438.943	118.94
439.165	104.94
439.386	86.94
439.608	94.94
439.829	141.94
440.05	185.94
440.272	233.94
440.493	118.94
440.715	97.94
440.936	81.94
441.158	92.94
441.379	94.94
441.6	112.94
441.822	98.94
442.043	95.94
442.264	132.94
442.486	127.94
442.707	108.94
442.928	127.94
443.149	207.94
443.371	201.94
443.592	149.94
443.813	154.94
444.034	134.94
444.255	99.94
444.476	95.94
444.698	85.94
444.919	97.94
445.14	152.94
445.361	152.94
445.582	144.94
445.803	235.94
446.024	202.94
446.245	203.94
446.466	145.94
446.687	104.94
446.908	100.94
447.129	90.94
447.35	102.94
447.571	111.94
447.792	76.94
448.013	98.94
448.234	135.94
448.455	111.94
448.675	129.94
448.896	153.94
449.117	121.94
449.338	115.94
449.559	178.94
449.779	188.94
450	117.94
450.221	89.94
450.442	98.94
450.662	104.94
450.883	140.94
451.104	142.94
451.324	111.94
451.545	95.94
451.766	95.94
451.986	102.94
452.207	96.94
452.428	111.94
452.648	104.94
452.869	142.94
453.089	134.94
453.31	138.94
453.53	103.94
453.751	88.94
453.971	126.94
454.192	153.94
454.412	111.94
454.633	98.94
454.853	90.94
455.073	90.94
455.294	104.94
455.514	118.94
455.734	107.94
455.955	95.94
456.175	81.94
456.395	85.94
456.616	77.94
456.836	75.94
457.056	92.94
457.276	106.94
457.497	77.94
457.717	69.94
457.937	85.94
458.157	97.94
458.377	98.94
458.598	134.94
458.818	235.94
459.038	285.94
459.258	160.94
459.478	100.94
459.698	98.94
459.918	89.94
460.138	81.94
460.358	95.94
460.578	96.94
460.798	94.94
461.018	88.94
461.238	79.94
461.458	82.94
461.678	75.94
461.898	89.94
462.118	91.94
462.338	95.94
462.558	102.94
462.777	89.94
462.997	105.94
463.217	104.94
463.437	103.94
463.657	94.94
463.876	89.94
464.096	102.94
464.316	112.94
464.536	112.94
464.755	115.94
464.975	117.94
465.195	248.94
465.414	277.94
465.634	117.94
465.854	94.94
466.073	82.94
466.293	101.94
466.512	88.94
466.732	96.94
466.951	98.94
467.171	88.94
467.391	114.94
467.61	170.94
467.829	247.94
468.049	675.94
468.268	952.94
468.488	236.94
468.707	117.94
468.927	102.94
469.146	94.94
469.365	88.94
469.585	95.94
469.804	109.94
470.023	126.94
470.243	95.94
470.462	118.94
470.681	144.94
470.901	117.94
471.12	108.94
471.339	124.94
471.558	133.94
471.777	166.94
471.997	324.94
472.216	1297.94
472.435	2935.94
472.654	670.94
472.873	172.94
473.092	132.94
473.311	104.94
473.53	116.94
473.749	100.94
473.968	121.94
474.187	130.94
474.406	123.94
474.625	101.94
474.844	82.94
475.063	86.94
475.282	88.94
475.501	80.94
475.72	86.94
475.939	86.94
476.158	92.94
476.377	92.94
476.596	86.94
476.814	102.94
477.033	113.94
477.252	102.94
477.471	95.94
477.69	91.94
477.908	103.94
478.127	104.94
478.346	97.94
478.564	104.94
478.783	109.94
479.002	105.94
479.22	114.94
479.439	134.94
479.658	151.94
479.876	140.94
480.095	144.94
480.313	161.94
480.532	189.94
480.751	334.94
480.969	1206.94
481.188	5195.94
481.406	2916.94
481.624	408.94
481.843	150.94
482.061	114.94
482.28	106.94
482.498	111.94
482.717	104.94
482.935	93.94
483.153	90.94
483.372	95.94
483.59	96.94
483.808	103.94
484.027	94.94
484.245	95.94
484.463	97.94
484.681	99.94
484.9	100.94
485.118	102.94
485.336	94.94
485.554	103.94
485.772	105.94
485.99	107.94
486.209	100.94
486.427	123.94
486.645	125.94
486.863	135.94
487.081	106.94
487.299	111.94
487.517	96.94
487.735	103.94
487.953	101.94
488.171	102.94
488.389	107.94
488.607	90.94
488.825	100.94
489.043	81.94
489.261	85.94
489.479	85.94
489.696	98.94
489.914	96.94
490.132	100.94
490.35	86.94
490.568	87.94
490.786	70.94
491.003	92.94
491.221	101.94
491.439	93.94
491.657	89.94
491.874	101.94
492.092	92.94
492.31	96.94
492.527	109.94
492.745	107.94
492.963	100.94
493.18	85.94
493.398	94.94
493.615	96.94
493.833	103.94
494.05	90.94
494.268	92.94
494.485	96.94
494.703	97.94
494.92	89.94
495.138	94.94
495.355	90.94
495.573	96.94
495.79	92.94
496.008	101.94
496.225	87.94
496.442	92.94
496.66	92.94
496.877	84.94
497.094	97.94
497.312	94.94
497.529	97.94
497.746	98.94
497.963	93.94
498.181	95.94
498.398	109.94
498.615	126.94
498.832	117.94
499.049	105.94
499.267	113.94
499.484	85.94
499.701	88.94
499.918	93.94
500.135	93.94
500.352	101.94
500.569	103.94
500.786	113.94
501.003	100.94
501.22	85.94
501.437	96.94
501.654	92.94
501.871	125.94
502.088	87.94
502.305	101.94
502.522	87.94
502.739	74.94
502.956	89.94
503.172	83.94
503.389	113.94
503.606	129.94
503.823	96.94
504.04	94.94
504.256	97.94
504.473	95.94
504.69	96.94
504.907	98.94
505.123	73.94
505.34	108.94
505.557	87.94
505.773	86.94
505.99	94.94
506.207	97.94
506.423	79.94
506.64	96.94
506.856	87.94
507.073	89.94
507.289	100.94
507.506	92.94
507.722	138.94
507.939	148.94
508.155	111.94
508.372	111.94
508.588	100.94
508.805	104.94
509.021	104.94
509.238	101.94
509.454	99.94
509.67	113.94
509.887	118.94
510.103	140.94
510.319	250.94
510.536	951.94
510.752	3304.94
510.968	936.94
511.184	202.94
511.401	130.94
511.617	118.94
511.833	107.94
512.049	109.94
512.265	106.94
