Data from Circ_1997_H10_HRD10591_00094.txt Node
Date: Wed Jan 03 11:29:46 EST 2024
User: Yrep
Spectrometer: HR+D1059
Trigger mode: 1
Integration Time (sec): 1.000000E-1
Scans to average: 1
Electric dark correction enabled: true
Nonlinearity correction enabled: false
Boxcar width: 0
XAxis mode: Wavelengths
Number of Pixels in Spectrum: 2048
>>>>>Begin Spectral Data<<<<<
223.165	-30.94
223.4	-30.94
223.635	-30.94
223.869	-14.94
224.104	-23.94
224.338	-11.94
224.573	-25.94
224.808	-11.94
225.042	-4.94
225.277	7.06
225.511	-3.94
225.746	-4.94
225.98	1.06
226.215	19.06
226.449	28.06
226.683	26.06
226.918	21.06
227.152	31.06
227.387	29.06
227.621	40.06
227.856	39.06
228.09	46.06
228.324	48.06
228.559	50.06
228.793	181.06
229.027	486.06
229.262	575.06
229.496	690.06
229.73	957.06
229.964	953.06
230.199	620.06
230.433	545.06
230.667	528.06
230.901	499.06
231.136	508.06
231.37	498.06
231.604	511.06
231.838	522.06
232.072	514.06
232.306	522.06
232.541	535.06
232.775	531.06
233.009	527.06
233.243	543.06
233.477	553.06
233.711	539.06
233.945	539.06
234.179	571.06
234.413	562.06
234.647	599.06
234.881	581.06
235.115	604.06
235.349	629.06
235.583	624.06
235.817	669.06
236.051	730.06
236.285	706.06
236.519	714.06
236.753	801.06
236.987	1035.06
237.221	1588.06
237.455	1676.06
237.689	969.06
237.922	801.06
238.156	796.06
238.39	761.06
238.624	746.06
238.858	744.06
239.091	747.06
239.325	786.06
239.559	806.06
239.793	801.06
240.027	885.06
240.26	1029.06
240.494	1101.06
240.728	1067.06
240.961	986.06
241.195	940.06
241.429	885.06
241.662	874.06
241.896	897.06
242.13	931.06
242.363	923.06
242.597	961.06
242.83	997.06
243.064	978.06
243.298	1008.06
243.531	989.06
243.765	1002.06
243.998	1014.06
244.232	1055.06
244.465	1061.06
244.699	1067.06
244.932	1066.06
245.166	1094.06
245.399	1071.06
245.633	1053.06
245.866	1099.06
246.099	1097.06
246.333	1111.06
246.566	1156.06
246.8	1151.06
247.033	1195.06
247.266	1203.06
247.5	1258.06
247.733	1344.06
247.966	1333.06
248.2	1376.06
248.433	1413.06
248.666	1470.06
248.899	1614.06
249.133	1783.06
249.366	1841.06
249.599	1751.06
249.832	1770.06
250.066	2048.06
250.299	2868.06
250.532	3857.06
250.765	3459.06
250.998	2839.06
251.231	2295.06
251.465	1953.06
251.698	1866.06
251.931	1775.06
252.164	1746.06
252.397	1718.06
252.63	1773.06
252.863	1877.06
253.096	1949.06
253.329	2002.06
253.562	1955.06
253.795	1849.06
254.028	1881.06
254.261	1967.06
254.494	2234.06
254.727	2591.06
254.96	2718.06
255.193	2529.06
255.426	2689.06
255.659	3410.06
255.892	5424.06
256.124	7049.06
256.357	5640.06
256.59	3825.06
256.823	3027.06
257.056	2642.06
257.289	2427.06
257.521	2327.06
257.754	2199.06
257.987	2127.06
258.22	2094.06
258.452	2060.06
258.685	2025.06
258.918	2069.06
259.151	2065.06
259.383	2074.06
259.616	2090.06
259.849	2146.06
260.081	2329.06
260.314	2449.06
260.547	2353.06
260.779	2206.06
261.012	2181.06
261.244	2159.06
261.477	2105.06
261.71	2105.06
261.942	2212.06
262.175	2224.06
262.407	2119.06
262.64	1991.06
262.872	2032.06
263.105	1993.06
263.337	1986.06
263.57	2025.06
263.802	2011.06
264.035	2017.06
264.267	1968.06
264.499	1997.06
264.732	1999.06
264.964	2039.06
265.197	2060.06
265.429	2040.06
265.661	2029.06
265.894	2107.06
266.126	2077.06
266.358	2098.06
266.591	2125.06
266.823	2183.06
267.055	2221.06
267.287	2182.06
267.52	2156.06
267.752	2164.06
267.984	2157.06
268.216	2226.06
268.448	2246.06
268.681	2357.06
268.913	2461.06
269.145	2671.06
269.377	2686.06
269.609	2550.06
269.841	2550.06
270.073	2710.06
270.306	2991.06
270.538	3107.06
270.77	2925.06
271.002	2785.06
271.234	2778.06
271.466	3014.06
271.698	3151.06
271.93	3104.06
272.162	3066.06
272.394	3013.06
272.626	2816.06
272.858	2717.06
273.09	2665.06
273.322	2664.06
273.553	2623.06
273.785	2689.06
274.017	2665.06
274.249	2745.06
274.481	2753.06
274.713	2782.06
274.945	2945.06
275.176	2893.06
275.408	2965.06
275.64	3067.06
275.872	3178.06
276.104	3145.06
276.335	3080.06
276.567	3306.06
276.799	3585.06
277.031	4240.06
277.262	4502.06
277.494	4034.06
277.726	3553.06
277.957	3412.06
278.189	3284.06
278.421	3152.06
278.652	3161.06
278.884	3124.06
279.115	3165.06
279.347	3136.06
279.579	3321.06
279.81	3576.06
280.042	4017.06
280.273	4546.06
280.505	4203.06
280.736	3651.06
280.968	3413.06
281.199	3292.06
281.431	3206.06
281.662	3170.06
281.894	3169.06
282.125	3193.06
282.356	3425.06
282.588	3594.06
282.819	3358.06
283.051	3135.06
283.282	3079.06
283.513	3106.06
283.745	3139.06
283.976	3213.06
284.207	3143.06
284.439	3147.06
284.67	3182.06
284.901	3120.06
285.132	3144.06
285.364	3138.06
285.595	3123.06
285.826	3156.06
286.057	3219.06
286.288	3235.06
286.52	3216.06
286.751	3236.06
286.982	3229.06
287.213	3234.06
287.444	3254.06
287.675	3355.06
287.906	3440.06
288.138	3493.06
288.369	3402.06
288.6	3437.06
288.831	3365.06
289.062	3363.06
289.293	3343.06
289.524	3312.06
289.755	3346.06
289.986	3361.06
290.217	3291.06
290.448	3230.06
290.679	3350.06
290.91	3271.06
291.141	3293.06
291.371	3281.06
291.602	3288.06
291.833	3233.06
292.064	3296.06
292.295	3280.06
292.526	3277.06
292.757	3286.06
292.987	3192.06
293.218	3206.06
293.449	3258.06
293.68	3265.06
293.91	3295.06
294.141	3236.06
294.372	3273.06
294.603	3291.06
294.833	3297.06
295.064	3306.06
295.295	3337.06
295.525	3304.06
295.756	3422.06
295.987	3488.06
296.217	3800.06
296.448	3733.06
296.679	3432.06
296.909	3431.06
297.14	3393.06
297.37	3428.06
297.601	3451.06
297.831	3523.06
298.062	3504.06
298.292	3549.06
298.523	3631.06
298.753	3555.06
298.984	3574.06
299.214	3601.06
299.445	3583.06
299.675	3597.06
299.905	3659.06
300.136	3656.06
300.366	3612.06
300.597	3681.06
300.827	3831.06
301.057	3890.06
301.288	3910.06
301.518	3951.06
301.748	3852.06
301.979	4017.06
302.209	4064.06
302.439	3985.06
302.669	3937.06
302.9	3870.06
303.13	3818.06
303.36	4024.06
303.59	4173.06
303.82	4373.06
304.051	4097.06
304.281	3901.06
304.511	3835.06
304.741	3808.06
304.971	3785.06
305.201	3818.06
305.431	3791.06
305.661	3792.06
305.891	3777.06
306.121	3765.06
306.352	3878.06
306.582	3837.06
306.812	3838.06
307.042	4058.06
307.272	4416.06
307.502	4514.06
307.731	4413.06
307.961	4110.06
308.191	3909.06
308.421	3854.06
308.651	3906.06
308.881	3961.06
309.111	3965.06
309.341	3918.06
309.571	4031.06
309.8	4165.06
310.03	4293.06
310.26	4315.06
310.49	4214.06
310.72	4463.06
310.949	4569.06
311.179	4517.06
311.409	4304.06
311.639	4342.06
311.868	4350.06
312.098	4359.06
312.328	4519.06
312.557	4678.06
312.787	4799.06
313.017	4642.06
313.246	4429.06
313.476	4273.06
313.706	4405.06
313.935	4546.06
314.165	4713.06
314.394	4778.06
314.624	4634.06
314.853	4519.06
315.083	4431.06
315.312	4325.06
315.542	4334.06
315.771	4283.06
316.001	4250.06
316.23	4273.06
316.46	4325.06
316.689	4362.06
316.919	4431.06
317.148	4519.06
317.377	4471.06
317.607	4465.06
317.836	4441.06
318.065	4328.06
318.295	4329.06
318.524	4407.06
318.753	4369.06
318.983	4307.06
319.212	4354.06
319.441	4476.06
319.67	4482.06
319.9	4351.06
320.129	4406.06
320.358	4393.06
320.587	4535.06
320.816	4659.06
321.046	4666.06
321.275	4559.06
321.504	4682.06
321.733	4627.06
321.962	4803.06
322.191	4971.06
322.42	5154.06
322.649	5219.06
322.878	5325.06
323.108	5579.06
323.337	5905.06
323.566	6229.06
323.795	6657.06
324.024	7543.06
324.253	10279.06
324.482	14726.06
324.71	15619.06
324.939	15619.06
325.168	15391.06
325.397	8550.06
325.626	6898.06
325.855	6447.06
326.084	6294.06
326.313	6455.06
326.542	6831.06
326.77	7903.06
326.999	10430.06
327.228	14615.06
327.457	15619.06
327.686	15619.06
327.914	13888.06
328.143	13522.06
328.372	14183.06
328.6	11415.06
328.829	9239.06
329.058	9434.06
329.287	9645.06
329.515	9812.06
329.744	11717.06
329.972	14771.06
330.201	15619.06
330.43	15619.06
330.658	15438.06
330.887	11707.06
331.115	9513.06
331.344	8175.06
331.572	7717.06
331.801	7722.06
332.03	7701.06
332.258	7472.06
332.486	7504.06
332.715	7777.06
332.943	8196.06
333.172	8759.06
333.4	9482.06
333.629	10711.06
333.857	12864.06
334.085	15380.06
334.314	15619.06
334.542	15619.06
334.771	15619.06
334.999	14848.06
335.227	10747.06
335.455	9069.06
335.684	8120.06
335.912	7517.06
336.14	7119.06
336.369	6905.06
336.597	6959.06
336.825	6638.06
337.053	6309.06
337.281	6176.06
337.51	6059.06
337.738	5994.06
337.966	5935.06
338.194	5969.06
338.422	5804.06
338.65	5592.06
338.878	5555.06
339.106	5524.06
339.334	5392.06
339.562	5380.06
339.79	5258.06
340.018	5304.06
340.246	5367.06
340.474	5295.06
340.702	5288.06
340.93	5172.06
341.158	5184.06
341.386	5186.06
341.614	5181.06
341.842	5168.06
342.07	5075.06
342.298	5039.06
342.526	4971.06
342.754	4966.06
342.981	4922.06
343.209	5063.06
343.437	5225.06
343.665	5577.06
343.893	5798.06
344.12	5859.06
344.348	5582.06
344.576	5533.06
344.804	5504.06
345.031	5448.06
345.259	5473.06
345.487	5148.06
345.714	5065.06
345.942	4921.06
346.17	4892.06
346.397	4872.06
346.625	4892.06
346.853	4830.06
347.08	4836.06
347.308	4942.06
347.535	5011.06
347.763	5069.06
347.99	4983.06
348.218	5027.06
348.445	5219.06
348.673	4950.06
348.9	4865.06
349.128	4798.06
349.355	4653.06
349.583	4719.06
349.81	4679.06
350.037	4682.06
350.265	4653.06
350.492	4640.06
350.72	4682.06
350.947	4789.06
351.174	4921.06
351.402	4999.06
351.629	4884.06
351.856	4911.06
352.083	5029.06
352.311	5088.06
352.538	5095.06
352.765	5016.06
352.992	4855.06
353.22	4785.06
353.447	4762.06
353.674	4717.06
353.901	4582.06
354.128	4576.06
354.355	4571.06
354.583	4602.06
354.81	4574.06
355.037	4529.06
355.264	4432.06
355.491	4464.06
355.718	4516.06
355.945	4475.06
356.172	4460.06
356.399	4448.06
356.626	4466.06
356.853	4530.06
357.08	4464.06
357.307	4512.06
357.534	4512.06
357.761	4459.06
357.988	4457.06
358.215	4455.06
358.441	4547.06
358.668	4559.06
358.895	4579.06
359.122	4669.06
359.349	4756.06
359.576	4938.06
359.802	5312.06
360.029	5717.06
360.256	5513.06
360.483	5192.06
360.709	4859.06
360.936	4757.06
361.163	4817.06
361.39	4883.06
361.616	4906.06
361.843	4769.06
362.07	4895.06
362.296	4863.06
362.523	4833.06
362.749	4840.06
362.976	4779.06
363.203	4664.06
363.429	4574.06
363.656	4681.06
363.882	4631.06
364.109	4614.06
364.335	4613.06
364.562	4684.06
364.788	4622.06
365.015	4671.06
365.241	4621.06
365.468	4692.06
365.694	4783.06
365.92	4732.06
366.147	4634.06
366.373	4668.06
366.599	4600.06
366.826	4585.06
367.052	4550.06
367.278	4717.06
367.505	4624.06
367.731	4665.06
367.957	4720.06
368.184	4733.06
368.41	4839.06
368.636	4949.06
368.862	4833.06
369.089	4697.06
369.315	4695.06
369.541	4682.06
369.767	4836.06
369.993	4778.06
370.219	4720.06
370.445	4738.06
370.672	4688.06
370.898	4719.06
371.124	4733.06
371.35	4896.06
371.576	4784.06
371.802	4877.06
372.028	4802.06
372.254	4798.06
372.48	4778.06
372.706	4889.06
372.932	4959.06
373.158	4844.06
373.384	4865.06
373.61	4861.06
373.835	4904.06
374.061	4864.06
374.287	4964.06
374.513	5002.06
374.739	5148.06
374.965	5199.06
375.191	5198.06
375.416	5090.06
375.642	5019.06
375.868	4991.06
376.094	4938.06
376.319	4861.06
376.545	4874.06
376.771	4818.06
376.997	4828.06
377.222	4821.06
377.448	4773.06
377.674	4765.06
377.899	4678.06
378.125	4750.06
378.35	4688.06
378.576	4754.06
378.802	4714.06
379.027	4665.06
379.253	4718.06
379.478	4647.06
379.704	4713.06
379.929	4741.06
380.155	4778.06
380.38	4797.06
380.606	4785.06
380.831	4774.06
381.057	4827.06
381.282	4827.06
381.507	4839.06
381.733	4929.06
381.958	4901.06
382.184	4952.06
382.409	5017.06
382.634	5010.06
382.86	5019.06
383.085	5083.06
383.31	5137.06
383.535	5210.06
383.761	5292.06
383.986	5397.06
384.211	5426.06
384.436	5502.06
384.662	5601.06
384.887	5630.06
385.112	5627.06
385.337	5689.06
385.562	5725.06
385.787	5799.06
386.013	5851.06
386.238	5953.06
386.463	5827.06
386.688	5762.06
386.913	5581.06
387.138	5629.06
387.363	5621.06
387.588	5592.06
387.813	5576.06
388.038	5550.06
388.263	5641.06
388.488	5655.06
388.713	5703.06
388.938	5597.06
389.163	5616.06
389.387	5555.06
389.612	5539.06
389.837	5544.06
390.062	5585.06
390.287	5510.06
390.512	5563.06
390.736	5641.06
390.961	5673.06
391.186	5806.06
391.411	6014.06
391.636	6070.06
391.86	6210.06
392.085	6349.06
392.31	6225.06
392.534	6126.06
392.759	6065.06
392.984	5864.06
393.208	5839.06
393.433	5877.06
393.658	5924.06
393.882	5841.06
394.107	5948.06
394.331	5941.06
394.556	5984.06
394.78	6073.06
395.005	6081.06
395.229	6093.06
395.454	6254.06
395.678	6367.06
395.903	6403.06
396.127	6408.06
396.352	6245.06
396.576	6122.06
396.801	6061.06
397.025	6128.06
397.249	6189.06
397.474	6345.06
397.698	6378.06
397.922	6591.06
398.147	6687.06
398.371	6739.06
398.595	6955.06
398.82	7222.06
399.044	7869.06
399.268	8593.06
399.492	9596.06
399.717	10230.06
399.941	10067.06
400.165	9495.06
400.389	8811.06
400.613	8025.06
400.837	7546.06
401.062	7420.06
401.286	7274.06
401.51	7293.06
401.734	7186.06
401.958	7375.06
402.182	7436.06
402.406	7627.06
402.63	7697.06
402.854	7771.06
403.078	7796.06
403.302	7975.06
403.526	8082.06
403.75	8215.06
403.974	8378.06
404.198	8345.06
404.422	8578.06
404.645	8747.06
404.869	9147.06
405.093	9937.06
405.317	10729.06
405.541	10581.06
405.765	9409.06
405.988	8689.06
406.212	8784.06
406.436	8905.06
406.66	8958.06
406.883	8738.06
407.107	9358.06
407.331	9813.06
407.555	10351.06
407.778	9993.06
408.002	9142.06
408.226	8782.06
408.449	8642.06
408.673	8497.06
408.896	8683.06
409.12	8727.06
409.344	8299.06
409.567	7886.06
409.791	7881.06
410.014	7751.06
410.238	7815.06
410.461	7726.06
410.685	7818.06
410.908	7959.06
411.132	8149.06
411.355	8317.06
411.578	8025.06
411.802	7875.06
412.025	8250.06
412.249	8925.06
412.472	9771.06
412.695	10622.06
412.919	9702.06
413.142	9118.06
413.365	8536.06
413.589	8033.06
413.812	7707.06
414.035	7509.06
414.258	7628.06
414.482	7520.06
414.705	7514.06
414.928	7327.06
415.151	7323.06
415.374	7240.06
415.597	7179.06
415.821	7114.06
416.044	7220.06
416.267	7224.06
416.49	7045.06
416.713	6976.06
416.936	7117.06
417.159	7255.06
417.382	7517.06
417.605	7805.06
417.828	7931.06
418.051	7634.06
418.274	7358.06
418.497	7202.06
418.72	7366.06
418.943	7402.06
419.166	7742.06
419.389	8347.06
419.611	8402.06
419.834	8486.06
420.057	8775.06
420.28	9313.06
420.503	8994.06
420.726	8533.06
420.948	8385.06
421.171	8550.06
421.394	8210.06
421.617	7590.06
421.839	7429.06
422.062	7548.06
422.285	7624.06
422.507	8308.06
422.73	8909.06
422.953	8121.06
423.175	7691.06
423.398	7697.06
423.621	7755.06
423.843	7999.06
424.066	7897.06
424.288	7836.06
424.511	8077.06
424.733	8674.06
424.956	9202.06
425.178	8616.06
425.401	8821.06
425.623	8567.06
425.846	7431.06
426.068	7403.06
426.291	7223.06
426.513	7239.06
426.735	7424.06
426.958	8062.06
427.18	9143.06
427.402	10770.06
427.625	11651.06
427.847	11097.06
428.069	10869.06
428.292	8730.06
428.514	7355.06
428.736	7077.06
428.958	6893.06
429.181	6519.06
429.403	6509.06
429.625	6750.06
429.847	7094.06
430.069	7676.06
430.292	7093.06
430.514	6429.06
430.736	6412.06
430.958	6297.06
431.18	6264.06
431.402	6288.06
431.624	6257.06
431.846	6350.06
432.068	6387.06
432.29	6406.06
432.512	6377.06
432.734	6441.06
432.956	6374.06
433.178	6577.06
433.4	6570.06
433.622	6366.06
433.844	6415.06
434.066	6361.06
434.287	6418.06
434.509	6777.06
434.731	6919.06
434.953	7106.06
435.175	7242.06
435.397	7370.06
435.618	7224.06
435.84	7765.06
436.062	8880.06
436.284	8746.06
436.505	7272.06
436.727	6930.06
436.949	6565.06
437.17	6435.06
437.392	6353.06
437.614	6624.06
437.835	7133.06
438.057	8478.06
438.278	9125.06
438.5	8940.06
438.721	9897.06
438.943	8358.06
439.165	6946.06
439.386	6871.06
439.608	6879.06
439.829	7194.06
440.05	7778.06
440.272	8417.06
440.493	7265.06
440.715	6816.06
440.936	6673.06
441.158	6674.06
441.379	6911.06
441.6	7228.06
441.822	7584.06
442.043	8057.06
442.264	8981.06
442.486	8527.06
442.707	7449.06
442.928	7406.06
443.149	7936.06
443.371	8157.06
443.592	8701.06
443.813	9764.06
444.034	9501.06
444.255	8116.06
444.476	7891.06
444.698	7966.06
444.919	8231.06
445.14	8072.06
445.361	8153.06
445.582	8539.06
445.803	9547.06
446.024	10361.06
446.245	9675.06
446.466	8456.06
446.687	7063.06
446.908	6718.06
447.129	6401.06
447.35	6266.06
447.571	6240.06
447.792	6115.06
448.013	6266.06
448.234	6461.06
448.455	7356.06
448.675	8830.06
448.896	9234.06
449.117	7394.06
449.338	7753.06
449.559	9505.06
449.779	9554.06
450	7124.06
450.221	6303.06
450.442	6188.06
450.662	6110.06
450.883	6345.06
451.104	6527.06
451.324	6244.06
451.545	5900.06
451.766	5772.06
451.986	5657.06
452.207	5691.06
452.428	5597.06
452.648	5655.06
452.869	5760.06
453.089	5886.06
453.31	5905.06
453.53	5704.06
453.751	5601.06
453.971	5694.06
454.192	5970.06
454.412	5682.06
454.633	5478.06
454.853	5467.06
455.073	5561.06
455.294	6047.06
455.514	6669.06
455.734	6035.06
455.955	5302.06
456.175	5273.06
456.395	5177.06
456.616	5211.06
456.836	5238.06
457.056	5277.06
457.276	5193.06
457.497	5365.06
457.717	5352.06
457.937	5534.06
458.157	5546.06
458.377	5669.06
458.598	6137.06
458.818	7296.06
459.038	8078.06
459.258	7746.06
459.478	6730.06
459.698	6524.06
459.918	6439.06
460.138	6666.06
460.358	6905.06
460.578	7009.06
460.798	7042.06
461.018	6947.06
461.238	6916.06
461.458	6854.06
461.678	6785.06
461.898	7011.06
462.118	7038.06
462.338	7434.06
462.558	7589.06
462.777	7784.06
462.997	8482.06
463.217	8895.06
463.437	8624.06
463.657	8102.06
463.876	7887.06
464.096	7918.06
464.316	7922.06
464.536	7996.06
464.755	7798.06
464.975	7818.06
465.195	8577.06
465.414	8777.06
465.634	7213.06
465.854	6776.06
466.073	6471.06
466.293	6335.06
466.512	6086.06
466.732	6026.06
466.951	6062.06
467.171	6139.06
467.391	6334.06
467.61	6673.06
467.829	7317.06
468.049	9942.06
468.268	12378.06
468.488	8460.06
468.707	6933.06
468.927	6537.06
469.146	6252.06
469.365	6161.06
469.585	6157.06
469.804	6377.06
470.023	6575.06
470.243	6443.06
470.462	6624.06
470.681	6889.06
470.901	6791.06
471.12	6594.06
471.339	6533.06
471.558	6763.06
471.777	7113.06
471.997	8428.06
472.216	14048.06
472.435	15619.06
472.654	14867.06
472.873	9847.06
473.092	8221.06
473.311	7486.06
473.53	7098.06
473.749	6967.06
473.968	7517.06
474.187	8527.06
474.406	7762.06
474.625	6600.06
474.844	6301.06
475.063	6133.06
475.282	6125.06
475.501	6279.06
475.72	6145.06
475.939	6267.06
476.158	6189.06
476.377	6239.06
476.596	6263.06
476.814	6449.06
477.033	6510.06
477.252	6432.06
477.471	6589.06
477.69	6770.06
477.908	6894.06
478.127	6927.06
478.346	7047.06
478.564	7192.06
478.783	7305.06
479.002	7525.06
479.22	7635.06
479.439	7905.06
479.658	8155.06
479.876	8284.06
480.095	8663.06
480.313	9323.06
480.532	9573.06
480.751	10993.06
480.969	15149.06
481.188	15619.06
481.406	15619.06
481.624	15619.06
481.843	12565.06
482.061	10751.06
482.28	9751.06
482.498	9027.06
482.717	8629.06
482.935	8301.06
483.153	8214.06
483.372	7906.06
483.59	7740.06
483.808	7700.06
484.027	7599.06
484.245	7577.06
484.463	7531.06
484.681	7666.06
484.9	7634.06
485.118	7647.06
485.336	7659.06
485.554	7690.06
485.772	7762.06
485.99	7739.06
486.209	7779.06
486.427	7858.06
486.645	8019.06
486.863	8146.06
487.081	7966.06
