Data from Circ_1997_H10_HRD10591_00072.txt Node
Date: Wed Jan 03 11:29:42 EST 2024
User: Yrep
Spectrometer: HR+D1059
Trigger mode: 1
Integration Time (sec): 1.000000E-1
Scans to average: 1
Electric dark correction enabled: true
Nonlinearity correction enabled: false
Boxcar width: 0
XAxis mode: Wavelengths
Number of Pixels in Spectrum: 2048
>>>>>Begin Spectral Data<<<<<
223.165	-37.25
223.4	-37.25
223.635	-37.25
223.869	-6.25
224.104	-21.25
224.338	-17.25
224.573	1.75
224.808	-8.25
225.042	-11.25
225.277	2.75
225.511	-4.25
225.746	12.75
225.98	9.75
226.215	4.75
226.449	3.75
226.683	34.75
226.918	14.75
227.152	20.75
227.387	38.75
227.621	52.75
227.856	46.75
228.09	41.75
228.324	44.75
228.559	44.75
228.793	58.75
229.027	63.75
229.262	71.75
229.496	65.75
229.73	102.75
229.964	95.75
230.199	90.75
230.433	86.75
230.667	78.75
230.901	78.75
231.136	85.75
231.37	79.75
231.604	78.75
231.838	82.75
232.072	67.75
232.306	74.75
232.541	66.75
232.775	82.75
233.009	78.75
233.243	91.75
233.477	83.75
233.711	81.75
233.945	84.75
234.179	79.75
234.413	79.75
234.647	89.75
234.881	78.75
235.115	84.75
235.349	96.75
235.583	83.75
235.817	82.75
236.051	93.75
236.285	84.75
236.519	80.75
236.753	84.75
236.987	80.75
237.221	100.75
237.455	95.75
237.689	86.75
237.922	76.75
238.156	87.75
238.39	68.75
238.624	74.75
238.858	76.75
239.091	74.75
239.325	79.75
239.559	94.75
239.793	84.75
240.027	82.75
240.26	75.75
240.494	89.75
240.728	88.75
240.961	84.75
241.195	86.75
241.429	83.75
241.662	75.75
241.896	75.75
242.13	76.75
242.363	82.75
242.597	87.75
242.83	81.75
243.064	76.75
243.298	72.75
243.531	90.75
243.765	70.75
243.998	76.75
244.232	88.75
244.465	87.75
244.699	88.75
244.932	81.75
245.166	96.75
245.399	109.75
245.633	70.75
245.866	75.75
246.099	88.75
246.333	61.75
246.566	91.75
246.8	74.75
247.033	95.75
247.266	81.75
247.5	77.75
247.733	86.75
247.966	83.75
248.2	99.75
248.433	66.75
248.666	69.75
248.899	90.75
249.133	94.75
249.366	109.75
249.599	122.75
249.832	111.75
250.066	86.75
250.299	90.75
250.532	82.75
250.765	85.75
250.998	86.75
251.231	92.75
251.465	92.75
251.698	94.75
251.931	84.75
252.164	89.75
252.397	76.75
252.63	78.75
252.863	96.75
253.096	81.75
253.329	85.75
253.562	64.75
253.795	97.75
254.028	89.75
254.261	89.75
254.494	77.75
254.727	82.75
254.96	75.75
255.193	81.75
255.426	84.75
255.659	93.75
255.892	98.75
256.124	119.75
256.357	97.75
256.59	86.75
256.823	86.75
257.056	92.75
257.289	95.75
257.521	116.75
257.754	92.75
257.987	90.75
258.22	88.75
258.452	111.75
258.685	105.75
258.918	94.75
259.151	77.75
259.383	96.75
259.616	94.75
259.849	84.75
260.081	93.75
260.314	76.75
260.547	77.75
260.779	108.75
261.012	117.75
261.244	119.75
261.477	106.75
261.71	129.75
261.942	132.75
262.175	147.75
262.407	107.75
262.64	92.75
262.872	85.75
263.105	77.75
263.337	87.75
263.57	82.75
263.802	80.75
264.035	85.75
264.267	93.75
264.499	86.75
264.732	90.75
264.964	88.75
265.197	93.75
265.429	87.75
265.661	82.75
265.894	77.75
266.126	90.75
266.358	85.75
266.591	84.75
266.823	92.75
267.055	91.75
267.287	88.75
267.52	80.75
267.752	93.75
267.984	100.75
268.216	84.75
268.448	88.75
268.681	91.75
268.913	96.75
269.145	96.75
269.377	94.75
269.609	78.75
269.841	90.75
270.073	102.75
270.306	89.75
270.538	74.75
270.77	78.75
271.002	91.75
271.234	95.75
271.466	92.75
271.698	96.75
271.93	94.75
272.162	97.75
272.394	86.75
272.626	89.75
272.858	80.75
273.09	100.75
273.322	106.75
273.553	91.75
273.785	80.75
274.017	92.75
274.249	96.75
274.481	93.75
274.713	78.75
274.945	82.75
275.176	97.75
275.408	113.75
275.64	123.75
275.872	133.75
276.104	114.75
276.335	100.75
276.567	125.75
276.799	154.75
277.031	205.75
277.262	212.75
277.494	155.75
277.726	94.75
277.957	99.75
278.189	93.75
278.421	92.75
278.652	100.75
278.884	100.75
279.115	99.75
279.347	96.75
279.579	121.75
279.81	143.75
280.042	220.75
280.273	304.75
280.505	191.75
280.736	116.75
280.968	104.75
281.199	106.75
281.431	102.75
281.662	102.75
281.894	113.75
282.125	120.75
282.356	146.75
282.588	173.75
282.819	143.75
283.051	104.75
283.282	96.75
283.513	96.75
283.745	102.75
283.976	98.75
284.207	98.75
284.439	90.75
284.67	85.75
284.901	80.75
285.132	89.75
285.364	103.75
285.595	103.75
285.826	101.75
286.057	107.75
286.288	90.75
286.52	102.75
286.751	96.75
286.982	82.75
287.213	80.75
287.444	84.75
287.675	87.75
287.906	93.75
288.138	87.75
288.369	102.75
288.6	86.75
288.831	77.75
289.062	102.75
289.293	91.75
289.524	91.75
289.755	95.75
289.986	98.75
290.217	89.75
290.448	101.75
290.679	75.75
290.91	83.75
291.141	103.75
291.371	90.75
291.602	87.75
291.833	90.75
292.064	104.75
292.295	85.75
292.526	92.75
292.757	93.75
292.987	85.75
293.218	87.75
293.449	85.75
293.68	77.75
293.91	83.75
294.141	87.75
294.372	102.75
294.603	100.75
294.833	79.75
295.064	97.75
295.295	84.75
295.525	84.75
295.756	101.75
295.987	133.75
296.217	191.75
296.448	169.75
296.679	91.75
296.909	102.75
297.14	86.75
297.37	87.75
297.601	82.75
297.831	100.75
298.062	98.75
298.292	88.75
298.523	91.75
298.753	83.75
298.984	91.75
299.214	104.75
299.445	101.75
299.675	85.75
299.905	108.75
300.136	82.75
300.366	88.75
300.597	90.75
300.827	94.75
301.057	120.75
301.288	126.75
301.518	111.75
301.748	94.75
301.979	120.75
302.209	118.75
302.439	102.75
302.669	94.75
302.9	92.75
303.13	98.75
303.36	117.75
303.59	138.75
303.82	160.75
304.051	108.75
304.281	97.75
304.511	90.75
304.741	87.75
304.971	86.75
305.201	97.75
305.431	93.75
305.661	85.75
305.891	106.75
306.121	124.75
306.352	121.75
306.582	121.75
306.812	121.75
307.042	127.75
307.272	169.75
307.502	198.75
307.731	186.75
307.961	137.75
308.191	84.75
308.421	97.75
308.651	98.75
308.881	105.75
309.111	82.75
309.341	96.75
309.571	117.75
309.8	117.75
310.03	119.75
310.26	110.75
310.49	114.75
310.72	114.75
310.949	124.75
311.179	128.75
311.409	105.75
311.639	101.75
311.868	99.75
312.098	99.75
312.328	108.75
312.557	124.75
312.787	112.75
313.017	106.75
313.246	108.75
313.476	103.75
313.706	93.75
313.935	95.75
314.165	114.75
314.394	108.75
314.624	109.75
314.853	106.75
315.083	104.75
315.312	98.75
315.542	101.75
315.771	104.75
316.001	96.75
316.23	94.75
316.46	100.75
316.689	99.75
316.919	105.75
317.148	96.75
317.377	110.75
317.607	120.75
317.836	107.75
318.065	99.75
318.295	106.75
318.524	89.75
318.753	101.75
318.983	101.75
319.212	113.75
319.441	136.75
319.67	141.75
319.9	97.75
320.129	98.75
320.358	90.75
320.587	108.75
320.816	117.75
321.046	133.75
321.275	105.75
321.504	107.75
321.733	115.75
321.962	96.75
322.191	94.75
322.42	128.75
322.649	127.75
322.878	131.75
323.108	151.75
323.337	150.75
323.566	165.75
323.795	209.75
324.024	293.75
324.253	563.75
324.482	1215.75
324.71	2604.75
324.939	3466.75
325.168	1240.75
325.397	335.75
325.626	195.75
325.855	170.75
326.084	156.75
326.313	174.75
326.542	194.75
326.77	306.75
326.999	631.75
327.228	1333.75
327.457	2475.75
327.686	1980.75
327.914	653.75
328.143	628.75
328.372	824.75
328.6	453.75
328.829	203.75
329.058	216.75
329.287	225.75
329.515	204.75
329.744	291.75
329.972	568.75
330.201	1213.75
330.43	1766.75
330.658	776.75
330.887	322.75
331.115	212.75
331.344	130.75
331.572	132.75
331.801	165.75
332.03	145.75
332.258	116.75
332.486	100.75
332.715	138.75
332.943	115.75
333.172	130.75
333.4	132.75
333.629	186.75
333.857	272.75
334.085	515.75
334.314	1100.75
334.542	2238.75
334.771	2149.75
334.999	532.75
335.227	194.75
335.455	138.75
335.684	135.75
335.912	117.75
336.14	120.75
336.369	126.75
336.597	123.75
336.825	106.75
337.053	93.75
337.281	96.75
337.51	89.75
337.738	110.75
337.966	105.75
338.194	100.75
338.422	115.75
338.65	114.75
338.878	104.75
339.106	93.75
339.334	91.75
339.562	100.75
339.79	97.75
340.018	95.75
340.246	111.75
340.474	117.75
340.702	100.75
340.93	96.75
341.158	94.75
341.386	126.75
341.614	110.75
341.842	110.75
342.07	106.75
342.298	108.75
342.526	96.75
342.754	95.75
342.981	93.75
343.209	92.75
343.437	106.75
343.665	81.75
343.893	91.75
344.12	99.75
344.348	95.75
344.576	109.75
344.804	100.75
345.031	114.75
345.259	120.75
345.487	107.75
345.714	109.75
345.942	100.75
346.17	98.75
346.397	92.75
346.625	95.75
346.853	104.75
347.08	96.75
347.308	113.75
347.535	97.75
347.763	116.75
347.99	118.75
348.218	121.75
348.445	116.75
348.673	109.75
348.9	91.75
349.128	86.75
349.355	86.75
349.583	104.75
349.81	108.75
350.037	94.75
350.265	97.75
350.492	102.75
350.72	94.75
350.947	94.75
351.174	121.75
351.402	123.75
351.629	116.75
351.856	106.75
352.083	112.75
352.311	108.75
352.538	120.75
352.765	138.75
352.992	132.75
353.22	129.75
353.447	120.75
353.674	117.75
353.901	106.75
354.128	99.75
354.355	99.75
354.583	105.75
354.81	102.75
355.037	99.75
355.264	104.75
355.491	95.75
355.718	96.75
355.945	88.75
356.172	94.75
356.399	91.75
356.626	88.75
356.853	98.75
357.08	84.75
357.307	94.75
357.534	96.75
357.761	92.75
357.988	99.75
358.215	93.75
358.441	91.75
358.668	93.75
358.895	79.75
359.122	80.75
359.349	89.75
359.576	102.75
359.802	129.75
360.029	138.75
360.256	143.75
360.483	112.75
360.709	98.75
360.936	102.75
361.163	104.75
361.39	118.75
361.616	97.75
361.843	106.75
362.07	113.75
362.296	103.75
362.523	107.75
362.749	113.75
362.976	91.75
363.203	92.75
363.429	92.75
363.656	93.75
363.882	107.75
364.109	93.75
364.335	87.75
364.562	97.75
364.788	108.75
365.015	113.75
365.241	110.75
365.468	116.75
365.694	125.75
365.92	117.75
366.147	117.75
366.373	101.75
366.599	101.75
366.826	90.75
367.052	73.75
367.278	101.75
367.505	100.75
367.731	102.75
367.957	106.75
368.184	102.75
368.41	115.75
368.636	139.75
368.862	143.75
369.089	120.75
369.315	122.75
369.541	111.75
369.767	102.75
369.993	88.75
370.219	101.75
370.445	94.75
370.672	91.75
370.898	100.75
371.124	93.75
371.35	84.75
371.576	89.75
371.802	85.75
372.028	86.75
372.254	99.75
372.48	85.75
372.706	83.75
372.932	92.75
373.158	98.75
373.384	96.75
373.61	102.75
373.835	97.75
374.061	109.75
374.287	105.75
374.513	83.75
374.739	104.75
374.965	87.75
375.191	90.75
375.416	97.75
375.642	98.75
375.868	81.75
376.094	100.75
376.319	102.75
376.545	90.75
376.771	88.75
376.997	87.75
377.222	100.75
377.448	96.75
377.674	85.75
377.899	108.75
378.125	94.75
378.35	92.75
378.576	85.75
378.802	90.75
379.027	98.75
379.253	89.75
379.478	88.75
379.704	110.75
379.929	98.75
380.155	95.75
380.38	96.75
380.606	89.75
380.831	95.75
381.057	96.75
381.282	98.75
381.507	95.75
381.733	98.75
381.958	100.75
382.184	92.75
382.409	96.75
382.634	92.75
382.86	109.75
383.085	108.75
383.31	119.75
383.535	95.75
383.761	110.75
383.986	101.75
384.211	94.75
384.436	111.75
384.662	109.75
384.887	102.75
385.112	97.75
385.337	104.75
385.562	105.75
385.787	100.75
386.013	118.75
386.238	115.75
386.463	110.75
386.688	102.75
386.913	101.75
387.138	94.75
387.363	105.75
387.588	115.75
387.813	105.75
388.038	94.75
388.263	98.75
388.488	105.75
388.713	101.75
388.938	94.75
389.163	101.75
389.387	100.75
389.612	80.75
389.837	91.75
390.062	105.75
390.287	95.75
390.512	90.75
390.736	90.75
390.961	94.75
391.186	105.75
391.411	106.75
391.636	94.75
391.86	96.75
392.085	90.75
392.31	86.75
392.534	96.75
392.759	81.75
392.984	82.75
393.208	81.75
393.433	113.75
393.658	91.75
393.882	96.75
394.107	101.75
394.331	89.75
394.556	91.75
394.78	83.75
395.005	88.75
395.229	81.75
395.454	80.75
395.678	70.75
395.903	95.75
396.127	84.75
396.352	94.75
396.576	91.75
396.801	77.75
397.025	86.75
397.249	82.75
397.474	93.75
397.698	98.75
397.922	92.75
398.147	84.75
398.371	82.75
398.595	100.75
398.82	99.75
399.044	92.75
399.268	85.75
399.492	89.75
399.717	104.75
399.941	96.75
400.165	110.75
400.389	88.75
400.613	103.75
400.837	116.75
401.062	95.75
401.286	99.75
401.51	103.75
401.734	97.75
401.958	109.75
402.182	152.75
402.406	223.75
402.63	170.75
402.854	106.75
403.078	86.75
403.302	109.75
403.526	87.75
403.75	104.75
403.974	80.75
404.198	102.75
404.422	91.75
404.645	97.75
404.869	96.75
405.093	133.75
405.317	159.75
405.541	147.75
405.765	131.75
405.988	143.75
406.212	220.75
406.436	355.75
406.66	235.75
406.883	136.75
407.107	112.75
407.331	113.75
407.555	119.75
407.778	100.75
408.002	96.75
408.226	90.75
408.449	87.75
408.673	109.75
408.896	118.75
409.12	107.75
409.344	93.75
409.567	80.75
409.791	102.75
410.014	95.75
410.238	94.75
410.461	90.75
410.685	100.75
410.908	100.75
411.132	100.75
411.355	107.75
411.578	100.75
411.802	99.75
412.025	92.75
412.249	109.75
412.472	136.75
412.695	150.75
412.919	118.75
413.142	91.75
413.365	74.75
413.589	91.75
413.812	99.75
414.035	85.75
414.258	110.75
414.482	108.75
414.705	91.75
414.928	89.75
415.151	96.75
415.374	89.75
415.597	90.75
415.821	97.75
416.044	94.75
416.267	90.75
416.49	95.75
416.713	94.75
416.936	101.75
417.159	101.75
417.382	94.75
417.605	109.75
417.828	120.75
418.051	104.75
418.274	107.75
418.497	110.75
418.72	90.75
418.943	92.75
419.166	93.75
419.389	105.75
419.611	105.75
419.834	102.75
420.057	102.75
420.28	86.75
420.503	92.75
420.726	93.75
420.948	110.75
421.171	108.75
421.394	101.75
421.617	98.75
421.839	84.75
422.062	107.75
422.285	109.75
422.507	108.75
422.73	120.75
422.953	91.75
423.175	97.75
423.398	77.75
423.621	84.75
423.843	99.75
424.066	95.75
424.288	91.75
424.511	93.75
424.733	116.75
424.956	136.75
425.178	115.75
425.401	116.75
425.623	119.75
425.846	94.75
426.068	112.75
426.291	97.75
426.513	108.75
426.735	100.75
426.958	99.75
427.18	140.75
427.402	190.75
427.625	301.75
427.847	267.75
428.069	240.75
428.292	124.75
428.514	89.75
428.736	93.75
428.958	87.75
429.181	88.75
429.403	99.75
429.625	88.75
429.847	102.75
430.069	132.75
430.292	106.75
430.514	80.75
430.736	94.75
430.958	99.75
431.18	69.75
431.402	95.75
431.624	93.75
431.846	86.75
432.068	83.75
432.29	97.75
432.512	111.75
432.734	96.75
432.956	98.75
433.178	97.75
433.4	98.75
433.622	96.75
433.844	100.75
434.066	89.75
434.287	93.75
434.509	104.75
434.731	114.75
434.953	105.75
435.175	102.75
435.397	93.75
435.618	103.75
435.84	130.75
436.062	150.75
436.284	158.75
436.505	105.75
436.727	123.75
436.949	84.75
437.17	86.75
437.392	91.75
437.614	96.75
437.835	130.75
438.057	161.75
438.278	131.75
438.5	136.75
438.721	162.75
438.943	123.75
439.165	97.75
439.386	108.75
439.608	96.75
439.829	115.75
440.05	174.75
440.272	208.75
440.493	111.75
440.715	104.75
440.936	101.75
441.158	82.75
441.379	96.75
441.6	120.75
441.822	113.75
442.043	115.75
442.264	139.75
442.486	120.75
442.707	111.75
442.928	136.75
443.149	212.75
443.371	189.75
443.592	141.75
443.813	150.75
444.034	140.75
444.255	99.75
444.476	87.75
444.698	78.75
444.919	101.75
445.14	132.75
445.361	136.75
445.582	149.75
445.803	206.75
446.024	187.75
446.245	189.75
446.466	150.75
446.687	96.75
446.908	99.75
447.129	99.75
447.35	107.75
447.571	110.75
447.792	104.75
448.013	98.75
448.234	130.75
448.455	129.75
448.675	130.75
448.896	158.75
449.117	117.75
449.338	121.75
449.559	179.75
449.779	167.75
450	103.75
450.221	88.75
450.442	95.75
450.662	117.75
450.883	144.75
451.104	173.75
451.324	120.75
451.545	100.75
451.766	98.75
451.986	100.75
452.207	106.75
452.428	102.75
452.648	110.75
452.869	154.75
453.089	152.75
453.31	152.75
453.53	100.75
453.751	94.75
453.971	126.75
454.192	136.75
454.412	111.75
454.633	98.75
454.853	101.75
455.073	79.75
455.294	93.75
455.514	139.75
455.734	97.75
455.955	100.75
456.175	106.75
456.395	95.75
456.616	92.75
456.836	82.75
457.056	99.75
457.276	97.75
457.497	90.75
457.717	80.75
457.937	95.75
458.157	86.75
458.377	98.75
458.598	136.75
458.818	221.75
459.038	258.75
459.258	184.75
459.478	101.75
459.698	90.75
459.918	99.75
460.138	89.75
460.358	101.75
460.578	96.75
460.798	97.75
461.018	93.75
461.238	108.75
461.458	96.75
461.678	80.75
461.898	84.75
462.118	92.75
462.338	97.75
462.558	96.75
462.777	96.75
462.997	110.75
463.217	116.75
463.437	105.75
463.657	97.75
463.876	97.75
464.096	98.75
464.316	101.75
464.536	104.75
464.755	117.75
464.975	130.75
465.195	266.75
465.414	258.75
465.634	109.75
465.854	93.75
466.073	93.75
466.293	105.75
466.512	97.75
466.732	106.75
466.951	82.75
467.171	124.75
467.391	123.75
467.61	161.75
467.829	245.75
468.049	684.75
468.268	1048.75
468.488	269.75
468.707	110.75
468.927	97.75
469.146	99.75
469.365	109.75
469.585	99.75
469.804	102.75
470.023	117.75
470.243	111.75
470.462	125.75
470.681	155.75
470.901	123.75
471.12	107.75
471.339	114.75
471.558	127.75
471.777	166.75
471.997	352.75
472.216	1364.75
472.435	3195.75
472.654	701.75
472.873	190.75
473.092	100.75
473.311	89.75
473.53	102.75
473.749	89.75
473.968	123.75
474.187	139.75
474.406	113.75
474.625	92.75
474.844	96.75
475.063	84.75
475.282	91.75
475.501	80.75
475.72	91.75
475.939	94.75
476.158	112.75
476.377	90.75
476.596	100.75
476.814	115.75
477.033	116.75
477.252	113.75
477.471	90.75
477.69	89.75
477.908	112.75
478.127	127.75
478.346	101.75
478.564	97.75
478.783	116.75
479.002	110.75
479.22	117.75
479.439	148.75
479.658	149.75
479.876	142.75
480.095	128.75
480.313	150.75
480.532	188.75
480.751	338.75
480.969	1228.75
481.188	5448.75
481.406	3084.75
481.624	428.75
481.843	163.75
482.061	125.75
482.28	116.75
482.498	92.75
482.717	96.75
482.935	96.75
483.153	104.75
483.372	102.75
483.59	102.75
483.808	105.75
484.027	89.75
484.245	96.75
484.463	115.75
484.681	108.75
484.9	80.75
485.118	114.75
485.336	88.75
485.554	87.75
485.772	101.75
485.99	90.75
486.209	108.75
486.427	113.75
486.645	142.75
486.863	137.75
487.081	114.75
487.299	109.75
487.517	93.75
487.735	100.75
487.953	75.75
488.171	109.75
488.389	109.75
488.607	107.75
488.825	81.75
489.043	88.75
489.261	104.75
489.479	85.75
489.696	99.75
489.914	86.75
490.132	89.75
490.35	80.75
490.568	102.75
490.786	99.75
491.003	94.75
491.221	95.75
491.439	101.75
491.657	94.75
491.874	101.75
492.092	96.75
492.31	112.75
492.527	99.75
492.745	113.75
492.963	106.75
493.18	94.75
493.398	91.75
493.615	107.75
493.833	96.75
494.05	114.75
494.268	96.75
494.485	92.75
494.703	101.75
494.92	109.75
495.138	101.75
495.355	95.75
495.573	105.75
495.79	100.75
496.008	87.75
496.225	85.75
496.442	96.75
496.66	88.75
496.877	93.75
497.094	96.75
497.312	94.75
497.529	89.75
497.746	99.75
497.963	101.75
498.181	94.75
498.398	116.75
498.615	129.75
498.832	130.75
499.049	90.75
499.267	87.75
499.484	97.75
499.701	90.75
499.918	103.75
500.135	84.75
500.352	86.75
500.569	102.75
500.786	90.75
501.003	92.75
501.22	111.75
501.437	86.75
501.654	112.75
501.871	156.75
502.088	107.75
502.305	92.75
502.522	96.75
502.739	106.75
502.956	107.75
503.172	102.75
503.389	102.75
503.606	127.75
503.823	107.75
504.04	96.75
504.256	100.75
504.473	114.75
504.69	84.75
504.907	93.75
505.123	85.75
505.34	98.75
505.557	97.75
505.773	89.75
505.99	92.75
506.207	97.75
506.423	76.75
506.64	88.75
506.856	82.75
507.073	104.75
507.289	101.75
507.506	110.75
507.722	141.75
507.939	150.75
508.155	109.75
508.372	96.75
508.588	100.75
508.805	101.75
509.021	106.75
509.238	101.75
509.454	107.75
509.67	107.75
509.887	125.75
510.103	140.75
510.319	270.75
510.536	986.75
510.752	3612.75
510.968	946.75
511.184	190.75
