Data from Circ_1997_H10_HRD10591_00068.txt Node
Date: Wed Jan 03 11:29:41 EST 2024
User: Yrep
Spectrometer: HR+D1059
Trigger mode: 1
Integration Time (sec): 1.000000E-1
Scans to average: 1
Electric dark correction enabled: true
Nonlinearity correction enabled: false
Boxcar width: 0
XAxis mode: Wavelengths
Number of Pixels in Spectrum: 2048
>>>>>Begin Spectral Data<<<<<
223.165	-23.06
223.4	-23.06
223.635	-23.06
223.869	-20.06
224.104	-10.06
224.338	-12.06
224.573	-17.06
224.808	-4.06
225.042	-8.06
225.277	0.94
225.511	-15.06
225.746	-0.06
225.98	1.94
226.215	10.94
226.449	8.94
226.683	17.94
226.918	34.94
227.152	33.94
227.387	42.94
227.621	42.94
227.856	44.94
228.09	41.94
228.324	56.94
228.559	57.94
228.793	61.94
229.027	58.94
229.262	74.94
229.496	94.94
229.73	100.94
229.964	103.94
230.199	74.94
230.433	94.94
230.667	91.94
230.901	80.94
231.136	60.94
231.37	78.94
231.604	80.94
231.838	74.94
232.072	79.94
232.306	79.94
232.541	79.94
232.775	84.94
233.009	72.94
233.243	71.94
233.477	80.94
233.711	93.94
233.945	72.94
234.179	78.94
234.413	91.94
234.647	73.94
234.881	74.94
235.115	65.94
235.349	68.94
235.583	90.94
235.817	70.94
236.051	92.94
236.285	81.94
236.519	80.94
236.753	83.94
236.987	90.94
237.221	103.94
237.455	100.94
237.689	96.94
237.922	83.94
238.156	71.94
238.39	81.94
238.624	89.94
238.858	91.94
239.091	75.94
239.325	72.94
239.559	83.94
239.793	92.94
240.027	81.94
240.26	78.94
240.494	78.94
240.728	77.94
240.961	94.94
241.195	79.94
241.429	82.94
241.662	83.94
241.896	62.94
242.13	95.94
242.363	90.94
242.597	80.94
242.83	87.94
243.064	83.94
243.298	89.94
243.531	89.94
243.765	91.94
243.998	88.94
244.232	77.94
244.465	82.94
244.699	89.94
244.932	92.94
245.166	79.94
245.399	76.94
245.633	78.94
245.866	72.94
246.099	83.94
246.333	86.94
246.566	91.94
246.8	88.94
247.033	84.94
247.266	81.94
247.5	91.94
247.733	81.94
247.966	78.94
248.2	81.94
248.433	74.94
248.666	91.94
248.899	84.94
249.133	95.94
249.366	129.94
249.599	109.94
249.832	83.94
250.066	91.94
250.299	78.94
250.532	94.94
250.765	85.94
250.998	90.94
251.231	93.94
251.465	91.94
251.698	88.94
251.931	82.94
252.164	98.94
252.397	93.94
252.63	83.94
252.863	78.94
253.096	82.94
253.329	81.94
253.562	91.94
253.795	90.94
254.028	75.94
254.261	68.94
254.494	82.94
254.727	94.94
254.96	79.94
255.193	88.94
255.426	89.94
255.659	79.94
255.892	110.94
256.124	114.94
256.357	83.94
256.59	80.94
256.823	99.94
257.056	88.94
257.289	81.94
257.521	86.94
257.754	85.94
257.987	90.94
258.22	106.94
258.452	110.94
258.685	113.94
258.918	89.94
259.151	87.94
259.383	90.94
259.616	87.94
259.849	98.94
260.081	91.94
260.314	87.94
260.547	92.94
260.779	97.94
261.012	114.94
261.244	139.94
261.477	100.94
261.71	122.94
261.942	149.94
262.175	158.94
262.407	115.94
262.64	94.94
262.872	98.94
263.105	90.94
263.337	84.94
263.57	92.94
263.802	87.94
264.035	74.94
264.267	71.94
264.499	91.94
264.732	91.94
264.964	79.94
265.197	75.94
265.429	93.94
265.661	80.94
265.894	79.94
266.126	78.94
266.358	87.94
266.591	75.94
266.823	78.94
267.055	90.94
267.287	82.94
267.52	98.94
267.752	89.94
267.984	84.94
268.216	91.94
268.448	87.94
268.681	98.94
268.913	87.94
269.145	95.94
269.377	106.94
269.609	90.94
269.841	94.94
270.073	88.94
270.306	80.94
270.538	96.94
270.77	92.94
271.002	85.94
271.234	95.94
271.466	104.94
271.698	89.94
271.93	90.94
272.162	88.94
272.394	84.94
272.626	82.94
272.858	79.94
273.09	85.94
273.322	92.94
273.553	84.94
273.785	76.94
274.017	90.94
274.249	90.94
274.481	84.94
274.713	98.94
274.945	92.94
275.176	106.94
275.408	97.94
275.64	128.94
275.872	130.94
276.104	127.94
276.335	119.94
276.567	138.94
276.799	172.94
277.031	222.94
277.262	247.94
277.494	184.94
277.726	112.94
277.957	93.94
278.189	107.94
278.421	72.94
278.652	86.94
278.884	99.94
279.115	92.94
279.347	95.94
279.579	107.94
279.81	139.94
280.042	255.94
280.273	355.94
280.505	236.94
280.736	135.94
280.968	98.94
281.199	95.94
281.431	83.94
281.662	100.94
281.894	101.94
282.125	110.94
282.356	160.94
282.588	187.94
282.819	143.94
283.051	98.94
283.282	94.94
283.513	102.94
283.745	94.94
283.976	83.94
284.207	95.94
284.439	87.94
284.67	97.94
284.901	81.94
285.132	91.94
285.364	104.94
285.595	84.94
285.826	89.94
286.057	94.94
286.288	87.94
286.52	102.94
286.751	77.94
286.982	102.94
287.213	83.94
287.444	93.94
287.675	92.94
287.906	100.94
288.138	101.94
288.369	97.94
288.6	101.94
288.831	103.94
289.062	92.94
289.293	97.94
289.524	79.94
289.755	96.94
289.986	92.94
290.217	82.94
290.448	85.94
290.679	97.94
290.91	91.94
291.141	99.94
291.371	96.94
291.602	89.94
291.833	90.94
292.064	92.94
292.295	102.94
292.526	83.94
292.757	103.94
292.987	83.94
293.218	90.94
293.449	96.94
293.68	85.94
293.91	92.94
294.141	92.94
294.372	96.94
294.603	97.94
294.833	89.94
295.064	106.94
295.295	103.94
295.525	97.94
295.756	102.94
295.987	144.94
296.217	194.94
296.448	152.94
296.679	113.94
296.909	87.94
297.14	100.94
297.37	97.94
297.601	98.94
297.831	104.94
298.062	97.94
298.292	103.94
298.523	94.94
298.753	89.94
298.984	101.94
299.214	100.94
299.445	104.94
299.675	111.94
299.905	99.94
300.136	94.94
300.366	84.94
300.597	98.94
300.827	100.94
301.057	119.94
301.288	113.94
301.518	113.94
301.748	104.94
301.979	124.94
302.209	108.94
302.439	101.94
302.669	89.94
302.9	100.94
303.13	109.94
303.36	108.94
303.59	159.94
303.82	179.94
304.051	106.94
304.281	99.94
304.511	107.94
304.741	88.94
304.971	109.94
305.201	97.94
305.431	99.94
305.661	100.94
305.891	103.94
306.121	100.94
306.352	118.94
306.582	137.94
306.812	116.94
307.042	144.94
307.272	198.94
307.502	207.94
307.731	185.94
307.961	127.94
308.191	96.94
308.421	112.94
308.651	97.94
308.881	100.94
309.111	103.94
309.341	106.94
309.571	118.94
309.8	97.94
310.03	127.94
310.26	119.94
310.49	123.94
310.72	98.94
310.949	134.94
311.179	130.94
311.409	115.94
311.639	120.94
311.868	97.94
312.098	112.94
312.328	113.94
312.557	139.94
312.787	148.94
313.017	126.94
313.246	115.94
313.476	95.94
313.706	108.94
313.935	103.94
314.165	131.94
314.394	140.94
314.624	118.94
314.853	113.94
315.083	104.94
315.312	107.94
315.542	94.94
315.771	99.94
316.001	103.94
316.23	92.94
316.46	93.94
316.689	98.94
316.919	105.94
317.148	107.94
317.377	108.94
317.607	97.94
317.836	114.94
318.065	102.94
318.295	99.94
318.524	103.94
318.753	86.94
318.983	96.94
319.212	127.94
319.441	136.94
319.67	129.94
319.9	102.94
320.129	113.94
320.358	94.94
320.587	104.94
320.816	116.94
321.046	120.94
321.275	112.94
321.504	99.94
321.733	115.94
321.962	120.94
322.191	124.94
322.42	129.94
322.649	155.94
322.878	152.94
323.108	169.94
323.337	164.94
323.566	192.94
323.795	244.94
324.024	331.94
324.253	692.94
324.482	1603.94
324.71	3366.94
324.939	4432.94
325.168	1494.94
325.397	397.94
325.626	232.94
325.855	177.94
326.084	170.94
326.313	191.94
326.542	231.94
326.77	364.94
326.999	809.94
327.228	1726.94
327.457	3313.94
327.686	2542.94
327.914	812.94
328.143	794.94
328.372	986.94
328.6	552.94
328.829	250.94
329.058	235.94
329.287	272.94
329.515	248.94
329.744	332.94
329.972	737.94
330.201	1580.94
330.43	2227.94
330.658	950.94
330.887	406.94
331.115	272.94
331.344	143.94
331.572	123.94
331.801	165.94
332.03	141.94
332.258	134.94
332.486	115.94
332.715	118.94
332.943	115.94
333.172	146.94
333.4	163.94
333.629	207.94
333.857	329.94
334.085	654.94
334.314	1407.94
334.542	2852.94
334.771	2594.94
334.999	629.94
335.227	219.94
335.455	150.94
335.684	121.94
335.912	125.94
336.14	121.94
336.369	110.94
336.597	127.94
336.825	123.94
337.053	108.94
337.281	97.94
337.51	109.94
337.738	105.94
337.966	110.94
338.194	113.94
338.422	101.94
338.65	92.94
338.878	96.94
339.106	104.94
339.334	81.94
339.562	92.94
339.79	100.94
340.018	97.94
340.246	94.94
340.474	113.94
340.702	106.94
340.93	102.94
341.158	104.94
341.386	119.94
341.614	118.94
341.842	116.94
342.07	110.94
342.298	97.94
342.526	115.94
342.754	94.94
342.981	80.94
343.209	101.94
343.437	103.94
343.665	95.94
343.893	90.94
344.12	95.94
344.348	86.94
344.576	110.94
344.804	87.94
345.031	120.94
345.259	121.94
345.487	114.94
345.714	97.94
345.942	104.94
346.17	98.94
346.397	88.94
346.625	96.94
346.853	115.94
347.08	101.94
347.308	112.94
347.535	110.94
347.763	114.94
347.99	111.94
348.218	106.94
348.445	131.94
348.673	117.94
348.9	103.94
349.128	109.94
349.355	95.94
349.583	110.94
349.81	94.94
350.037	92.94
350.265	118.94
350.492	104.94
350.72	108.94
350.947	120.94
351.174	150.94
351.402	131.94
351.629	111.94
351.856	117.94
352.083	139.94
352.311	126.94
352.538	128.94
352.765	132.94
352.992	134.94
353.22	133.94
353.447	109.94
353.674	109.94
353.901	99.94
354.128	104.94
354.355	113.94
354.583	102.94
354.81	104.94
355.037	104.94
355.264	102.94
355.491	86.94
355.718	96.94
355.945	103.94
356.172	99.94
356.399	103.94
356.626	90.94
356.853	102.94
357.08	97.94
357.307	94.94
357.534	101.94
357.761	100.94
357.988	98.94
358.215	86.94
358.441	85.94
358.668	97.94
358.895	83.94
359.122	88.94
359.349	100.94
359.576	110.94
359.802	138.94
360.029	177.94
360.256	157.94
360.483	134.94
360.709	100.94
360.936	105.94
361.163	107.94
361.39	118.94
361.616	122.94
361.843	106.94
362.07	118.94
362.296	107.94
362.523	105.94
362.749	104.94
362.976	98.94
363.203	95.94
363.429	83.94
363.656	100.94
363.882	92.94
364.109	102.94
364.335	101.94
364.562	102.94
364.788	93.94
365.015	105.94
365.241	119.94
365.468	130.94
365.694	129.94
365.92	124.94
366.147	104.94
366.373	103.94
366.599	100.94
366.826	112.94
367.052	107.94
367.278	111.94
367.505	112.94
367.731	111.94
367.957	117.94
368.184	109.94
368.41	119.94
368.636	152.94
368.862	138.94
369.089	119.94
369.315	90.94
369.541	105.94
369.767	102.94
369.993	98.94
370.219	118.94
370.445	85.94
370.672	84.94
370.898	96.94
371.124	103.94
371.35	98.94
371.576	94.94
371.802	91.94
372.028	95.94
372.254	103.94
372.48	89.94
372.706	73.94
372.932	100.94
373.158	92.94
373.384	98.94
373.61	89.94
373.835	93.94
374.061	107.94
374.287	100.94
374.513	85.94
374.739	87.94
374.965	86.94
375.191	91.94
375.416	91.94
375.642	100.94
375.868	90.94
376.094	91.94
376.319	106.94
376.545	84.94
376.771	105.94
376.997	94.94
377.222	95.94
377.448	92.94
377.674	89.94
377.899	96.94
378.125	95.94
378.35	88.94
378.576	86.94
378.802	92.94
379.027	100.94
379.253	98.94
379.478	97.94
379.704	82.94
379.929	93.94
380.155	102.94
380.38	116.94
380.606	95.94
380.831	99.94
381.057	107.94
381.282	99.94
381.507	85.94
381.733	79.94
381.958	98.94
382.184	106.94
382.409	96.94
382.634	99.94
382.86	99.94
383.085	96.94
383.31	98.94
383.535	107.94
383.761	97.94
383.986	91.94
384.211	92.94
384.436	99.94
384.662	107.94
384.887	105.94
385.112	92.94
385.337	99.94
385.562	101.94
385.787	94.94
386.013	121.94
386.238	123.94
386.463	106.94
386.688	122.94
386.913	105.94
387.138	103.94
387.363	104.94
387.588	96.94
387.813	95.94
388.038	97.94
388.263	99.94
388.488	107.94
388.713	87.94
388.938	99.94
389.163	115.94
389.387	96.94
389.612	95.94
389.837	106.94
390.062	117.94
390.287	100.94
390.512	94.94
390.736	82.94
390.961	89.94
391.186	95.94
391.411	99.94
391.636	97.94
391.86	98.94
392.085	100.94
392.31	92.94
392.534	88.94
392.759	89.94
392.984	87.94
393.208	92.94
393.433	95.94
393.658	87.94
393.882	85.94
394.107	94.94
394.331	92.94
394.556	76.94
394.78	92.94
395.005	98.94
395.229	88.94
395.454	89.94
395.678	89.94
395.903	91.94
396.127	90.94
396.352	88.94
396.576	87.94
396.801	96.94
397.025	91.94
397.249	84.94
397.474	78.94
397.698	75.94
397.922	83.94
398.147	82.94
398.371	86.94
398.595	84.94
398.82	84.94
399.044	75.94
399.268	83.94
399.492	88.94
399.717	90.94
399.941	96.94
400.165	94.94
400.389	121.94
400.613	94.94
400.837	95.94
401.062	101.94
401.286	89.94
401.51	100.94
401.734	97.94
401.958	113.94
402.182	155.94
402.406	224.94
402.63	161.94
402.854	113.94
403.078	111.94
403.302	90.94
403.526	95.94
403.75	100.94
403.974	89.94
404.198	90.94
404.422	103.94
404.645	98.94
404.869	111.94
405.093	144.94
405.317	186.94
405.541	175.94
405.765	151.94
405.988	155.94
406.212	246.94
406.436	374.94
406.66	230.94
406.883	145.94
407.107	120.94
407.331	119.94
407.555	121.94
407.778	136.94
408.002	104.94
408.226	93.94
408.449	98.94
408.673	102.94
408.896	86.94
409.12	119.94
409.344	99.94
409.567	94.94
409.791	89.94
410.014	89.94
410.238	103.94
410.461	101.94
410.685	99.94
410.908	115.94
411.132	111.94
411.355	123.94
411.578	82.94
411.802	96.94
412.025	88.94
412.249	100.94
412.472	139.94
412.695	178.94
412.919	131.94
413.142	91.94
413.365	92.94
413.589	83.94
413.812	93.94
414.035	93.94
414.258	103.94
414.482	90.94
414.705	80.94
414.928	98.94
415.151	76.94
415.374	96.94
415.597	98.94
415.821	94.94
416.044	96.94
416.267	95.94
416.49	86.94
416.713	90.94
416.936	86.94
417.159	94.94
417.382	106.94
417.605	121.94
417.828	117.94
418.051	102.94
418.274	78.94
418.497	90.94
418.72	76.94
418.943	86.94
419.166	85.94
419.389	91.94
419.611	95.94
419.834	86.94
420.057	92.94
420.28	95.94
420.503	92.94
420.726	99.94
420.948	99.94
421.171	109.94
421.394	100.94
421.617	90.94
421.839	88.94
422.062	98.94
422.285	95.94
422.507	111.94
422.73	126.94
422.953	99.94
423.175	106.94
423.398	91.94
423.621	94.94
423.843	106.94
424.066	83.94
424.288	90.94
424.511	104.94
424.733	115.94
424.956	127.94
425.178	129.94
425.401	136.94
425.623	116.94
425.846	109.94
426.068	112.94
426.291	110.94
426.513	106.94
426.735	107.94
426.958	113.94
427.18	134.94
427.402	228.94
427.625	365.94
427.847	345.94
428.069	318.94
428.292	169.94
428.514	106.94
428.736	99.94
428.958	77.94
429.181	64.94
429.403	98.94
429.625	100.94
429.847	92.94
430.069	120.94
430.292	112.94
430.514	98.94
430.736	83.94
430.958	92.94
431.18	62.94
431.402	74.94
431.624	82.94
431.846	82.94
432.068	84.94
432.29	93.94
432.512	92.94
432.734	92.94
432.956	86.94
433.178	118.94
433.4	110.94
433.622	100.94
433.844	99.94
434.066	94.94
434.287	97.94
434.509	83.94
434.731	92.94
434.953	88.94
435.175	80.94
435.397	96.94
435.618	117.94
435.84	118.94
436.062	186.94
436.284	164.94
436.505	134.94
436.727	123.94
436.949	103.94
437.17	104.94
437.392	95.94
437.614	108.94
437.835	134.94
438.057	183.94
438.278	168.94
438.5	151.94
438.721	170.94
438.943	128.94
439.165	95.94
439.386	83.94
439.608	112.94
439.829	132.94
440.05	198.94
440.272	248.94
440.493	142.94
440.715	103.94
440.936	110.94
441.158	98.94
441.379	99.94
441.6	115.94
441.822	100.94
442.043	111.94
442.264	143.94
442.486	122.94
442.707	116.94
442.928	137.94
443.149	240.94
443.371	222.94
443.592	169.94
443.813	166.94
444.034	145.94
444.255	103.94
444.476	80.94
444.698	95.94
444.919	90.94
445.14	144.94
445.361	156.94
445.582	193.94
445.803	254.94
446.024	258.94
446.245	230.94
446.466	162.94
446.687	114.94
446.908	98.94
447.129	88.94
447.35	91.94
447.571	111.94
447.792	94.94
448.013	116.94
448.234	125.94
448.455	145.94
448.675	172.94
448.896	189.94
449.117	116.94
449.338	133.94
449.559	186.94
449.779	185.94
450	118.94
450.221	93.94
450.442	100.94
450.662	103.94
450.883	154.94
451.104	151.94
451.324	114.94
451.545	90.94
451.766	93.94
451.986	94.94
452.207	97.94
452.428	113.94
452.648	120.94
452.869	145.94
453.089	153.94
453.31	161.94
453.53	110.94
453.751	113.94
453.971	138.94
454.192	162.94
454.412	123.94
454.633	91.94
454.853	84.94
455.073	92.94
455.294	96.94
455.514	127.94
455.734	101.94
455.955	94.94
456.175	88.94
456.395	82.94
456.616	84.94
456.836	89.94
457.056	95.94
457.276	101.94
457.497	90.94
457.717	91.94
457.937	100.94
458.157	106.94
458.377	110.94
458.598	139.94
458.818	279.94
459.038	299.94
459.258	196.94
459.478	102.94
459.698	79.94
459.918	95.94
460.138	85.94
460.358	66.94
460.578	73.94
460.798	94.94
461.018	95.94
461.238	92.94
461.458	94.94
461.678	100.94
461.898	89.94
462.118	92.94
462.338	103.94
462.558	108.94
462.777	94.94
462.997	112.94
463.217	116.94
463.437	107.94
463.657	83.94
463.876	83.94
464.096	94.94
464.316	108.94
464.536	119.94
464.755	117.94
464.975	156.94
465.195	303.94
465.414	313.94
465.634	120.94
465.854	90.94
466.073	86.94
466.293	83.94
466.512	99.94
466.732	105.94
466.951	95.94
467.171	109.94
467.391	144.94
467.61	178.94
467.829	278.94
468.049	760.94
468.268	1162.94
468.488	292.94
468.707	134.94
468.927	99.94
469.146	99.94
469.365	107.94
469.585	100.94
469.804	118.94
470.023	115.94
470.243	108.94
470.462	134.94
470.681	166.94
470.901	106.94
471.12	98.94
471.339	117.94
471.558	142.94
471.777	197.94
471.997	408.94
472.216	1593.94
472.435	3671.94
472.654	814.94
472.873	191.94
473.092	111.94
473.311	94.94
473.53	107.94
473.749	101.94
473.968	127.94
474.187	143.94
474.406	123.94
474.625	96.94
474.844	92.94
475.063	75.94
475.282	88.94
475.501	91.94
475.72	107.94
475.939	96.94
476.158	96.94
476.377	92.94
476.596	111.94
476.814	117.94
477.033	112.94
477.252	98.94
477.471	91.94
477.69	96.94
477.908	87.94
478.127	100.94
478.346	97.94
478.564	94.94
478.783	107.94
479.002	113.94
479.22	125.94
479.439	155.94
479.658	155.94
479.876	131.94
480.095	141.94
480.313	159.94
480.532	213.94
480.751	377.94
480.969	1462.94
481.188	6474.94
481.406	3534.94
481.624	487.94
481.843	162.94
482.061	121.94
482.28	112.94
482.498	105.94
482.717	84.94
482.935	84.94
483.153	82.94
483.372	92.94
483.59	88.94
483.808	102.94
484.027	99.94
484.245	90.94
484.463	118.94
484.681	102.94
484.9	109.94
485.118	96.94
485.336	97.94
485.554	95.94
485.772	102.94
485.99	110.94
486.209	103.94
486.427	117.94
486.645	116.94
486.863	128.94
487.081	119.94
487.299	110.94
487.517	93.94
487.735	94.94
487.953	99.94
488.171	90.94
488.389	96.94
488.607	110.94
488.825	96.94
489.043	96.94
489.261	79.94
489.479	94.94
489.696	80.94
489.914	91.94
490.132	105.94
490.35	100.94
490.568	92.94
490.786	94.94
491.003	100.94
491.221	94.94
491.439	121.94
491.657	106.94
491.874	106.94
492.092	108.94
492.31	96.94
492.527	115.94
492.745	108.94
492.963	98.94
493.18	92.94
493.398	103.94
493.615	100.94
493.833	99.94
494.05	97.94
494.268	89.94
494.485	98.94
494.703	94.94
494.92	97.94
495.138	88.94
495.355	100.94
495.573	88.94
495.79	87.94
496.008	95.94
496.225	99.94
496.442	99.94
496.66	101.94
496.877	86.94
497.094	101.94
497.312	104.94
497.529	101.94
497.746	93.94
497.963	102.94
498.181	83.94
498.398	106.94
498.615	127.94
498.832	130.94
499.049	97.94
499.267	98.94
499.484	90.94
499.701	91.94
499.918	90.94
500.135	85.94
500.352	82.94
500.569	108.94
500.786	112.94
501.003	100.94
501.22	95.94
501.437	105.94
501.654	100.94
501.871	152.94
502.088	100.94
502.305	108.94
502.522	111.94
502.739	99.94
502.956	98.94
503.172	90.94
503.389	123.94
503.606	138.94
503.823	118.94
504.04	95.94
504.256	106.94
504.473	95.94
504.69	92.94
504.907	101.94
505.123	100.94
505.34	95.94
505.557	75.94
505.773	88.94
505.99	82.94
506.207	90.94
506.423	91.94
506.64	106.94
506.856	102.94
507.073	97.94
507.289	96.94
507.506	119.94
507.722	139.94
507.939	162.94
508.155	90.94
508.372	103.94
508.588	98.94
508.805	110.94
509.021	106.94
509.238	98.94
509.454	102.94
509.67	119.94
509.887	116.94
510.103	150.94
510.319	262.94
510.536	1056.94
510.752	3763.94
510.968	956.94
