Data from Circ_1997_H10_HRD10591_00070.txt Node
Date: Wed Jan 03 11:29:41 EST 2024
User: Yrep
Spectrometer: HR+D1059
Trigger mode: 1
Integration Time (sec): 1.000000E-1
Scans to average: 1
Electric dark correction enabled: true
Nonlinearity correction enabled: false
Boxcar width: 0
XAxis mode: Wavelengths
Number of Pixels in Spectrum: 2048
>>>>>Begin Spectral Data<<<<<
223.165	-14.88
223.4	-14.88
223.635	-14.88
223.869	-10.88
224.104	-19.88
224.338	-13.88
224.573	-12.88
224.808	-5.88
225.042	-18.88
225.277	-5.88
225.511	-2.88
225.746	13.12
225.98	-2.88
226.215	15.12
226.449	17.12
226.683	15.12
226.918	23.12
227.152	25.12
227.387	29.12
227.621	31.12
227.856	48.12
228.09	51.12
228.324	59.12
228.559	60.12
228.793	50.12
229.027	87.12
229.262	65.12
229.496	81.12
229.73	109.12
229.964	100.12
230.199	76.12
230.433	81.12
230.667	66.12
230.901	75.12
231.136	80.12
231.37	76.12
231.604	84.12
231.838	83.12
232.072	83.12
232.306	95.12
232.541	82.12
232.775	80.12
233.009	84.12
233.243	93.12
233.477	87.12
233.711	64.12
233.945	71.12
234.179	83.12
234.413	82.12
234.647	103.12
234.881	85.12
235.115	63.12
235.349	101.12
235.583	101.12
235.817	81.12
236.051	79.12
236.285	90.12
236.519	84.12
236.753	80.12
236.987	79.12
237.221	87.12
237.455	93.12
237.689	86.12
237.922	73.12
238.156	68.12
238.39	80.12
238.624	75.12
238.858	93.12
239.091	77.12
239.325	73.12
239.559	91.12
239.793	92.12
240.027	88.12
240.26	82.12
240.494	90.12
240.728	83.12
240.961	89.12
241.195	76.12
241.429	80.12
241.662	75.12
241.896	76.12
242.13	75.12
242.363	76.12
242.597	79.12
242.83	78.12
243.064	96.12
243.298	74.12
243.531	77.12
243.765	73.12
243.998	87.12
244.232	76.12
244.465	79.12
244.699	76.12
244.932	68.12
245.166	79.12
245.399	77.12
245.633	73.12
245.866	88.12
246.099	77.12
246.333	103.12
246.566	86.12
246.8	79.12
247.033	71.12
247.266	81.12
247.5	88.12
247.733	65.12
247.966	83.12
248.2	82.12
248.433	88.12
248.666	81.12
248.899	100.12
249.133	101.12
249.366	112.12
249.599	107.12
249.832	97.12
250.066	83.12
250.299	98.12
250.532	90.12
250.765	86.12
250.998	90.12
251.231	90.12
251.465	88.12
251.698	85.12
251.931	92.12
252.164	79.12
252.397	87.12
252.63	86.12
252.863	95.12
253.096	83.12
253.329	96.12
253.562	82.12
253.795	77.12
254.028	85.12
254.261	84.12
254.494	93.12
254.727	96.12
254.96	90.12
255.193	91.12
255.426	101.12
255.659	89.12
255.892	97.12
256.124	110.12
256.357	89.12
256.59	77.12
256.823	84.12
257.056	94.12
257.289	103.12
257.521	83.12
257.754	89.12
257.987	92.12
258.22	88.12
258.452	107.12
258.685	96.12
258.918	85.12
259.151	93.12
259.383	80.12
259.616	92.12
259.849	93.12
260.081	79.12
260.314	97.12
260.547	96.12
260.779	99.12
261.012	129.12
261.244	113.12
261.477	92.12
261.71	90.12
261.942	124.12
262.175	127.12
262.407	106.12
262.64	101.12
262.872	88.12
263.105	92.12
263.337	85.12
263.57	81.12
263.802	84.12
264.035	82.12
264.267	83.12
264.499	99.12
264.732	91.12
264.964	88.12
265.197	89.12
265.429	89.12
265.661	89.12
265.894	91.12
266.126	101.12
266.358	87.12
266.591	85.12
266.823	90.12
267.055	91.12
267.287	87.12
267.52	84.12
267.752	91.12
267.984	90.12
268.216	98.12
268.448	93.12
268.681	78.12
268.913	110.12
269.145	93.12
269.377	84.12
269.609	88.12
269.841	95.12
270.073	89.12
270.306	89.12
270.538	98.12
270.77	91.12
271.002	91.12
271.234	101.12
271.466	93.12
271.698	88.12
271.93	77.12
272.162	90.12
272.394	97.12
272.626	82.12
272.858	93.12
273.09	68.12
273.322	86.12
273.553	80.12
273.785	95.12
274.017	89.12
274.249	95.12
274.481	91.12
274.713	100.12
274.945	100.12
275.176	99.12
275.408	107.12
275.64	121.12
275.872	143.12
276.104	104.12
276.335	111.12
276.567	121.12
276.799	159.12
277.031	189.12
277.262	216.12
277.494	155.12
277.726	112.12
277.957	92.12
278.189	99.12
278.421	100.12
278.652	96.12
278.884	97.12
279.115	94.12
279.347	109.12
279.579	110.12
279.81	145.12
280.042	207.12
280.273	304.12
280.505	176.12
280.736	114.12
280.968	106.12
281.199	84.12
281.431	106.12
281.662	99.12
281.894	89.12
282.125	114.12
282.356	136.12
282.588	173.12
282.819	135.12
283.051	98.12
283.282	87.12
283.513	76.12
283.745	80.12
283.976	89.12
284.207	87.12
284.439	76.12
284.67	95.12
284.901	103.12
285.132	82.12
285.364	89.12
285.595	90.12
285.826	101.12
286.057	96.12
286.288	94.12
286.52	88.12
286.751	91.12
286.982	76.12
287.213	88.12
287.444	76.12
287.675	85.12
287.906	90.12
288.138	81.12
288.369	100.12
288.6	109.12
288.831	112.12
289.062	87.12
289.293	73.12
289.524	101.12
289.755	87.12
289.986	79.12
290.217	93.12
290.448	91.12
290.679	90.12
290.91	102.12
291.141	92.12
291.371	92.12
291.602	88.12
291.833	83.12
292.064	87.12
292.295	99.12
292.526	91.12
292.757	94.12
292.987	96.12
293.218	96.12
293.449	92.12
293.68	91.12
293.91	83.12
294.141	96.12
294.372	98.12
294.603	81.12
294.833	106.12
295.064	105.12
295.295	98.12
295.525	101.12
295.756	113.12
295.987	128.12
296.217	176.12
296.448	147.12
296.679	105.12
296.909	101.12
297.14	108.12
297.37	85.12
297.601	80.12
297.831	100.12
298.062	96.12
298.292	90.12
298.523	89.12
298.753	87.12
298.984	91.12
299.214	94.12
299.445	93.12
299.675	103.12
299.905	103.12
300.136	97.12
300.366	87.12
300.597	83.12
300.827	91.12
301.057	93.12
301.288	109.12
301.518	97.12
301.748	97.12
301.979	113.12
302.209	112.12
302.439	93.12
302.669	94.12
302.9	95.12
303.13	88.12
303.36	105.12
303.59	130.12
303.82	155.12
304.051	100.12
304.281	100.12
304.511	96.12
304.741	88.12
304.971	96.12
305.201	102.12
305.431	92.12
305.661	89.12
305.891	101.12
306.121	96.12
306.352	108.12
306.582	96.12
306.812	111.12
307.042	122.12
307.272	163.12
307.502	199.12
307.731	191.12
307.961	131.12
308.191	98.12
308.421	90.12
308.651	111.12
308.881	93.12
309.111	87.12
309.341	106.12
309.571	120.12
309.8	95.12
310.03	95.12
310.26	94.12
310.49	101.12
310.72	114.12
310.949	115.12
311.179	126.12
311.409	104.12
311.639	101.12
311.868	105.12
312.098	92.12
312.328	100.12
312.557	112.12
312.787	112.12
313.017	129.12
313.246	107.12
313.476	100.12
313.706	107.12
313.935	96.12
314.165	114.12
314.394	127.12
314.624	113.12
314.853	95.12
315.083	88.12
315.312	101.12
315.542	85.12
315.771	101.12
316.001	96.12
316.23	101.12
316.46	100.12
316.689	90.12
316.919	99.12
317.148	101.12
317.377	107.12
317.607	98.12
317.836	93.12
318.065	114.12
318.295	95.12
318.524	97.12
318.753	81.12
318.983	99.12
319.212	109.12
319.441	127.12
319.67	135.12
319.9	96.12
320.129	109.12
320.358	102.12
320.587	113.12
320.816	124.12
321.046	114.12
321.275	116.12
321.504	123.12
321.733	105.12
321.962	118.12
322.191	127.12
322.42	138.12
322.649	130.12
322.878	127.12
323.108	145.12
323.337	146.12
323.566	181.12
323.795	226.12
324.024	303.12
324.253	656.12
324.482	1503.12
324.71	3203.12
324.939	4261.12
325.168	1403.12
325.397	370.12
325.626	195.12
325.855	165.12
326.084	154.12
326.313	159.12
326.542	218.12
326.77	345.12
326.999	773.12
327.228	1693.12
327.457	3170.12
327.686	2476.12
327.914	732.12
328.143	633.12
328.372	784.12
328.6	406.12
328.829	216.12
329.058	210.12
329.287	208.12
329.515	195.12
329.744	330.12
329.972	596.12
330.201	1263.12
330.43	1765.12
330.658	740.12
330.887	322.12
331.115	207.12
331.344	141.12
331.572	120.12
331.801	153.12
332.03	155.12
332.258	122.12
332.486	106.12
332.715	133.12
332.943	127.12
333.172	137.12
333.4	147.12
333.629	183.12
333.857	268.12
334.085	555.12
334.314	1180.12
334.542	2307.12
334.771	2127.12
334.999	526.12
335.227	216.12
335.455	147.12
335.684	127.12
335.912	116.12
336.14	113.12
336.369	119.12
336.597	112.12
336.825	126.12
337.053	94.12
337.281	103.12
337.51	116.12
337.738	103.12
337.966	103.12
338.194	115.12
338.422	119.12
338.65	89.12
338.878	109.12
339.106	98.12
339.334	108.12
339.562	98.12
339.79	92.12
340.018	106.12
340.246	116.12
340.474	97.12
340.702	94.12
340.93	81.12
341.158	96.12
341.386	118.12
341.614	107.12
341.842	101.12
342.07	80.12
342.298	93.12
342.526	96.12
342.754	79.12
342.981	86.12
343.209	96.12
343.437	103.12
343.665	90.12
343.893	82.12
344.12	92.12
344.348	94.12
344.576	95.12
344.804	97.12
345.031	116.12
345.259	104.12
345.487	110.12
345.714	106.12
345.942	94.12
346.17	97.12
346.397	109.12
346.625	105.12
346.853	110.12
347.08	104.12
347.308	106.12
347.535	92.12
347.763	95.12
347.99	103.12
348.218	111.12
348.445	123.12
348.673	106.12
348.9	117.12
349.128	106.12
349.355	94.12
349.583	94.12
349.81	105.12
350.037	104.12
350.265	91.12
350.492	101.12
350.72	106.12
350.947	113.12
351.174	125.12
351.402	117.12
351.629	114.12
351.856	110.12
352.083	125.12
352.311	127.12
352.538	127.12
352.765	121.12
352.992	109.12
353.22	100.12
353.447	135.12
353.674	109.12
353.901	106.12
354.128	100.12
354.355	97.12
354.583	91.12
354.81	98.12
355.037	104.12
355.264	87.12
355.491	87.12
355.718	117.12
355.945	94.12
356.172	87.12
356.399	84.12
356.626	84.12
356.853	90.12
357.08	108.12
357.307	86.12
357.534	105.12
357.761	96.12
357.988	95.12
358.215	76.12
358.441	91.12
358.668	91.12
358.895	87.12
359.122	85.12
359.349	98.12
359.576	116.12
359.802	121.12
360.029	152.12
360.256	137.12
360.483	111.12
360.709	94.12
360.936	109.12
361.163	111.12
361.39	97.12
361.616	91.12
361.843	80.12
362.07	105.12
362.296	105.12
362.523	104.12
362.749	97.12
362.976	91.12
363.203	84.12
363.429	96.12
363.656	89.12
363.882	112.12
364.109	91.12
364.335	95.12
364.562	97.12
364.788	90.12
365.015	106.12
365.241	111.12
365.468	113.12
365.694	142.12
365.92	107.12
366.147	98.12
366.373	102.12
366.599	93.12
366.826	88.12
367.052	85.12
367.278	107.12
367.505	102.12
367.731	97.12
367.957	93.12
368.184	85.12
368.41	107.12
368.636	123.12
368.862	125.12
369.089	129.12
369.315	111.12
369.541	120.12
369.767	94.12
369.993	108.12
370.219	93.12
370.445	86.12
370.672	85.12
370.898	97.12
371.124	89.12
371.35	92.12
371.576	110.12
371.802	86.12
372.028	84.12
372.254	87.12
372.48	78.12
372.706	90.12
372.932	91.12
373.158	96.12
373.384	87.12
373.61	99.12
373.835	100.12
374.061	104.12
374.287	93.12
374.513	94.12
374.739	99.12
374.965	89.12
375.191	83.12
375.416	96.12
375.642	92.12
375.868	94.12
376.094	88.12
376.319	94.12
376.545	97.12
376.771	97.12
376.997	99.12
377.222	99.12
377.448	97.12
377.674	68.12
377.899	94.12
378.125	98.12
378.35	96.12
378.576	93.12
378.802	97.12
379.027	103.12
379.253	91.12
379.478	72.12
379.704	95.12
379.929	91.12
380.155	93.12
380.38	91.12
380.606	91.12
380.831	95.12
381.057	96.12
381.282	96.12
381.507	88.12
381.733	103.12
381.958	104.12
382.184	96.12
382.409	101.12
382.634	108.12
382.86	115.12
383.085	105.12
383.31	104.12
383.535	93.12
383.761	99.12
383.986	99.12
384.211	86.12
384.436	104.12
384.662	96.12
384.887	105.12
385.112	96.12
385.337	96.12
385.562	113.12
385.787	114.12
386.013	119.12
386.238	132.12
386.463	100.12
386.688	107.12
386.913	102.12
387.138	101.12
387.363	88.12
387.588	90.12
387.813	100.12
388.038	107.12
388.263	98.12
388.488	103.12
388.713	107.12
388.938	111.12
389.163	92.12
389.387	104.12
389.612	97.12
389.837	98.12
390.062	104.12
390.287	86.12
390.512	100.12
390.736	83.12
390.961	85.12
391.186	95.12
391.411	99.12
391.636	83.12
391.86	75.12
392.085	100.12
392.31	83.12
392.534	85.12
392.759	94.12
392.984	82.12
393.208	97.12
393.433	95.12
393.658	85.12
393.882	91.12
394.107	86.12
394.331	84.12
394.556	95.12
394.78	71.12
395.005	81.12
395.229	85.12
395.454	92.12
395.678	82.12
395.903	91.12
396.127	80.12
396.352	90.12
396.576	83.12
396.801	97.12
397.025	95.12
397.249	98.12
397.474	94.12
397.698	97.12
397.922	82.12
398.147	103.12
398.371	76.12
398.595	89.12
398.82	92.12
399.044	89.12
399.268	82.12
399.492	92.12
399.717	98.12
399.941	88.12
400.165	95.12
400.389	92.12
400.613	99.12
400.837	90.12
401.062	88.12
401.286	92.12
401.51	101.12
401.734	106.12
401.958	112.12
402.182	155.12
402.406	208.12
402.63	155.12
402.854	109.12
403.078	100.12
403.302	83.12
403.526	88.12
403.75	99.12
403.974	98.12
404.198	74.12
404.422	88.12
404.645	93.12
404.869	98.12
405.093	128.12
405.317	171.12
405.541	171.12
405.765	122.12
405.988	161.12
406.212	235.12
406.436	337.12
406.66	209.12
406.883	116.12
407.107	104.12
407.331	106.12
407.555	131.12
407.778	117.12
408.002	99.12
408.226	96.12
408.449	111.12
408.673	97.12
408.896	111.12
409.12	117.12
409.344	97.12
409.567	85.12
409.791	97.12
410.014	96.12
410.238	90.12
410.461	87.12
410.685	105.12
410.908	103.12
411.132	107.12
411.355	109.12
411.578	99.12
411.802	84.12
412.025	95.12
412.249	104.12
412.472	145.12
412.695	166.12
412.919	122.12
413.142	103.12
413.365	91.12
413.589	87.12
413.812	82.12
414.035	95.12
414.258	100.12
414.482	86.12
414.705	89.12
414.928	102.12
415.151	105.12
415.374	98.12
415.597	99.12
415.821	82.12
416.044	101.12
416.267	98.12
416.49	94.12
416.713	89.12
416.936	95.12
417.159	104.12
417.382	105.12
417.605	98.12
417.828	115.12
418.051	96.12
418.274	103.12
418.497	95.12
418.72	99.12
418.943	92.12
419.166	89.12
419.389	87.12
419.611	85.12
419.834	90.12
420.057	105.12
420.28	89.12
420.503	102.12
420.726	85.12
420.948	104.12
421.171	100.12
421.394	97.12
421.617	96.12
421.839	90.12
422.062	76.12
422.285	96.12
422.507	112.12
422.73	136.12
422.953	96.12
423.175	95.12
423.398	91.12
423.621	90.12
423.843	100.12
424.066	75.12
424.288	92.12
424.511	105.12
424.733	121.12
424.956	131.12
425.178	129.12
425.401	116.12
425.623	125.12
425.846	100.12
426.068	113.12
426.291	106.12
426.513	89.12
426.735	96.12
426.958	115.12
427.18	129.12
427.402	201.12
427.625	310.12
427.847	299.12
428.069	284.12
428.292	149.12
428.514	111.12
428.736	112.12
428.958	92.12
429.181	96.12
429.403	106.12
429.625	104.12
429.847	105.12
430.069	130.12
430.292	127.12
430.514	99.12
430.736	88.12
430.958	94.12
431.18	74.12
431.402	79.12
431.624	93.12
431.846	91.12
432.068	93.12
432.29	101.12
432.512	87.12
432.734	94.12
432.956	83.12
433.178	109.12
433.4	111.12
433.622	99.12
433.844	95.12
434.066	104.12
434.287	93.12
434.509	97.12
434.731	104.12
434.953	85.12
435.175	95.12
435.397	108.12
435.618	97.12
435.84	119.12
436.062	178.12
436.284	155.12
436.505	116.12
436.727	122.12
436.949	113.12
437.17	92.12
437.392	111.12
437.614	115.12
437.835	137.12
438.057	177.12
438.278	161.12
438.5	128.12
438.721	179.12
438.943	112.12
439.165	89.12
439.386	108.12
439.608	111.12
439.829	123.12
440.05	193.12
440.272	246.12
440.493	119.12
440.715	106.12
440.936	101.12
441.158	91.12
441.379	76.12
441.6	112.12
441.822	104.12
442.043	104.12
442.264	140.12
442.486	133.12
442.707	111.12
442.928	119.12
443.149	203.12
443.371	196.12
443.592	159.12
443.813	173.12
444.034	152.12
444.255	98.12
444.476	95.12
444.698	89.12
444.919	106.12
445.14	140.12
445.361	159.12
445.582	164.12
445.803	235.12
446.024	219.12
446.245	219.12
446.466	146.12
446.687	116.12
446.908	93.12
447.129	86.12
447.35	105.12
447.571	89.12
447.792	102.12
448.013	121.12
448.234	133.12
448.455	115.12
448.675	150.12
448.896	156.12
449.117	115.12
449.338	137.12
449.559	167.12
449.779	184.12
450	102.12
450.221	99.12
450.442	106.12
450.662	96.12
450.883	124.12
451.104	154.12
451.324	115.12
451.545	92.12
451.766	89.12
451.986	90.12
452.207	99.12
452.428	107.12
452.648	120.12
452.869	122.12
453.089	131.12
453.31	162.12
453.53	96.12
453.751	111.12
453.971	116.12
454.192	155.12
454.412	93.12
454.633	89.12
454.853	89.12
455.073	108.12
455.294	104.12
455.514	112.12
455.734	92.12
455.955	79.12
456.175	81.12
456.395	82.12
456.616	92.12
456.836	84.12
457.056	84.12
457.276	93.12
457.497	96.12
457.717	93.12
457.937	89.12
458.157	91.12
458.377	116.12
458.598	142.12
458.818	240.12
459.038	250.12
459.258	183.12
459.478	95.12
459.698	81.12
459.918	93.12
460.138	91.12
460.358	84.12
460.578	88.12
460.798	95.12
461.018	94.12
461.238	96.12
461.458	103.12
461.678	90.12
461.898	91.12
462.118	90.12
462.338	99.12
462.558	94.12
462.777	100.12
462.997	101.12
463.217	123.12
463.437	100.12
463.657	87.12
463.876	97.12
464.096	90.12
464.316	110.12
464.536	115.12
464.755	99.12
464.975	137.12
465.195	268.12
465.414	237.12
465.634	101.12
465.854	92.12
466.073	89.12
466.293	101.12
466.512	93.12
466.732	95.12
466.951	105.12
467.171	96.12
467.391	118.12
467.61	156.12
467.829	227.12
468.049	644.12
468.268	941.12
468.488	247.12
468.707	111.12
468.927	106.12
469.146	106.12
469.365	101.12
469.585	86.12
469.804	121.12
470.023	110.12
470.243	100.12
470.462	131.12
470.681	152.12
470.901	120.12
471.12	103.12
471.339	105.12
471.558	121.12
471.777	168.12
471.997	371.12
472.216	1371.12
472.435	3071.12
472.654	673.12
472.873	185.12
473.092	111.12
473.311	92.12
473.53	100.12
473.749	112.12
473.968	108.12
474.187	154.12
474.406	124.12
474.625	89.12
474.844	101.12
475.063	99.12
475.282	92.12
475.501	95.12
475.72	96.12
475.939	95.12
476.158	101.12
476.377	116.12
476.596	117.12
476.814	116.12
477.033	107.12
477.252	108.12
477.471	98.12
477.69	90.12
477.908	85.12
478.127	101.12
478.346	100.12
478.564	106.12
478.783	116.12
479.002	110.12
479.22	111.12
479.439	137.12
479.658	135.12
479.876	136.12
480.095	137.12
480.313	153.12
480.532	185.12
480.751	339.12
480.969	1249.12
481.188	5484.12
481.406	2971.12
481.624	411.12
481.843	164.12
482.061	103.12
482.28	95.12
482.498	122.12
482.717	99.12
482.935	93.12
483.153	92.12
483.372	100.12
483.59	80.12
483.808	89.12
484.027	98.12
484.245	89.12
484.463	102.12
484.681	98.12
484.9	92.12
485.118	94.12
485.336	108.12
485.554	106.12
485.772	99.12
485.99	103.12
486.209	111.12
486.427	117.12
486.645	143.12
486.863	146.12
487.081	118.12
487.299	118.12
487.517	104.12
487.735	108.12
487.953	87.12
488.171	108.12
488.389	107.12
488.607	105.12
488.825	85.12
489.043	91.12
489.261	89.12
489.479	88.12
489.696	100.12
489.914	98.12
490.132	99.12
490.35	107.12
490.568	103.12
490.786	91.12
491.003	106.12
491.221	102.12
491.439	107.12
491.657	97.12
491.874	99.12
492.092	88.12
492.31	96.12
492.527	88.12
492.745	106.12
492.963	91.12
493.18	87.12
493.398	88.12
493.615	117.12
493.833	111.12
494.05	97.12
494.268	86.12
494.485	99.12
494.703	100.12
494.92	104.12
495.138	91.12
495.355	99.12
495.573	106.12
495.79	104.12
496.008	97.12
496.225	76.12
496.442	91.12
496.66	94.12
496.877	97.12
497.094	93.12
497.312	100.12
497.529	96.12
497.746	87.12
497.963	86.12
498.181	112.12
498.398	119.12
498.615	135.12
498.832	108.12
499.049	113.12
499.267	91.12
499.484	109.12
499.701	97.12
499.918	80.12
500.135	81.12
500.352	80.12
500.569	99.12
500.786	103.12
501.003	101.12
501.22	104.12
501.437	106.12
501.654	115.12
501.871	144.12
502.088	109.12
502.305	92.12
502.522	99.12
502.739	98.12
502.956	96.12
503.172	103.12
503.389	114.12
503.606	138.12
503.823	110.12
504.04	91.12
504.256	95.12
504.473	96.12
504.69	94.12
504.907	89.12
505.123	95.12
505.34	90.12
505.557	98.12
505.773	90.12
505.99	77.12
506.207	93.12
506.423	89.12
506.64	106.12
506.856	96.12
507.073	100.12
507.289	100.12
507.506	109.12
507.722	136.12
507.939	131.12
508.155	108.12
508.372	92.12
508.588	104.12
508.805	92.12
509.021	99.12
509.238	97.12
509.454	107.12
509.67	118.12
509.887	109.12
510.103	150.12
510.319	263.12
510.536	974.12
510.752	3384.12
510.968	899.12
511.184	179.12
511.401	128.12
