Data from Circ_1997_H10_HRD10591_00081.txt Node
Date: Wed Jan 03 11:29:43 EST 2024
User: Yrep
Spectrometer: HR+D1059
Trigger mode: 1
Integration Time (sec): 1.000000E-1
Scans to average: 1
Electric dark correction enabled: true
Nonlinearity correction enabled: false
Boxcar width: 0
XAxis mode: Wavelengths
Number of Pixels in Spectrum: 2048
>>>>>Begin Spectral Data<<<<<
223.165	-13.56
223.4	-13.56
223.635	-13.56
223.869	-16.56
224.104	-12.56
224.338	-20.56
224.573	-18.56
224.808	-21.56
225.042	-12.56
225.277	-15.56
225.511	2.44
225.746	1.44
225.98	0.44
226.215	20.44
226.449	13.44
226.683	27.44
226.918	28.44
227.152	37.44
227.387	50.44
227.621	52.44
227.856	41.44
228.09	36.44
228.324	44.44
228.559	77.44
228.793	60.44
229.027	69.44
229.262	74.44
229.496	79.44
229.73	87.44
229.964	99.44
230.199	77.44
230.433	77.44
230.667	78.44
230.901	93.44
231.136	92.44
231.37	76.44
231.604	79.44
231.838	74.44
232.072	98.44
232.306	87.44
232.541	88.44
232.775	85.44
233.009	88.44
233.243	87.44
233.477	86.44
233.711	88.44
233.945	77.44
234.179	91.44
234.413	65.44
234.647	81.44
234.881	84.44
235.115	76.44
235.349	81.44
235.583	92.44
235.817	77.44
236.051	72.44
236.285	68.44
236.519	80.44
236.753	75.44
236.987	96.44
237.221	87.44
237.455	87.44
237.689	88.44
237.922	77.44
238.156	75.44
238.39	74.44
238.624	75.44
238.858	90.44
239.091	84.44
239.325	80.44
239.559	79.44
239.793	66.44
240.027	87.44
240.26	81.44
240.494	92.44
240.728	87.44
240.961	81.44
241.195	71.44
241.429	87.44
241.662	79.44
241.896	77.44
242.13	79.44
242.363	81.44
242.597	75.44
242.83	91.44
243.064	97.44
243.298	76.44
243.531	83.44
243.765	90.44
243.998	87.44
244.232	96.44
244.465	100.44
244.699	90.44
244.932	90.44
245.166	78.44
245.399	71.44
245.633	72.44
245.866	91.44
246.099	84.44
246.333	86.44
246.566	84.44
246.8	89.44
247.033	82.44
247.266	77.44
247.5	91.44
247.733	80.44
247.966	81.44
248.2	92.44
248.433	107.44
248.666	84.44
248.899	79.44
249.133	100.44
249.366	104.44
249.599	109.44
249.832	92.44
250.066	91.44
250.299	90.44
250.532	81.44
250.765	81.44
250.998	92.44
251.231	77.44
251.465	82.44
251.698	89.44
251.931	69.44
252.164	86.44
252.397	98.44
252.63	87.44
252.863	71.44
253.096	87.44
253.329	71.44
253.562	77.44
253.795	93.44
254.028	86.44
254.261	90.44
254.494	81.44
254.727	87.44
254.96	95.44
255.193	87.44
255.426	83.44
255.659	92.44
255.892	103.44
256.124	100.44
256.357	94.44
256.59	82.44
256.823	87.44
257.056	94.44
257.289	87.44
257.521	91.44
257.754	76.44
257.987	87.44
258.22	97.44
258.452	98.44
258.685	97.44
258.918	89.44
259.151	101.44
259.383	87.44
259.616	91.44
259.849	83.44
260.081	89.44
260.314	96.44
260.547	84.44
260.779	100.44
261.012	103.44
261.244	113.44
261.477	98.44
261.71	110.44
261.942	133.44
262.175	146.44
262.407	97.44
262.64	91.44
262.872	97.44
263.105	76.44
263.337	85.44
263.57	75.44
263.802	77.44
264.035	87.44
264.267	86.44
264.499	101.44
264.732	75.44
264.964	77.44
265.197	80.44
265.429	86.44
265.661	80.44
265.894	78.44
266.126	94.44
266.358	86.44
266.591	71.44
266.823	84.44
267.055	87.44
267.287	86.44
267.52	86.44
267.752	92.44
267.984	90.44
268.216	78.44
268.448	85.44
268.681	86.44
268.913	91.44
269.145	96.44
269.377	79.44
269.609	91.44
269.841	83.44
270.073	80.44
270.306	103.44
270.538	83.44
270.77	83.44
271.002	77.44
271.234	92.44
271.466	93.44
271.698	97.44
271.93	93.44
272.162	88.44
272.394	96.44
272.626	84.44
272.858	92.44
273.09	100.44
273.322	75.44
273.553	93.44
273.785	90.44
274.017	96.44
274.249	78.44
274.481	96.44
274.713	83.44
274.945	105.44
275.176	91.44
275.408	106.44
275.64	115.44
275.872	129.44
276.104	104.44
276.335	103.44
276.567	119.44
276.799	149.44
277.031	169.44
277.262	203.44
277.494	143.44
277.726	94.44
277.957	85.44
278.189	87.44
278.421	102.44
278.652	99.44
278.884	97.44
279.115	93.44
279.347	92.44
279.579	104.44
279.81	133.44
280.042	216.44
280.273	265.44
280.505	185.44
280.736	119.44
280.968	106.44
281.199	103.44
281.431	84.44
281.662	86.44
281.894	100.44
282.125	99.44
282.356	129.44
282.588	166.44
282.819	135.44
283.051	91.44
283.282	99.44
283.513	99.44
283.745	90.44
283.976	95.44
284.207	82.44
284.439	83.44
284.67	77.44
284.901	97.44
285.132	89.44
285.364	91.44
285.595	89.44
285.826	94.44
286.057	93.44
286.288	90.44
286.52	80.44
286.751	87.44
286.982	90.44
287.213	100.44
287.444	92.44
287.675	81.44
287.906	84.44
288.138	90.44
288.369	87.44
288.6	99.44
288.831	101.44
289.062	98.44
289.293	78.44
289.524	93.44
289.755	83.44
289.986	94.44
290.217	96.44
290.448	69.44
290.679	88.44
290.91	94.44
291.141	96.44
291.371	106.44
291.602	95.44
291.833	77.44
292.064	92.44
292.295	90.44
292.526	82.44
292.757	91.44
292.987	79.44
293.218	89.44
293.449	85.44
293.68	89.44
293.91	104.44
294.141	92.44
294.372	104.44
294.603	95.44
294.833	91.44
295.064	91.44
295.295	96.44
295.525	92.44
295.756	123.44
295.987	131.44
296.217	161.44
296.448	140.44
296.679	97.44
296.909	97.44
297.14	96.44
297.37	108.44
297.601	89.44
297.831	99.44
298.062	99.44
298.292	73.44
298.523	105.44
298.753	84.44
298.984	95.44
299.214	101.44
299.445	101.44
299.675	101.44
299.905	103.44
300.136	103.44
300.366	94.44
300.597	91.44
300.827	84.44
301.057	95.44
301.288	128.44
301.518	99.44
301.748	109.44
301.979	116.44
302.209	96.44
302.439	95.44
302.669	92.44
302.9	95.44
303.13	108.44
303.36	116.44
303.59	143.44
303.82	149.44
304.051	110.44
304.281	99.44
304.511	76.44
304.741	91.44
304.971	84.44
305.201	104.44
305.431	101.44
305.661	92.44
305.891	103.44
306.121	90.44
306.352	103.44
306.582	101.44
306.812	107.44
307.042	127.44
307.272	178.44
307.502	186.44
307.731	181.44
307.961	124.44
308.191	85.44
308.421	111.44
308.651	91.44
308.881	91.44
309.111	98.44
309.341	98.44
309.571	99.44
309.8	99.44
310.03	101.44
310.26	114.44
310.49	105.44
310.72	129.44
310.949	120.44
311.179	115.44
311.409	100.44
311.639	112.44
311.868	97.44
312.098	101.44
312.328	100.44
312.557	107.44
312.787	114.44
313.017	120.44
313.246	99.44
313.476	94.44
313.706	101.44
313.935	101.44
314.165	108.44
314.394	122.44
314.624	115.44
314.853	108.44
315.083	103.44
315.312	101.44
315.542	106.44
315.771	100.44
316.001	89.44
316.23	84.44
316.46	101.44
316.689	106.44
316.919	101.44
317.148	105.44
317.377	120.44
317.607	107.44
317.836	89.44
318.065	98.44
318.295	101.44
318.524	85.44
318.753	98.44
318.983	97.44
319.212	109.44
319.441	124.44
319.67	114.44
319.9	107.44
320.129	88.44
320.358	97.44
320.587	89.44
320.816	107.44
321.046	112.44
321.275	113.44
321.504	105.44
321.733	107.44
321.962	108.44
322.191	113.44
322.42	121.44
322.649	128.44
322.878	132.44
323.108	140.44
323.337	149.44
323.566	182.44
323.795	213.44
324.024	271.44
324.253	566.44
324.482	1296.44
324.71	2730.44
324.939	3617.44
325.168	1267.44
325.397	337.44
325.626	197.44
325.855	167.44
326.084	151.44
326.313	165.44
326.542	188.44
326.77	296.44
326.999	671.44
327.228	1449.44
327.457	2707.44
327.686	2144.44
327.914	661.44
328.143	609.44
328.372	743.44
328.6	408.44
328.829	196.44
329.058	195.44
329.287	183.44
329.515	196.44
329.744	293.44
329.972	555.44
330.201	1151.44
330.43	1622.44
330.658	699.44
330.887	289.44
331.115	203.44
331.344	129.44
331.572	122.44
331.801	121.44
332.03	126.44
332.258	130.44
332.486	113.44
332.715	125.44
332.943	128.44
333.172	129.44
333.4	144.44
333.629	181.44
333.857	255.44
334.085	504.44
334.314	1084.44
334.542	2134.44
334.771	1910.44
334.999	484.44
335.227	207.44
335.455	117.44
335.684	119.44
335.912	105.44
336.14	95.44
336.369	111.44
336.597	110.44
336.825	115.44
337.053	104.44
337.281	96.44
337.51	105.44
337.738	101.44
337.966	105.44
338.194	111.44
338.422	110.44
338.65	102.44
338.878	98.44
339.106	88.44
339.334	100.44
339.562	93.44
339.79	90.44
340.018	106.44
340.246	103.44
340.474	93.44
340.702	87.44
340.93	92.44
341.158	100.44
341.386	97.44
341.614	113.44
341.842	112.44
342.07	97.44
342.298	100.44
342.526	106.44
342.754	84.44
342.981	80.44
343.209	79.44
343.437	94.44
343.665	92.44
343.893	93.44
344.12	91.44
344.348	76.44
344.576	76.44
344.804	87.44
345.031	98.44
345.259	104.44
345.487	100.44
345.714	101.44
345.942	105.44
346.17	97.44
346.397	82.44
346.625	97.44
346.853	97.44
347.08	85.44
347.308	96.44
347.535	99.44
347.763	108.44
347.99	91.44
348.218	109.44
348.445	105.44
348.673	115.44
348.9	100.44
349.128	84.44
349.355	80.44
349.583	86.44
349.81	97.44
350.037	111.44
350.265	92.44
350.492	105.44
350.72	99.44
350.947	103.44
351.174	126.44
351.402	141.44
351.629	97.44
351.856	103.44
352.083	124.44
352.311	115.44
352.538	121.44
352.765	121.44
352.992	123.44
353.22	119.44
353.447	108.44
353.674	99.44
353.901	95.44
354.128	93.44
354.355	101.44
354.583	91.44
354.81	104.44
355.037	111.44
355.264	92.44
355.491	105.44
355.718	89.44
355.945	99.44
356.172	92.44
356.399	101.44
356.626	62.44
356.853	98.44
357.08	89.44
357.307	91.44
357.534	91.44
357.761	91.44
357.988	90.44
358.215	106.44
358.441	94.44
358.668	79.44
358.895	75.44
359.122	101.44
359.349	97.44
359.576	98.44
359.802	122.44
360.029	143.44
360.256	126.44
360.483	121.44
360.709	97.44
360.936	99.44
361.163	111.44
361.39	109.44
361.616	107.44
361.843	98.44
362.07	112.44
362.296	114.44
362.523	101.44
362.749	104.44
362.976	97.44
363.203	97.44
363.429	107.44
363.656	92.44
363.882	91.44
364.109	107.44
364.335	104.44
364.562	94.44
364.788	80.44
365.015	101.44
365.241	105.44
365.468	121.44
365.694	119.44
365.92	108.44
366.147	89.44
366.373	73.44
366.599	106.44
366.826	79.44
367.052	87.44
367.278	106.44
367.505	109.44
367.731	95.44
367.957	96.44
368.184	106.44
368.41	103.44
368.636	115.44
368.862	128.44
369.089	126.44
369.315	87.44
369.541	89.44
369.767	95.44
369.993	87.44
370.219	92.44
370.445	97.44
370.672	97.44
370.898	84.44
371.124	90.44
371.35	100.44
371.576	109.44
371.802	97.44
372.028	84.44
372.254	82.44
372.48	79.44
372.706	100.44
372.932	105.44
373.158	84.44
373.384	83.44
373.61	98.44
373.835	89.44
374.061	80.44
374.287	94.44
374.513	92.44
374.739	96.44
374.965	97.44
375.191	91.44
375.416	97.44
375.642	87.44
375.868	87.44
376.094	85.44
376.319	93.44
376.545	95.44
376.771	80.44
376.997	87.44
377.222	98.44
377.448	93.44
377.674	96.44
377.899	102.44
378.125	99.44
378.35	86.44
378.576	86.44
378.802	87.44
379.027	90.44
379.253	102.44
379.478	89.44
379.704	88.44
379.929	91.44
380.155	92.44
380.38	104.44
380.606	104.44
380.831	96.44
381.057	96.44
381.282	94.44
381.507	89.44
381.733	87.44
381.958	93.44
382.184	103.44
382.409	109.44
382.634	105.44
382.86	83.44
383.085	92.44
383.31	111.44
383.535	99.44
383.761	98.44
383.986	101.44
384.211	82.44
384.436	101.44
384.662	95.44
384.887	98.44
385.112	104.44
385.337	106.44
385.562	94.44
385.787	108.44
386.013	111.44
386.238	129.44
386.463	108.44
386.688	94.44
386.913	108.44
387.138	101.44
387.363	95.44
387.588	89.44
387.813	90.44
388.038	105.44
388.263	99.44
388.488	97.44
388.713	106.44
388.938	110.44
389.163	102.44
389.387	99.44
389.612	92.44
389.837	84.44
390.062	96.44
390.287	81.44
390.512	87.44
390.736	87.44
390.961	92.44
391.186	91.44
391.411	87.44
391.636	88.44
391.86	84.44
392.085	94.44
392.31	96.44
392.534	88.44
392.759	91.44
392.984	97.44
393.208	89.44
393.433	107.44
393.658	92.44
393.882	76.44
394.107	80.44
394.331	95.44
394.556	92.44
394.78	100.44
395.005	78.44
395.229	82.44
395.454	95.44
395.678	91.44
395.903	90.44
396.127	101.44
396.352	82.44
396.576	92.44
396.801	90.44
397.025	97.44
397.249	87.44
397.474	90.44
397.698	88.44
397.922	92.44
398.147	92.44
398.371	68.44
398.595	92.44
398.82	92.44
399.044	90.44
399.268	93.44
399.492	88.44
399.717	84.44
399.941	76.44
400.165	94.44
400.389	96.44
400.613	101.44
400.837	92.44
401.062	80.44
401.286	92.44
401.51	87.44
401.734	104.44
401.958	113.44
402.182	139.44
402.406	201.44
402.63	136.44
402.854	93.44
403.078	89.44
403.302	91.44
403.526	92.44
403.75	95.44
403.974	87.44
404.198	96.44
404.422	92.44
404.645	87.44
404.869	113.44
405.093	114.44
405.317	161.44
405.541	145.44
405.765	121.44
405.988	143.44
406.212	198.44
406.436	305.44
406.66	194.44
406.883	124.44
407.107	109.44
407.331	109.44
407.555	115.44
407.778	113.44
408.002	84.44
408.226	98.44
408.449	100.44
408.673	89.44
408.896	99.44
409.12	108.44
409.344	98.44
409.567	84.44
409.791	95.44
410.014	81.44
410.238	87.44
410.461	89.44
410.685	105.44
410.908	122.44
411.132	95.44
411.355	101.44
411.578	87.44
411.802	91.44
412.025	105.44
412.249	108.44
412.472	119.44
412.695	153.44
412.919	119.44
413.142	114.44
413.365	94.44
413.589	95.44
413.812	96.44
414.035	93.44
414.258	96.44
414.482	101.44
414.705	83.44
414.928	93.44
415.151	87.44
415.374	85.44
415.597	82.44
415.821	90.44
416.044	104.44
416.267	95.44
416.49	80.44
416.713	90.44
416.936	98.44
417.159	103.44
417.382	105.44
417.605	103.44
417.828	123.44
418.051	107.44
418.274	95.44
418.497	79.44
418.72	99.44
418.943	87.44
419.166	84.44
419.389	90.44
419.611	98.44
419.834	104.44
420.057	95.44
420.28	93.44
420.503	102.44
420.726	88.44
420.948	105.44
421.171	111.44
421.394	111.44
421.617	90.44
421.839	87.44
422.062	89.44
422.285	88.44
422.507	100.44
422.73	130.44
422.953	105.44
423.175	93.44
423.398	97.44
423.621	88.44
423.843	87.44
424.066	92.44
424.288	101.44
424.511	108.44
424.733	110.44
424.956	115.44
425.178	106.44
425.401	108.44
425.623	97.44
425.846	93.44
426.068	99.44
426.291	98.44
426.513	100.44
426.735	106.44
426.958	105.44
427.18	122.44
427.402	192.44
427.625	281.44
427.847	259.44
428.069	271.44
428.292	129.44
428.514	93.44
428.736	101.44
428.958	96.44
429.181	91.44
429.403	96.44
429.625	107.44
429.847	94.44
430.069	109.44
430.292	100.44
430.514	82.44
430.736	94.44
430.958	85.44
431.18	89.44
431.402	83.44
431.624	80.44
431.846	87.44
432.068	78.44
432.29	88.44
432.512	98.44
432.734	90.44
432.956	100.44
433.178	124.44
433.4	101.44
433.622	98.44
433.844	86.44
434.066	94.44
434.287	99.44
434.509	96.44
434.731	68.44
434.953	92.44
435.175	83.44
435.397	93.44
435.618	87.44
435.84	121.44
436.062	159.44
436.284	148.44
436.505	123.44
436.727	113.44
436.949	104.44
437.17	85.44
437.392	91.44
437.614	104.44
437.835	127.44
438.057	142.44
438.278	140.44
438.5	121.44
438.721	155.44
438.943	126.44
439.165	91.44
439.386	107.44
439.608	112.44
439.829	117.44
440.05	164.44
440.272	221.44
440.493	122.44
440.715	96.44
440.936	87.44
441.158	93.44
441.379	99.44
441.6	112.44
441.822	107.44
442.043	108.44
442.264	116.44
442.486	115.44
442.707	99.44
442.928	115.44
443.149	178.44
443.371	176.44
443.592	147.44
443.813	141.44
444.034	128.44
444.255	103.44
444.476	102.44
444.698	92.44
444.919	97.44
445.14	138.44
445.361	141.44
445.582	150.44
445.803	201.44
446.024	209.44
446.245	197.44
446.466	158.44
446.687	102.44
446.908	100.44
447.129	108.44
447.35	85.44
447.571	101.44
447.792	99.44
448.013	99.44
448.234	136.44
448.455	113.44
448.675	136.44
448.896	155.44
449.117	126.44
449.338	119.44
449.559	182.44
449.779	180.44
450	114.44
450.221	99.44
450.442	94.44
450.662	113.44
450.883	131.44
451.104	141.44
451.324	97.44
451.545	87.44
451.766	97.44
451.986	97.44
452.207	95.44
452.428	87.44
452.648	92.44
452.869	131.44
453.089	137.44
453.31	137.44
453.53	106.44
453.751	82.44
453.971	130.44
454.192	121.44
454.412	120.44
454.633	93.44
454.853	94.44
455.073	106.44
455.294	103.44
455.514	116.44
455.734	100.44
455.955	87.44
456.175	76.44
456.395	75.44
456.616	91.44
456.836	96.44
457.056	96.44
457.276	79.44
457.497	84.44
457.717	82.44
457.937	90.44
458.157	90.44
458.377	109.44
458.598	129.44
458.818	200.44
459.038	221.44
459.258	145.44
459.478	102.44
459.698	89.44
459.918	87.44
460.138	92.44
460.358	87.44
460.578	88.44
460.798	73.44
461.018	91.44
461.238	89.44
461.458	84.44
461.678	104.44
461.898	106.44
462.118	89.44
462.338	80.44
462.558	92.44
462.777	99.44
462.997	94.44
463.217	122.44
463.437	100.44
463.657	92.44
463.876	107.44
464.096	100.44
464.316	93.44
464.536	106.44
464.755	92.44
464.975	118.44
465.195	231.44
465.414	225.44
465.634	91.44
465.854	89.44
466.073	91.44
466.293	109.44
466.512	77.44
466.732	95.44
466.951	87.44
467.171	102.44
467.391	113.44
467.61	141.44
467.829	229.44
468.049	592.44
468.268	919.44
468.488	233.44
468.707	117.44
468.927	107.44
469.146	103.44
469.365	92.44
469.585	90.44
469.804	114.44
470.023	118.44
470.243	126.44
470.462	120.44
470.681	123.44
470.901	95.44
471.12	105.44
471.339	119.44
471.558	127.44
471.777	166.44
471.997	337.44
472.216	1292.44
472.435	2767.44
472.654	656.44
472.873	167.44
473.092	107.44
473.311	100.44
473.53	105.44
473.749	99.44
473.968	109.44
474.187	133.44
474.406	100.44
474.625	90.44
474.844	89.44
475.063	88.44
475.282	94.44
475.501	82.44
475.72	98.44
475.939	92.44
476.158	99.44
476.377	96.44
476.596	84.44
476.814	103.44
477.033	96.44
477.252	104.44
477.471	96.44
477.69	89.44
477.908	99.44
478.127	106.44
478.346	101.44
478.564	115.44
478.783	107.44
479.002	105.44
479.22	120.44
479.439	124.44
479.658	128.44
479.876	127.44
480.095	125.44
480.313	150.44
480.532	182.44
480.751	323.44
480.969	1194.44
481.188	5020.44
481.406	2746.44
481.624	395.44
481.843	137.44
482.061	118.44
482.28	103.44
482.498	101.44
482.717	93.44
482.935	98.44
483.153	88.44
483.372	91.44
483.59	99.44
483.808	95.44
484.027	112.44
484.245	89.44
484.463	90.44
484.681	116.44
484.9	95.44
485.118	107.44
485.336	106.44
485.554	112.44
485.772	83.44
485.99	101.44
486.209	94.44
486.427	109.44
486.645	119.44
486.863	136.44
487.081	108.44
487.299	95.44
487.517	107.44
487.735	96.44
487.953	96.44
488.171	96.44
488.389	106.44
488.607	106.44
488.825	92.44
489.043	95.44
489.261	93.44
489.479	101.44
489.696	89.44
489.914	93.44
490.132	98.44
490.35	91.44
490.568	89.44
490.786	96.44
491.003	93.44
491.221	106.44
491.439	101.44
491.657	96.44
491.874	99.44
492.092	95.44
492.31	74.44
492.527	100.44
492.745	119.44
492.963	107.44
493.18	88.44
493.398	91.44
493.615	98.44
493.833	103.44
494.05	84.44
494.268	95.44
494.485	91.44
494.703	79.44
494.92	84.44
495.138	89.44
495.355	102.44
495.573	94.44
495.79	104.44
496.008	91.44
496.225	101.44
496.442	97.44
496.66	97.44
496.877	89.44
497.094	98.44
497.312	83.44
497.529	83.44
497.746	96.44
497.963	83.44
498.181	92.44
498.398	97.44
498.615	119.44
498.832	117.44
499.049	99.44
499.267	88.44
499.484	97.44
499.701	99.44
499.918	86.44
500.135	73.44
500.352	96.44
500.569	108.44
500.786	88.44
501.003	97.44
501.22	101.44
501.437	90.44
501.654	83.44
501.871	116.44
502.088	92.44
502.305	99.44
502.522	93.44
502.739	99.44
502.956	88.44
503.172	104.44
503.389	124.44
503.606	131.44
503.823	99.44
504.04	93.44
504.256	97.44
504.473	91.44
504.69	87.44
504.907	97.44
505.123	87.44
505.34	78.44
505.557	107.44
505.773	109.44
505.99	85.44
506.207	99.44
506.423	99.44
506.64	108.44
506.856	95.44
507.073	99.44
507.289	113.44
507.506	113.44
507.722	131.44
507.939	129.44
508.155	109.44
508.372	106.44
508.588	88.44
508.805	99.44
509.021	101.44
509.238	103.44
509.454	99.44
509.67	117.44
509.887	112.44
510.103	148.44
510.319	230.44
510.536	860.44
510.752	2948.44
510.968	791.44
511.184	183.44
511.401	125.44
511.617	109.44
511.833	108.44
512.049	100.44
