Data from Circ_1997_H10_HRD10591_00045.txt Node
Date: Wed Jan 03 11:29:36 EST 2024
User: Yrep
Spectrometer: HR+D1059
Trigger mode: 1
Integration Time (sec): 1.000000E-1
Scans to average: 1
Electric dark correction enabled: true
Nonlinearity correction enabled: false
Boxcar width: 0
XAxis mode: Wavelengths
Number of Pixels in Spectrum: 2048
>>>>>Begin Spectral Data<<<<<
223.165	-10.31
223.4	-10.31
223.635	-10.31
223.869	-17.31
224.104	-10.31
224.338	-18.31
224.573	-23.31
224.808	-12.31
225.042	-19.31
225.277	-7.31
225.511	-8.31
225.746	4.69
225.98	9.69
226.215	9.69
226.449	17.69
226.683	33.69
226.918	27.69
227.152	23.69
227.387	41.69
227.621	48.69
227.856	29.69
228.09	52.69
228.324	53.69
228.559	63.69
228.793	171.69
229.027	468.69
229.262	560.69
229.496	661.69
229.73	903.69
229.964	909.69
230.199	612.69
230.433	538.69
230.667	511.69
230.901	488.69
231.136	474.69
231.37	478.69
231.604	485.69
231.838	495.69
232.072	495.69
232.306	500.69
232.541	510.69
232.775	521.69
233.009	519.69
233.243	528.69
233.477	536.69
233.711	527.69
233.945	547.69
234.179	576.69
234.413	547.69
234.647	546.69
234.881	553.69
235.115	591.69
235.349	591.69
235.583	624.69
235.817	654.69
236.051	712.69
236.285	663.69
236.519	683.69
236.753	775.69
236.987	1007.69
237.221	1525.69
237.455	1657.69
237.689	943.69
237.922	814.69
238.156	791.69
238.39	784.69
238.624	728.69
238.858	717.69
239.091	735.69
239.325	745.69
239.559	767.69
239.793	800.69
240.027	854.69
240.26	1046.69
240.494	1100.69
240.728	1041.69
240.961	969.69
241.195	919.69
241.429	876.69
241.662	875.69
241.896	887.69
242.13	885.69
242.363	916.69
242.597	922.69
242.83	979.69
243.064	940.69
243.298	982.69
243.531	961.69
243.765	964.69
243.998	1014.69
244.232	965.69
244.465	1030.69
244.699	1047.69
244.932	1002.69
245.166	1022.69
245.399	1030.69
245.633	1048.69
245.866	1047.69
246.099	1094.69
246.333	1108.69
246.566	1107.69
246.8	1087.69
247.033	1172.69
247.266	1173.69
247.5	1261.69
247.733	1304.69
247.966	1303.69
248.2	1335.69
248.433	1289.69
248.666	1387.69
248.899	1581.69
249.133	1707.69
249.366	1694.69
249.599	1670.69
249.832	1647.69
250.066	1926.69
250.299	2579.69
250.532	3419.69
250.765	3188.69
250.998	2625.69
251.231	2201.69
251.465	1934.69
251.698	1775.69
251.931	1716.69
252.164	1683.69
252.397	1682.69
252.63	1705.69
252.863	1811.69
253.096	1930.69
253.329	1939.69
253.562	1823.69
253.795	1793.69
254.028	1804.69
254.261	1950.69
254.494	2182.69
254.727	2522.69
254.96	2607.69
255.193	2432.69
255.426	2564.69
255.659	3142.69
255.892	4795.69
256.124	6194.69
256.357	4947.69
256.59	3487.69
256.823	2824.69
257.056	2466.69
257.289	2318.69
257.521	2196.69
257.754	2125.69
257.987	1999.69
258.22	1960.69
258.452	1953.69
258.685	1958.69
258.918	1943.69
259.151	1962.69
259.383	1997.69
259.616	2020.69
259.849	2093.69
260.081	2228.69
260.314	2419.69
260.547	2278.69
260.779	2112.69
261.012	2079.69
261.244	2092.69
261.477	2015.69
261.71	2047.69
261.942	2092.69
262.175	2123.69
262.407	2037.69
262.64	1943.69
262.872	1937.69
263.105	1956.69
263.337	1926.69
263.57	1907.69
263.802	1954.69
264.035	1961.69
264.267	1971.69
264.499	1929.69
264.732	1946.69
264.964	1964.69
265.197	1974.69
265.429	1970.69
265.661	1984.69
265.894	1988.69
266.126	2079.69
266.358	2064.69
266.591	2098.69
266.823	2148.69
267.055	2149.69
267.287	2136.69
267.52	2095.69
267.752	2119.69
267.984	2138.69
268.216	2183.69
268.448	2212.69
268.681	2291.69
268.913	2454.69
269.145	2603.69
269.377	2577.69
269.609	2503.69
269.841	2505.69
270.073	2595.69
270.306	2921.69
270.538	3041.69
270.77	2833.69
271.002	2697.69
271.234	2695.69
271.466	2960.69
271.698	3018.69
271.93	3038.69
272.162	3009.69
272.394	2908.69
272.626	2743.69
272.858	2639.69
273.09	2583.69
273.322	2587.69
273.553	2596.69
273.785	2595.69
274.017	2586.69
274.249	2649.69
274.481	2641.69
274.713	2728.69
274.945	2743.69
275.176	2795.69
275.408	2809.69
275.64	2873.69
275.872	2924.69
276.104	2963.69
276.335	2942.69
276.567	3111.69
276.799	3413.69
277.031	3797.69
277.262	4044.69
277.494	3735.69
277.726	3395.69
277.957	3206.69
278.189	3113.69
278.421	3037.69
278.652	2957.69
278.884	2976.69
279.115	2975.69
279.347	3033.69
279.579	3111.69
279.81	3260.69
280.042	3633.69
280.273	3954.69
280.505	3743.69
280.736	3322.69
280.968	3196.69
281.199	3104.69
281.431	3052.69
281.662	3079.69
281.894	3052.69
282.125	3106.69
282.356	3307.69
282.588	3404.69
282.819	3232.69
283.051	3052.69
283.282	3027.69
283.513	3058.69
283.745	3094.69
283.976	3132.69
284.207	3082.69
284.439	3077.69
284.67	3040.69
284.901	3056.69
285.132	3042.69
285.364	3045.69
285.595	3072.69
285.826	3104.69
286.057	3122.69
286.288	3159.69
286.52	3132.69
286.751	3155.69
286.982	3143.69
287.213	3166.69
287.444	3179.69
287.675	3306.69
287.906	3366.69
288.138	3432.69
288.369	3373.69
288.6	3323.69
288.831	3301.69
289.062	3296.69
289.293	3239.69
289.524	3288.69
289.755	3267.69
289.986	3229.69
290.217	3240.69
290.448	3222.69
290.679	3175.69
290.91	3193.69
291.141	3269.69
291.371	3284.69
291.602	3167.69
291.833	3168.69
292.064	3204.69
292.295	3245.69
292.526	3227.69
292.757	3232.69
292.987	3166.69
293.218	3196.69
293.449	3203.69
293.68	3232.69
293.91	3221.69
294.141	3233.69
294.372	3194.69
294.603	3250.69
294.833	3241.69
295.064	3233.69
295.295	3326.69
295.525	3270.69
295.756	3309.69
295.987	3440.69
296.217	3691.69
296.448	3607.69
296.679	3357.69
296.909	3309.69
297.14	3277.69
297.37	3428.69
297.601	3389.69
297.831	3423.69
298.062	3389.69
298.292	3516.69
298.523	3539.69
298.753	3525.69
298.984	3465.69
299.214	3519.69
299.445	3495.69
299.675	3526.69
299.905	3555.69
300.136	3572.69
300.366	3575.69
300.597	3581.69
300.827	3772.69
301.057	3754.69
301.288	3832.69
301.518	3760.69
301.748	3850.69
301.979	3972.69
302.209	3895.69
302.439	3869.69
302.669	3849.69
302.9	3822.69
303.13	3789.69
303.36	3918.69
303.59	4051.69
303.82	4115.69
304.051	4016.69
304.281	3821.69
304.511	3685.69
304.741	3768.69
304.971	3709.69
305.201	3692.69
305.431	3787.69
305.661	3724.69
305.891	3702.69
306.121	3695.69
306.352	3789.69
306.582	3786.69
306.812	3753.69
307.042	3909.69
307.272	4117.69
307.502	4301.69
307.731	4217.69
307.961	3978.69
308.191	3810.69
308.421	3782.69
308.651	3852.69
308.881	3791.69
309.111	3863.69
309.341	3903.69
309.571	3970.69
309.8	4065.69
310.03	4133.69
310.26	4173.69
310.49	4171.69
310.72	4293.69
310.949	4504.69
311.179	4384.69
311.409	4160.69
311.639	4259.69
311.868	4280.69
312.098	4259.69
312.328	4375.69
312.557	4578.69
312.787	4672.69
313.017	4489.69
313.246	4393.69
313.476	4256.69
313.706	4325.69
313.935	4411.69
314.165	4551.69
314.394	4564.69
314.624	4511.69
314.853	4376.69
315.083	4299.69
315.312	4287.69
315.542	4168.69
315.771	4204.69
316.001	4205.69
316.23	4203.69
316.46	4197.69
316.689	4343.69
316.919	4334.69
317.148	4400.69
317.377	4399.69
317.607	4375.69
317.836	4299.69
318.065	4235.69
318.295	4255.69
318.524	4263.69
318.753	4244.69
318.983	4296.69
319.212	4249.69
319.441	4367.69
319.67	4362.69
319.9	4282.69
320.129	4326.69
320.358	4375.69
320.587	4411.69
320.816	4474.69
321.046	4556.69
321.275	4544.69
321.504	4526.69
321.733	4627.69
321.962	4627.69
322.191	4822.69
322.42	4939.69
322.649	5080.69
322.878	5078.69
323.108	5313.69
323.337	5620.69
323.566	5837.69
323.795	6217.69
324.024	7033.69
324.253	9477.69
324.482	13945.69
324.71	15617.69
324.939	15617.69
325.168	14896.69
325.397	8040.69
325.626	6601.69
325.855	6194.69
326.084	6088.69
326.313	6134.69
326.542	6500.69
326.77	7419.69
326.999	9612.69
327.228	13777.69
327.457	15617.69
327.686	15617.69
327.914	12731.69
328.143	11894.69
328.372	12705.69
328.6	10165.69
328.829	8397.69
329.058	8634.69
329.287	8792.69
329.515	8967.69
329.744	10316.69
329.972	13346.69
330.201	15617.69
330.43	15617.69
330.658	14416.69
330.887	10686.69
331.115	8865.69
331.344	7552.69
331.572	7283.69
331.801	7312.69
332.03	7155.69
332.258	7157.69
332.486	7059.69
332.715	7341.69
332.943	7678.69
333.172	8165.69
333.4	8809.69
333.629	9721.69
333.857	11645.69
334.085	14205.69
334.314	15617.69
334.542	15617.69
334.771	15617.69
334.999	13953.69
335.227	9809.69
335.455	8343.69
335.684	7620.69
335.912	7168.69
336.14	6789.69
336.369	6576.69
336.597	6624.69
336.825	6371.69
337.053	6117.69
337.281	5949.69
337.51	5835.69
337.738	5797.69
337.966	5684.69
338.194	5678.69
338.422	5547.69
338.65	5478.69
338.878	5429.69
339.106	5333.69
339.334	5375.69
339.562	5206.69
339.79	5187.69
340.018	5125.69
340.246	5196.69
340.474	5223.69
340.702	5185.69
340.93	5124.69
341.158	5096.69
341.386	5084.69
341.614	5070.69
341.842	5037.69
342.07	4943.69
342.298	4976.69
342.526	4879.69
342.754	4898.69
342.981	4904.69
343.209	5074.69
343.437	5206.69
343.665	5534.69
343.893	5739.69
344.12	5831.69
344.348	5565.69
344.576	5343.69
344.804	5313.69
345.031	5339.69
345.259	5276.69
345.487	5113.69
345.714	4980.69
345.942	4843.69
346.17	4886.69
346.397	4784.69
346.625	4800.69
346.853	4748.69
347.08	4741.69
347.308	4871.69
347.535	4974.69
347.763	4971.69
347.99	4920.69
348.218	5003.69
348.445	4982.69
348.673	4855.69
348.9	4695.69
349.128	4615.69
349.355	4630.69
349.583	4593.69
349.81	4637.69
350.037	4622.69
350.265	4585.69
350.492	4633.69
350.72	4637.69
350.947	4731.69
351.174	4881.69
351.402	4912.69
351.629	4769.69
351.856	4863.69
352.083	4868.69
352.311	4957.69
352.538	4969.69
352.765	4922.69
352.992	4782.69
353.22	4764.69
353.447	4701.69
353.674	4645.69
353.901	4459.69
354.128	4455.69
354.355	4480.69
354.583	4474.69
354.81	4483.69
355.037	4451.69
355.264	4455.69
355.491	4460.69
355.718	4428.69
355.945	4419.69
356.172	4404.69
356.399	4442.69
356.626	4347.69
356.853	4484.69
357.08	4443.69
357.307	4436.69
357.534	4452.69
357.761	4451.69
357.988	4526.69
358.215	4407.69
358.441	4475.69
358.668	4579.69
358.895	4570.69
359.122	4595.69
359.349	4700.69
359.576	4840.69
359.802	5158.69
360.029	5472.69
360.256	5374.69
360.483	5082.69
360.709	4743.69
360.936	4739.69
361.163	4798.69
361.39	4847.69
361.616	4835.69
361.843	4776.69
362.07	4798.69
362.296	4769.69
362.523	4796.69
362.749	4744.69
362.976	4695.69
363.203	4606.69
363.429	4576.69
363.656	4628.69
363.882	4597.69
364.109	4561.69
364.335	4615.69
364.562	4603.69
364.788	4510.69
365.015	4577.69
365.241	4587.69
365.468	4657.69
365.694	4655.69
365.92	4645.69
366.147	4620.69
366.373	4599.69
366.599	4533.69
366.826	4530.69
367.052	4561.69
367.278	4571.69
367.505	4663.69
367.731	4609.69
367.957	4606.69
368.184	4654.69
368.41	4722.69
368.636	4825.69
368.862	4823.69
369.089	4708.69
369.315	4663.69
369.541	4653.69
369.767	4671.69
369.993	4724.69
370.219	4763.69
370.445	4673.69
370.672	4765.69
370.898	4762.69
371.124	4763.69
371.35	4813.69
371.576	4764.69
371.802	4758.69
372.028	4798.69
372.254	4821.69
372.48	4875.69
372.706	4946.69
372.932	4958.69
373.158	4846.69
373.384	4848.69
373.61	4836.69
373.835	4820.69
374.061	4883.69
374.287	4916.69
374.513	4984.69
374.739	5063.69
374.965	5272.69
375.191	5175.69
375.416	5039.69
375.642	4914.69
375.868	4933.69
376.094	4873.69
376.319	4813.69
376.545	4811.69
376.771	4736.69
376.997	4749.69
377.222	4727.69
377.448	4699.69
377.674	4741.69
377.899	4683.69
378.125	4718.69
378.35	4636.69
378.576	4647.69
378.802	4616.69
379.027	4741.69
379.253	4694.69
379.478	4664.69
379.704	4756.69
379.929	4746.69
380.155	4765.69
380.38	4697.69
380.606	4780.69
380.831	4768.69
381.057	4744.69
381.282	4755.69
381.507	4819.69
381.733	4781.69
381.958	4891.69
382.184	4871.69
382.409	5020.69
382.634	4970.69
382.86	5015.69
383.085	5037.69
383.31	5175.69
383.535	5120.69
383.761	5254.69
383.986	5344.69
384.211	5379.69
384.436	5445.69
384.662	5523.69
384.887	5668.69
385.112	5583.69
385.337	5721.69
385.562	5679.69
385.787	5757.69
386.013	5781.69
386.238	5941.69
386.463	5796.69
386.688	5766.69
386.913	5627.69
387.138	5589.69
387.363	5655.69
387.588	5591.69
387.813	5647.69
388.038	5611.69
388.263	5666.69
388.488	5693.69
388.713	5599.69
388.938	5602.69
389.163	5572.69
389.387	5582.69
389.612	5535.69
389.837	5575.69
390.062	5566.69
390.287	5535.69
390.512	5527.69
390.736	5681.69
390.961	5729.69
391.186	5875.69
391.411	5957.69
391.636	6061.69
391.86	6207.69
392.085	6354.69
392.31	6195.69
392.534	6120.69
392.759	5937.69
392.984	5836.69
393.208	5811.69
393.433	5875.69
393.658	5746.69
393.882	5796.69
394.107	5860.69
394.331	5927.69
394.556	5904.69
394.78	5896.69
395.005	6055.69
395.229	6039.69
395.454	6278.69
395.678	6328.69
395.903	6391.69
396.127	6378.69
396.352	6249.69
396.576	6059.69
396.801	6012.69
397.025	6083.69
397.249	6215.69
397.474	6415.69
397.698	6386.69
397.922	6516.69
398.147	6686.69
398.371	6783.69
398.595	6908.69
398.82	7220.69
399.044	7839.69
399.268	8487.69
399.492	9686.69
399.717	10286.69
399.941	10070.69
400.165	9501.69
400.389	8743.69
400.613	8025.69
400.837	7440.69
401.062	7310.69
401.286	7237.69
401.51	7195.69
401.734	7129.69
401.958	7283.69
402.182	7483.69
402.406	7621.69
402.63	7612.69
402.854	7658.69
403.078	7907.69
403.302	7934.69
403.526	8055.69
403.75	8114.69
403.974	8288.69
404.198	8348.69
404.422	8487.69
404.645	8745.69
404.869	9001.69
405.093	9715.69
405.317	10407.69
405.541	10214.69
405.765	9051.69
405.988	8649.69
406.212	8613.69
406.436	8697.69
406.66	8773.69
406.883	8580.69
407.107	9186.69
407.331	9738.69
407.555	10291.69
407.778	9820.69
408.002	9064.69
408.226	8663.69
408.449	8596.69
408.673	8396.69
408.896	8499.69
409.12	8831.69
409.344	8148.69
409.567	7808.69
409.791	7800.69
410.014	7749.69
410.238	7627.69
410.461	7785.69
410.685	7709.69
410.908	7862.69
411.132	8123.69
411.355	8179.69
411.578	7825.69
411.802	7779.69
412.025	8169.69
412.249	8740.69
412.472	9430.69
412.695	10277.69
412.919	9365.69
413.142	8712.69
413.365	8247.69
413.589	7935.69
413.812	7547.69
414.035	7476.69
414.258	7482.69
414.482	7404.69
414.705	7402.69
414.928	7262.69
415.151	7165.69
415.374	7218.69
415.597	7085.69
415.821	7094.69
416.044	7135.69
416.267	7117.69
416.49	6945.69
416.713	6958.69
416.936	7014.69
417.159	7138.69
417.382	7418.69
417.605	7542.69
417.828	7753.69
418.051	7578.69
418.274	7248.69
418.497	7154.69
418.72	7347.69
418.943	7357.69
419.166	7748.69
419.389	8149.69
419.611	8265.69
419.834	8340.69
420.057	8557.69
420.28	9022.69
420.503	8677.69
420.726	8321.69
420.948	8153.69
421.171	8377.69
421.394	8049.69
421.617	7510.69
421.839	7375.69
422.062	7453.69
422.285	7588.69
422.507	8260.69
422.73	8760.69
422.953	8069.69
423.175	7692.69
423.398	7743.69
423.621	7737.69
423.843	7974.69
424.066	7934.69
424.288	7726.69
424.511	7963.69
424.733	8589.69
424.956	9069.69
425.178	8493.69
425.401	8650.69
425.623	8533.69
425.846	7416.69
426.068	7291.69
426.291	7232.69
426.513	7233.69
426.735	7418.69
426.958	7895.69
427.18	8884.69
427.402	10490.69
427.625	11133.69
427.847	10519.69
428.069	10292.69
428.292	8396.69
428.514	7294.69
428.736	6878.69
428.958	6834.69
429.181	6539.69
429.403	6448.69
429.625	6661.69
429.847	7005.69
430.069	7632.69
430.292	7029.69
430.514	6426.69
430.736	6419.69
430.958	6379.69
431.18	6266.69
431.402	6230.69
431.624	6177.69
431.846	6260.69
432.068	6291.69
432.29	6403.69
432.512	6244.69
432.734	6451.69
432.956	6346.69
433.178	6559.69
433.4	6482.69
433.622	6296.69
433.844	6339.69
434.066	6367.69
434.287	6398.69
434.509	6590.69
434.731	6893.69
434.953	7033.69
435.175	7161.69
435.397	7219.69
435.618	7174.69
435.84	7683.69
436.062	8744.69
436.284	8554.69
436.505	7098.69
436.727	6836.69
436.949	6533.69
437.17	6291.69
437.392	6388.69
437.614	6603.69
437.835	7069.69
438.057	8231.69
438.278	8880.69
438.5	8704.69
438.721	9718.69
438.943	8353.69
439.165	6970.69
439.386	6750.69
439.608	6845.69
439.829	7050.69
440.05	7613.69
440.272	8103.69
440.493	7110.69
440.715	6721.69
440.936	6627.69
441.158	6651.69
441.379	6829.69
441.6	7181.69
441.822	7463.69
442.043	7947.69
442.264	8897.69
442.486	8467.69
442.707	7441.69
442.928	7399.69
443.149	7749.69
443.371	7983.69
443.592	8494.69
443.813	9651.69
444.034	9395.69
444.255	8094.69
444.476	7992.69
444.698	8094.69
444.919	8199.69
445.14	8051.69
445.361	8012.69
445.582	8243.69
445.803	9289.69
446.024	10043.69
446.245	9475.69
446.466	8256.69
446.687	7091.69
446.908	6592.69
447.129	6331.69
447.35	6223.69
447.571	6147.69
447.792	6034.69
448.013	6221.69
448.234	6387.69
448.455	7189.69
448.675	8671.69
448.896	9035.69
449.117	7372.69
449.338	7724.69
449.559	9213.69
449.779	9342.69
450	7032.69
450.221	6338.69
450.442	6105.69
450.662	5985.69
450.883	6277.69
451.104	6355.69
451.324	6107.69
451.545	5926.69
451.766	5763.69
451.986	5643.69
452.207	5629.69
452.428	5494.69
452.648	5563.69
452.869	5677.69
453.089	5707.69
453.31	5794.69
453.53	5625.69
453.751	5500.69
453.971	5613.69
454.192	5865.69
454.412	5531.69
454.633	5481.69
454.853	5432.69
455.073	5487.69
455.294	5924.69
455.514	6529.69
455.734	5944.69
455.955	5341.69
456.175	5155.69
456.395	5099.69
456.616	5150.69
456.836	5165.69
457.056	5230.69
457.276	5128.69
457.497	5231.69
457.717	5176.69
457.937	5368.69
458.157	5408.69
458.377	5467.69
458.598	6051.69
458.818	6998.69
459.038	7906.69
459.258	7559.69
459.478	6583.69
459.698	6430.69
459.918	6491.69
460.138	6644.69
460.358	6904.69
460.578	6925.69
460.798	7006.69
461.018	7043.69
461.238	6844.69
461.458	6776.69
461.678	6806.69
461.898	6999.69
462.118	7012.69
462.338	7317.69
462.558	7561.69
462.777	7815.69
462.997	8463.69
463.217	8953.69
463.437	8643.69
463.657	8128.69
463.876	7832.69
464.096	7862.69
464.316	7945.69
464.536	7977.69
464.755	7683.69
464.975	7789.69
465.195	8254.69
465.414	8485.69
465.634	7204.69
465.854	6734.69
466.073	6421.69
466.293	6183.69
466.512	5919.69
466.732	5931.69
466.951	5897.69
467.171	5987.69
467.391	6170.69
467.61	6338.69
467.829	6829.69
468.049	8651.69
468.268	10631.69
468.488	7795.69
468.707	6663.69
468.927	6303.69
469.146	6070.69
469.365	6138.69
469.585	6059.69
469.804	6200.69
470.023	6459.69
470.243	6341.69
470.462	6447.69
470.681	6680.69
470.901	6493.69
471.12	6430.69
471.339	6345.69
471.558	6433.69
471.777	6711.69
471.997	7736.69
472.216	12114.69
472.435	15617.69
472.654	13558.69
472.873	9052.69
473.092	7776.69
473.311	7105.69
473.53	6816.69
473.749	6686.69
473.968	7161.69
474.187	8305.69
474.406	7585.69
474.625	6372.69
474.844	6179.69
475.063	6046.69
475.282	6091.69
475.501	6040.69
475.72	6060.69
475.939	6108.69
476.158	6084.69
476.377	6111.69
476.596	6151.69
476.814	6347.69
477.033	6424.69
477.252	6430.69
477.471	6523.69
477.69	6618.69
477.908	6704.69
478.127	6849.69
478.346	6950.69
478.564	6953.69
478.783	7260.69
479.002	7423.69
479.22	7484.69
479.439	7623.69
479.658	7887.69
479.876	8058.69
480.095	8331.69
480.313	8968.69
480.532	9163.69
480.751	10188.69
480.969	13900.69
481.188	15617.69
481.406	15617.69
481.624	14903.69
481.843	11697.69
482.061	10051.69
482.28	9169.69
482.498	8615.69
482.717	8155.69
482.935	7997.69
483.153	7778.69
483.372	7703.69
483.59	7583.69
483.808	7384.69
484.027	7422.69
484.245	7413.69
484.463	7311.69
484.681	7444.69
484.9	7503.69
485.118	7465.69
485.336	7452.69
485.554	7631.69
485.772	7549.69
485.99	7591.69
486.209	7682.69
486.427	7562.69
486.645	7740.69
486.863	7890.69
487.081	7829.69
