Data from Circ_1997_H10_HRD10591_00039.txt Node
Date: Wed Jan 03 11:29:35 EST 2024
User: Yrep
Spectrometer: HR+D1059
Trigger mode: 1
Integration Time (sec): 1.000000E-1
Scans to average: 1
Electric dark correction enabled: true
Nonlinearity correction enabled: false
Boxcar width: 0
XAxis mode: Wavelengths
Number of Pixels in Spectrum: 2048
>>>>>Begin Spectral Data<<<<<
223.165	-21.94
223.4	-21.94
223.635	-21.94
223.869	-19.94
224.104	-20.94
224.338	-21.94
224.573	-14.94
224.808	-7.94
225.042	-6.94
225.277	2.06
225.511	6.06
225.746	12.06
225.98	-2.94
226.215	9.06
226.449	12.06
226.683	30.06
226.918	17.06
227.152	29.06
227.387	34.06
227.621	45.06
227.856	65.06
228.09	54.06
228.324	44.06
228.559	58.06
228.793	58.06
229.027	64.06
229.262	81.06
229.496	88.06
229.73	111.06
229.964	108.06
230.199	87.06
230.433	86.06
230.667	91.06
230.901	90.06
231.136	79.06
231.37	78.06
231.604	101.06
231.838	89.06
232.072	79.06
232.306	83.06
232.541	70.06
232.775	95.06
233.009	70.06
233.243	89.06
233.477	78.06
233.711	71.06
233.945	99.06
234.179	81.06
234.413	72.06
234.647	82.06
234.881	81.06
235.115	83.06
235.349	80.06
235.583	83.06
235.817	80.06
236.051	82.06
236.285	77.06
236.519	90.06
236.753	77.06
236.987	92.06
237.221	91.06
237.455	109.06
237.689	92.06
237.922	84.06
238.156	70.06
238.39	69.06
238.624	73.06
238.858	73.06
239.091	78.06
239.325	85.06
239.559	90.06
239.793	89.06
240.027	79.06
240.26	87.06
240.494	98.06
240.728	78.06
240.961	75.06
241.195	83.06
241.429	76.06
241.662	76.06
241.896	69.06
242.13	83.06
242.363	83.06
242.597	91.06
242.83	85.06
243.064	88.06
243.298	85.06
243.531	85.06
243.765	93.06
243.998	83.06
244.232	88.06
244.465	95.06
244.699	86.06
244.932	81.06
245.166	89.06
245.399	103.06
245.633	87.06
245.866	90.06
246.099	83.06
246.333	92.06
246.566	78.06
246.8	77.06
247.033	86.06
247.266	90.06
247.5	83.06
247.733	93.06
247.966	104.06
248.2	91.06
248.433	91.06
248.666	98.06
248.899	78.06
249.133	100.06
249.366	122.06
249.599	119.06
249.832	87.06
250.066	86.06
250.299	87.06
250.532	86.06
250.765	79.06
250.998	79.06
251.231	99.06
251.465	82.06
251.698	92.06
251.931	82.06
252.164	76.06
252.397	89.06
252.63	76.06
252.863	91.06
253.096	94.06
253.329	89.06
253.562	83.06
253.795	85.06
254.028	79.06
254.261	91.06
254.494	86.06
254.727	82.06
254.96	80.06
255.193	94.06
255.426	89.06
255.659	86.06
255.892	105.06
256.124	96.06
256.357	92.06
256.59	82.06
256.823	86.06
257.056	95.06
257.289	90.06
257.521	86.06
257.754	83.06
257.987	102.06
258.22	95.06
258.452	93.06
258.685	102.06
258.918	91.06
259.151	91.06
259.383	78.06
259.616	83.06
259.849	85.06
260.081	100.06
260.314	82.06
260.547	87.06
260.779	97.06
261.012	107.06
261.244	112.06
261.477	107.06
261.71	114.06
261.942	140.06
262.175	177.06
262.407	115.06
262.64	100.06
262.872	104.06
263.105	91.06
263.337	98.06
263.57	89.06
263.802	77.06
264.035	97.06
264.267	118.06
264.499	87.06
264.732	77.06
264.964	86.06
265.197	68.06
265.429	93.06
265.661	85.06
265.894	95.06
266.126	82.06
266.358	90.06
266.591	93.06
266.823	86.06
267.055	81.06
267.287	90.06
267.52	93.06
267.752	97.06
267.984	82.06
268.216	93.06
268.448	96.06
268.681	95.06
268.913	86.06
269.145	97.06
269.377	96.06
269.609	102.06
269.841	87.06
270.073	89.06
270.306	84.06
270.538	101.06
270.77	82.06
271.002	80.06
271.234	90.06
271.466	93.06
271.698	89.06
271.93	87.06
272.162	99.06
272.394	104.06
272.626	94.06
272.858	93.06
273.09	94.06
273.322	78.06
273.553	100.06
273.785	89.06
274.017	89.06
274.249	99.06
274.481	99.06
274.713	95.06
274.945	94.06
275.176	122.06
275.408	117.06
275.64	114.06
275.872	125.06
276.104	116.06
276.335	102.06
276.567	126.06
276.799	181.06
277.031	212.06
277.262	225.06
277.494	175.06
277.726	100.06
277.957	105.06
278.189	102.06
278.421	101.06
278.652	103.06
278.884	100.06
279.115	95.06
279.347	90.06
279.579	114.06
279.81	150.06
280.042	222.06
280.273	303.06
280.505	205.06
280.736	126.06
280.968	103.06
281.199	92.06
281.431	91.06
281.662	91.06
281.894	92.06
282.125	121.06
282.356	162.06
282.588	215.06
282.819	144.06
283.051	113.06
283.282	102.06
283.513	101.06
283.745	104.06
283.976	105.06
284.207	102.06
284.439	98.06
284.67	93.06
284.901	97.06
285.132	87.06
285.364	85.06
285.595	90.06
285.826	84.06
286.057	96.06
286.288	83.06
286.52	96.06
286.751	99.06
286.982	101.06
287.213	80.06
287.444	87.06
287.675	103.06
287.906	98.06
288.138	95.06
288.369	93.06
288.6	108.06
288.831	83.06
289.062	83.06
289.293	91.06
289.524	92.06
289.755	87.06
289.986	88.06
290.217	92.06
290.448	86.06
290.679	91.06
290.91	97.06
291.141	95.06
291.371	77.06
291.602	109.06
291.833	100.06
292.064	87.06
292.295	102.06
292.526	101.06
292.757	100.06
292.987	100.06
293.218	107.06
293.449	77.06
293.68	77.06
293.91	102.06
294.141	105.06
294.372	93.06
294.603	84.06
294.833	91.06
295.064	107.06
295.295	107.06
295.525	85.06
295.756	114.06
295.987	141.06
296.217	205.06
296.448	176.06
296.679	107.06
296.909	102.06
297.14	95.06
297.37	84.06
297.601	78.06
297.831	115.06
298.062	95.06
298.292	107.06
298.523	102.06
298.753	93.06
298.984	94.06
299.214	99.06
299.445	102.06
299.675	107.06
299.905	120.06
300.136	109.06
300.366	88.06
300.597	87.06
300.827	112.06
301.057	115.06
301.288	131.06
301.518	107.06
301.748	100.06
301.979	109.06
302.209	105.06
302.439	99.06
302.669	103.06
302.9	103.06
303.13	109.06
303.36	123.06
303.59	146.06
303.82	163.06
304.051	115.06
304.281	98.06
304.511	107.06
304.741	101.06
304.971	94.06
305.201	102.06
305.431	91.06
305.661	102.06
305.891	93.06
306.121	100.06
306.352	125.06
306.582	128.06
306.812	121.06
307.042	138.06
307.272	175.06
307.502	192.06
307.731	174.06
307.961	146.06
308.191	111.06
308.421	103.06
308.651	94.06
308.881	86.06
309.111	98.06
309.341	100.06
309.571	110.06
309.8	119.06
310.03	120.06
310.26	123.06
310.49	122.06
310.72	126.06
310.949	150.06
311.179	135.06
311.409	127.06
311.639	105.06
311.868	103.06
312.098	112.06
312.328	127.06
312.557	134.06
312.787	143.06
313.017	123.06
313.246	113.06
313.476	94.06
313.706	109.06
313.935	105.06
314.165	124.06
314.394	127.06
314.624	123.06
314.853	135.06
315.083	103.06
315.312	111.06
315.542	97.06
315.771	98.06
316.001	116.06
316.23	93.06
316.46	109.06
316.689	101.06
316.919	109.06
317.148	97.06
317.377	118.06
317.607	103.06
317.836	107.06
318.065	109.06
318.295	108.06
318.524	93.06
318.753	107.06
318.983	128.06
319.212	119.06
319.441	134.06
319.67	125.06
319.9	109.06
320.129	109.06
320.358	108.06
320.587	119.06
320.816	106.06
321.046	131.06
321.275	111.06
321.504	97.06
321.733	117.06
321.962	106.06
322.191	103.06
322.42	124.06
322.649	130.06
322.878	150.06
323.108	156.06
323.337	167.06
323.566	165.06
323.795	225.06
324.024	305.06
324.253	678.06
324.482	1484.06
324.71	3117.06
324.939	4173.06
325.168	1431.06
325.397	397.06
325.626	220.06
325.855	175.06
326.084	158.06
326.313	175.06
326.542	222.06
326.77	355.06
326.999	720.06
327.228	1577.06
327.457	3066.06
327.686	2374.06
327.914	745.06
328.143	669.06
328.372	819.06
328.6	457.06
328.829	244.06
329.058	233.06
329.287	256.06
329.515	207.06
329.744	301.06
329.972	587.06
330.201	1276.06
330.43	1821.06
330.658	809.06
330.887	386.06
331.115	237.06
331.344	139.06
331.572	145.06
331.801	146.06
332.03	144.06
332.258	124.06
332.486	124.06
332.715	120.06
332.943	136.06
333.172	146.06
333.4	151.06
333.629	195.06
333.857	274.06
334.085	573.06
334.314	1203.06
334.542	2393.06
334.771	2178.06
334.999	562.06
335.227	203.06
335.455	139.06
335.684	128.06
335.912	120.06
336.14	121.06
336.369	126.06
336.597	123.06
336.825	128.06
337.053	119.06
337.281	105.06
337.51	99.06
337.738	108.06
337.966	112.06
338.194	133.06
338.422	110.06
338.65	93.06
338.878	99.06
339.106	102.06
339.334	101.06
339.562	100.06
339.79	98.06
340.018	111.06
340.246	109.06
340.474	119.06
340.702	101.06
340.93	105.06
341.158	87.06
341.386	107.06
341.614	118.06
341.842	96.06
342.07	92.06
342.298	89.06
342.526	103.06
342.754	87.06
342.981	106.06
343.209	92.06
343.437	111.06
343.665	90.06
343.893	97.06
344.12	107.06
344.348	101.06
344.576	97.06
344.804	103.06
345.031	100.06
345.259	112.06
345.487	102.06
345.714	104.06
345.942	100.06
346.17	115.06
346.397	96.06
346.625	112.06
346.853	108.06
347.08	99.06
347.308	102.06
347.535	123.06
347.763	132.06
347.99	115.06
348.218	126.06
348.445	119.06
348.673	142.06
348.9	111.06
349.128	100.06
349.355	87.06
349.583	106.06
349.81	101.06
350.037	101.06
350.265	101.06
350.492	112.06
350.72	113.06
350.947	117.06
351.174	151.06
351.402	157.06
351.629	124.06
351.856	121.06
352.083	119.06
352.311	134.06
352.538	143.06
352.765	142.06
352.992	153.06
353.22	138.06
353.447	127.06
353.674	110.06
353.901	111.06
354.128	95.06
354.355	110.06
354.583	114.06
354.81	96.06
355.037	110.06
355.264	104.06
355.491	97.06
355.718	114.06
355.945	82.06
356.172	95.06
356.399	93.06
356.626	109.06
356.853	92.06
357.08	87.06
357.307	86.06
357.534	86.06
357.761	90.06
357.988	107.06
358.215	103.06
358.441	99.06
358.668	103.06
358.895	92.06
359.122	95.06
359.349	97.06
359.576	109.06
359.802	122.06
360.029	171.06
360.256	165.06
360.483	137.06
360.709	106.06
360.936	116.06
361.163	108.06
361.39	126.06
361.616	122.06
361.843	118.06
362.07	100.06
362.296	119.06
362.523	116.06
362.749	124.06
362.976	96.06
363.203	110.06
363.429	96.06
363.656	110.06
363.882	97.06
364.109	109.06
364.335	97.06
364.562	112.06
364.788	117.06
365.015	110.06
365.241	119.06
365.468	138.06
365.694	128.06
365.92	130.06
366.147	106.06
366.373	109.06
366.599	97.06
366.826	101.06
367.052	112.06
367.278	92.06
367.505	103.06
367.731	97.06
367.957	100.06
368.184	94.06
368.41	125.06
368.636	145.06
368.862	150.06
369.089	130.06
369.315	114.06
369.541	99.06
369.767	110.06
369.993	101.06
370.219	111.06
370.445	110.06
370.672	103.06
370.898	89.06
371.124	99.06
371.35	91.06
371.576	86.06
371.802	77.06
372.028	91.06
372.254	102.06
372.48	82.06
372.706	87.06
372.932	95.06
373.158	93.06
373.384	99.06
373.61	104.06
373.835	97.06
374.061	102.06
374.287	80.06
374.513	101.06
374.739	80.06
374.965	89.06
375.191	95.06
375.416	91.06
375.642	95.06
375.868	95.06
376.094	86.06
376.319	102.06
376.545	88.06
376.771	75.06
376.997	91.06
377.222	102.06
377.448	96.06
377.674	94.06
377.899	91.06
378.125	89.06
378.35	100.06
378.576	94.06
378.802	104.06
379.027	99.06
379.253	105.06
379.478	86.06
379.704	93.06
379.929	114.06
380.155	106.06
380.38	116.06
380.606	93.06
380.831	106.06
381.057	99.06
381.282	101.06
381.507	97.06
381.733	101.06
381.958	85.06
382.184	111.06
382.409	96.06
382.634	114.06
382.86	93.06
383.085	104.06
383.31	93.06
383.535	122.06
383.761	94.06
383.986	110.06
384.211	102.06
384.436	102.06
384.662	121.06
384.887	114.06
385.112	101.06
385.337	106.06
385.562	111.06
385.787	116.06
386.013	126.06
386.238	127.06
386.463	121.06
386.688	115.06
386.913	95.06
387.138	101.06
387.363	102.06
387.588	107.06
387.813	126.06
388.038	112.06
388.263	111.06
388.488	95.06
388.713	99.06
388.938	109.06
389.163	95.06
389.387	106.06
389.612	96.06
389.837	104.06
390.062	95.06
390.287	107.06
390.512	98.06
390.736	85.06
390.961	104.06
391.186	95.06
391.411	106.06
391.636	99.06
391.86	97.06
392.085	85.06
392.31	100.06
392.534	94.06
392.759	98.06
392.984	92.06
393.208	71.06
393.433	98.06
393.658	91.06
393.882	82.06
394.107	90.06
394.331	93.06
394.556	85.06
394.78	99.06
395.005	98.06
395.229	100.06
395.454	89.06
395.678	85.06
395.903	91.06
396.127	99.06
396.352	105.06
396.576	98.06
396.801	95.06
397.025	92.06
397.249	89.06
397.474	94.06
397.698	108.06
397.922	97.06
398.147	89.06
398.371	81.06
398.595	96.06
398.82	82.06
399.044	87.06
399.268	93.06
399.492	96.06
399.717	80.06
399.941	90.06
400.165	113.06
400.389	110.06
400.613	81.06
400.837	89.06
401.062	104.06
401.286	121.06
401.51	115.06
401.734	96.06
401.958	126.06
402.182	183.06
402.406	239.06
402.63	176.06
402.854	114.06
403.078	115.06
403.302	97.06
403.526	90.06
403.75	99.06
403.974	95.06
404.198	95.06
404.422	97.06
404.645	89.06
404.869	121.06
405.093	140.06
405.317	163.06
405.541	180.06
405.765	134.06
405.988	167.06
406.212	258.06
406.436	389.06
406.66	239.06
406.883	137.06
407.107	116.06
407.331	125.06
407.555	137.06
407.778	122.06
408.002	97.06
408.226	112.06
408.449	92.06
408.673	109.06
408.896	93.06
409.12	112.06
409.344	93.06
409.567	103.06
409.791	89.06
410.014	95.06
410.238	107.06
410.461	111.06
410.685	98.06
410.908	109.06
411.132	110.06
411.355	121.06
411.578	113.06
411.802	118.06
412.025	101.06
412.249	116.06
412.472	153.06
412.695	162.06
412.919	137.06
413.142	102.06
413.365	81.06
413.589	92.06
413.812	87.06
414.035	108.06
414.258	96.06
414.482	103.06
414.705	83.06
414.928	94.06
415.151	83.06
415.374	106.06
415.597	100.06
415.821	98.06
416.044	108.06
416.267	83.06
416.49	92.06
416.713	91.06
416.936	99.06
417.159	100.06
417.382	96.06
417.605	123.06
417.828	118.06
418.051	94.06
418.274	109.06
418.497	82.06
418.72	93.06
418.943	76.06
419.166	101.06
419.389	119.06
419.611	100.06
419.834	105.06
420.057	94.06
420.28	101.06
420.503	107.06
420.726	90.06
420.948	113.06
421.171	123.06
421.394	120.06
421.617	96.06
421.839	93.06
422.062	96.06
422.285	103.06
422.507	103.06
422.73	133.06
422.953	102.06
423.175	91.06
423.398	106.06
423.621	103.06
423.843	93.06
424.066	101.06
424.288	107.06
424.511	101.06
424.733	118.06
424.956	162.06
425.178	131.06
425.401	129.06
425.623	126.06
425.846	104.06
426.068	110.06
426.291	109.06
426.513	91.06
426.735	100.06
426.958	110.06
427.18	141.06
427.402	219.06
427.625	322.06
427.847	307.06
428.069	275.06
428.292	163.06
428.514	116.06
428.736	93.06
428.958	87.06
429.181	87.06
429.403	86.06
429.625	98.06
429.847	93.06
430.069	102.06
430.292	92.06
430.514	92.06
430.736	95.06
430.958	93.06
431.18	91.06
431.402	101.06
431.624	96.06
431.846	94.06
432.068	89.06
432.29	93.06
432.512	97.06
432.734	89.06
432.956	111.06
433.178	126.06
433.4	109.06
433.622	103.06
433.844	102.06
434.066	111.06
434.287	89.06
434.509	93.06
434.731	108.06
434.953	86.06
435.175	91.06
435.397	100.06
435.618	113.06
435.84	134.06
436.062	181.06
436.284	148.06
436.505	125.06
436.727	125.06
436.949	103.06
437.17	99.06
437.392	93.06
437.614	107.06
437.835	141.06
438.057	182.06
438.278	159.06
438.5	139.06
438.721	180.06
438.943	132.06
439.165	92.06
439.386	98.06
439.608	121.06
439.829	130.06
440.05	195.06
440.272	245.06
440.493	142.06
440.715	94.06
440.936	94.06
441.158	92.06
441.379	87.06
441.6	106.06
441.822	122.06
442.043	116.06
442.264	137.06
442.486	131.06
442.707	119.06
442.928	139.06
443.149	204.06
443.371	195.06
443.592	157.06
443.813	151.06
444.034	150.06
444.255	114.06
444.476	102.06
444.698	94.06
444.919	89.06
445.14	146.06
445.361	157.06
445.582	171.06
445.803	254.06
446.024	233.06
446.245	209.06
446.466	165.06
446.687	99.06
446.908	103.06
447.129	108.06
447.35	123.06
447.571	94.06
447.792	101.06
448.013	101.06
448.234	122.06
448.455	126.06
448.675	171.06
448.896	168.06
449.117	116.06
449.338	115.06
449.559	177.06
449.779	183.06
450	118.06
450.221	95.06
450.442	110.06
450.662	102.06
450.883	140.06
451.104	173.06
451.324	114.06
451.545	108.06
451.766	100.06
451.986	94.06
452.207	108.06
452.428	112.06
452.648	122.06
452.869	141.06
453.089	159.06
453.31	174.06
453.53	123.06
453.751	99.06
453.971	134.06
454.192	162.06
454.412	98.06
454.633	101.06
454.853	90.06
455.073	97.06
455.294	98.06
455.514	132.06
455.734	112.06
455.955	97.06
456.175	98.06
456.395	93.06
456.616	88.06
456.836	82.06
457.056	93.06
457.276	88.06
457.497	98.06
457.717	101.06
457.937	104.06
458.157	99.06
458.377	108.06
458.598	141.06
458.818	262.06
459.038	289.06
459.258	198.06
459.478	117.06
459.698	103.06
459.918	94.06
460.138	94.06
460.358	98.06
460.578	92.06
460.798	115.06
461.018	83.06
461.238	101.06
461.458	79.06
461.678	92.06
461.898	104.06
462.118	96.06
462.338	88.06
462.558	91.06
462.777	86.06
462.997	98.06
463.217	116.06
463.437	100.06
463.657	93.06
463.876	95.06
464.096	97.06
464.316	119.06
464.536	125.06
464.755	113.06
464.975	165.06
465.195	289.06
465.414	303.06
465.634	122.06
465.854	95.06
466.073	102.06
466.293	101.06
466.512	90.06
466.732	91.06
466.951	92.06
467.171	99.06
467.391	132.06
467.61	169.06
467.829	231.06
468.049	681.06
468.268	1007.06
468.488	230.06
468.707	119.06
468.927	98.06
469.146	106.06
469.365	94.06
469.585	104.06
469.804	114.06
470.023	134.06
470.243	111.06
470.462	118.06
470.681	173.06
470.901	110.06
471.12	116.06
471.339	136.06
471.558	145.06
471.777	169.06
471.997	346.06
472.216	1361.06
472.435	3139.06
472.654	716.06
472.873	191.06
473.092	127.06
473.311	121.06
473.53	121.06
473.749	104.06
473.968	113.06
474.187	164.06
474.406	135.06
474.625	100.06
474.844	98.06
475.063	89.06
475.282	101.06
475.501	97.06
475.72	93.06
475.939	97.06
476.158	95.06
476.377	95.06
476.596	107.06
476.814	126.06
477.033	109.06
477.252	109.06
477.471	90.06
477.69	99.06
477.908	101.06
478.127	102.06
478.346	113.06
478.564	115.06
478.783	122.06
479.002	114.06
479.22	127.06
479.439	143.06
479.658	156.06
479.876	145.06
480.095	125.06
480.313	153.06
480.532	195.06
480.751	353.06
480.969	1258.06
481.188	5382.06
481.406	3075.06
481.624	438.06
481.843	159.06
482.061	131.06
482.28	115.06
482.498	91.06
482.717	108.06
482.935	104.06
483.153	83.06
483.372	101.06
483.59	87.06
483.808	100.06
484.027	96.06
484.245	100.06
484.463	109.06
484.681	103.06
484.9	102.06
485.118	109.06
485.336	98.06
485.554	102.06
485.772	108.06
485.99	111.06
486.209	110.06
486.427	115.06
486.645	141.06
486.863	141.06
487.081	124.06
487.299	87.06
487.517	91.06
487.735	96.06
487.953	103.06
488.171	101.06
488.389	112.06
488.607	116.06
488.825	107.06
489.043	105.06
489.261	90.06
489.479	85.06
489.696	103.06
489.914	90.06
490.132	87.06
490.35	87.06
490.568	96.06
490.786	90.06
491.003	103.06
491.221	114.06
491.439	104.06
491.657	97.06
491.874	94.06
492.092	95.06
492.31	107.06
492.527	113.06
492.745	115.06
492.963	98.06
493.18	101.06
493.398	89.06
493.615	90.06
493.833	101.06
494.05	97.06
494.268	94.06
494.485	85.06
494.703	106.06
494.92	94.06
495.138	92.06
495.355	98.06
495.573	95.06
495.79	93.06
496.008	98.06
496.225	99.06
496.442	97.06
496.66	103.06
496.877	92.06
497.094	97.06
497.312	94.06
497.529	103.06
497.746	97.06
497.963	105.06
498.181	100.06
498.398	109.06
498.615	133.06
498.832	119.06
499.049	82.06
499.267	102.06
499.484	87.06
499.701	85.06
499.918	93.06
500.135	94.06
500.352	103.06
500.569	105.06
500.786	108.06
501.003	86.06
501.22	88.06
501.437	99.06
501.654	113.06
501.871	143.06
502.088	118.06
502.305	106.06
502.522	90.06
502.739	94.06
502.956	88.06
503.172	95.06
503.389	121.06
503.606	131.06
503.823	112.06
504.04	109.06
504.256	103.06
504.473	102.06
504.69	94.06
504.907	113.06
505.123	103.06
505.34	102.06
505.557	103.06
505.773	96.06
505.99	99.06
506.207	97.06
506.423	93.06
506.64	92.06
506.856	103.06
507.073	89.06
507.289	113.06
507.506	123.06
507.722	158.06
507.939	160.06
508.155	110.06
508.372	110.06
508.588	97.06
508.805	97.06
509.021	98.06
509.238	102.06
509.454	116.06
509.67	116.06
