Data from Circ_1997_H10_HRD10591_00024.txt Node
Date: Wed Jan 03 11:29:32 EST 2024
User: Yrep
Spectrometer: HR+D1059
Trigger mode: 1
Integration Time (sec): 1.000000E-1
Scans to average: 1
Electric dark correction enabled: true
Nonlinearity correction enabled: false
Boxcar width: 0
XAxis mode: Wavelengths
Number of Pixels in Spectrum: 2048
>>>>>Begin Spectral Data<<<<<
223.165	-21.38
223.4	-21.38
223.635	-21.38
223.869	-22.38
224.104	-18.38
224.338	-18.38
224.573	-15.38
224.808	-16.38
225.042	-2.38
225.277	-4.38
225.511	-14.38
225.746	8.62
225.98	11.62
226.215	20.62
226.449	21.62
226.683	21.62
226.918	24.62
227.152	24.62
227.387	34.62
227.621	48.62
227.856	67.62
228.09	51.62
228.324	55.62
228.559	58.62
228.793	51.62
229.027	49.62
229.262	58.62
229.496	63.62
229.73	93.62
229.964	91.62
230.199	80.62
230.433	80.62
230.667	66.62
230.901	82.62
231.136	81.62
231.37	88.62
231.604	72.62
231.838	84.62
232.072	81.62
232.306	76.62
232.541	90.62
232.775	68.62
233.009	79.62
233.243	84.62
233.477	96.62
233.711	92.62
233.945	81.62
234.179	79.62
234.413	72.62
234.647	82.62
234.881	79.62
235.115	80.62
235.349	83.62
235.583	92.62
235.817	86.62
236.051	87.62
236.285	91.62
236.519	90.62
236.753	67.62
236.987	85.62
237.221	90.62
237.455	76.62
237.689	74.62
237.922	74.62
238.156	78.62
238.39	85.62
238.624	67.62
238.858	80.62
239.091	81.62
239.325	79.62
239.559	75.62
239.793	64.62
240.027	83.62
240.26	80.62
240.494	90.62
240.728	72.62
240.961	77.62
241.195	75.62
241.429	63.62
241.662	70.62
241.896	68.62
242.13	78.62
242.363	85.62
242.597	96.62
242.83	78.62
243.064	73.62
243.298	82.62
243.531	86.62
243.765	82.62
243.998	75.62
244.232	78.62
244.465	90.62
244.699	70.62
244.932	74.62
245.166	81.62
245.399	87.62
245.633	77.62
245.866	76.62
246.099	87.62
246.333	83.62
246.566	86.62
246.8	79.62
247.033	59.62
247.266	82.62
247.5	80.62
247.733	70.62
247.966	86.62
248.2	84.62
248.433	74.62
248.666	80.62
248.899	84.62
249.133	89.62
249.366	102.62
249.599	96.62
249.832	82.62
250.066	95.62
250.299	78.62
250.532	78.62
250.765	85.62
250.998	95.62
251.231	89.62
251.465	82.62
251.698	85.62
251.931	83.62
252.164	87.62
252.397	81.62
252.63	75.62
252.863	70.62
253.096	78.62
253.329	94.62
253.562	85.62
253.795	67.62
254.028	93.62
254.261	70.62
254.494	69.62
254.727	83.62
254.96	92.62
255.193	82.62
255.426	70.62
255.659	93.62
255.892	98.62
256.124	92.62
256.357	86.62
256.59	93.62
256.823	98.62
257.056	89.62
257.289	85.62
257.521	86.62
257.754	74.62
257.987	102.62
258.22	85.62
258.452	91.62
258.685	80.62
258.918	80.62
259.151	78.62
259.383	87.62
259.616	86.62
259.849	85.62
260.081	86.62
260.314	90.62
260.547	84.62
260.779	96.62
261.012	103.62
261.244	100.62
261.477	99.62
261.71	100.62
261.942	111.62
262.175	124.62
262.407	99.62
262.64	85.62
262.872	75.62
263.105	87.62
263.337	80.62
263.57	100.62
263.802	91.62
264.035	91.62
264.267	81.62
264.499	85.62
264.732	93.62
264.964	86.62
265.197	81.62
265.429	98.62
265.661	80.62
265.894	74.62
266.126	99.62
266.358	82.62
266.591	80.62
266.823	89.62
267.055	79.62
267.287	82.62
267.52	81.62
267.752	83.62
267.984	88.62
268.216	103.62
268.448	87.62
268.681	78.62
268.913	87.62
269.145	73.62
269.377	87.62
269.609	94.62
269.841	82.62
270.073	87.62
270.306	104.62
270.538	88.62
270.77	99.62
271.002	107.62
271.234	93.62
271.466	90.62
271.698	79.62
271.93	74.62
272.162	72.62
272.394	99.62
272.626	81.62
272.858	90.62
273.09	83.62
273.322	85.62
273.553	79.62
273.785	80.62
274.017	100.62
274.249	78.62
274.481	93.62
274.713	100.62
274.945	84.62
275.176	98.62
275.408	103.62
275.64	91.62
275.872	114.62
276.104	102.62
276.335	95.62
276.567	112.62
276.799	122.62
277.031	155.62
277.262	170.62
277.494	134.62
277.726	105.62
277.957	96.62
278.189	82.62
278.421	87.62
278.652	83.62
278.884	82.62
279.115	96.62
279.347	89.62
279.579	113.62
279.81	120.62
280.042	168.62
280.273	197.62
280.505	151.62
280.736	103.62
280.968	89.62
281.199	91.62
281.431	95.62
281.662	93.62
281.894	98.62
282.125	110.62
282.356	125.62
282.588	166.62
282.819	110.62
283.051	93.62
283.282	79.62
283.513	94.62
283.745	90.62
283.976	86.62
284.207	81.62
284.439	81.62
284.67	93.62
284.901	93.62
285.132	92.62
285.364	95.62
285.595	90.62
285.826	104.62
286.057	85.62
286.288	108.62
286.52	100.62
286.751	98.62
286.982	91.62
287.213	80.62
287.444	81.62
287.675	101.62
287.906	91.62
288.138	76.62
288.369	96.62
288.6	99.62
288.831	89.62
289.062	90.62
289.293	84.62
289.524	82.62
289.755	93.62
289.986	85.62
290.217	66.62
290.448	89.62
290.679	84.62
290.91	83.62
291.141	77.62
291.371	92.62
291.602	89.62
291.833	96.62
292.064	89.62
292.295	87.62
292.526	89.62
292.757	91.62
292.987	90.62
293.218	86.62
293.449	89.62
293.68	85.62
293.91	95.62
294.141	103.62
294.372	90.62
294.603	92.62
294.833	87.62
295.064	92.62
295.295	68.62
295.525	93.62
295.756	103.62
295.987	116.62
296.217	162.62
296.448	121.62
296.679	103.62
296.909	100.62
297.14	108.62
297.37	94.62
297.601	84.62
297.831	92.62
298.062	97.62
298.292	92.62
298.523	83.62
298.753	97.62
298.984	106.62
299.214	104.62
299.445	100.62
299.675	89.62
299.905	96.62
300.136	95.62
300.366	99.62
300.597	83.62
300.827	95.62
301.057	104.62
301.288	106.62
301.518	106.62
301.748	98.62
301.979	112.62
302.209	103.62
302.439	109.62
302.669	96.62
302.9	94.62
303.13	100.62
303.36	109.62
303.59	112.62
303.82	123.62
304.051	108.62
304.281	99.62
304.511	82.62
304.741	91.62
304.971	79.62
305.201	89.62
305.431	98.62
305.661	80.62
305.891	99.62
306.121	107.62
306.352	100.62
306.582	107.62
306.812	106.62
307.042	112.62
307.272	151.62
307.502	157.62
307.731	141.62
307.961	112.62
308.191	105.62
308.421	90.62
308.651	93.62
308.881	90.62
309.111	87.62
309.341	82.62
309.571	99.62
309.8	113.62
310.03	105.62
310.26	106.62
310.49	89.62
310.72	97.62
310.949	115.62
311.179	115.62
311.409	97.62
311.639	98.62
311.868	115.62
312.098	87.62
312.328	107.62
312.557	121.62
312.787	114.62
313.017	123.62
313.246	87.62
313.476	86.62
313.706	89.62
313.935	86.62
314.165	96.62
314.394	113.62
314.624	119.62
314.853	114.62
315.083	93.62
315.312	101.62
315.542	87.62
315.771	100.62
316.001	100.62
316.23	109.62
316.46	88.62
316.689	88.62
316.919	109.62
317.148	104.62
317.377	96.62
317.607	97.62
317.836	103.62
318.065	102.62
318.295	93.62
318.524	109.62
318.753	91.62
318.983	107.62
319.212	111.62
319.441	130.62
319.67	116.62
319.9	99.62
320.129	98.62
320.358	90.62
320.587	100.62
320.816	115.62
321.046	112.62
321.275	112.62
321.504	95.62
321.733	102.62
321.962	104.62
322.191	109.62
322.42	118.62
322.649	129.62
322.878	135.62
323.108	150.62
323.337	136.62
323.566	164.62
323.795	191.62
324.024	275.62
324.253	577.62
324.482	1321.62
324.71	2824.62
324.939	3655.62
325.168	1231.62
325.397	328.62
325.626	190.62
325.855	158.62
326.084	133.62
326.313	158.62
326.542	191.62
326.77	326.62
326.999	696.62
327.228	1530.62
327.457	2865.62
327.686	2209.62
327.914	612.62
328.143	462.62
328.372	535.62
328.6	291.62
328.829	178.62
329.058	172.62
329.287	178.62
329.515	168.62
329.744	213.62
329.972	410.62
330.201	798.62
330.43	1038.62
330.658	477.62
330.887	230.62
331.115	179.62
331.344	125.62
331.572	125.62
331.801	132.62
332.03	124.62
332.258	114.62
332.486	107.62
332.715	99.62
332.943	116.62
333.172	124.62
333.4	115.62
333.629	138.62
333.857	214.62
334.085	359.62
334.314	756.62
334.542	1400.62
334.771	1249.62
334.999	343.62
335.227	155.62
335.455	125.62
335.684	116.62
335.912	113.62
336.14	115.62
336.369	91.62
336.597	110.62
336.825	109.62
337.053	108.62
337.281	97.62
337.51	104.62
337.738	100.62
337.966	110.62
338.194	114.62
338.422	105.62
338.65	97.62
338.878	94.62
339.106	90.62
339.334	96.62
339.562	99.62
339.79	95.62
340.018	95.62
340.246	104.62
340.474	95.62
340.702	94.62
340.93	106.62
341.158	95.62
341.386	88.62
341.614	109.62
341.842	87.62
342.07	100.62
342.298	97.62
342.526	98.62
342.754	100.62
342.981	103.62
343.209	109.62
343.437	101.62
343.665	89.62
343.893	96.62
344.12	97.62
344.348	110.62
344.576	101.62
344.804	97.62
345.031	105.62
345.259	101.62
345.487	84.62
345.714	86.62
345.942	86.62
346.17	110.62
346.397	93.62
346.625	103.62
346.853	100.62
347.08	108.62
347.308	99.62
347.535	109.62
347.763	103.62
347.99	105.62
348.218	103.62
348.445	113.62
348.673	120.62
348.9	96.62
349.128	107.62
349.355	99.62
349.583	99.62
349.81	106.62
350.037	98.62
350.265	96.62
350.492	111.62
350.72	110.62
350.947	91.62
351.174	104.62
351.402	114.62
351.629	113.62
351.856	80.62
352.083	116.62
352.311	120.62
352.538	128.62
352.765	125.62
352.992	118.62
353.22	122.62
353.447	110.62
353.674	118.62
353.901	107.62
354.128	100.62
354.355	89.62
354.583	97.62
354.81	94.62
355.037	87.62
355.264	96.62
355.491	96.62
355.718	103.62
355.945	102.62
356.172	99.62
356.399	101.62
356.626	100.62
356.853	97.62
357.08	76.62
357.307	93.62
357.534	89.62
357.761	88.62
357.988	90.62
358.215	96.62
358.441	109.62
358.668	98.62
358.895	99.62
359.122	93.62
359.349	79.62
359.576	89.62
359.802	125.62
360.029	132.62
360.256	141.62
360.483	108.62
360.709	99.62
360.936	108.62
361.163	108.62
361.39	100.62
361.616	100.62
361.843	91.62
362.07	102.62
362.296	105.62
362.523	98.62
362.749	88.62
362.976	97.62
363.203	104.62
363.429	92.62
363.656	83.62
363.882	95.62
364.109	90.62
364.335	96.62
364.562	97.62
364.788	96.62
365.015	98.62
365.241	89.62
365.468	118.62
365.694	111.62
365.92	114.62
366.147	100.62
366.373	100.62
366.599	95.62
366.826	95.62
367.052	87.62
367.278	92.62
367.505	96.62
367.731	93.62
367.957	88.62
368.184	95.62
368.41	93.62
368.636	114.62
368.862	143.62
369.089	107.62
369.315	108.62
369.541	96.62
369.767	102.62
369.993	97.62
370.219	98.62
370.445	104.62
370.672	97.62
370.898	83.62
371.124	83.62
371.35	95.62
371.576	96.62
371.802	105.62
372.028	92.62
372.254	99.62
372.48	80.62
372.706	87.62
372.932	85.62
373.158	93.62
373.384	101.62
373.61	90.62
373.835	72.62
374.061	79.62
374.287	101.62
374.513	105.62
374.739	95.62
374.965	87.62
375.191	74.62
375.416	82.62
375.642	82.62
375.868	83.62
376.094	101.62
376.319	84.62
376.545	82.62
376.771	71.62
376.997	87.62
377.222	100.62
377.448	86.62
377.674	76.62
377.899	84.62
378.125	98.62
378.35	96.62
378.576	93.62
378.802	84.62
379.027	90.62
379.253	90.62
379.478	97.62
379.704	106.62
379.929	89.62
380.155	92.62
380.38	98.62
380.606	99.62
380.831	94.62
381.057	102.62
381.282	90.62
381.507	86.62
381.733	108.62
381.958	101.62
382.184	92.62
382.409	100.62
382.634	114.62
382.86	105.62
383.085	105.62
383.31	100.62
383.535	97.62
383.761	91.62
383.986	96.62
384.211	99.62
384.436	105.62
384.662	94.62
384.887	118.62
385.112	112.62
385.337	107.62
385.562	110.62
385.787	107.62
386.013	117.62
386.238	124.62
386.463	127.62
386.688	120.62
386.913	100.62
387.138	97.62
387.363	99.62
387.588	99.62
387.813	104.62
388.038	120.62
388.263	118.62
388.488	111.62
388.713	89.62
388.938	91.62
389.163	103.62
389.387	104.62
389.612	94.62
389.837	100.62
390.062	96.62
390.287	104.62
390.512	97.62
390.736	95.62
390.961	102.62
391.186	91.62
391.411	109.62
391.636	80.62
391.86	81.62
392.085	99.62
392.31	77.62
392.534	91.62
392.759	100.62
392.984	90.62
393.208	90.62
393.433	103.62
393.658	95.62
393.882	74.62
394.107	104.62
394.331	79.62
394.556	95.62
394.78	81.62
395.005	87.62
395.229	89.62
395.454	87.62
395.678	87.62
395.903	85.62
396.127	100.62
396.352	92.62
396.576	92.62
396.801	84.62
397.025	84.62
397.249	89.62
397.474	71.62
397.698	98.62
397.922	91.62
398.147	86.62
398.371	83.62
398.595	95.62
398.82	91.62
399.044	100.62
399.268	87.62
399.492	109.62
399.717	87.62
399.941	99.62
400.165	97.62
400.389	91.62
400.613	86.62
400.837	86.62
401.062	85.62
401.286	87.62
401.51	86.62
401.734	97.62
401.958	114.62
402.182	141.62
402.406	155.62
402.63	145.62
402.854	86.62
403.078	100.62
403.302	86.62
403.526	80.62
403.75	97.62
403.974	83.62
404.198	86.62
404.422	85.62
404.645	78.62
404.869	99.62
405.093	130.62
405.317	145.62
405.541	127.62
405.765	113.62
405.988	125.62
406.212	195.62
406.436	272.62
406.66	178.62
406.883	118.62
407.107	104.62
407.331	106.62
407.555	118.62
407.778	118.62
408.002	92.62
408.226	89.62
408.449	88.62
408.673	90.62
408.896	96.62
409.12	112.62
409.344	79.62
409.567	81.62
409.791	96.62
410.014	98.62
410.238	87.62
410.461	101.62
410.685	99.62
410.908	107.62
411.132	100.62
411.355	106.62
411.578	91.62
411.802	88.62
412.025	98.62
412.249	95.62
412.472	106.62
412.695	143.62
412.919	118.62
413.142	98.62
413.365	68.62
413.589	83.62
413.812	99.62
414.035	114.62
414.258	98.62
414.482	89.62
414.705	85.62
414.928	93.62
415.151	99.62
415.374	85.62
415.597	87.62
415.821	86.62
416.044	98.62
416.267	76.62
416.49	86.62
416.713	88.62
416.936	87.62
417.159	79.62
417.382	88.62
417.605	101.62
417.828	95.62
418.051	96.62
418.274	85.62
418.497	96.62
418.72	81.62
418.943	92.62
419.166	91.62
419.389	83.62
419.611	77.62
419.834	92.62
420.057	105.62
420.28	88.62
420.503	92.62
420.726	89.62
420.948	98.62
421.171	114.62
421.394	103.62
421.617	92.62
421.839	108.62
422.062	99.62
422.285	101.62
422.507	118.62
422.73	102.62
422.953	98.62
423.175	94.62
423.398	84.62
423.621	92.62
423.843	88.62
424.066	89.62
424.288	97.62
424.511	100.62
424.733	107.62
424.956	108.62
425.178	111.62
425.401	129.62
425.623	119.62
425.846	100.62
426.068	98.62
426.291	95.62
426.513	99.62
426.735	88.62
426.958	104.62
427.18	139.62
427.402	193.62
427.625	242.62
427.847	226.62
428.069	216.62
428.292	127.62
428.514	98.62
428.736	88.62
428.958	75.62
429.181	84.62
429.403	99.62
429.625	95.62
429.847	100.62
430.069	120.62
430.292	104.62
430.514	74.62
430.736	93.62
430.958	97.62
431.18	88.62
431.402	99.62
431.624	80.62
431.846	88.62
432.068	93.62
432.29	83.62
432.512	86.62
432.734	80.62
432.956	88.62
433.178	111.62
433.4	119.62
433.622	96.62
433.844	89.62
434.066	90.62
434.287	95.62
434.509	90.62
434.731	83.62
434.953	96.62
435.175	96.62
435.397	99.62
435.618	100.62
435.84	105.62
436.062	164.62
436.284	144.62
436.505	119.62
436.727	131.62
436.949	106.62
437.17	76.62
437.392	80.62
437.614	100.62
437.835	122.62
438.057	152.62
438.278	151.62
438.5	133.62
438.721	161.62
438.943	113.62
439.165	99.62
439.386	83.62
439.608	104.62
439.829	113.62
440.05	150.62
440.272	196.62
440.493	125.62
440.715	98.62
440.936	89.62
441.158	93.62
441.379	101.62
441.6	114.62
441.822	107.62
442.043	103.62
442.264	137.62
442.486	117.62
442.707	86.62
442.928	119.62
443.149	167.62
443.371	158.62
443.592	137.62
443.813	147.62
444.034	134.62
444.255	100.62
444.476	101.62
444.698	110.62
444.919	88.62
445.14	128.62
445.361	117.62
445.582	156.62
445.803	194.62
446.024	183.62
446.245	179.62
446.466	138.62
446.687	100.62
446.908	90.62
447.129	99.62
447.35	89.62
447.571	92.62
447.792	91.62
448.013	100.62
448.234	116.62
448.455	123.62
448.675	153.62
448.896	150.62
449.117	119.62
449.338	116.62
449.559	188.62
449.779	182.62
450	98.62
450.221	98.62
450.442	99.62
450.662	96.62
450.883	105.62
451.104	137.62
451.324	94.62
451.545	92.62
451.766	98.62
451.986	103.62
452.207	80.62
452.428	102.62
452.648	105.62
452.869	126.62
453.089	121.62
453.31	136.62
453.53	99.62
453.751	97.62
453.971	115.62
454.192	134.62
454.412	94.62
454.633	79.62
454.853	83.62
455.073	86.62
455.294	94.62
455.514	114.62
455.734	100.62
455.955	85.62
456.175	90.62
456.395	76.62
456.616	90.62
456.836	83.62
457.056	90.62
457.276	82.62
457.497	84.62
457.717	104.62
457.937	98.62
458.157	99.62
458.377	102.62
458.598	135.62
458.818	175.62
459.038	215.62
459.258	153.62
459.478	94.62
459.698	92.62
459.918	95.62
460.138	93.62
460.358	90.62
460.578	93.62
460.798	77.62
461.018	75.62
461.238	87.62
461.458	89.62
461.678	91.62
461.898	79.62
462.118	94.62
462.338	92.62
462.558	78.62
462.777	76.62
462.997	89.62
463.217	92.62
463.437	97.62
463.657	101.62
463.876	87.62
464.096	85.62
464.316	92.62
464.536	90.62
464.755	103.62
464.975	134.62
465.195	196.62
465.414	198.62
465.634	97.62
465.854	99.62
466.073	93.62
466.293	83.62
466.512	92.62
466.732	94.62
466.951	100.62
467.171	96.62
467.391	107.62
467.61	146.62
467.829	168.62
468.049	418.62
468.268	582.62
468.488	182.62
468.707	95.62
468.927	99.62
469.146	76.62
469.365	90.62
469.585	83.62
469.804	101.62
470.023	108.62
470.243	107.62
470.462	115.62
470.681	130.62
470.901	102.62
471.12	91.62
471.339	104.62
471.558	97.62
471.777	135.62
471.997	252.62
472.216	830.62
472.435	1792.62
472.654	435.62
472.873	149.62
473.092	112.62
473.311	104.62
473.53	92.62
473.749	93.62
473.968	94.62
474.187	115.62
474.406	103.62
474.625	97.62
474.844	92.62
475.063	89.62
475.282	82.62
475.501	86.62
475.72	95.62
475.939	99.62
476.158	83.62
476.377	103.62
476.596	79.62
476.814	95.62
477.033	108.62
477.252	99.62
477.471	92.62
477.69	102.62
477.908	92.62
478.127	95.62
478.346	96.62
478.564	98.62
478.783	106.62
479.002	114.62
479.22	113.62
479.439	118.62
479.658	114.62
479.876	103.62
480.095	122.62
480.313	143.62
480.532	144.62
480.751	240.62
480.969	803.62
481.188	3287.62
481.406	1812.62
481.624	296.62
481.843	127.62
482.061	84.62
482.28	78.62
482.498	107.62
482.717	76.62
482.935	87.62
483.153	99.62
483.372	88.62
483.59	107.62
483.808	93.62
484.027	82.62
484.245	85.62
484.463	90.62
484.681	97.62
484.9	97.62
485.118	94.62
485.336	88.62
485.554	97.62
485.772	100.62
485.99	98.62
486.209	108.62
486.427	106.62
486.645	126.62
486.863	122.62
487.081	103.62
487.299	92.62
487.517	94.62
487.735	91.62
487.953	91.62
488.171	95.62
488.389	98.62
488.607	119.62
488.825	89.62
489.043	94.62
489.261	93.62
489.479	81.62
489.696	84.62
489.914	93.62
490.132	77.62
490.35	102.62
490.568	82.62
490.786	77.62
491.003	75.62
491.221	89.62
491.439	104.62
491.657	92.62
491.874	98.62
492.092	95.62
492.31	98.62
492.527	97.62
492.745	105.62
492.963	89.62
493.18	88.62
493.398	98.62
493.615	93.62
493.833	106.62
494.05	90.62
494.268	90.62
494.485	90.62
494.703	84.62
494.92	90.62
495.138	83.62
495.355	95.62
495.573	88.62
495.79	87.62
496.008	95.62
496.225	95.62
496.442	106.62
496.66	92.62
496.877	92.62
497.094	86.62
497.312	86.62
497.529	92.62
497.746	102.62
497.963	83.62
498.181	98.62
498.398	103.62
498.615	120.62
498.832	95.62
499.049	86.62
499.267	83.62
499.484	90.62
499.701	75.62
499.918	94.62
500.135	90.62
500.352	85.62
500.569	92.62
500.786	96.62
501.003	91.62
501.22	96.62
501.437	105.62
501.654	118.62
501.871	122.62
502.088	96.62
502.305	91.62
502.522	93.62
502.739	98.62
502.956	83.62
503.172	105.62
503.389	105.62
503.606	106.62
503.823	90.62
504.04	88.62
504.256	92.62
504.473	97.62
504.69	95.62
504.907	84.62
505.123	95.62
505.34	97.62
505.557	82.62
505.773	100.62
505.99	100.62
506.207	99.62
506.423	89.62
506.64	83.62
506.856	85.62
507.073	104.62
507.289	90.62
507.506	118.62
507.722	127.62
507.939	115.62
508.155	101.62
508.372	88.62
508.588	103.62
508.805	84.62
509.021	102.62
509.238	96.62
509.454	93.62
509.67	100.62
509.887	107.62
510.103	134.62
510.319	221.62
510.536	819.62
510.752	2708.62
510.968	737.62
511.184	157.62
511.401	119.62
511.617	107.62
511.833	116.62
512.049	100.62
512.265	97.62
512.481	96.62
512.698	103.62
512.914	90.62
