Data from Circ_1997_H10_HRD10591_00100.txt Node
Date: Wed Jan 03 11:29:47 EST 2024
User: Yrep
Spectrometer: HR+D1059
Trigger mode: 1
Integration Time (sec): 1.000000E-1
Scans to average: 1
Electric dark correction enabled: true
Nonlinearity correction enabled: false
Boxcar width: 0
XAxis mode: Wavelengths
Number of Pixels in Spectrum: 2048
>>>>>Begin Spectral Data<<<<<
223.165	-11.81
223.4	-11.81
223.635	-11.81
223.869	-16.81
224.104	-25.81
224.338	-12.81
224.573	-13.81
224.808	-3.81
225.042	-8.81
225.277	-4.81
225.511	5.19
225.746	14.19
225.98	8.19
226.215	-3.81
226.449	8.19
226.683	20.19
226.918	10.19
227.152	36.19
227.387	32.19
227.621	20.19
227.856	42.19
228.09	44.19
228.324	56.19
228.559	53.19
228.793	70.19
229.027	60.19
229.262	58.19
229.496	101.19
229.73	107.19
229.964	109.19
230.199	77.19
230.433	75.19
230.667	81.19
230.901	73.19
231.136	63.19
231.37	76.19
231.604	73.19
231.838	88.19
232.072	98.19
232.306	87.19
232.541	82.19
232.775	69.19
233.009	81.19
233.243	87.19
233.477	80.19
233.711	90.19
233.945	66.19
234.179	77.19
234.413	65.19
234.647	79.19
234.881	86.19
235.115	62.19
235.349	70.19
235.583	84.19
235.817	71.19
236.051	80.19
236.285	76.19
236.519	74.19
236.753	74.19
236.987	89.19
237.221	89.19
237.455	104.19
237.689	80.19
237.922	75.19
238.156	94.19
238.39	65.19
238.624	78.19
238.858	89.19
239.091	82.19
239.325	91.19
239.559	89.19
239.793	71.19
240.027	76.19
240.26	79.19
240.494	89.19
240.728	85.19
240.961	75.19
241.195	76.19
241.429	60.19
241.662	78.19
241.896	77.19
242.13	80.19
242.363	77.19
242.597	81.19
242.83	72.19
243.064	85.19
243.298	84.19
243.531	70.19
243.765	90.19
243.998	77.19
244.232	86.19
244.465	93.19
244.699	90.19
244.932	77.19
245.166	102.19
245.399	83.19
245.633	63.19
245.866	61.19
246.099	91.19
246.333	77.19
246.566	87.19
246.8	72.19
247.033	74.19
247.266	85.19
247.5	83.19
247.733	71.19
247.966	79.19
248.2	86.19
248.433	90.19
248.666	79.19
248.899	86.19
249.133	104.19
249.366	120.19
249.599	111.19
249.832	82.19
250.066	86.19
250.299	94.19
250.532	84.19
250.765	83.19
250.998	83.19
251.231	83.19
251.465	89.19
251.698	84.19
251.931	80.19
252.164	84.19
252.397	78.19
252.63	84.19
252.863	72.19
253.096	65.19
253.329	62.19
253.562	73.19
253.795	70.19
254.028	80.19
254.261	64.19
254.494	89.19
254.727	90.19
254.96	94.19
255.193	104.19
255.426	81.19
255.659	87.19
255.892	95.19
256.124	106.19
256.357	98.19
256.59	97.19
256.823	95.19
257.056	84.19
257.289	90.19
257.521	95.19
257.754	94.19
257.987	70.19
258.22	88.19
258.452	99.19
258.685	88.19
258.918	87.19
259.151	74.19
259.383	84.19
259.616	74.19
259.849	69.19
260.081	104.19
260.314	95.19
260.547	112.19
260.779	105.19
261.012	127.19
261.244	112.19
261.477	104.19
261.71	115.19
261.942	134.19
262.175	172.19
262.407	89.19
262.64	88.19
262.872	80.19
263.105	84.19
263.337	86.19
263.57	91.19
263.802	86.19
264.035	78.19
264.267	77.19
264.499	87.19
264.732	82.19
264.964	69.19
265.197	90.19
265.429	73.19
265.661	74.19
265.894	85.19
266.126	96.19
266.358	88.19
266.591	74.19
266.823	88.19
267.055	76.19
267.287	85.19
267.52	69.19
267.752	70.19
267.984	89.19
268.216	82.19
268.448	67.19
268.681	93.19
268.913	81.19
269.145	85.19
269.377	88.19
269.609	92.19
269.841	96.19
270.073	94.19
270.306	96.19
270.538	83.19
270.77	93.19
271.002	73.19
271.234	85.19
271.466	107.19
271.698	87.19
271.93	97.19
272.162	96.19
272.394	97.19
272.626	79.19
272.858	90.19
273.09	101.19
273.322	78.19
273.553	86.19
273.785	78.19
274.017	75.19
274.249	95.19
274.481	95.19
274.713	88.19
274.945	96.19
275.176	94.19
275.408	109.19
275.64	114.19
275.872	158.19
276.104	112.19
276.335	118.19
276.567	133.19
276.799	176.19
277.031	224.19
277.262	253.19
277.494	189.19
277.726	108.19
277.957	94.19
278.189	93.19
278.421	84.19
278.652	94.19
278.884	89.19
279.115	98.19
279.347	95.19
279.579	109.19
279.81	167.19
280.042	252.19
280.273	384.19
280.505	268.19
280.736	123.19
280.968	96.19
281.199	105.19
281.431	104.19
281.662	103.19
281.894	113.19
282.125	109.19
282.356	159.19
282.588	198.19
282.819	152.19
283.051	102.19
283.282	84.19
283.513	91.19
283.745	81.19
283.976	85.19
284.207	97.19
284.439	95.19
284.67	94.19
284.901	97.19
285.132	95.19
285.364	81.19
285.595	90.19
285.826	76.19
286.057	99.19
286.288	86.19
286.52	79.19
286.751	81.19
286.982	96.19
287.213	82.19
287.444	80.19
287.675	99.19
287.906	95.19
288.138	92.19
288.369	93.19
288.6	97.19
288.831	86.19
289.062	96.19
289.293	97.19
289.524	88.19
289.755	69.19
289.986	87.19
290.217	86.19
290.448	104.19
290.679	90.19
290.91	93.19
291.141	98.19
291.371	89.19
291.602	92.19
291.833	92.19
292.064	85.19
292.295	89.19
292.526	96.19
292.757	86.19
292.987	95.19
293.218	86.19
293.449	104.19
293.68	72.19
293.91	73.19
294.141	87.19
294.372	86.19
294.603	97.19
294.833	109.19
295.064	82.19
295.295	98.19
295.525	97.19
295.756	105.19
295.987	138.19
296.217	182.19
296.448	153.19
296.679	85.19
296.909	96.19
297.14	90.19
297.37	82.19
297.601	85.19
297.831	95.19
298.062	111.19
298.292	91.19
298.523	88.19
298.753	94.19
298.984	96.19
299.214	92.19
299.445	93.19
299.675	89.19
299.905	107.19
300.136	93.19
300.366	86.19
300.597	98.19
300.827	106.19
301.057	106.19
301.288	123.19
301.518	124.19
301.748	91.19
301.979	114.19
302.209	109.19
302.439	110.19
302.669	89.19
302.9	72.19
303.13	96.19
303.36	103.19
303.59	138.19
303.82	166.19
304.051	114.19
304.281	98.19
304.511	98.19
304.741	88.19
304.971	95.19
305.201	95.19
305.431	106.19
305.661	87.19
305.891	104.19
306.121	96.19
306.352	129.19
306.582	135.19
306.812	112.19
307.042	149.19
307.272	214.19
307.502	238.19
307.731	209.19
307.961	150.19
308.191	106.19
308.421	100.19
308.651	106.19
308.881	101.19
309.111	104.19
309.341	77.19
309.571	111.19
309.8	104.19
310.03	105.19
310.26	103.19
310.49	98.19
310.72	110.19
310.949	133.19
311.179	124.19
311.409	87.19
311.639	118.19
311.868	109.19
312.098	106.19
312.328	116.19
312.557	118.19
312.787	141.19
313.017	122.19
313.246	99.19
313.476	106.19
313.706	87.19
313.935	114.19
314.165	119.19
314.394	121.19
314.624	115.19
314.853	105.19
315.083	109.19
315.312	92.19
315.542	90.19
315.771	91.19
316.001	98.19
316.23	95.19
316.46	89.19
316.689	103.19
316.919	108.19
317.148	113.19
317.377	114.19
317.607	94.19
317.836	104.19
318.065	88.19
318.295	100.19
318.524	104.19
318.753	97.19
318.983	101.19
319.212	110.19
319.441	125.19
319.67	134.19
319.9	97.19
320.129	98.19
320.358	100.19
320.587	111.19
320.816	103.19
321.046	112.19
321.275	127.19
321.504	75.19
321.733	86.19
321.962	105.19
322.191	117.19
322.42	126.19
322.649	134.19
322.878	134.19
323.108	148.19
323.337	157.19
323.566	180.19
323.795	217.19
324.024	287.19
324.253	598.19
324.482	1351.19
324.71	2800.19
324.939	3620.19
325.168	1287.19
325.397	341.19
325.626	219.19
325.855	159.19
326.084	161.19
326.313	164.19
326.542	194.19
326.77	311.19
326.999	656.19
327.228	1404.19
327.457	2616.19
327.686	2021.19
327.914	723.19
328.143	782.19
328.372	1071.19
328.6	559.19
328.829	252.19
329.058	249.19
329.287	266.19
329.515	236.19
329.744	369.19
329.972	745.19
330.201	1604.19
330.43	2361.19
330.658	985.19
330.887	404.19
331.115	252.19
331.344	128.19
331.572	121.19
331.801	146.19
332.03	137.19
332.258	127.19
332.486	110.19
332.715	104.19
332.943	132.19
333.172	151.19
333.4	167.19
333.629	202.19
333.857	328.19
334.085	680.19
334.314	1505.19
334.542	3016.19
334.771	2670.19
334.999	656.19
335.227	222.19
335.455	127.19
335.684	124.19
335.912	110.19
336.14	110.19
336.369	110.19
336.597	126.19
336.825	112.19
337.053	120.19
337.281	99.19
337.51	103.19
337.738	113.19
337.966	114.19
338.194	119.19
338.422	102.19
338.65	97.19
338.878	95.19
339.106	107.19
339.334	92.19
339.562	94.19
339.79	75.19
340.018	107.19
340.246	114.19
340.474	103.19
340.702	112.19
340.93	102.19
341.158	98.19
341.386	111.19
341.614	112.19
341.842	102.19
342.07	111.19
342.298	95.19
342.526	102.19
342.754	91.19
342.981	111.19
343.209	96.19
343.437	102.19
343.665	103.19
343.893	83.19
344.12	96.19
344.348	97.19
344.576	88.19
344.804	107.19
345.031	117.19
345.259	106.19
345.487	102.19
345.714	103.19
345.942	88.19
346.17	93.19
346.397	103.19
346.625	108.19
346.853	109.19
347.08	85.19
347.308	109.19
347.535	115.19
347.763	114.19
347.99	97.19
348.218	133.19
348.445	121.19
348.673	110.19
348.9	102.19
349.128	103.19
349.355	100.19
349.583	96.19
349.81	103.19
350.037	88.19
350.265	93.19
350.492	109.19
350.72	116.19
350.947	110.19
351.174	126.19
351.402	149.19
351.629	104.19
351.856	111.19
352.083	120.19
352.311	117.19
352.538	144.19
352.765	123.19
352.992	126.19
353.22	122.19
353.447	114.19
353.674	113.19
353.901	105.19
354.128	103.19
354.355	95.19
354.583	88.19
354.81	113.19
355.037	90.19
355.264	97.19
355.491	94.19
355.718	83.19
355.945	84.19
356.172	91.19
356.399	94.19
356.626	96.19
356.853	86.19
357.08	88.19
357.307	93.19
357.534	82.19
357.761	74.19
357.988	88.19
358.215	97.19
358.441	90.19
358.668	96.19
358.895	97.19
359.122	86.19
359.349	96.19
359.576	103.19
359.802	131.19
360.029	164.19
360.256	162.19
360.483	114.19
360.709	114.19
360.936	106.19
361.163	101.19
361.39	132.19
361.616	107.19
361.843	109.19
362.07	117.19
362.296	127.19
362.523	96.19
362.749	101.19
362.976	94.19
363.203	97.19
363.429	88.19
363.656	105.19
363.882	91.19
364.109	96.19
364.335	104.19
364.562	100.19
364.788	94.19
365.015	89.19
365.241	93.19
365.468	122.19
365.694	128.19
365.92	119.19
366.147	98.19
366.373	96.19
366.599	90.19
366.826	102.19
367.052	96.19
367.278	95.19
367.505	93.19
367.731	97.19
367.957	104.19
368.184	102.19
368.41	117.19
368.636	145.19
368.862	140.19
369.089	127.19
369.315	120.19
369.541	105.19
369.767	104.19
369.993	101.19
370.219	94.19
370.445	82.19
370.672	94.19
370.898	89.19
371.124	78.19
371.35	77.19
371.576	88.19
371.802	78.19
372.028	91.19
372.254	88.19
372.48	86.19
372.706	91.19
372.932	93.19
373.158	90.19
373.384	88.19
373.61	77.19
373.835	95.19
374.061	103.19
374.287	96.19
374.513	95.19
374.739	88.19
374.965	90.19
375.191	80.19
375.416	79.19
375.642	85.19
375.868	89.19
376.094	99.19
376.319	98.19
376.545	80.19
376.771	97.19
376.997	85.19
377.222	82.19
377.448	94.19
377.674	81.19
377.899	72.19
378.125	91.19
378.35	78.19
378.576	83.19
378.802	84.19
379.027	86.19
379.253	86.19
379.478	84.19
379.704	92.19
379.929	85.19
380.155	84.19
380.38	106.19
380.606	90.19
380.831	93.19
381.057	104.19
381.282	92.19
381.507	84.19
381.733	104.19
381.958	90.19
382.184	92.19
382.409	93.19
382.634	114.19
382.86	94.19
383.085	105.19
383.31	92.19
383.535	98.19
383.761	82.19
383.986	91.19
384.211	92.19
384.436	83.19
384.662	87.19
384.887	89.19
385.112	103.19
385.337	88.19
385.562	95.19
385.787	87.19
386.013	110.19
386.238	125.19
386.463	96.19
386.688	102.19
386.913	97.19
387.138	85.19
387.363	86.19
387.588	92.19
387.813	100.19
388.038	98.19
388.263	98.19
388.488	98.19
388.713	101.19
388.938	94.19
389.163	94.19
389.387	103.19
389.612	93.19
389.837	89.19
390.062	93.19
390.287	91.19
390.512	88.19
390.736	92.19
390.961	69.19
391.186	96.19
391.411	86.19
391.636	87.19
391.86	84.19
392.085	79.19
392.31	74.19
392.534	91.19
392.759	81.19
392.984	94.19
393.208	73.19
393.433	91.19
393.658	82.19
393.882	84.19
394.107	95.19
394.331	82.19
394.556	97.19
394.78	80.19
395.005	93.19
395.229	89.19
395.454	93.19
395.678	84.19
395.903	90.19
396.127	89.19
396.352	86.19
396.576	84.19
396.801	90.19
397.025	80.19
397.249	94.19
397.474	88.19
397.698	92.19
397.922	91.19
398.147	89.19
398.371	93.19
398.595	88.19
398.82	84.19
399.044	86.19
399.268	78.19
399.492	92.19
399.717	86.19
399.941	92.19
400.165	89.19
400.389	98.19
400.613	86.19
400.837	78.19
401.062	81.19
401.286	96.19
401.51	100.19
401.734	96.19
401.958	116.19
402.182	193.19
402.406	221.19
402.63	177.19
402.854	123.19
403.078	95.19
403.302	94.19
403.526	102.19
403.75	84.19
403.974	103.19
404.198	94.19
404.422	97.19
404.645	102.19
404.869	108.19
405.093	112.19
405.317	160.19
405.541	161.19
405.765	126.19
405.988	154.19
406.212	273.19
406.436	393.19
406.66	250.19
406.883	128.19
407.107	133.19
407.331	94.19
407.555	129.19
407.778	114.19
408.002	98.19
408.226	94.19
408.449	92.19
408.673	102.19
408.896	96.19
409.12	91.19
409.344	104.19
409.567	86.19
409.791	82.19
410.014	91.19
410.238	113.19
410.461	102.19
410.685	93.19
410.908	96.19
411.132	108.19
411.355	100.19
411.578	90.19
411.802	95.19
412.025	96.19
412.249	118.19
412.472	146.19
412.695	154.19
412.919	107.19
413.142	92.19
413.365	87.19
413.589	94.19
413.812	90.19
414.035	85.19
414.258	82.19
414.482	99.19
414.705	88.19
414.928	84.19
415.151	83.19
415.374	93.19
415.597	96.19
415.821	89.19
416.044	86.19
416.267	86.19
416.49	86.19
416.713	83.19
416.936	92.19
417.159	108.19
417.382	96.19
417.605	113.19
417.828	116.19
418.051	115.19
418.274	96.19
418.497	90.19
418.72	89.19
418.943	80.19
419.166	90.19
419.389	86.19
419.611	86.19
419.834	106.19
420.057	97.19
420.28	99.19
420.503	103.19
420.726	94.19
420.948	90.19
421.171	103.19
421.394	104.19
421.617	90.19
421.839	105.19
422.062	97.19
422.285	88.19
422.507	92.19
422.73	109.19
422.953	90.19
423.175	80.19
423.398	102.19
423.621	94.19
423.843	95.19
424.066	86.19
424.288	96.19
424.511	106.19
424.733	117.19
424.956	119.19
425.178	121.19
425.401	97.19
425.623	113.19
425.846	88.19
426.068	113.19
426.291	107.19
426.513	95.19
426.735	92.19
426.958	102.19
427.18	135.19
427.402	226.19
427.625	308.19
427.847	306.19
428.069	282.19
428.292	160.19
428.514	113.19
428.736	102.19
428.958	96.19
429.181	98.19
429.403	90.19
429.625	100.19
429.847	101.19
430.069	110.19
430.292	91.19
430.514	89.19
430.736	88.19
430.958	82.19
431.18	90.19
431.402	91.19
431.624	70.19
431.846	105.19
432.068	92.19
432.29	96.19
432.512	90.19
432.734	82.19
432.956	90.19
433.178	116.19
433.4	115.19
433.622	109.19
433.844	88.19
434.066	93.19
434.287	86.19
434.509	90.19
434.731	91.19
434.953	93.19
435.175	94.19
435.397	93.19
435.618	98.19
435.84	104.19
436.062	160.19
436.284	152.19
436.505	129.19
436.727	109.19
436.949	85.19
437.17	96.19
437.392	106.19
437.614	106.19
437.835	131.19
438.057	180.19
438.278	157.19
438.5	119.19
438.721	141.19
438.943	101.19
439.165	109.19
439.386	93.19
439.608	95.19
439.829	108.19
440.05	178.19
440.272	240.19
440.493	128.19
440.715	95.19
440.936	80.19
441.158	91.19
441.379	82.19
441.6	109.19
441.822	103.19
442.043	114.19
442.264	125.19
442.486	125.19
442.707	107.19
442.928	141.19
443.149	216.19
443.371	221.19
443.592	151.19
443.813	146.19
444.034	136.19
444.255	102.19
444.476	85.19
444.698	90.19
444.919	95.19
445.14	141.19
445.361	140.19
445.582	163.19
445.803	216.19
446.024	207.19
446.245	196.19
446.466	158.19
446.687	113.19
446.908	98.19
447.129	93.19
447.35	87.19
447.571	102.19
447.792	98.19
448.013	127.19
448.234	134.19
448.455	121.19
448.675	160.19
448.896	148.19
449.117	116.19
449.338	104.19
449.559	166.19
449.779	170.19
450	110.19
450.221	94.19
450.442	112.19
450.662	110.19
450.883	158.19
451.104	166.19
451.324	108.19
451.545	96.19
451.766	93.19
451.986	91.19
452.207	98.19
452.428	95.19
452.648	108.19
452.869	152.19
453.089	159.19
453.31	168.19
453.53	103.19
453.751	102.19
453.971	119.19
454.192	170.19
454.412	84.19
454.633	90.19
454.853	90.19
455.073	93.19
455.294	106.19
455.514	111.19
455.734	96.19
455.955	84.19
456.175	83.19
456.395	85.19
456.616	79.19
456.836	84.19
457.056	92.19
457.276	73.19
457.497	80.19
457.717	85.19
457.937	93.19
458.157	106.19
458.377	118.19
458.598	161.19
458.818	265.19
459.038	300.19
459.258	162.19
459.478	102.19
459.698	92.19
459.918	87.19
460.138	91.19
460.358	84.19
460.578	97.19
460.798	111.19
461.018	101.19
461.238	93.19
461.458	95.19
461.678	77.19
461.898	93.19
462.118	97.19
462.338	82.19
462.558	86.19
462.777	88.19
462.997	112.19
463.217	113.19
463.437	111.19
463.657	100.19
463.876	96.19
464.096	97.19
464.316	110.19
464.536	107.19
464.755	105.19
464.975	143.19
465.195	294.19
465.414	288.19
465.634	115.19
465.854	97.19
466.073	86.19
466.293	97.19
466.512	86.19
466.732	105.19
466.951	87.19
467.171	116.19
467.391	119.19
467.61	182.19
467.829	306.19
468.049	874.19
468.268	1338.19
468.488	311.19
468.707	119.19
468.927	110.19
469.146	123.19
469.365	99.19
469.585	107.19
469.804	133.19
470.023	149.19
470.243	109.19
470.462	125.19
470.681	171.19
470.901	109.19
471.12	102.19
471.339	121.19
471.558	151.19
471.777	196.19
471.997	446.19
472.216	1774.19
472.435	4122.19
472.654	884.19
472.873	208.19
473.092	123.19
473.311	97.19
473.53	104.19
473.749	99.19
473.968	106.19
474.187	146.19
474.406	125.19
474.625	91.19
474.844	95.19
475.063	102.19
475.282	104.19
475.501	104.19
475.72	88.19
475.939	81.19
476.158	80.19
476.377	92.19
476.596	98.19
476.814	94.19
477.033	115.19
477.252	110.19
477.471	104.19
477.69	92.19
477.908	110.19
478.127	93.19
478.346	96.19
478.564	96.19
478.783	124.19
479.002	110.19
479.22	111.19
479.439	146.19
479.658	161.19
479.876	154.19
480.095	143.19
480.313	175.19
480.532	214.19
480.751	410.19
480.969	1578.19
481.188	6978.19
481.406	3856.19
481.624	508.19
481.843	174.19
482.061	129.19
482.28	106.19
482.498	100.19
482.717	101.19
482.935	81.19
483.153	98.19
483.372	86.19
483.59	91.19
483.808	97.19
484.027	106.19
484.245	106.19
484.463	90.19
484.681	90.19
484.9	87.19
485.118	95.19
485.336	90.19
485.554	108.19
485.772	103.19
485.99	98.19
486.209	88.19
486.427	105.19
486.645	135.19
486.863	142.19
487.081	117.19
487.299	122.19
487.517	88.19
487.735	95.19
487.953	81.19
488.171	90.19
488.389	100.19
488.607	129.19
488.825	96.19
489.043	85.19
489.261	80.19
489.479	89.19
489.696	89.19
489.914	93.19
490.132	89.19
490.35	92.19
490.568	90.19
490.786	89.19
491.003	90.19
491.221	93.19
491.439	105.19
491.657	97.19
491.874	105.19
492.092	100.19
492.31	100.19
492.527	116.19
492.745	117.19
492.963	92.19
493.18	98.19
493.398	93.19
493.615	99.19
493.833	100.19
494.05	92.19
494.268	94.19
494.485	100.19
494.703	91.19
494.92	100.19
495.138	91.19
495.355	88.19
495.573	98.19
495.79	89.19
496.008	89.19
496.225	88.19
496.442	91.19
496.66	106.19
496.877	99.19
497.094	98.19
497.312	79.19
497.529	111.19
497.746	106.19
497.963	90.19
498.181	104.19
498.398	98.19
498.615	125.19
498.832	109.19
499.049	102.19
499.267	96.19
499.484	82.19
499.701	78.19
499.918	97.19
500.135	90.19
500.352	105.19
500.569	103.19
500.786	104.19
501.003	85.19
501.22	70.19
501.437	106.19
501.654	93.19
501.871	128.19
502.088	103.19
502.305	83.19
502.522	89.19
502.739	81.19
502.956	81.19
503.172	107.19
503.389	117.19
503.606	153.19
503.823	121.19
504.04	91.19
504.256	94.19
504.473	91.19
504.69	95.19
504.907	95.19
505.123	90.19
505.34	90.19
505.557	87.19
505.773	104.19
505.99	107.19
506.207	87.19
506.423	78.19
506.64	94.19
506.856	93.19
507.073	89.19
507.289	113.19
507.506	109.19
507.722	138.19
507.939	144.19
508.155	105.19
508.372	113.19
508.588	107.19
508.805	105.19
509.021	108.19
509.238	104.19
509.454	116.19
509.67	123.19
509.887	125.19
510.103	162.19
510.319	262.19
510.536	1159.19
510.752	4213.19
510.968	1128.19
511.184	215.19
511.401	137.19
511.617	125.19
511.833	132.19
