Data from Circ_1997_H10_HRD10591_00016.txt Node
Date: Wed Jan 03 11:29:30 EST 2024
User: Yrep
Spectrometer: HR+D1059
Trigger mode: 1
Integration Time (sec): 1.000000E-1
Scans to average: 1
Electric dark correction enabled: true
Nonlinearity correction enabled: false
Boxcar width: 0
XAxis mode: Wavelengths
Number of Pixels in Spectrum: 2048
>>>>>Begin Spectral Data<<<<<
223.165	-11.75
223.4	-11.75
223.635	-11.75
223.869	-23.75
224.104	-31.75
224.338	-19.75
224.573	-13.75
224.808	-7.75
225.042	-7.75
225.277	-10.75
225.511	11.25
225.746	4.25
225.98	-2.75
226.215	18.25
226.449	12.25
226.683	24.25
226.918	26.25
227.152	33.25
227.387	32.25
227.621	36.25
227.856	30.25
228.09	43.25
228.324	34.25
228.559	47.25
228.793	58.25
229.027	67.25
229.262	60.25
229.496	66.25
229.73	82.25
229.964	79.25
230.199	58.25
230.433	57.25
230.667	77.25
230.901	79.25
231.136	89.25
231.37	84.25
231.604	76.25
231.838	73.25
232.072	70.25
232.306	74.25
232.541	77.25
232.775	73.25
233.009	73.25
233.243	76.25
233.477	64.25
233.711	66.25
233.945	65.25
234.179	73.25
234.413	65.25
234.647	71.25
234.881	85.25
235.115	76.25
235.349	68.25
235.583	65.25
235.817	69.25
236.051	74.25
236.285	60.25
236.519	60.25
236.753	73.25
236.987	86.25
237.221	90.25
237.455	73.25
237.689	59.25
237.922	75.25
238.156	76.25
238.39	55.25
238.624	52.25
238.858	64.25
239.091	70.25
239.325	70.25
239.559	62.25
239.793	78.25
240.027	56.25
240.26	75.25
240.494	77.25
240.728	59.25
240.961	71.25
241.195	74.25
241.429	68.25
241.662	84.25
241.896	75.25
242.13	72.25
242.363	67.25
242.597	66.25
242.83	77.25
243.064	73.25
243.298	66.25
243.531	76.25
243.765	73.25
243.998	70.25
244.232	75.25
244.465	92.25
244.699	79.25
244.932	85.25
245.166	76.25
245.399	74.25
245.633	86.25
245.866	66.25
246.099	72.25
246.333	81.25
246.566	84.25
246.8	82.25
247.033	66.25
247.266	85.25
247.5	65.25
247.733	79.25
247.966	57.25
248.2	66.25
248.433	83.25
248.666	79.25
248.899	77.25
249.133	70.25
249.366	94.25
249.599	81.25
249.832	78.25
250.066	84.25
250.299	66.25
250.532	78.25
250.765	69.25
250.998	80.25
251.231	77.25
251.465	73.25
251.698	73.25
251.931	85.25
252.164	66.25
252.397	58.25
252.63	72.25
252.863	65.25
253.096	75.25
253.329	86.25
253.562	61.25
253.795	75.25
254.028	71.25
254.261	75.25
254.494	76.25
254.727	82.25
254.96	80.25
255.193	82.25
255.426	72.25
255.659	74.25
255.892	70.25
256.124	79.25
256.357	80.25
256.59	68.25
256.823	71.25
257.056	69.25
257.289	72.25
257.521	74.25
257.754	64.25
257.987	74.25
258.22	77.25
258.452	81.25
258.685	77.25
258.918	71.25
259.151	70.25
259.383	80.25
259.616	77.25
259.849	80.25
260.081	74.25
260.314	72.25
260.547	70.25
260.779	75.25
261.012	97.25
261.244	98.25
261.477	80.25
261.71	94.25
261.942	114.25
262.175	117.25
262.407	85.25
262.64	81.25
262.872	82.25
263.105	77.25
263.337	80.25
263.57	86.25
263.802	72.25
264.035	68.25
264.267	69.25
264.499	74.25
264.732	83.25
264.964	83.25
265.197	78.25
265.429	78.25
265.661	70.25
265.894	65.25
266.126	74.25
266.358	86.25
266.591	89.25
266.823	75.25
267.055	70.25
267.287	80.25
267.52	62.25
267.752	101.25
267.984	70.25
268.216	73.25
268.448	77.25
268.681	88.25
268.913	75.25
269.145	69.25
269.377	80.25
269.609	72.25
269.841	73.25
270.073	66.25
270.306	72.25
270.538	85.25
270.77	89.25
271.002	81.25
271.234	57.25
271.466	93.25
271.698	88.25
271.93	79.25
272.162	80.25
272.394	73.25
272.626	89.25
272.858	74.25
273.09	94.25
273.322	77.25
273.553	83.25
273.785	82.25
274.017	78.25
274.249	73.25
274.481	73.25
274.713	83.25
274.945	97.25
275.176	86.25
275.408	75.25
275.64	94.25
275.872	102.25
276.104	83.25
276.335	88.25
276.567	90.25
276.799	122.25
277.031	137.25
277.262	136.25
277.494	116.25
277.726	100.25
277.957	82.25
278.189	89.25
278.421	73.25
278.652	72.25
278.884	74.25
279.115	85.25
279.347	86.25
279.579	83.25
279.81	93.25
280.042	144.25
280.273	180.25
280.505	143.25
280.736	102.25
280.968	77.25
281.199	90.25
281.431	84.25
281.662	76.25
281.894	73.25
282.125	93.25
282.356	124.25
282.588	122.25
282.819	109.25
283.051	79.25
283.282	83.25
283.513	79.25
283.745	87.25
283.976	73.25
284.207	77.25
284.439	70.25
284.67	87.25
284.901	82.25
285.132	80.25
285.364	87.25
285.595	81.25
285.826	93.25
286.057	83.25
286.288	73.25
286.52	70.25
286.751	82.25
286.982	78.25
287.213	73.25
287.444	95.25
287.675	74.25
287.906	91.25
288.138	76.25
288.369	95.25
288.6	91.25
288.831	85.25
289.062	99.25
289.293	102.25
289.524	89.25
289.755	75.25
289.986	78.25
290.217	84.25
290.448	80.25
290.679	84.25
290.91	83.25
291.141	76.25
291.371	88.25
291.602	85.25
291.833	94.25
292.064	73.25
292.295	89.25
292.526	82.25
292.757	87.25
292.987	88.25
293.218	84.25
293.449	84.25
293.68	90.25
293.91	82.25
294.141	87.25
294.372	68.25
294.603	75.25
294.833	85.25
295.064	88.25
295.295	88.25
295.525	86.25
295.756	93.25
295.987	117.25
296.217	137.25
296.448	130.25
296.679	83.25
296.909	83.25
297.14	86.25
297.37	82.25
297.601	77.25
297.831	80.25
298.062	81.25
298.292	85.25
298.523	84.25
298.753	75.25
298.984	86.25
299.214	74.25
299.445	101.25
299.675	92.25
299.905	97.25
300.136	80.25
300.366	91.25
300.597	85.25
300.827	87.25
301.057	103.25
301.288	99.25
301.518	106.25
301.748	92.25
301.979	104.25
302.209	89.25
302.439	85.25
302.669	84.25
302.9	95.25
303.13	89.25
303.36	111.25
303.59	119.25
303.82	121.25
304.051	120.25
304.281	92.25
304.511	72.25
304.741	77.25
304.971	89.25
305.201	76.25
305.431	85.25
305.661	88.25
305.891	90.25
306.121	83.25
306.352	85.25
306.582	116.25
306.812	102.25
307.042	108.25
307.272	113.25
307.502	138.25
307.731	134.25
307.961	103.25
308.191	86.25
308.421	77.25
308.651	92.25
308.881	82.25
309.111	89.25
309.341	88.25
309.571	98.25
309.8	89.25
310.03	91.25
310.26	75.25
310.49	101.25
310.72	105.25
310.949	104.25
311.179	104.25
311.409	91.25
311.639	99.25
311.868	89.25
312.098	95.25
312.328	82.25
312.557	87.25
312.787	92.25
313.017	101.25
313.246	105.25
313.476	85.25
313.706	87.25
313.935	102.25
314.165	116.25
314.394	99.25
314.624	93.25
314.853	88.25
315.083	91.25
315.312	84.25
315.542	84.25
315.771	85.25
316.001	92.25
316.23	86.25
316.46	90.25
316.689	69.25
316.919	83.25
317.148	94.25
317.377	86.25
317.607	95.25
317.836	98.25
318.065	80.25
318.295	76.25
318.524	81.25
318.753	90.25
318.983	96.25
319.212	81.25
319.441	102.25
319.67	114.25
319.9	84.25
320.129	81.25
320.358	83.25
320.587	87.25
320.816	108.25
321.046	106.25
321.275	94.25
321.504	100.25
321.733	105.25
321.962	101.25
322.191	105.25
322.42	105.25
322.649	118.25
322.878	126.25
323.108	120.25
323.337	121.25
323.566	132.25
323.795	160.25
324.024	246.25
324.253	507.25
324.482	1091.25
324.71	2410.25
324.939	3241.25
325.168	1130.25
325.397	295.25
325.626	173.25
325.855	140.25
326.084	122.25
326.313	149.25
326.542	178.25
326.77	284.25
326.999	574.25
327.228	1252.25
327.457	2385.25
327.686	1932.25
327.914	542.25
328.143	395.25
328.372	468.25
328.6	268.25
328.829	148.25
329.058	144.25
329.287	163.25
329.515	158.25
329.744	169.25
329.972	326.25
330.201	612.25
330.43	920.25
330.658	449.25
330.887	228.25
331.115	150.25
331.344	116.25
331.572	115.25
331.801	110.25
332.03	112.25
332.258	94.25
332.486	93.25
332.715	98.25
332.943	114.25
333.172	94.25
333.4	118.25
333.629	131.25
333.857	192.25
334.085	300.25
334.314	585.25
334.542	1115.25
334.771	1094.25
334.999	306.25
335.227	145.25
335.455	100.25
335.684	105.25
335.912	96.25
336.14	89.25
336.369	85.25
336.597	107.25
336.825	92.25
337.053	99.25
337.281	86.25
337.51	94.25
337.738	94.25
337.966	99.25
338.194	96.25
338.422	106.25
338.65	100.25
338.878	71.25
339.106	92.25
339.334	80.25
339.562	93.25
339.79	92.25
340.018	86.25
340.246	103.25
340.474	103.25
340.702	86.25
340.93	96.25
341.158	85.25
341.386	84.25
341.614	85.25
341.842	94.25
342.07	96.25
342.298	86.25
342.526	89.25
342.754	88.25
342.981	94.25
343.209	86.25
343.437	96.25
343.665	91.25
343.893	84.25
344.12	73.25
344.348	102.25
344.576	80.25
344.804	81.25
345.031	88.25
345.259	98.25
345.487	92.25
345.714	88.25
345.942	80.25
346.17	97.25
346.397	94.25
346.625	103.25
346.853	74.25
347.08	83.25
347.308	94.25
347.535	105.25
347.763	106.25
347.99	90.25
348.218	102.25
348.445	110.25
348.673	105.25
348.9	88.25
349.128	84.25
349.355	94.25
349.583	92.25
349.81	87.25
350.037	89.25
350.265	102.25
350.492	87.25
350.72	92.25
350.947	93.25
351.174	116.25
351.402	110.25
351.629	105.25
351.856	101.25
352.083	96.25
352.311	108.25
352.538	98.25
352.765	106.25
352.992	120.25
353.22	109.25
353.447	93.25
353.674	108.25
353.901	90.25
354.128	88.25
354.355	78.25
354.583	96.25
354.81	81.25
355.037	91.25
355.264	103.25
355.491	92.25
355.718	99.25
355.945	100.25
356.172	102.25
356.399	96.25
356.626	79.25
356.853	80.25
357.08	83.25
357.307	80.25
357.534	84.25
357.761	83.25
357.988	75.25
358.215	94.25
358.441	93.25
358.668	82.25
358.895	99.25
359.122	85.25
359.349	84.25
359.576	86.25
359.802	100.25
360.029	109.25
360.256	117.25
360.483	95.25
360.709	96.25
360.936	86.25
361.163	85.25
361.39	113.25
361.616	83.25
361.843	67.25
362.07	84.25
362.296	86.25
362.523	78.25
362.749	91.25
362.976	80.25
363.203	86.25
363.429	90.25
363.656	93.25
363.882	103.25
364.109	92.25
364.335	89.25
364.562	83.25
364.788	86.25
365.015	92.25
365.241	96.25
365.468	109.25
365.694	107.25
365.92	100.25
366.147	94.25
366.373	99.25
366.599	80.25
366.826	78.25
367.052	80.25
367.278	77.25
367.505	85.25
367.731	73.25
367.957	95.25
368.184	87.25
368.41	93.25
368.636	113.25
368.862	120.25
369.089	115.25
369.315	99.25
369.541	98.25
369.767	86.25
369.993	89.25
370.219	82.25
370.445	94.25
370.672	79.25
370.898	90.25
371.124	95.25
371.35	78.25
371.576	101.25
371.802	88.25
372.028	72.25
372.254	90.25
372.48	75.25
372.706	80.25
372.932	91.25
373.158	81.25
373.384	84.25
373.61	87.25
373.835	92.25
374.061	75.25
374.287	82.25
374.513	90.25
374.739	85.25
374.965	88.25
375.191	86.25
375.416	85.25
375.642	90.25
375.868	82.25
376.094	85.25
376.319	77.25
376.545	91.25
376.771	90.25
376.997	78.25
377.222	81.25
377.448	81.25
377.674	83.25
377.899	84.25
378.125	85.25
378.35	70.25
378.576	80.25
378.802	81.25
379.027	94.25
379.253	83.25
379.478	76.25
379.704	85.25
379.929	83.25
380.155	69.25
380.38	86.25
380.606	82.25
380.831	98.25
381.057	104.25
381.282	100.25
381.507	79.25
381.733	103.25
381.958	97.25
382.184	91.25
382.409	102.25
382.634	93.25
382.86	102.25
383.085	94.25
383.31	104.25
383.535	112.25
383.761	101.25
383.986	91.25
384.211	84.25
384.436	107.25
384.662	98.25
384.887	97.25
385.112	98.25
385.337	99.25
385.562	107.25
385.787	91.25
386.013	107.25
386.238	111.25
386.463	113.25
386.688	107.25
386.913	118.25
387.138	114.25
387.363	93.25
387.588	89.25
387.813	94.25
388.038	88.25
388.263	98.25
388.488	100.25
388.713	82.25
388.938	83.25
389.163	87.25
389.387	104.25
389.612	81.25
389.837	84.25
390.062	85.25
390.287	90.25
390.512	80.25
390.736	81.25
390.961	91.25
391.186	93.25
391.411	87.25
391.636	88.25
391.86	77.25
392.085	99.25
392.31	90.25
392.534	86.25
392.759	86.25
392.984	77.25
393.208	91.25
393.433	95.25
393.658	84.25
393.882	70.25
394.107	78.25
394.331	80.25
394.556	70.25
394.78	81.25
395.005	80.25
395.229	85.25
395.454	90.25
395.678	89.25
395.903	86.25
396.127	93.25
396.352	86.25
396.576	83.25
396.801	93.25
397.025	86.25
397.249	93.25
397.474	77.25
397.698	79.25
397.922	76.25
398.147	61.25
398.371	93.25
398.595	102.25
398.82	80.25
399.044	84.25
399.268	81.25
399.492	72.25
399.717	80.25
399.941	98.25
400.165	100.25
400.389	91.25
400.613	80.25
400.837	73.25
401.062	88.25
401.286	90.25
401.51	84.25
401.734	101.25
401.958	97.25
402.182	142.25
402.406	178.25
402.63	147.25
402.854	96.25
403.078	83.25
403.302	82.25
403.526	90.25
403.75	82.25
403.974	84.25
404.198	86.25
404.422	92.25
404.645	70.25
404.869	79.25
405.093	114.25
405.317	124.25
405.541	116.25
405.765	109.25
405.988	126.25
406.212	187.25
406.436	270.25
406.66	181.25
406.883	110.25
407.107	101.25
407.331	98.25
407.555	100.25
407.778	90.25
408.002	91.25
408.226	92.25
408.449	98.25
408.673	84.25
408.896	85.25
409.12	88.25
409.344	108.25
409.567	71.25
409.791	96.25
410.014	93.25
410.238	97.25
410.461	83.25
410.685	90.25
410.908	91.25
411.132	73.25
411.355	98.25
411.578	74.25
411.802	84.25
412.025	82.25
412.249	72.25
412.472	112.25
412.695	125.25
412.919	98.25
413.142	91.25
413.365	89.25
413.589	85.25
413.812	83.25
414.035	79.25
414.258	79.25
414.482	92.25
414.705	89.25
414.928	78.25
415.151	77.25
415.374	93.25
415.597	98.25
415.821	71.25
416.044	104.25
416.267	83.25
416.49	87.25
416.713	89.25
416.936	77.25
417.159	63.25
417.382	76.25
417.605	92.25
417.828	85.25
418.051	76.25
418.274	80.25
418.497	86.25
418.72	82.25
418.943	77.25
419.166	78.25
419.389	84.25
419.611	98.25
419.834	83.25
420.057	80.25
420.28	79.25
420.503	88.25
420.726	80.25
420.948	77.25
421.171	98.25
421.394	83.25
421.617	80.25
421.839	89.25
422.062	74.25
422.285	97.25
422.507	93.25
422.73	110.25
422.953	92.25
423.175	91.25
423.398	97.25
423.621	92.25
423.843	85.25
424.066	87.25
424.288	78.25
424.511	96.25
424.733	92.25
424.956	90.25
425.178	98.25
425.401	107.25
425.623	107.25
425.846	86.25
426.068	92.25
426.291	78.25
426.513	75.25
426.735	89.25
426.958	106.25
427.18	108.25
427.402	165.25
427.625	213.25
427.847	220.25
428.069	205.25
428.292	104.25
428.514	91.25
428.736	88.25
428.958	90.25
429.181	79.25
429.403	79.25
429.625	83.25
429.847	91.25
430.069	102.25
430.292	89.25
430.514	74.25
430.736	89.25
430.958	86.25
431.18	72.25
431.402	84.25
431.624	59.25
431.846	91.25
432.068	72.25
432.29	81.25
432.512	81.25
432.734	78.25
432.956	79.25
433.178	92.25
433.4	84.25
433.622	88.25
433.844	86.25
434.066	102.25
434.287	99.25
434.509	79.25
434.731	76.25
434.953	81.25
435.175	89.25
435.397	98.25
435.618	88.25
435.84	101.25
436.062	145.25
436.284	133.25
436.505	100.25
436.727	101.25
436.949	91.25
437.17	89.25
437.392	69.25
437.614	94.25
437.835	104.25
438.057	122.25
438.278	116.25
438.5	116.25
438.721	132.25
438.943	92.25
439.165	89.25
439.386	94.25
439.608	94.25
439.829	116.25
440.05	143.25
440.272	198.25
440.493	107.25
440.715	93.25
440.936	97.25
441.158	75.25
441.379	101.25
441.6	94.25
441.822	89.25
442.043	86.25
442.264	103.25
442.486	89.25
442.707	69.25
442.928	104.25
443.149	153.25
443.371	173.25
443.592	132.25
443.813	117.25
444.034	99.25
444.255	85.25
444.476	79.25
444.698	89.25
444.919	82.25
445.14	148.25
445.361	114.25
445.582	121.25
445.803	169.25
446.024	169.25
446.245	170.25
446.466	146.25
446.687	94.25
446.908	89.25
447.129	82.25
447.35	76.25
447.571	94.25
447.792	74.25
448.013	104.25
448.234	107.25
448.455	105.25
448.675	116.25
448.896	115.25
449.117	112.25
449.338	109.25
449.559	139.25
449.779	146.25
450	94.25
450.221	76.25
450.442	88.25
450.662	85.25
450.883	120.25
451.104	108.25
451.324	94.25
451.545	85.25
451.766	94.25
451.986	67.25
452.207	69.25
452.428	88.25
452.648	83.25
452.869	107.25
453.089	123.25
453.31	126.25
453.53	93.25
453.751	80.25
453.971	106.25
454.192	117.25
454.412	108.25
454.633	64.25
454.853	80.25
455.073	86.25
455.294	80.25
455.514	115.25
455.734	105.25
455.955	77.25
456.175	77.25
456.395	81.25
456.616	84.25
456.836	82.25
457.056	86.25
457.276	81.25
457.497	81.25
457.717	80.25
457.937	77.25
458.157	74.25
458.377	97.25
458.598	107.25
458.818	162.25
459.038	197.25
459.258	144.25
459.478	108.25
459.698	74.25
459.918	93.25
460.138	88.25
460.358	78.25
460.578	88.25
460.798	85.25
461.018	84.25
461.238	84.25
461.458	86.25
461.678	75.25
461.898	78.25
462.118	95.25
462.338	99.25
462.558	90.25
462.777	91.25
462.997	89.25
463.217	83.25
463.437	101.25
463.657	81.25
463.876	81.25
464.096	83.25
464.316	88.25
464.536	85.25
464.755	89.25
464.975	102.25
465.195	187.25
465.414	192.25
465.634	93.25
465.854	89.25
466.073	74.25
466.293	77.25
466.512	90.25
466.732	86.25
466.951	93.25
467.171	88.25
467.391	107.25
467.61	118.25
467.829	164.25
468.049	360.25
468.268	540.25
468.488	162.25
468.707	106.25
468.927	85.25
469.146	83.25
469.365	85.25
469.585	85.25
469.804	114.25
470.023	109.25
470.243	94.25
470.462	92.25
470.681	115.25
470.901	93.25
471.12	98.25
471.339	94.25
471.558	92.25
471.777	126.25
471.997	213.25
472.216	710.25
472.435	1646.25
472.654	410.25
472.873	128.25
473.092	100.25
473.311	96.25
473.53	64.25
473.749	90.25
473.968	106.25
474.187	118.25
474.406	104.25
474.625	82.25
474.844	80.25
475.063	80.25
475.282	97.25
475.501	102.25
475.72	85.25
475.939	67.25
476.158	83.25
476.377	93.25
476.596	88.25
476.814	85.25
477.033	94.25
477.252	103.25
477.471	86.25
477.69	84.25
477.908	84.25
478.127	101.25
478.346	103.25
478.564	99.25
478.783	96.25
479.002	98.25
479.22	85.25
479.439	111.25
479.658	132.25
479.876	127.25
480.095	117.25
480.313	112.25
480.532	133.25
480.751	191.25
480.969	659.25
481.188	2787.25
481.406	1671.25
481.624	261.25
481.843	131.25
482.061	92.25
482.28	91.25
482.498	96.25
482.717	82.25
482.935	75.25
483.153	82.25
483.372	91.25
483.59	75.25
483.808	79.25
484.027	82.25
484.245	80.25
484.463	90.25
484.681	86.25
484.9	83.25
485.118	93.25
485.336	84.25
485.554	78.25
485.772	86.25
485.99	97.25
486.209	96.25
486.427	98.25
486.645	98.25
486.863	109.25
487.081	93.25
487.299	99.25
487.517	90.25
487.735	85.25
487.953	71.25
488.171	83.25
488.389	84.25
488.607	106.25
488.825	82.25
489.043	101.25
489.261	74.25
489.479	89.25
489.696	76.25
489.914	87.25
490.132	80.25
490.35	89.25
490.568	85.25
490.786	74.25
491.003	96.25
491.221	94.25
491.439	90.25
491.657	92.25
491.874	77.25
492.092	90.25
492.31	81.25
492.527	94.25
492.745	95.25
492.963	90.25
493.18	81.25
493.398	86.25
493.615	93.25
493.833	107.25
494.05	101.25
494.268	90.25
494.485	90.25
494.703	86.25
494.92	83.25
495.138	83.25
495.355	84.25
495.573	81.25
495.79	84.25
496.008	91.25
496.225	80.25
496.442	74.25
496.66	94.25
496.877	93.25
497.094	95.25
497.312	82.25
497.529	79.25
497.746	92.25
497.963	91.25
498.181	84.25
498.398	106.25
498.615	93.25
498.832	108.25
499.049	93.25
499.267	81.25
499.484	90.25
499.701	92.25
499.918	77.25
500.135	84.25
500.352	90.25
500.569	87.25
500.786	86.25
501.003	93.25
501.22	86.25
501.437	71.25
501.654	84.25
501.871	108.25
502.088	95.25
502.305	84.25
502.522	92.25
502.739	86.25
502.956	98.25
503.172	97.25
503.389	101.25
503.606	129.25
503.823	89.25
504.04	83.25
504.256	73.25
504.473	93.25
504.69	85.25
504.907	90.25
505.123	74.25
505.34	77.25
505.557	72.25
505.773	72.25
505.99	86.25
506.207	89.25
506.423	73.25
506.64	88.25
506.856	91.25
507.073	83.25
507.289	91.25
507.506	100.25
507.722	108.25
507.939	116.25
508.155	93.25
508.372	88.25
508.588	96.25
508.805	87.25
509.021	94.25
509.238	95.25
509.454	109.25
509.67	101.25
509.887	103.25
510.103	118.25
510.319	216.25
510.536	783.25
510.752	2712.25
510.968	764.25
511.184	169.25
511.401	123.25
511.617	98.25
511.833	97.25
512.049	93.25
512.265	103.25
512.481	83.25
512.698	75.25
512.914	94.25
513.13	92.25
513.346	84.25
513.562	86.25
513.778	94.25
513.994	104.25
514.21	100.25
514.426	131.25
514.642	151.25
514.858	124.25
515.074	192.25
515.29	545.25
515.506	2032.25
