Data from Circ_1997_H10_HRD10591_00056.txt Node
Date: Wed Jan 03 11:29:38 EST 2024
User: Yrep
Spectrometer: HR+D1059
Trigger mode: 1
Integration Time (sec): 1.000000E-1
Scans to average: 1
Electric dark correction enabled: true
Nonlinearity correction enabled: false
Boxcar width: 0
XAxis mode: Wavelengths
Number of Pixels in Spectrum: 2048
>>>>>Begin Spectral Data<<<<<
223.165	-12.69
223.4	-12.69
223.635	-12.69
223.869	-26.69
224.104	-22.69
224.338	-13.69
224.573	-8.69
224.808	-13.69
225.042	-14.69
225.277	4.31
225.511	-4.69
225.746	4.31
225.98	13.31
226.215	14.31
226.449	12.31
226.683	14.31
226.918	18.31
227.152	36.31
227.387	22.31
227.621	25.31
227.856	53.31
228.09	52.31
228.324	53.31
228.559	61.31
228.793	64.31
229.027	52.31
229.262	69.31
229.496	94.31
229.73	109.31
229.964	94.31
230.199	73.31
230.433	69.31
230.667	73.31
230.901	84.31
231.136	90.31
231.37	73.31
231.604	81.31
231.838	83.31
232.072	88.31
232.306	82.31
232.541	79.31
232.775	88.31
233.009	64.31
233.243	69.31
233.477	77.31
233.711	81.31
233.945	84.31
234.179	79.31
234.413	65.31
234.647	80.31
234.881	83.31
235.115	77.31
235.349	85.31
235.583	82.31
235.817	78.31
236.051	64.31
236.285	94.31
236.519	67.31
236.753	77.31
236.987	84.31
237.221	97.31
237.455	98.31
237.689	75.31
237.922	80.31
238.156	81.31
238.39	81.31
238.624	78.31
238.858	85.31
239.091	93.31
239.325	80.31
239.559	83.31
239.793	92.31
240.027	81.31
240.26	77.31
240.494	100.31
240.728	82.31
240.961	85.31
241.195	83.31
241.429	82.31
241.662	74.31
241.896	68.31
242.13	105.31
242.363	73.31
242.597	72.31
242.83	62.31
243.064	71.31
243.298	71.31
243.531	80.31
243.765	87.31
243.998	78.31
244.232	85.31
244.465	89.31
244.699	88.31
244.932	85.31
245.166	81.31
245.399	63.31
245.633	79.31
245.866	86.31
246.099	89.31
246.333	85.31
246.566	76.31
246.8	70.31
247.033	95.31
247.266	76.31
247.5	87.31
247.733	87.31
247.966	80.31
248.2	84.31
248.433	86.31
248.666	68.31
248.899	78.31
249.133	95.31
249.366	121.31
249.599	115.31
249.832	84.31
250.066	102.31
250.299	85.31
250.532	82.31
250.765	88.31
250.998	100.31
251.231	104.31
251.465	87.31
251.698	83.31
251.931	92.31
252.164	78.31
252.397	85.31
252.63	88.31
252.863	71.31
253.096	80.31
253.329	77.31
253.562	91.31
253.795	89.31
254.028	95.31
254.261	83.31
254.494	93.31
254.727	81.31
254.96	68.31
255.193	79.31
255.426	90.31
255.659	95.31
255.892	99.31
256.124	107.31
256.357	92.31
256.59	99.31
256.823	97.31
257.056	84.31
257.289	106.31
257.521	90.31
257.754	91.31
257.987	88.31
258.22	95.31
258.452	98.31
258.685	82.31
258.918	65.31
259.151	77.31
259.383	83.31
259.616	92.31
259.849	92.31
260.081	83.31
260.314	94.31
260.547	104.31
260.779	92.31
261.012	130.31
261.244	121.31
261.477	97.31
261.71	115.31
261.942	140.31
262.175	149.31
262.407	100.31
262.64	91.31
262.872	95.31
263.105	76.31
263.337	95.31
263.57	86.31
263.802	96.31
264.035	101.31
264.267	101.31
264.499	85.31
264.732	103.31
264.964	97.31
265.197	85.31
265.429	89.31
265.661	89.31
265.894	83.31
266.126	81.31
266.358	88.31
266.591	83.31
266.823	103.31
267.055	100.31
267.287	94.31
267.52	91.31
267.752	88.31
267.984	94.31
268.216	91.31
268.448	89.31
268.681	93.31
268.913	88.31
269.145	97.31
269.377	86.31
269.609	105.31
269.841	85.31
270.073	96.31
270.306	91.31
270.538	91.31
270.77	88.31
271.002	84.31
271.234	96.31
271.466	100.31
271.698	91.31
271.93	91.31
272.162	87.31
272.394	94.31
272.626	83.31
272.858	78.31
273.09	94.31
273.322	86.31
273.553	95.31
273.785	89.31
274.017	92.31
274.249	95.31
274.481	89.31
274.713	91.31
274.945	83.31
275.176	73.31
275.408	98.31
275.64	116.31
275.872	124.31
276.104	104.31
276.335	98.31
276.567	131.31
276.799	159.31
277.031	186.31
277.262	180.31
277.494	131.31
277.726	104.31
277.957	95.31
278.189	98.31
278.421	107.31
278.652	92.31
278.884	83.31
279.115	106.31
279.347	106.31
279.579	123.31
279.81	123.31
280.042	195.31
280.273	273.31
280.505	174.31
280.736	106.31
280.968	96.31
281.199	94.31
281.431	92.31
281.662	92.31
281.894	99.31
282.125	100.31
282.356	138.31
282.588	184.31
282.819	139.31
283.051	84.31
283.282	87.31
283.513	93.31
283.745	83.31
283.976	90.31
284.207	93.31
284.439	100.31
284.67	80.31
284.901	101.31
285.132	94.31
285.364	83.31
285.595	90.31
285.826	90.31
286.057	88.31
286.288	107.31
286.52	83.31
286.751	94.31
286.982	96.31
287.213	84.31
287.444	94.31
287.675	87.31
287.906	91.31
288.138	85.31
288.369	93.31
288.6	110.31
288.831	101.31
289.062	102.31
289.293	85.31
289.524	97.31
289.755	83.31
289.986	93.31
290.217	100.31
290.448	86.31
290.679	89.31
290.91	92.31
291.141	86.31
291.371	92.31
291.602	90.31
291.833	81.31
292.064	83.31
292.295	81.31
292.526	89.31
292.757	80.31
292.987	86.31
293.218	101.31
293.449	87.31
293.68	94.31
293.91	88.31
294.141	102.31
294.372	96.31
294.603	102.31
294.833	82.31
295.064	90.31
295.295	98.31
295.525	95.31
295.756	105.31
295.987	135.31
296.217	162.31
296.448	157.31
296.679	100.31
296.909	92.31
297.14	81.31
297.37	101.31
297.601	94.31
297.831	96.31
298.062	104.31
298.292	94.31
298.523	102.31
298.753	102.31
298.984	93.31
299.214	85.31
299.445	97.31
299.675	100.31
299.905	99.31
300.136	105.31
300.366	96.31
300.597	106.31
300.827	115.31
301.057	114.31
301.288	112.31
301.518	100.31
301.748	89.31
301.979	113.31
302.209	109.31
302.439	95.31
302.669	91.31
302.9	99.31
303.13	99.31
303.36	110.31
303.59	136.31
303.82	143.31
304.051	100.31
304.281	107.31
304.511	87.31
304.741	101.31
304.971	99.31
305.201	91.31
305.431	105.31
305.661	100.31
305.891	99.31
306.121	101.31
306.352	118.31
306.582	107.31
306.812	114.31
307.042	140.31
307.272	158.31
307.502	213.31
307.731	165.31
307.961	126.31
308.191	96.31
308.421	105.31
308.651	97.31
308.881	88.31
309.111	90.31
309.341	95.31
309.571	100.31
309.8	104.31
310.03	98.31
310.26	101.31
310.49	113.31
310.72	108.31
310.949	119.31
311.179	121.31
311.409	113.31
311.639	97.31
311.868	105.31
312.098	104.31
312.328	101.31
312.557	103.31
312.787	128.31
313.017	115.31
313.246	105.31
313.476	105.31
313.706	86.31
313.935	113.31
314.165	116.31
314.394	116.31
314.624	112.31
314.853	117.31
315.083	115.31
315.312	94.31
315.542	106.31
315.771	87.31
316.001	98.31
316.23	92.31
316.46	79.31
316.689	103.31
316.919	108.31
317.148	95.31
317.377	110.31
317.607	106.31
317.836	96.31
318.065	99.31
318.295	101.31
318.524	100.31
318.753	106.31
318.983	103.31
319.212	118.31
319.441	106.31
319.67	128.31
319.9	107.31
320.129	113.31
320.358	95.31
320.587	109.31
320.816	107.31
321.046	122.31
321.275	101.31
321.504	86.31
321.733	95.31
321.962	102.31
322.191	118.31
322.42	112.31
322.649	116.31
322.878	135.31
323.108	127.31
323.337	155.31
323.566	152.31
323.795	201.31
324.024	256.31
324.253	506.31
324.482	1148.31
324.71	2363.31
324.939	3139.31
325.168	1123.31
325.397	314.31
325.626	185.31
325.855	156.31
326.084	139.31
326.313	173.31
326.542	197.31
326.77	298.31
326.999	601.31
327.228	1243.31
327.457	2339.31
327.686	1845.31
327.914	622.31
328.143	585.31
328.372	733.31
328.6	384.31
328.829	206.31
329.058	212.31
329.287	208.31
329.515	202.31
329.744	284.31
329.972	528.31
330.201	1135.31
330.43	1611.31
330.658	696.31
330.887	319.31
331.115	193.31
331.344	129.31
331.572	129.31
331.801	140.31
332.03	135.31
332.258	131.31
332.486	123.31
332.715	107.31
332.943	118.31
333.172	116.31
333.4	139.31
333.629	176.31
333.857	252.31
334.085	468.31
334.314	1031.31
334.542	2017.31
334.771	1906.31
334.999	467.31
335.227	197.31
335.455	133.31
335.684	120.31
335.912	109.31
336.14	128.31
336.369	110.31
336.597	130.31
336.825	112.31
337.053	105.31
337.281	104.31
337.51	96.31
337.738	93.31
337.966	100.31
338.194	103.31
338.422	112.31
338.65	97.31
338.878	98.31
339.106	119.31
339.334	96.31
339.562	99.31
339.79	99.31
340.018	105.31
340.246	97.31
340.474	99.31
340.702	110.31
340.93	94.31
341.158	105.31
341.386	110.31
341.614	118.31
341.842	115.31
342.07	100.31
342.298	106.31
342.526	100.31
342.754	99.31
342.981	97.31
343.209	107.31
343.437	110.31
343.665	100.31
343.893	100.31
344.12	98.31
344.348	94.31
344.576	84.31
344.804	100.31
345.031	120.31
345.259	125.31
345.487	97.31
345.714	101.31
345.942	93.31
346.17	88.31
346.397	98.31
346.625	96.31
346.853	97.31
347.08	101.31
347.308	110.31
347.535	112.31
347.763	117.31
347.99	109.31
348.218	113.31
348.445	120.31
348.673	125.31
348.9	87.31
349.128	109.31
349.355	95.31
349.583	89.31
349.81	114.31
350.037	102.31
350.265	93.31
350.492	111.31
350.72	111.31
350.947	96.31
351.174	125.31
351.402	124.31
351.629	122.31
351.856	104.31
352.083	120.31
352.311	114.31
352.538	118.31
352.765	123.31
352.992	127.31
353.22	129.31
353.447	99.31
353.674	112.31
353.901	103.31
354.128	104.31
354.355	107.31
354.583	103.31
354.81	95.31
355.037	105.31
355.264	100.31
355.491	101.31
355.718	98.31
355.945	96.31
356.172	103.31
356.399	101.31
356.626	96.31
356.853	92.31
357.08	99.31
357.307	87.31
357.534	99.31
357.761	88.31
357.988	105.31
358.215	98.31
358.441	81.31
358.668	87.31
358.895	91.31
359.122	95.31
359.349	96.31
359.576	105.31
359.802	118.31
360.029	151.31
360.256	144.31
360.483	110.31
360.709	94.31
360.936	100.31
361.163	89.31
361.39	112.31
361.616	96.31
361.843	95.31
362.07	103.31
362.296	107.31
362.523	95.31
362.749	100.31
362.976	98.31
363.203	92.31
363.429	88.31
363.656	102.31
363.882	94.31
364.109	113.31
364.335	115.31
364.562	105.31
364.788	101.31
365.015	105.31
365.241	116.31
365.468	122.31
365.694	108.31
365.92	108.31
366.147	101.31
366.373	92.31
366.599	82.31
366.826	84.31
367.052	90.31
367.278	94.31
367.505	110.31
367.731	98.31
367.957	96.31
368.184	106.31
368.41	115.31
368.636	135.31
368.862	142.31
369.089	116.31
369.315	90.31
369.541	103.31
369.767	98.31
369.993	87.31
370.219	92.31
370.445	105.31
370.672	97.31
370.898	99.31
371.124	84.31
371.35	93.31
371.576	94.31
371.802	84.31
372.028	93.31
372.254	97.31
372.48	95.31
372.706	84.31
372.932	99.31
373.158	101.31
373.384	96.31
373.61	98.31
373.835	89.31
374.061	82.31
374.287	89.31
374.513	97.31
374.739	93.31
374.965	81.31
375.191	88.31
375.416	92.31
375.642	93.31
375.868	88.31
376.094	96.31
376.319	89.31
376.545	112.31
376.771	83.31
376.997	102.31
377.222	96.31
377.448	87.31
377.674	83.31
377.899	90.31
378.125	90.31
378.35	98.31
378.576	85.31
378.802	89.31
379.027	73.31
379.253	90.31
379.478	94.31
379.704	115.31
379.929	99.31
380.155	111.31
380.38	99.31
380.606	90.31
380.831	108.31
381.057	94.31
381.282	107.31
381.507	93.31
381.733	88.31
381.958	97.31
382.184	114.31
382.409	109.31
382.634	101.31
382.86	110.31
383.085	87.31
383.31	90.31
383.535	102.31
383.761	97.31
383.986	87.31
384.211	87.31
384.436	100.31
384.662	99.31
384.887	102.31
385.112	109.31
385.337	107.31
385.562	94.31
385.787	100.31
386.013	126.31
386.238	120.31
386.463	119.31
386.688	120.31
386.913	101.31
387.138	103.31
387.363	101.31
387.588	94.31
387.813	108.31
388.038	96.31
388.263	114.31
388.488	106.31
388.713	103.31
388.938	109.31
389.163	87.31
389.387	97.31
389.612	112.31
389.837	106.31
390.062	110.31
390.287	97.31
390.512	84.31
390.736	78.31
390.961	95.31
391.186	89.31
391.411	100.31
391.636	102.31
391.86	89.31
392.085	85.31
392.31	89.31
392.534	93.31
392.759	91.31
392.984	88.31
393.208	81.31
393.433	83.31
393.658	91.31
393.882	98.31
394.107	90.31
394.331	92.31
394.556	89.31
394.78	87.31
395.005	93.31
395.229	98.31
395.454	94.31
395.678	85.31
395.903	105.31
396.127	101.31
396.352	93.31
396.576	108.31
396.801	92.31
397.025	87.31
397.249	75.31
397.474	84.31
397.698	79.31
397.922	91.31
398.147	88.31
398.371	87.31
398.595	94.31
398.82	83.31
399.044	89.31
399.268	106.31
399.492	86.31
399.717	94.31
399.941	101.31
400.165	105.31
400.389	99.31
400.613	94.31
400.837	100.31
401.062	91.31
401.286	90.31
401.51	97.31
401.734	106.31
401.958	107.31
402.182	139.31
402.406	192.31
402.63	149.31
402.854	104.31
403.078	99.31
403.302	85.31
403.526	97.31
403.75	93.31
403.974	88.31
404.198	88.31
404.422	87.31
404.645	88.31
404.869	105.31
405.093	114.31
405.317	142.31
405.541	149.31
405.765	120.31
405.988	139.31
406.212	224.31
406.436	311.31
406.66	199.31
406.883	100.31
407.107	95.31
407.331	98.31
407.555	108.31
407.778	101.31
408.002	96.31
408.226	98.31
408.449	98.31
408.673	111.31
408.896	93.31
409.12	105.31
409.344	98.31
409.567	86.31
409.791	98.31
410.014	100.31
410.238	91.31
410.461	88.31
410.685	97.31
410.908	102.31
411.132	109.31
411.355	115.31
411.578	95.31
411.802	108.31
412.025	120.31
412.249	105.31
412.472	117.31
412.695	156.31
412.919	108.31
413.142	99.31
413.365	97.31
413.589	96.31
413.812	109.31
414.035	99.31
414.258	88.31
414.482	87.31
414.705	98.31
414.928	107.31
415.151	81.31
415.374	99.31
415.597	99.31
415.821	87.31
416.044	91.31
416.267	96.31
416.49	101.31
416.713	95.31
416.936	102.31
417.159	111.31
417.382	119.31
417.605	110.31
417.828	110.31
418.051	105.31
418.274	87.31
418.497	84.31
418.72	81.31
418.943	86.31
419.166	98.31
419.389	92.31
419.611	102.31
419.834	113.31
420.057	96.31
420.28	104.31
420.503	98.31
420.726	105.31
420.948	93.31
421.171	108.31
421.394	92.31
421.617	100.31
421.839	84.31
422.062	92.31
422.285	110.31
422.507	108.31
422.73	123.31
422.953	101.31
423.175	98.31
423.398	95.31
423.621	85.31
423.843	82.31
424.066	83.31
424.288	88.31
424.511	91.31
424.733	109.31
424.956	118.31
425.178	119.31
425.401	104.31
425.623	120.31
425.846	103.31
426.068	95.31
426.291	119.31
426.513	100.31
426.735	108.31
426.958	97.31
427.18	125.31
427.402	202.31
427.625	267.31
427.847	271.31
428.069	240.31
428.292	135.31
428.514	117.31
428.736	105.31
428.958	89.31
429.181	98.31
429.403	87.31
429.625	101.31
429.847	107.31
430.069	113.31
430.292	89.31
430.514	83.31
430.736	85.31
430.958	79.31
431.18	89.31
431.402	88.31
431.624	80.31
431.846	96.31
432.068	83.31
432.29	98.31
432.512	82.31
432.734	89.31
432.956	105.31
433.178	119.31
433.4	128.31
433.622	95.31
433.844	94.31
434.066	100.31
434.287	97.31
434.509	103.31
434.731	102.31
434.953	88.31
435.175	102.31
435.397	98.31
435.618	102.31
435.84	117.31
436.062	142.31
436.284	149.31
436.505	124.31
436.727	103.31
436.949	93.31
437.17	104.31
437.392	79.31
437.614	99.31
437.835	147.31
438.057	152.31
438.278	149.31
438.5	128.31
438.721	147.31
438.943	127.31
439.165	92.31
439.386	92.31
439.608	90.31
439.829	119.31
440.05	173.31
440.272	196.31
440.493	125.31
440.715	92.31
440.936	95.31
441.158	97.31
441.379	93.31
441.6	93.31
441.822	102.31
442.043	103.31
442.264	125.31
442.486	125.31
442.707	109.31
442.928	132.31
443.149	185.31
443.371	177.31
443.592	138.31
443.813	150.31
444.034	147.31
444.255	93.31
444.476	99.31
444.698	81.31
444.919	87.31
445.14	140.31
445.361	137.31
445.582	142.31
445.803	192.31
446.024	184.31
446.245	182.31
446.466	132.31
446.687	107.31
446.908	89.31
447.129	83.31
447.35	98.31
447.571	92.31
447.792	98.31
448.013	116.31
448.234	127.31
448.455	112.31
448.675	136.31
448.896	150.31
449.117	120.31
449.338	110.31
449.559	146.31
449.779	167.31
450	104.31
450.221	103.31
450.442	101.31
450.662	123.31
450.883	136.31
451.104	141.31
451.324	116.31
451.545	99.31
451.766	93.31
451.986	99.31
452.207	95.31
452.428	105.31
452.648	125.31
452.869	126.31
453.089	137.31
453.31	137.31
453.53	103.31
453.751	96.31
453.971	119.31
454.192	139.31
454.412	100.31
454.633	100.31
454.853	97.31
455.073	90.31
455.294	98.31
455.514	115.31
455.734	104.31
455.955	91.31
456.175	83.31
456.395	89.31
456.616	87.31
456.836	105.31
457.056	90.31
457.276	78.31
457.497	85.31
457.717	78.31
457.937	96.31
458.157	97.31
458.377	109.31
458.598	126.31
458.818	205.31
459.038	242.31
459.258	160.31
459.478	105.31
459.698	94.31
459.918	89.31
460.138	92.31
460.358	100.31
460.578	87.31
460.798	110.31
461.018	88.31
461.238	91.31
461.458	87.31
461.678	86.31
461.898	91.31
462.118	99.31
462.338	93.31
462.558	98.31
462.777	90.31
462.997	113.31
463.217	113.31
463.437	102.31
463.657	100.31
463.876	97.31
464.096	114.31
464.316	107.31
464.536	111.31
464.755	110.31
464.975	123.31
465.195	244.31
465.414	253.31
465.634	123.31
465.854	102.31
466.073	97.31
466.293	96.31
466.512	94.31
466.732	99.31
466.951	89.31
467.171	105.31
467.391	120.31
467.61	140.31
467.829	233.31
468.049	615.31
468.268	903.31
468.488	237.31
468.707	116.31
468.927	91.31
469.146	107.31
469.365	96.31
469.585	95.31
469.804	117.31
470.023	124.31
470.243	98.31
470.462	110.31
470.681	151.31
470.901	113.31
471.12	95.31
471.339	115.31
471.558	125.31
471.777	162.31
471.997	323.31
472.216	1221.31
472.435	2812.31
472.654	617.31
472.873	165.31
473.092	122.31
473.311	105.31
473.53	99.31
473.749	96.31
473.968	107.31
474.187	133.31
474.406	116.31
474.625	95.31
474.844	109.31
475.063	96.31
475.282	107.31
475.501	96.31
475.72	100.31
475.939	94.31
476.158	91.31
476.377	97.31
476.596	96.31
476.814	114.31
477.033	108.31
477.252	112.31
477.471	107.31
477.69	89.31
477.908	107.31
478.127	106.31
478.346	105.31
478.564	112.31
478.783	104.31
479.002	112.31
479.22	106.31
479.439	135.31
479.658	138.31
479.876	126.31
480.095	125.31
480.313	129.31
480.532	168.31
480.751	319.31
480.969	1113.31
481.188	4945.31
481.406	2767.31
481.624	396.31
481.843	116.31
482.061	99.31
482.28	103.31
482.498	108.31
482.717	91.31
482.935	103.31
483.153	97.31
483.372	97.31
483.59	84.31
483.808	96.31
484.027	100.31
484.245	105.31
484.463	93.31
484.681	91.31
484.9	108.31
485.118	93.31
485.336	105.31
485.554	104.31
485.772	92.31
485.99	101.31
486.209	128.31
486.427	120.31
486.645	117.31
486.863	128.31
487.081	113.31
487.299	112.31
487.517	109.31
487.735	80.31
487.953	94.31
488.171	107.31
488.389	112.31
488.607	102.31
488.825	96.31
489.043	86.31
489.261	96.31
489.479	97.31
489.696	92.31
489.914	91.31
490.132	97.31
490.35	97.31
490.568	96.31
490.786	97.31
491.003	89.31
491.221	106.31
491.439	112.31
491.657	99.31
491.874	101.31
492.092	109.31
492.31	99.31
492.527	105.31
492.745	115.31
492.963	100.31
493.18	87.31
493.398	99.31
493.615	98.31
493.833	102.31
494.05	98.31
494.268	101.31
494.485	106.31
494.703	98.31
494.92	108.31
495.138	84.31
495.355	84.31
495.573	84.31
495.79	95.31
496.008	101.31
496.225	95.31
496.442	96.31
496.66	103.31
496.877	96.31
497.094	95.31
497.312	91.31
497.529	105.31
497.746	89.31
497.963	92.31
498.181	100.31
498.398	110.31
498.615	125.31
498.832	114.31
499.049	93.31
499.267	100.31
499.484	91.31
499.701	100.31
499.918	89.31
500.135	87.31
500.352	95.31
500.569	95.31
500.786	106.31
501.003	107.31
501.22	91.31
501.437	98.31
501.654	103.31
501.871	113.31
502.088	110.31
502.305	92.31
502.522	100.31
502.739	81.31
502.956	92.31
503.172	105.31
503.389	111.31
503.606	132.31
503.823	98.31
504.04	104.31
504.256	99.31
504.473	89.31
504.69	98.31
504.907	105.31
505.123	91.31
505.34	97.31
505.557	97.31
505.773	97.31
505.99	96.31
506.207	111.31
506.423	93.31
506.64	95.31
506.856	96.31
507.073	90.31
507.289	102.31
507.506	109.31
507.722	143.31
507.939	127.31
508.155	114.31
508.372	81.31
508.588	96.31
508.805	113.31
509.021	104.31
509.238	103.31
509.454	107.31
509.67	110.31
509.887	116.31
510.103	152.31
510.319	245.31
510.536	935.31
510.752	3243.31
510.968	867.31
511.184	180.31
