Data from Circ_1997_H10_HRD10591_00038.txt Node
Date: Wed Jan 03 11:29:35 EST 2024
User: Yrep
Spectrometer: HR+D1059
Trigger mode: 1
Integration Time (sec): 1.000000E-1
Scans to average: 1
Electric dark correction enabled: true
Nonlinearity correction enabled: false
Boxcar width: 0
XAxis mode: Wavelengths
Number of Pixels in Spectrum: 2048
>>>>>Begin Spectral Data<<<<<
223.165	-22.44
223.4	-22.44
223.635	-22.44
223.869	-17.44
224.104	-20.44
224.338	-21.44
224.573	-4.44
224.808	-29.44
225.042	-3.44
225.277	-1.44
225.511	14.56
225.746	12.56
225.98	12.56
226.215	-1.44
226.449	8.56
226.683	8.56
226.918	39.56
227.152	25.56
227.387	30.56
227.621	41.56
227.856	45.56
228.09	63.56
228.324	52.56
228.559	64.56
228.793	65.56
229.027	69.56
229.262	74.56
229.496	83.56
229.73	115.56
229.964	102.56
230.199	76.56
230.433	57.56
230.667	85.56
230.901	92.56
231.136	89.56
231.37	85.56
231.604	84.56
231.838	77.56
232.072	85.56
232.306	90.56
232.541	80.56
232.775	74.56
233.009	81.56
233.243	81.56
233.477	81.56
233.711	90.56
233.945	83.56
234.179	91.56
234.413	64.56
234.647	88.56
234.881	80.56
235.115	77.56
235.349	85.56
235.583	93.56
235.817	80.56
236.051	89.56
236.285	78.56
236.519	91.56
236.753	75.56
236.987	108.56
237.221	94.56
237.455	98.56
237.689	85.56
237.922	88.56
238.156	89.56
238.39	89.56
238.624	88.56
238.858	81.56
239.091	69.56
239.325	70.56
239.559	91.56
239.793	94.56
240.027	70.56
240.26	82.56
240.494	84.56
240.728	86.56
240.961	90.56
241.195	93.56
241.429	89.56
241.662	84.56
241.896	85.56
242.13	76.56
242.363	75.56
242.597	68.56
242.83	78.56
243.064	74.56
243.298	80.56
243.531	86.56
243.765	77.56
243.998	64.56
244.232	86.56
244.465	88.56
244.699	73.56
244.932	74.56
245.166	88.56
245.399	84.56
245.633	94.56
245.866	77.56
246.099	74.56
246.333	82.56
246.566	92.56
246.8	82.56
247.033	82.56
247.266	94.56
247.5	76.56
247.733	80.56
247.966	86.56
248.2	77.56
248.433	81.56
248.666	79.56
248.899	91.56
249.133	85.56
249.366	115.56
249.599	124.56
249.832	90.56
250.066	85.56
250.299	94.56
250.532	91.56
250.765	93.56
250.998	93.56
251.231	82.56
251.465	95.56
251.698	82.56
251.931	105.56
252.164	72.56
252.397	82.56
252.63	88.56
252.863	71.56
253.096	84.56
253.329	72.56
253.562	93.56
253.795	83.56
254.028	97.56
254.261	92.56
254.494	72.56
254.727	92.56
254.96	83.56
255.193	96.56
255.426	90.56
255.659	89.56
255.892	84.56
256.124	106.56
256.357	95.56
256.59	77.56
256.823	99.56
257.056	96.56
257.289	102.56
257.521	91.56
257.754	88.56
257.987	100.56
258.22	96.56
258.452	106.56
258.685	95.56
258.918	79.56
259.151	82.56
259.383	61.56
259.616	88.56
259.849	70.56
260.081	99.56
260.314	95.56
260.547	85.56
260.779	109.56
261.012	129.56
261.244	103.56
261.477	120.56
261.71	102.56
261.942	126.56
262.175	161.56
262.407	107.56
262.64	94.56
262.872	93.56
263.105	95.56
263.337	78.56
263.57	104.56
263.802	100.56
264.035	86.56
264.267	89.56
264.499	78.56
264.732	85.56
264.964	96.56
265.197	87.56
265.429	92.56
265.661	83.56
265.894	76.56
266.126	82.56
266.358	86.56
266.591	65.56
266.823	92.56
267.055	79.56
267.287	93.56
267.52	85.56
267.752	92.56
267.984	92.56
268.216	94.56
268.448	90.56
268.681	102.56
268.913	92.56
269.145	89.56
269.377	86.56
269.609	82.56
269.841	83.56
270.073	77.56
270.306	90.56
270.538	93.56
270.77	97.56
271.002	94.56
271.234	101.56
271.466	94.56
271.698	90.56
271.93	89.56
272.162	93.56
272.394	82.56
272.626	80.56
272.858	82.56
273.09	86.56
273.322	96.56
273.553	85.56
273.785	90.56
274.017	107.56
274.249	99.56
274.481	83.56
274.713	94.56
274.945	107.56
275.176	94.56
275.408	108.56
275.64	119.56
275.872	116.56
276.104	102.56
276.335	112.56
276.567	131.56
276.799	163.56
277.031	175.56
277.262	208.56
277.494	164.56
277.726	107.56
277.957	90.56
278.189	102.56
278.421	90.56
278.652	106.56
278.884	94.56
279.115	90.56
279.347	121.56
279.579	120.56
279.81	146.56
280.042	206.56
280.273	263.56
280.505	186.56
280.736	114.56
280.968	100.56
281.199	102.56
281.431	93.56
281.662	98.56
281.894	115.56
282.125	114.56
282.356	154.56
282.588	204.56
282.819	135.56
283.051	101.56
283.282	81.56
283.513	92.56
283.745	93.56
283.976	97.56
284.207	97.56
284.439	97.56
284.67	97.56
284.901	95.56
285.132	87.56
285.364	85.56
285.595	90.56
285.826	96.56
286.057	104.56
286.288	103.56
286.52	95.56
286.751	93.56
286.982	81.56
287.213	82.56
287.444	89.56
287.675	96.56
287.906	107.56
288.138	95.56
288.369	98.56
288.6	96.56
288.831	105.56
289.062	108.56
289.293	101.56
289.524	92.56
289.755	92.56
289.986	97.56
290.217	102.56
290.448	83.56
290.679	92.56
290.91	96.56
291.141	87.56
291.371	83.56
291.602	104.56
291.833	100.56
292.064	92.56
292.295	93.56
292.526	97.56
292.757	94.56
292.987	102.56
293.218	86.56
293.449	89.56
293.68	80.56
293.91	94.56
294.141	88.56
294.372	101.56
294.603	103.56
294.833	93.56
295.064	91.56
295.295	105.56
295.525	97.56
295.756	102.56
295.987	154.56
296.217	178.56
296.448	173.56
296.679	103.56
296.909	89.56
297.14	87.56
297.37	104.56
297.601	96.56
297.831	91.56
298.062	93.56
298.292	93.56
298.523	99.56
298.753	91.56
298.984	114.56
299.214	105.56
299.445	96.56
299.675	106.56
299.905	97.56
300.136	111.56
300.366	95.56
300.597	114.56
300.827	96.56
301.057	106.56
301.288	102.56
301.518	106.56
301.748	98.56
301.979	125.56
302.209	98.56
302.439	94.56
302.669	93.56
302.9	108.56
303.13	101.56
303.36	108.56
303.59	133.56
303.82	145.56
304.051	96.56
304.281	108.56
304.511	100.56
304.741	97.56
304.971	96.56
305.201	83.56
305.431	102.56
305.661	92.56
305.891	98.56
306.121	117.56
306.352	115.56
306.582	137.56
306.812	112.56
307.042	140.56
307.272	165.56
307.502	204.56
307.731	179.56
307.961	149.56
308.191	92.56
308.421	96.56
308.651	119.56
308.881	109.56
309.111	106.56
309.341	112.56
309.571	88.56
309.8	101.56
310.03	115.56
310.26	116.56
310.49	102.56
310.72	115.56
310.949	126.56
311.179	120.56
311.409	105.56
311.639	94.56
311.868	100.56
312.098	92.56
312.328	107.56
312.557	135.56
312.787	144.56
313.017	126.56
313.246	112.56
313.476	86.56
313.706	104.56
313.935	102.56
314.165	115.56
314.394	117.56
314.624	120.56
314.853	120.56
315.083	91.56
315.312	98.56
315.542	96.56
315.771	106.56
316.001	89.56
316.23	85.56
316.46	94.56
316.689	98.56
316.919	118.56
317.148	119.56
317.377	104.56
317.607	106.56
317.836	103.56
318.065	107.56
318.295	99.56
318.524	107.56
318.753	100.56
318.983	112.56
319.212	105.56
319.441	117.56
319.67	122.56
319.9	112.56
320.129	96.56
320.358	101.56
320.587	99.56
320.816	102.56
321.046	114.56
321.275	119.56
321.504	99.56
321.733	115.56
321.962	109.56
322.191	122.56
322.42	134.56
322.649	141.56
322.878	158.56
323.108	138.56
323.337	173.56
323.566	179.56
323.795	222.56
324.024	326.56
324.253	684.56
324.482	1560.56
324.71	3422.56
324.939	4384.56
325.168	1493.56
325.397	380.56
325.626	219.56
325.855	186.56
326.084	185.56
326.313	181.56
326.542	236.56
326.77	353.56
326.999	800.56
327.228	1723.56
327.457	3263.56
327.686	2535.56
327.914	783.56
328.143	670.56
328.372	799.56
328.6	428.56
328.829	232.56
329.058	245.56
329.287	248.56
329.515	202.56
329.744	306.56
329.972	580.56
330.201	1227.56
330.43	1706.56
330.658	728.56
330.887	365.56
331.115	230.56
331.344	140.56
331.572	135.56
331.801	139.56
332.03	139.56
332.258	131.56
332.486	104.56
332.715	118.56
332.943	142.56
333.172	134.56
333.4	142.56
333.629	184.56
333.857	274.56
334.085	531.56
334.314	1156.56
334.542	2224.56
334.771	2000.56
334.999	490.56
335.227	202.56
335.455	133.56
335.684	141.56
335.912	113.56
336.14	126.56
336.369	123.56
336.597	138.56
336.825	115.56
337.053	104.56
337.281	107.56
337.51	90.56
337.738	120.56
337.966	98.56
338.194	124.56
338.422	101.56
338.65	101.56
338.878	90.56
339.106	108.56
339.334	93.56
339.562	94.56
339.79	105.56
340.018	108.56
340.246	105.56
340.474	103.56
340.702	117.56
340.93	109.56
341.158	99.56
341.386	118.56
341.614	112.56
341.842	108.56
342.07	102.56
342.298	100.56
342.526	89.56
342.754	95.56
342.981	102.56
343.209	99.56
343.437	105.56
343.665	80.56
343.893	97.56
344.12	93.56
344.348	93.56
344.576	81.56
344.804	101.56
345.031	111.56
345.259	108.56
345.487	106.56
345.714	114.56
345.942	115.56
346.17	98.56
346.397	105.56
346.625	102.56
346.853	115.56
347.08	100.56
347.308	120.56
347.535	114.56
347.763	117.56
347.99	112.56
348.218	115.56
348.445	136.56
348.673	122.56
348.9	111.56
349.128	98.56
349.355	102.56
349.583	93.56
349.81	97.56
350.037	102.56
350.265	120.56
350.492	105.56
350.72	109.56
350.947	115.56
351.174	123.56
351.402	122.56
351.629	128.56
351.856	108.56
352.083	107.56
352.311	118.56
352.538	117.56
352.765	130.56
352.992	146.56
353.22	123.56
353.447	114.56
353.674	115.56
353.901	101.56
354.128	85.56
354.355	83.56
354.583	90.56
354.81	106.56
355.037	109.56
355.264	98.56
355.491	92.56
355.718	99.56
355.945	95.56
356.172	92.56
356.399	103.56
356.626	96.56
356.853	99.56
357.08	97.56
357.307	94.56
357.534	89.56
357.761	107.56
357.988	92.56
358.215	89.56
358.441	101.56
358.668	93.56
358.895	110.56
359.122	91.56
359.349	100.56
359.576	103.56
359.802	117.56
360.029	153.56
360.256	173.56
360.483	132.56
360.709	102.56
360.936	96.56
361.163	101.56
361.39	110.56
361.616	109.56
361.843	98.56
362.07	109.56
362.296	108.56
362.523	85.56
362.749	91.56
362.976	95.56
363.203	106.56
363.429	97.56
363.656	93.56
363.882	100.56
364.109	115.56
364.335	95.56
364.562	108.56
364.788	110.56
365.015	101.56
365.241	102.56
365.468	125.56
365.694	128.56
365.92	95.56
366.147	105.56
366.373	103.56
366.599	99.56
366.826	92.56
367.052	104.56
367.278	105.56
367.505	101.56
367.731	102.56
367.957	85.56
368.184	108.56
368.41	111.56
368.636	135.56
368.862	160.56
369.089	122.56
369.315	98.56
369.541	111.56
369.767	85.56
369.993	91.56
370.219	106.56
370.445	109.56
370.672	102.56
370.898	90.56
371.124	103.56
371.35	88.56
371.576	85.56
371.802	99.56
372.028	97.56
372.254	99.56
372.48	88.56
372.706	99.56
372.932	93.56
373.158	98.56
373.384	94.56
373.61	92.56
373.835	98.56
374.061	86.56
374.287	112.56
374.513	93.56
374.739	85.56
374.965	101.56
375.191	106.56
375.416	85.56
375.642	90.56
375.868	89.56
376.094	100.56
376.319	91.56
376.545	100.56
376.771	100.56
376.997	91.56
377.222	109.56
377.448	109.56
377.674	106.56
377.899	90.56
378.125	90.56
378.35	98.56
378.576	100.56
378.802	80.56
379.027	84.56
379.253	94.56
379.478	86.56
379.704	91.56
379.929	85.56
380.155	85.56
380.38	108.56
380.606	111.56
380.831	94.56
381.057	101.56
381.282	108.56
381.507	103.56
381.733	96.56
381.958	104.56
382.184	113.56
382.409	102.56
382.634	110.56
382.86	87.56
383.085	101.56
383.31	101.56
383.535	110.56
383.761	90.56
383.986	100.56
384.211	86.56
384.436	102.56
384.662	104.56
384.887	93.56
385.112	100.56
385.337	99.56
385.562	113.56
385.787	106.56
386.013	106.56
386.238	134.56
386.463	113.56
386.688	110.56
386.913	109.56
387.138	105.56
387.363	96.56
387.588	99.56
387.813	106.56
388.038	115.56
388.263	121.56
388.488	113.56
388.713	94.56
388.938	89.56
389.163	98.56
389.387	102.56
389.612	89.56
389.837	83.56
390.062	92.56
390.287	88.56
390.512	86.56
390.736	91.56
390.961	80.56
391.186	97.56
391.411	88.56
391.636	83.56
391.86	99.56
392.085	92.56
392.31	90.56
392.534	87.56
392.759	83.56
392.984	74.56
393.208	86.56
393.433	107.56
393.658	86.56
393.882	98.56
394.107	80.56
394.331	92.56
394.556	91.56
394.78	85.56
395.005	90.56
395.229	93.56
395.454	81.56
395.678	89.56
395.903	101.56
396.127	112.56
396.352	97.56
396.576	97.56
396.801	96.56
397.025	102.56
397.249	108.56
397.474	95.56
397.698	98.56
397.922	108.56
398.147	88.56
398.371	100.56
398.595	105.56
398.82	84.56
399.044	81.56
399.268	90.56
399.492	80.56
399.717	85.56
399.941	99.56
400.165	96.56
400.389	105.56
400.613	106.56
400.837	82.56
401.062	94.56
401.286	103.56
401.51	100.56
401.734	98.56
401.958	125.56
402.182	157.56
402.406	217.56
402.63	169.56
402.854	102.56
403.078	99.56
403.302	101.56
403.526	94.56
403.75	94.56
403.974	93.56
404.198	97.56
404.422	77.56
404.645	90.56
404.869	117.56
405.093	148.56
405.317	166.56
405.541	150.56
405.765	137.56
405.988	159.56
406.212	231.56
406.436	352.56
406.66	235.56
406.883	127.56
407.107	119.56
407.331	113.56
407.555	125.56
407.778	112.56
408.002	125.56
408.226	121.56
408.449	88.56
408.673	83.56
408.896	95.56
409.12	105.56
409.344	102.56
409.567	102.56
409.791	87.56
410.014	99.56
410.238	101.56
410.461	105.56
410.685	106.56
410.908	105.56
411.132	124.56
411.355	120.56
411.578	93.56
411.802	98.56
412.025	100.56
412.249	113.56
412.472	121.56
412.695	170.56
412.919	135.56
413.142	112.56
413.365	107.56
413.589	80.56
413.812	95.56
414.035	106.56
414.258	88.56
414.482	100.56
414.705	98.56
414.928	90.56
415.151	101.56
415.374	99.56
415.597	103.56
415.821	100.56
416.044	92.56
416.267	85.56
416.49	92.56
416.713	91.56
416.936	100.56
417.159	77.56
417.382	101.56
417.605	113.56
417.828	105.56
418.051	116.56
418.274	101.56
418.497	96.56
418.72	89.56
418.943	97.56
419.166	101.56
419.389	87.56
419.611	88.56
419.834	87.56
420.057	85.56
420.28	106.56
420.503	89.56
420.726	102.56
420.948	100.56
421.171	112.56
421.394	93.56
421.617	104.56
421.839	104.56
422.062	101.56
422.285	92.56
422.507	105.56
422.73	131.56
422.953	98.56
423.175	96.56
423.398	93.56
423.621	88.56
423.843	85.56
424.066	89.56
424.288	85.56
424.511	106.56
424.733	127.56
424.956	128.56
425.178	121.56
425.401	117.56
425.623	125.56
425.846	96.56
426.068	108.56
426.291	106.56
426.513	109.56
426.735	118.56
426.958	111.56
427.18	141.56
427.402	231.56
427.625	331.56
427.847	308.56
428.069	283.56
428.292	144.56
428.514	112.56
428.736	95.56
428.958	97.56
429.181	86.56
429.403	97.56
429.625	102.56
429.847	98.56
430.069	130.56
430.292	109.56
430.514	101.56
430.736	85.56
430.958	75.56
431.18	93.56
431.402	81.56
431.624	90.56
431.846	91.56
432.068	86.56
432.29	100.56
432.512	79.56
432.734	97.56
432.956	95.56
433.178	115.56
433.4	110.56
433.622	97.56
433.844	106.56
434.066	104.56
434.287	106.56
434.509	87.56
434.731	101.56
434.953	100.56
435.175	92.56
435.397	107.56
435.618	93.56
435.84	138.56
436.062	172.56
436.284	156.56
436.505	125.56
436.727	116.56
436.949	101.56
437.17	109.56
437.392	91.56
437.614	105.56
437.835	137.56
438.057	179.56
438.278	174.56
438.5	141.56
438.721	191.56
438.943	138.56
439.165	100.56
439.386	104.56
439.608	104.56
439.829	131.56
440.05	182.56
440.272	237.56
440.493	124.56
440.715	97.56
440.936	97.56
441.158	101.56
441.379	103.56
441.6	105.56
441.822	109.56
442.043	112.56
442.264	142.56
442.486	125.56
442.707	115.56
442.928	148.56
443.149	210.56
443.371	196.56
443.592	166.56
443.813	164.56
444.034	142.56
444.255	117.56
444.476	102.56
444.698	96.56
444.919	98.56
445.14	159.56
445.361	156.56
445.582	161.56
445.803	230.56
446.024	218.56
446.245	232.56
446.466	152.56
446.687	120.56
446.908	110.56
447.129	99.56
447.35	106.56
447.571	122.56
447.792	96.56
448.013	113.56
448.234	123.56
448.455	124.56
448.675	152.56
448.896	159.56
449.117	119.56
449.338	117.56
449.559	180.56
449.779	187.56
450	106.56
450.221	99.56
450.442	113.56
450.662	122.56
450.883	134.56
451.104	147.56
451.324	118.56
451.545	95.56
451.766	92.56
451.986	99.56
452.207	117.56
452.428	110.56
452.648	130.56
452.869	148.56
453.089	160.56
453.31	137.56
453.53	114.56
453.751	94.56
453.971	147.56
454.192	142.56
454.412	107.56
454.633	89.56
454.853	91.56
455.073	87.56
455.294	108.56
455.514	136.56
455.734	109.56
455.955	92.56
456.175	89.56
456.395	89.56
456.616	94.56
456.836	91.56
457.056	94.56
457.276	90.56
457.497	100.56
457.717	91.56
457.937	100.56
458.157	95.56
458.377	105.56
458.598	140.56
458.818	244.56
459.038	262.56
459.258	181.56
459.478	104.56
459.698	108.56
459.918	90.56
460.138	85.56
460.358	85.56
460.578	97.56
460.798	102.56
461.018	108.56
461.238	88.56
461.458	83.56
461.678	87.56
461.898	86.56
462.118	82.56
462.338	82.56
462.558	90.56
462.777	86.56
462.997	96.56
463.217	127.56
463.437	116.56
463.657	91.56
463.876	102.56
464.096	93.56
464.316	118.56
464.536	117.56
464.755	105.56
464.975	138.56
465.195	283.56
465.414	274.56
465.634	109.56
465.854	94.56
466.073	97.56
466.293	93.56
466.512	89.56
466.732	94.56
466.951	102.56
467.171	100.56
467.391	123.56
467.61	173.56
467.829	207.56
468.049	645.56
468.268	909.56
468.488	239.56
468.707	109.56
468.927	95.56
469.146	79.56
469.365	110.56
469.585	94.56
469.804	116.56
470.023	135.56
470.243	117.56
470.462	138.56
470.681	167.56
470.901	108.56
471.12	115.56
471.339	111.56
471.558	137.56
471.777	176.56
471.997	339.56
472.216	1302.56
472.435	2841.56
472.654	656.56
472.873	186.56
473.092	119.56
473.311	101.56
473.53	96.56
473.749	96.56
473.968	106.56
474.187	148.56
474.406	112.56
474.625	107.56
474.844	90.56
475.063	79.56
475.282	97.56
475.501	92.56
475.72	98.56
475.939	94.56
476.158	93.56
476.377	92.56
476.596	93.56
476.814	105.56
477.033	112.56
477.252	84.56
477.471	107.56
477.69	99.56
477.908	107.56
478.127	111.56
478.346	98.56
478.564	120.56
478.783	120.56
479.002	124.56
479.22	116.56
479.439	152.56
479.658	145.56
479.876	132.56
480.095	132.56
480.313	140.56
480.532	190.56
480.751	342.56
480.969	1216.56
481.188	5102.56
481.406	2821.56
481.624	407.56
481.843	149.56
482.061	137.56
482.28	108.56
482.498	104.56
482.717	97.56
482.935	96.56
483.153	101.56
483.372	96.56
483.59	72.56
483.808	86.56
484.027	99.56
484.245	108.56
484.463	102.56
484.681	105.56
484.9	109.56
485.118	107.56
485.336	110.56
485.554	103.56
485.772	102.56
485.99	99.56
486.209	100.56
486.427	114.56
486.645	133.56
486.863	139.56
487.081	121.56
487.299	117.56
487.517	105.56
487.735	99.56
487.953	110.56
488.171	102.56
488.389	111.56
488.607	113.56
488.825	93.56
489.043	95.56
489.261	98.56
489.479	104.56
489.696	117.56
489.914	100.56
490.132	98.56
490.35	90.56
490.568	93.56
490.786	90.56
491.003	86.56
491.221	94.56
491.439	122.56
491.657	94.56
491.874	93.56
492.092	96.56
492.31	99.56
492.527	108.56
492.745	120.56
492.963	102.56
493.18	97.56
493.398	89.56
493.615	107.56
493.833	86.56
494.05	86.56
494.268	104.56
494.485	97.56
494.703	99.56
494.92	101.56
495.138	93.56
495.355	94.56
495.573	93.56
495.79	87.56
496.008	98.56
496.225	87.56
496.442	107.56
496.66	88.56
496.877	95.56
497.094	119.56
497.312	102.56
497.529	93.56
497.746	113.56
497.963	96.56
498.181	101.56
498.398	95.56
498.615	128.56
498.832	124.56
499.049	86.56
499.267	105.56
499.484	92.56
499.701	92.56
499.918	107.56
500.135	85.56
500.352	101.56
500.569	120.56
500.786	105.56
501.003	110.56
501.22	101.56
501.437	94.56
501.654	116.56
501.871	136.56
502.088	113.56
502.305	96.56
502.522	95.56
502.739	102.56
502.956	90.56
503.172	92.56
503.389	138.56
503.606	118.56
503.823	110.56
504.04	110.56
504.256	83.56
504.473	100.56
504.69	101.56
504.907	92.56
505.123	100.56
505.34	97.56
505.557	102.56
505.773	94.56
505.99	95.56
506.207	114.56
506.423	92.56
506.64	106.56
506.856	95.56
507.073	106.56
507.289	92.56
507.506	113.56
507.722	145.56
507.939	147.56
508.155	126.56
508.372	102.56
508.588	116.56
508.805	104.56
509.021	105.56
509.238	98.56
509.454	109.56
509.67	101.56
509.887	121.56
510.103	159.56
510.319	287.56
