Data from Circ_1997_H10_HRD10591_00048.txt Node
Date: Wed Jan 03 11:29:37 EST 2024
User: Yrep
Spectrometer: HR+D1059
Trigger mode: 1
Integration Time (sec): 1.000000E-1
Scans to average: 1
Electric dark correction enabled: true
Nonlinearity correction enabled: false
Boxcar width: 0
XAxis mode: Wavelengths
Number of Pixels in Spectrum: 2048
>>>>>Begin Spectral Data<<<<<
223.165	-23.38
223.4	-23.38
223.635	-23.38
223.869	-14.38
224.104	-24.38
224.338	-14.38
224.573	-3.38
224.808	-19.38
225.042	-2.38
225.277	-8.38
225.511	-2.38
225.746	6.62
225.98	-7.38
226.215	20.62
226.449	19.62
226.683	12.62
226.918	22.62
227.152	37.62
227.387	37.62
227.621	44.62
227.856	53.62
228.09	44.62
228.324	45.62
228.559	51.62
228.793	44.62
229.027	55.62
229.262	54.62
229.496	74.62
229.73	81.62
229.964	78.62
230.199	61.62
230.433	83.62
230.667	80.62
230.901	75.62
231.136	75.62
231.37	82.62
231.604	67.62
231.838	80.62
232.072	81.62
232.306	74.62
232.541	75.62
232.775	76.62
233.009	71.62
233.243	62.62
233.477	89.62
233.711	82.62
233.945	68.62
234.179	85.62
234.413	77.62
234.647	73.62
234.881	75.62
235.115	73.62
235.349	78.62
235.583	78.62
235.817	65.62
236.051	65.62
236.285	69.62
236.519	74.62
236.753	79.62
236.987	83.62
237.221	87.62
237.455	72.62
237.689	90.62
237.922	71.62
238.156	60.62
238.39	66.62
238.624	71.62
238.858	76.62
239.091	69.62
239.325	85.62
239.559	78.62
239.793	83.62
240.027	84.62
240.26	72.62
240.494	67.62
240.728	77.62
240.961	81.62
241.195	56.62
241.429	81.62
241.662	73.62
241.896	79.62
242.13	73.62
242.363	72.62
242.597	80.62
242.83	76.62
243.064	71.62
243.298	67.62
243.531	84.62
243.765	72.62
243.998	75.62
244.232	69.62
244.465	72.62
244.699	73.62
244.932	73.62
245.166	83.62
245.399	73.62
245.633	80.62
245.866	74.62
246.099	81.62
246.333	82.62
246.566	73.62
246.8	72.62
247.033	84.62
247.266	67.62
247.5	79.62
247.733	65.62
247.966	75.62
248.2	72.62
248.433	79.62
248.666	69.62
248.899	78.62
249.133	87.62
249.366	85.62
249.599	74.62
249.832	76.62
250.066	76.62
250.299	73.62
250.532	76.62
250.765	83.62
250.998	64.62
251.231	82.62
251.465	74.62
251.698	95.62
251.931	84.62
252.164	85.62
252.397	90.62
252.63	77.62
252.863	83.62
253.096	79.62
253.329	79.62
253.562	77.62
253.795	76.62
254.028	86.62
254.261	72.62
254.494	80.62
254.727	68.62
254.96	75.62
255.193	69.62
255.426	71.62
255.659	83.62
255.892	77.62
256.124	87.62
256.357	94.62
256.59	81.62
256.823	80.62
257.056	78.62
257.289	90.62
257.521	75.62
257.754	92.62
257.987	70.62
258.22	80.62
258.452	97.62
258.685	96.62
258.918	76.62
259.151	88.62
259.383	78.62
259.616	77.62
259.849	77.62
260.081	95.62
260.314	75.62
260.547	88.62
260.779	75.62
261.012	90.62
261.244	79.62
261.477	83.62
261.71	93.62
261.942	103.62
262.175	101.62
262.407	77.62
262.64	94.62
262.872	87.62
263.105	77.62
263.337	86.62
263.57	77.62
263.802	74.62
264.035	70.62
264.267	73.62
264.499	68.62
264.732	93.62
264.964	96.62
265.197	79.62
265.429	74.62
265.661	77.62
265.894	75.62
266.126	76.62
266.358	88.62
266.591	81.62
266.823	81.62
267.055	77.62
267.287	84.62
267.52	70.62
267.752	86.62
267.984	76.62
268.216	81.62
268.448	88.62
268.681	89.62
268.913	85.62
269.145	80.62
269.377	67.62
269.609	78.62
269.841	77.62
270.073	78.62
270.306	77.62
270.538	80.62
270.77	90.62
271.002	85.62
271.234	75.62
271.466	85.62
271.698	71.62
271.93	90.62
272.162	79.62
272.394	100.62
272.626	86.62
272.858	76.62
273.09	77.62
273.322	88.62
273.553	75.62
273.785	73.62
274.017	93.62
274.249	76.62
274.481	84.62
274.713	87.62
274.945	88.62
275.176	97.62
275.408	97.62
275.64	92.62
275.872	106.62
276.104	79.62
276.335	85.62
276.567	93.62
276.799	113.62
277.031	115.62
277.262	133.62
277.494	116.62
277.726	91.62
277.957	89.62
278.189	74.62
278.421	85.62
278.652	84.62
278.884	79.62
279.115	93.62
279.347	87.62
279.579	104.62
279.81	103.62
280.042	147.62
280.273	165.62
280.505	114.62
280.736	84.62
280.968	88.62
281.199	82.62
281.431	79.62
281.662	76.62
281.894	87.62
282.125	87.62
282.356	111.62
282.588	134.62
282.819	119.62
283.051	89.62
283.282	107.62
283.513	72.62
283.745	92.62
283.976	90.62
284.207	80.62
284.439	85.62
284.67	83.62
284.901	83.62
285.132	77.62
285.364	83.62
285.595	96.62
285.826	81.62
286.057	86.62
286.288	94.62
286.52	71.62
286.751	86.62
286.982	89.62
287.213	80.62
287.444	92.62
287.675	80.62
287.906	82.62
288.138	73.62
288.369	92.62
288.6	87.62
288.831	73.62
289.062	82.62
289.293	88.62
289.524	95.62
289.755	90.62
289.986	83.62
290.217	88.62
290.448	81.62
290.679	83.62
290.91	88.62
291.141	90.62
291.371	95.62
291.602	88.62
291.833	76.62
292.064	78.62
292.295	94.62
292.526	95.62
292.757	94.62
292.987	92.62
293.218	94.62
293.449	85.62
293.68	75.62
293.91	85.62
294.141	92.62
294.372	91.62
294.603	92.62
294.833	80.62
295.064	87.62
295.295	93.62
295.525	79.62
295.756	98.62
295.987	92.62
296.217	129.62
296.448	114.62
296.679	88.62
296.909	80.62
297.14	80.62
297.37	81.62
297.601	85.62
297.831	85.62
298.062	86.62
298.292	93.62
298.523	91.62
298.753	75.62
298.984	90.62
299.214	97.62
299.445	90.62
299.675	93.62
299.905	90.62
300.136	87.62
300.366	100.62
300.597	85.62
300.827	87.62
301.057	86.62
301.288	109.62
301.518	85.62
301.748	110.62
301.979	110.62
302.209	99.62
302.439	82.62
302.669	87.62
302.9	90.62
303.13	92.62
303.36	95.62
303.59	117.62
303.82	127.62
304.051	101.62
304.281	91.62
304.511	103.62
304.741	86.62
304.971	94.62
305.201	82.62
305.431	88.62
305.661	93.62
305.891	83.62
306.121	96.62
306.352	87.62
306.582	89.62
306.812	97.62
307.042	102.62
307.272	128.62
307.502	135.62
307.731	133.62
307.961	104.62
308.191	89.62
308.421	83.62
308.651	80.62
308.881	82.62
309.111	96.62
309.341	87.62
309.571	100.62
309.8	104.62
310.03	90.62
310.26	89.62
310.49	98.62
310.72	96.62
310.949	95.62
311.179	82.62
311.409	87.62
311.639	98.62
311.868	97.62
312.098	107.62
312.328	78.62
312.557	89.62
312.787	89.62
313.017	95.62
313.246	82.62
313.476	92.62
313.706	87.62
313.935	84.62
314.165	89.62
314.394	94.62
314.624	96.62
314.853	94.62
315.083	93.62
315.312	88.62
315.542	81.62
315.771	81.62
316.001	73.62
316.23	88.62
316.46	97.62
316.689	85.62
316.919	102.62
317.148	96.62
317.377	91.62
317.607	91.62
317.836	87.62
318.065	77.62
318.295	101.62
318.524	75.62
318.753	88.62
318.983	94.62
319.212	89.62
319.441	117.62
319.67	105.62
319.9	82.62
320.129	91.62
320.358	96.62
320.587	100.62
320.816	105.62
321.046	106.62
321.275	91.62
321.504	85.62
321.733	97.62
321.962	101.62
322.191	100.62
322.42	105.62
322.649	109.62
322.878	103.62
323.108	114.62
323.337	120.62
323.566	130.62
323.795	153.62
324.024	205.62
324.253	427.62
324.482	912.62
324.71	1959.62
324.939	2641.62
325.168	902.62
325.397	243.62
325.626	153.62
325.855	140.62
326.084	109.62
326.313	132.62
326.542	159.62
326.77	241.62
326.999	500.62
327.228	1075.62
327.457	1999.62
327.686	1584.62
327.914	458.62
328.143	357.62
328.372	380.62
328.6	242.62
328.829	147.62
329.058	143.62
329.287	148.62
329.515	134.62
329.744	172.62
329.972	280.62
330.201	569.62
330.43	816.62
330.658	369.62
330.887	184.62
331.115	145.62
331.344	115.62
331.572	109.62
331.801	100.62
332.03	97.62
332.258	109.62
332.486	98.62
332.715	107.62
332.943	102.62
333.172	105.62
333.4	118.62
333.629	119.62
333.857	151.62
334.085	277.62
334.314	547.62
334.542	986.62
334.771	951.62
334.999	275.62
335.227	131.62
335.455	114.62
335.684	107.62
335.912	96.62
336.14	107.62
336.369	102.62
336.597	97.62
336.825	83.62
337.053	89.62
337.281	92.62
337.51	94.62
337.738	84.62
337.966	97.62
338.194	75.62
338.422	94.62
338.65	91.62
338.878	89.62
339.106	103.62
339.334	91.62
339.562	92.62
339.79	91.62
340.018	96.62
340.246	94.62
340.474	93.62
340.702	82.62
340.93	89.62
341.158	104.62
341.386	89.62
341.614	83.62
341.842	82.62
342.07	100.62
342.298	85.62
342.526	80.62
342.754	90.62
342.981	84.62
343.209	87.62
343.437	94.62
343.665	97.62
343.893	97.62
344.12	102.62
344.348	92.62
344.576	97.62
344.804	95.62
345.031	99.62
345.259	93.62
345.487	90.62
345.714	89.62
345.942	87.62
346.17	92.62
346.397	99.62
346.625	93.62
346.853	97.62
347.08	84.62
347.308	97.62
347.535	95.62
347.763	90.62
347.99	92.62
348.218	100.62
348.445	103.62
348.673	80.62
348.9	98.62
349.128	95.62
349.355	91.62
349.583	89.62
349.81	95.62
350.037	93.62
350.265	95.62
350.492	89.62
350.72	95.62
350.947	92.62
351.174	99.62
351.402	113.62
351.629	106.62
351.856	102.62
352.083	99.62
352.311	110.62
352.538	99.62
352.765	105.62
352.992	118.62
353.22	95.62
353.447	95.62
353.674	101.62
353.901	98.62
354.128	96.62
354.355	85.62
354.583	94.62
354.81	71.62
355.037	100.62
355.264	89.62
355.491	91.62
355.718	96.62
355.945	87.62
356.172	85.62
356.399	89.62
356.626	95.62
356.853	99.62
357.08	107.62
357.307	90.62
357.534	93.62
357.761	77.62
357.988	88.62
358.215	84.62
358.441	94.62
358.668	80.62
358.895	83.62
359.122	80.62
359.349	86.62
359.576	78.62
359.802	102.62
360.029	115.62
360.256	106.62
360.483	91.62
360.709	84.62
360.936	81.62
361.163	80.62
361.39	96.62
361.616	89.62
361.843	81.62
362.07	88.62
362.296	93.62
362.523	89.62
362.749	68.62
362.976	90.62
363.203	87.62
363.429	88.62
363.656	80.62
363.882	88.62
364.109	86.62
364.335	82.62
364.562	75.62
364.788	75.62
365.015	90.62
365.241	99.62
365.468	100.62
365.694	95.62
365.92	94.62
366.147	81.62
366.373	82.62
366.599	76.62
366.826	79.62
367.052	84.62
367.278	79.62
367.505	96.62
367.731	92.62
367.957	96.62
368.184	91.62
368.41	93.62
368.636	99.62
368.862	103.62
369.089	111.62
369.315	84.62
369.541	86.62
369.767	86.62
369.993	83.62
370.219	76.62
370.445	89.62
370.672	81.62
370.898	88.62
371.124	83.62
371.35	90.62
371.576	96.62
371.802	84.62
372.028	87.62
372.254	85.62
372.48	75.62
372.706	82.62
372.932	81.62
373.158	93.62
373.384	88.62
373.61	97.62
373.835	79.62
374.061	91.62
374.287	81.62
374.513	69.62
374.739	88.62
374.965	88.62
375.191	79.62
375.416	76.62
375.642	87.62
375.868	92.62
376.094	84.62
376.319	95.62
376.545	87.62
376.771	84.62
376.997	86.62
377.222	87.62
377.448	76.62
377.674	83.62
377.899	90.62
378.125	85.62
378.35	87.62
378.576	70.62
378.802	74.62
379.027	87.62
379.253	94.62
379.478	93.62
379.704	88.62
379.929	89.62
380.155	77.62
380.38	92.62
380.606	80.62
380.831	95.62
381.057	90.62
381.282	97.62
381.507	91.62
381.733	100.62
381.958	103.62
382.184	94.62
382.409	85.62
382.634	99.62
382.86	101.62
383.085	97.62
383.31	88.62
383.535	91.62
383.761	96.62
383.986	88.62
384.211	96.62
384.436	85.62
384.662	90.62
384.887	81.62
385.112	86.62
385.337	111.62
385.562	94.62
385.787	106.62
386.013	95.62
386.238	115.62
386.463	87.62
386.688	102.62
386.913	92.62
387.138	93.62
387.363	90.62
387.588	91.62
387.813	95.62
388.038	100.62
388.263	94.62
388.488	90.62
388.713	90.62
388.938	89.62
389.163	85.62
389.387	96.62
389.612	97.62
389.837	97.62
390.062	89.62
390.287	92.62
390.512	102.62
390.736	87.62
390.961	90.62
391.186	87.62
391.411	87.62
391.636	87.62
391.86	85.62
392.085	88.62
392.31	83.62
392.534	84.62
392.759	83.62
392.984	84.62
393.208	86.62
393.433	78.62
393.658	81.62
393.882	78.62
394.107	89.62
394.331	79.62
394.556	76.62
394.78	89.62
395.005	97.62
395.229	80.62
395.454	83.62
395.678	85.62
395.903	84.62
396.127	81.62
396.352	88.62
396.576	71.62
396.801	85.62
397.025	83.62
397.249	95.62
397.474	87.62
397.698	65.62
397.922	73.62
398.147	70.62
398.371	88.62
398.595	86.62
398.82	92.62
399.044	101.62
399.268	89.62
399.492	89.62
399.717	88.62
399.941	73.62
400.165	75.62
400.389	86.62
400.613	85.62
400.837	92.62
401.062	85.62
401.286	94.62
401.51	87.62
401.734	96.62
401.958	87.62
402.182	115.62
402.406	139.62
402.63	114.62
402.854	87.62
403.078	85.62
403.302	80.62
403.526	82.62
403.75	73.62
403.974	71.62
404.198	79.62
404.422	93.62
404.645	83.62
404.869	84.62
405.093	111.62
405.317	131.62
405.541	116.62
405.765	99.62
405.988	116.62
406.212	159.62
406.436	208.62
406.66	152.62
406.883	94.62
407.107	94.62
407.331	94.62
407.555	87.62
407.778	91.62
408.002	89.62
408.226	73.62
408.449	76.62
408.673	77.62
408.896	94.62
409.12	90.62
409.344	72.62
409.567	85.62
409.791	89.62
410.014	83.62
410.238	86.62
410.461	79.62
410.685	84.62
410.908	95.62
411.132	92.62
411.355	89.62
411.578	76.62
411.802	101.62
412.025	70.62
412.249	84.62
412.472	91.62
412.695	122.62
412.919	94.62
413.142	82.62
413.365	87.62
413.589	93.62
413.812	73.62
414.035	67.62
414.258	80.62
414.482	102.62
414.705	78.62
414.928	80.62
415.151	89.62
415.374	88.62
415.597	94.62
415.821	100.62
416.044	99.62
416.267	91.62
416.49	81.62
416.713	99.62
416.936	85.62
417.159	86.62
417.382	76.62
417.605	92.62
417.828	94.62
418.051	70.62
418.274	81.62
418.497	82.62
418.72	94.62
418.943	83.62
419.166	80.62
419.389	87.62
419.611	94.62
419.834	83.62
420.057	88.62
420.28	77.62
420.503	84.62
420.726	79.62
420.948	95.62
421.171	81.62
421.394	84.62
421.617	86.62
421.839	73.62
422.062	87.62
422.285	86.62
422.507	97.62
422.73	101.62
422.953	88.62
423.175	88.62
423.398	77.62
423.621	104.62
423.843	77.62
424.066	82.62
424.288	77.62
424.511	86.62
424.733	93.62
424.956	97.62
425.178	97.62
425.401	97.62
425.623	96.62
425.846	92.62
426.068	76.62
426.291	86.62
426.513	81.62
426.735	80.62
426.958	86.62
427.18	103.62
427.402	127.62
427.625	179.62
427.847	174.62
428.069	179.62
428.292	118.62
428.514	97.62
428.736	80.62
428.958	79.62
429.181	87.62
429.403	85.62
429.625	102.62
429.847	87.62
430.069	85.62
430.292	81.62
430.514	72.62
430.736	72.62
430.958	89.62
431.18	71.62
431.402	75.62
431.624	84.62
431.846	73.62
432.068	83.62
432.29	97.62
432.512	99.62
432.734	97.62
432.956	86.62
433.178	98.62
433.4	109.62
433.622	77.62
433.844	84.62
434.066	78.62
434.287	86.62
434.509	100.62
434.731	87.62
434.953	88.62
435.175	94.62
435.397	83.62
435.618	98.62
435.84	107.62
436.062	113.62
436.284	109.62
436.505	98.62
436.727	101.62
436.949	81.62
437.17	79.62
437.392	82.62
437.614	95.62
437.835	96.62
438.057	110.62
438.278	105.62
438.5	99.62
438.721	110.62
438.943	93.62
439.165	88.62
439.386	72.62
439.608	87.62
439.829	87.62
440.05	133.62
440.272	135.62
440.493	101.62
440.715	89.62
440.936	62.62
441.158	88.62
441.379	71.62
441.6	94.62
441.822	93.62
442.043	85.62
442.264	87.62
442.486	93.62
442.707	76.62
442.928	101.62
443.149	128.62
443.371	131.62
443.592	114.62
443.813	124.62
444.034	96.62
444.255	86.62
444.476	89.62
444.698	86.62
444.919	85.62
445.14	118.62
445.361	112.62
445.582	111.62
445.803	158.62
446.024	146.62
446.245	153.62
446.466	121.62
446.687	80.62
446.908	67.62
447.129	88.62
447.35	81.62
447.571	80.62
447.792	91.62
448.013	105.62
448.234	94.62
448.455	98.62
448.675	106.62
448.896	118.62
449.117	87.62
449.338	107.62
449.559	138.62
449.779	134.62
450	98.62
450.221	90.62
450.442	76.62
450.662	96.62
450.883	91.62
451.104	98.62
451.324	85.62
451.545	93.62
451.766	92.62
451.986	91.62
452.207	77.62
452.428	103.62
452.648	106.62
452.869	112.62
453.089	97.62
453.31	108.62
453.53	86.62
453.751	73.62
453.971	89.62
454.192	100.62
454.412	80.62
454.633	83.62
454.853	79.62
455.073	91.62
455.294	95.62
455.514	102.62
455.734	86.62
455.955	88.62
456.175	88.62
456.395	82.62
456.616	81.62
456.836	95.62
457.056	69.62
457.276	82.62
457.497	73.62
457.717	95.62
457.937	87.62
458.157	76.62
458.377	95.62
458.598	91.62
458.818	123.62
459.038	162.62
459.258	108.62
459.478	89.62
459.698	76.62
459.918	70.62
460.138	79.62
460.358	78.62
460.578	92.62
460.798	80.62
461.018	88.62
461.238	87.62
461.458	88.62
461.678	93.62
461.898	82.62
462.118	74.62
462.338	71.62
462.558	77.62
462.777	93.62
462.997	96.62
463.217	95.62
463.437	87.62
463.657	68.62
463.876	79.62
464.096	81.62
464.316	97.62
464.536	92.62
464.755	86.62
464.975	101.62
465.195	156.62
465.414	147.62
465.634	103.62
465.854	76.62
466.073	81.62
466.293	92.62
466.512	91.62
466.732	81.62
466.951	93.62
467.171	102.62
467.391	104.62
467.61	112.62
467.829	157.62
468.049	339.62
468.268	501.62
468.488	155.62
468.707	96.62
468.927	95.62
469.146	89.62
469.365	81.62
469.585	80.62
469.804	89.62
470.023	94.62
470.243	80.62
470.462	103.62
470.681	107.62
470.901	85.62
471.12	89.62
471.339	103.62
471.558	79.62
471.777	119.62
471.997	184.62
472.216	668.62
472.435	1409.62
472.654	358.62
472.873	123.62
473.092	91.62
473.311	90.62
473.53	78.62
473.749	89.62
473.968	94.62
474.187	101.62
474.406	103.62
474.625	83.62
474.844	91.62
475.063	85.62
475.282	91.62
475.501	91.62
475.72	103.62
475.939	94.62
476.158	88.62
476.377	85.62
476.596	92.62
476.814	75.62
477.033	87.62
477.252	73.62
477.471	83.62
477.69	83.62
477.908	78.62
478.127	77.62
478.346	79.62
478.564	100.62
478.783	90.62
479.002	94.62
479.22	98.62
479.439	104.62
479.658	103.62
479.876	97.62
480.095	110.62
480.313	118.62
480.532	125.62
480.751	199.62
480.969	655.62
481.188	2567.62
481.406	1431.62
481.624	240.62
481.843	126.62
482.061	96.62
482.28	80.62
482.498	100.62
482.717	87.62
482.935	69.62
483.153	87.62
483.372	97.62
483.59	77.62
483.808	91.62
484.027	91.62
484.245	90.62
484.463	87.62
484.681	91.62
484.9	72.62
485.118	88.62
485.336	102.62
485.554	93.62
485.772	85.62
485.99	97.62
486.209	96.62
486.427	92.62
486.645	100.62
486.863	104.62
487.081	100.62
487.299	101.62
487.517	95.62
487.735	93.62
487.953	78.62
488.171	85.62
488.389	84.62
488.607	94.62
488.825	88.62
489.043	79.62
489.261	87.62
489.479	86.62
489.696	75.62
489.914	92.62
490.132	94.62
490.35	94.62
490.568	98.62
490.786	88.62
491.003	79.62
491.221	99.62
491.439	99.62
491.657	87.62
491.874	80.62
492.092	80.62
492.31	95.62
492.527	83.62
492.745	79.62
492.963	89.62
493.18	92.62
493.398	98.62
493.615	94.62
493.833	93.62
494.05	91.62
494.268	89.62
494.485	85.62
494.703	92.62
494.92	84.62
495.138	81.62
495.355	89.62
495.573	84.62
495.79	84.62
496.008	102.62
496.225	90.62
496.442	88.62
496.66	93.62
496.877	92.62
497.094	103.62
497.312	79.62
497.529	77.62
497.746	89.62
497.963	86.62
498.181	94.62
498.398	77.62
498.615	96.62
498.832	101.62
499.049	87.62
499.267	71.62
499.484	91.62
499.701	75.62
499.918	85.62
500.135	82.62
500.352	88.62
500.569	79.62
500.786	93.62
501.003	84.62
501.22	87.62
501.437	87.62
501.654	84.62
501.871	111.62
502.088	96.62
502.305	91.62
502.522	91.62
502.739	88.62
502.956	101.62
503.172	100.62
503.389	87.62
503.606	103.62
503.823	96.62
504.04	79.62
504.256	89.62
504.473	90.62
504.69	91.62
504.907	92.62
505.123	76.62
505.34	86.62
505.557	94.62
505.773	90.62
505.99	93.62
506.207	76.62
506.423	67.62
506.64	101.62
506.856	85.62
507.073	87.62
507.289	83.62
507.506	100.62
507.722	119.62
507.939	111.62
508.155	84.62
508.372	94.62
508.588	83.62
508.805	90.62
509.021	80.62
509.238	88.62
509.454	84.62
509.67	83.62
509.887	82.62
510.103	127.62
510.319	197.62
510.536	634.62
510.752	2094.62
510.968	598.62
511.184	144.62
511.401	105.62
511.617	78.62
511.833	85.62
512.049	80.62
512.265	87.62
512.481	105.62
512.698	100.62
512.914	101.62
513.13	88.62
513.346	89.62
513.562	77.62
513.778	80.62
513.994	96.62
514.21	91.62
514.426	105.62
514.642	126.62
514.858	119.62
515.074	146.62
515.29	415.62
515.506	1390.62
515.721	509.62
515.937	148.62
516.153	101.62
