Data from Circ_1997_H10_HRD10591_00037.txt Node
Date: Wed Jan 03 11:29:35 EST 2024
User: Yrep
Spectrometer: HR+D1059
Trigger mode: 1
Integration Time (sec): 1.000000E-1
Scans to average: 1
Electric dark correction enabled: true
Nonlinearity correction enabled: false
Boxcar width: 0
XAxis mode: Wavelengths
Number of Pixels in Spectrum: 2048
>>>>>Begin Spectral Data<<<<<
223.165	-28.44
223.4	-28.44
223.635	-28.44
223.869	-7.44
224.104	-4.44
224.338	-18.44
224.573	-19.44
224.808	-10.44
225.042	-0.44
225.277	-3.44
225.511	-2.44
225.746	-0.44
225.98	6.56
226.215	10.56
226.449	11.56
226.683	18.56
226.918	21.56
227.152	26.56
227.387	29.56
227.621	25.56
227.856	47.56
228.09	41.56
228.324	44.56
228.559	64.56
228.793	155.56
229.027	475.56
229.262	558.56
229.496	660.56
229.73	921.56
229.964	902.56
230.199	604.56
230.433	522.56
230.667	498.56
230.901	500.56
231.136	457.56
231.37	492.56
231.604	498.56
231.838	498.56
232.072	493.56
232.306	493.56
232.541	515.56
232.775	514.56
233.009	501.56
233.243	508.56
233.477	518.56
233.711	506.56
233.945	556.56
234.179	559.56
234.413	559.56
234.647	544.56
234.881	559.56
235.115	583.56
235.349	588.56
235.583	599.56
235.817	653.56
236.051	666.56
236.285	670.56
236.519	691.56
236.753	765.56
236.987	1007.56
237.221	1570.56
237.455	1650.56
237.689	958.56
237.922	794.56
238.156	774.56
238.39	759.56
238.624	693.56
238.858	695.56
239.091	734.56
239.325	755.56
239.559	744.56
239.793	797.56
240.027	865.56
240.26	1019.56
240.494	1041.56
240.728	1036.56
240.961	937.56
241.195	892.56
241.429	856.56
241.662	861.56
241.896	869.56
242.13	883.56
242.363	889.56
242.597	905.56
242.83	966.56
243.064	936.56
243.298	954.56
243.531	944.56
243.765	940.56
243.998	993.56
244.232	1003.56
244.465	1040.56
244.699	996.56
244.932	1040.56
245.166	1007.56
245.399	1039.56
245.633	1003.56
245.866	1034.56
246.099	1050.56
246.333	1056.56
246.566	1060.56
246.8	1121.56
247.033	1140.56
247.266	1180.56
247.5	1248.56
247.733	1263.56
247.966	1267.56
248.2	1274.56
248.433	1338.56
248.666	1406.56
248.899	1532.56
249.133	1718.56
249.366	1702.56
249.599	1651.56
249.832	1609.56
250.066	1910.56
250.299	2536.56
250.532	3373.56
250.765	3088.56
250.998	2600.56
251.231	2183.56
251.465	1849.56
251.698	1799.56
251.931	1737.56
252.164	1630.56
252.397	1648.56
252.63	1688.56
252.863	1806.56
253.096	1900.56
253.329	1926.56
253.562	1802.56
253.795	1768.56
254.028	1797.56
254.261	1880.56
254.494	2143.56
254.727	2526.56
254.96	2568.56
255.193	2374.56
255.426	2464.56
255.659	3087.56
255.892	4667.56
256.124	6122.56
256.357	4897.56
256.59	3432.56
256.823	2787.56
257.056	2406.56
257.289	2231.56
257.521	2144.56
257.754	2047.56
257.987	1963.56
258.22	1954.56
258.452	1899.56
258.685	1944.56
258.918	1887.56
259.151	1917.56
259.383	1997.56
259.616	1971.56
259.849	2055.56
260.081	2222.56
260.314	2351.56
260.547	2280.56
260.779	2082.56
261.012	2078.56
261.244	1979.56
261.477	1962.56
261.71	1951.56
261.942	2056.56
262.175	2101.56
262.407	1999.56
262.64	1868.56
262.872	1895.56
263.105	1916.56
263.337	1913.56
263.57	1903.56
263.802	1922.56
264.035	1901.56
264.267	1883.56
264.499	1923.56
264.732	1942.56
264.964	1954.56
265.197	1961.56
265.429	1908.56
265.661	1967.56
265.894	2021.56
266.126	1963.56
266.358	2014.56
266.591	2060.56
266.823	2130.56
267.055	2099.56
267.287	2150.56
267.52	2071.56
267.752	2050.56
267.984	2073.56
268.216	2180.56
268.448	2173.56
268.681	2276.56
268.913	2394.56
269.145	2632.56
269.377	2565.56
269.609	2436.56
269.841	2462.56
270.073	2584.56
270.306	2948.56
270.538	3032.56
270.77	2824.56
271.002	2700.56
271.234	2649.56
271.466	2886.56
271.698	2996.56
271.93	2943.56
272.162	2988.56
272.394	2912.56
272.626	2741.56
272.858	2603.56
273.09	2581.56
273.322	2547.56
273.553	2516.56
273.785	2598.56
274.017	2533.56
274.249	2578.56
274.481	2592.56
274.713	2677.56
274.945	2748.56
275.176	2757.56
275.408	2751.56
275.64	2791.56
275.872	2883.56
276.104	2920.56
276.335	2916.56
276.567	3031.56
276.799	3318.56
277.031	3708.56
277.262	3958.56
277.494	3679.56
277.726	3301.56
277.957	3134.56
278.189	3031.56
278.421	2990.56
278.652	2927.56
278.884	2888.56
279.115	2909.56
279.347	2964.56
279.579	3050.56
279.81	3229.56
280.042	3454.56
280.273	3818.56
280.505	3517.56
280.736	3244.56
280.968	3119.56
281.199	3017.56
281.431	3026.56
281.662	3025.56
281.894	2986.56
282.125	3085.56
282.356	3232.56
282.588	3391.56
282.819	3179.56
283.051	2999.56
283.282	2969.56
283.513	2985.56
283.745	3061.56
283.976	3039.56
284.207	3086.56
284.439	3050.56
284.67	2982.56
284.901	3044.56
285.132	3038.56
285.364	3039.56
285.595	3002.56
285.826	3092.56
286.057	3097.56
286.288	3046.56
286.52	3124.56
286.751	3037.56
286.982	3124.56
287.213	3097.56
287.444	3205.56
287.675	3223.56
287.906	3299.56
288.138	3389.56
288.369	3275.56
288.6	3319.56
288.831	3271.56
289.062	3220.56
289.293	3258.56
289.524	3199.56
289.755	3224.56
289.986	3255.56
290.217	3172.56
290.448	3238.56
290.679	3169.56
290.91	3162.56
291.141	3182.56
291.371	3167.56
291.602	3179.56
291.833	3115.56
292.064	3141.56
292.295	3187.56
292.526	3195.56
292.757	3169.56
292.987	3146.56
293.218	3119.56
293.449	3216.56
293.68	3191.56
293.91	3202.56
294.141	3166.56
294.372	3142.56
294.603	3183.56
294.833	3171.56
295.064	3270.56
295.295	3200.56
295.525	3258.56
295.756	3266.56
295.987	3406.56
296.217	3616.56
296.448	3541.56
296.679	3312.56
296.909	3222.56
297.14	3298.56
297.37	3370.56
297.601	3349.56
297.831	3414.56
298.062	3452.56
298.292	3463.56
298.523	3507.56
298.753	3459.56
298.984	3473.56
299.214	3435.56
299.445	3446.56
299.675	3504.56
299.905	3610.56
300.136	3522.56
300.366	3551.56
300.597	3523.56
300.827	3624.56
301.057	3812.56
301.288	3817.56
301.518	3751.56
301.748	3742.56
301.979	3897.56
302.209	3844.56
302.439	3847.56
302.669	3763.56
302.9	3778.56
303.13	3676.56
303.36	3839.56
303.59	3988.56
303.82	4031.56
304.051	3857.56
304.281	3792.56
304.511	3680.56
304.741	3754.56
304.971	3680.56
305.201	3642.56
305.431	3650.56
305.661	3628.56
305.891	3674.56
306.121	3648.56
306.352	3739.56
306.582	3728.56
306.812	3709.56
307.042	3884.56
307.272	4089.56
307.502	4157.56
307.731	4074.56
307.961	3891.56
308.191	3716.56
308.421	3726.56
308.651	3756.56
308.881	3786.56
309.111	3795.56
309.341	3802.56
309.571	4009.56
309.8	4006.56
310.03	4091.56
310.26	4132.56
310.49	4095.56
310.72	4281.56
310.949	4366.56
311.179	4326.56
311.409	4183.56
311.639	4178.56
311.868	4231.56
312.098	4242.56
312.328	4320.56
312.557	4541.56
312.787	4674.56
313.017	4454.56
313.246	4291.56
313.476	4166.56
313.706	4180.56
313.935	4345.56
314.165	4521.56
314.394	4523.56
314.624	4431.56
314.853	4340.56
315.083	4274.56
315.312	4253.56
315.542	4206.56
315.771	4163.56
316.001	4167.56
316.23	4161.56
316.46	4148.56
316.689	4315.56
316.919	4282.56
317.148	4268.56
317.377	4376.56
317.607	4308.56
317.836	4223.56
318.065	4196.56
318.295	4218.56
318.524	4304.56
318.753	4214.56
318.983	4256.56
319.212	4231.56
319.441	4371.56
319.67	4277.56
319.9	4262.56
320.129	4229.56
320.358	4306.56
320.587	4361.56
320.816	4433.56
321.046	4433.56
321.275	4449.56
321.504	4483.56
321.733	4512.56
321.962	4603.56
322.191	4733.56
322.42	4838.56
322.649	5039.56
322.878	5044.56
323.108	5270.56
323.337	5570.56
323.566	5732.56
323.795	6154.56
324.024	6933.56
324.253	9382.56
324.482	13916.56
324.71	15616.56
324.939	15616.56
325.168	14854.56
325.397	7895.56
325.626	6415.56
325.855	5964.56
326.084	5991.56
326.313	5963.56
326.542	6329.56
326.77	7342.56
326.999	9530.56
327.228	13609.56
327.457	15616.56
327.686	15616.56
327.914	12135.56
328.143	11375.56
328.372	11880.56
328.6	9635.56
328.829	8198.56
329.058	8352.56
329.287	8526.56
329.515	8592.56
329.744	9855.56
329.972	12733.56
330.201	15307.56
330.43	15616.56
330.658	13408.56
330.887	10205.56
331.115	8478.56
331.344	7344.56
331.572	7086.56
331.801	7097.56
332.03	6985.56
332.258	6852.56
332.486	6986.56
332.715	7206.56
332.943	7476.56
333.172	7903.56
333.4	8546.56
333.629	9490.56
333.857	11207.56
334.085	13795.56
334.314	15616.56
334.542	15616.56
334.771	15616.56
334.999	13582.56
335.227	9453.56
335.455	8171.56
335.684	7438.56
335.912	6951.56
336.14	6618.56
336.369	6455.56
336.597	6401.56
336.825	6195.56
337.053	6019.56
337.281	5785.56
337.51	5721.56
337.738	5665.56
337.966	5653.56
338.194	5604.56
338.422	5442.56
338.65	5293.56
338.878	5304.56
339.106	5233.56
339.334	5200.56
339.562	5179.56
339.79	5109.56
340.018	5084.56
340.246	5116.56
340.474	5173.56
340.702	5055.56
340.93	5091.56
341.158	5061.56
341.386	5042.56
341.614	5040.56
341.842	5035.56
342.07	4931.56
342.298	4940.56
342.526	4880.56
342.754	4831.56
342.981	4892.56
343.209	5002.56
343.437	5170.56
343.665	5415.56
343.893	5740.56
344.12	5748.56
344.348	5496.56
344.576	5365.56
344.804	5241.56
345.031	5215.56
345.259	5261.56
345.487	4944.56
345.714	4900.56
345.942	4793.56
346.17	4759.56
346.397	4731.56
346.625	4786.56
346.853	4719.56
347.08	4762.56
347.308	4812.56
347.535	4895.56
347.763	4921.56
347.99	4811.56
348.218	4849.56
348.445	4906.56
348.673	4832.56
348.9	4781.56
349.128	4623.56
349.355	4569.56
349.583	4597.56
349.81	4587.56
350.037	4582.56
350.265	4554.56
350.492	4570.56
350.72	4538.56
350.947	4647.56
351.174	4763.56
351.402	4843.56
351.629	4694.56
351.856	4752.56
352.083	4891.56
352.311	4895.56
352.538	4932.56
352.765	4868.56
352.992	4723.56
353.22	4639.56
353.447	4590.56
353.674	4581.56
353.901	4443.56
354.128	4439.56
354.355	4441.56
354.583	4448.56
354.81	4434.56
355.037	4454.56
355.264	4348.56
355.491	4402.56
355.718	4325.56
355.945	4381.56
356.172	4392.56
356.399	4406.56
356.626	4411.56
356.853	4427.56
357.08	4314.56
357.307	4451.56
357.534	4435.56
357.761	4453.56
357.988	4412.56
358.215	4392.56
358.441	4390.56
358.668	4436.56
358.895	4508.56
359.122	4539.56
359.349	4690.56
359.576	4805.56
359.802	5092.56
360.029	5371.56
360.256	5281.56
360.483	5051.56
360.709	4733.56
360.936	4628.56
361.163	4756.56
361.39	4812.56
361.616	4802.56
361.843	4636.56
362.07	4762.56
362.296	4756.56
362.523	4688.56
362.749	4676.56
362.976	4643.56
363.203	4575.56
363.429	4558.56
363.656	4560.56
363.882	4517.56
364.109	4504.56
364.335	4445.56
364.562	4471.56
364.788	4488.56
365.015	4528.56
365.241	4603.56
365.468	4614.56
365.694	4659.56
365.92	4630.56
366.147	4541.56
366.373	4523.56
366.599	4547.56
366.826	4473.56
367.052	4475.56
367.278	4574.56
367.505	4522.56
367.731	4610.56
367.957	4564.56
368.184	4609.56
368.41	4737.56
368.636	4731.56
368.862	4772.56
369.089	4595.56
369.315	4624.56
369.541	4600.56
369.767	4639.56
369.993	4582.56
370.219	4698.56
370.445	4703.56
370.672	4650.56
370.898	4680.56
371.124	4690.56
371.35	4738.56
371.576	4709.56
371.802	4696.56
372.028	4665.56
372.254	4732.56
372.48	4756.56
372.706	4827.56
372.932	4922.56
373.158	4806.56
373.384	4734.56
373.61	4757.56
373.835	4821.56
374.061	4784.56
374.287	4898.56
374.513	4975.56
374.739	5014.56
374.965	5146.56
375.191	5038.56
375.416	5024.56
375.642	4909.56
375.868	4898.56
376.094	4843.56
376.319	4820.56
376.545	4769.56
376.771	4712.56
376.997	4742.56
377.222	4742.56
377.448	4701.56
377.674	4673.56
377.899	4600.56
378.125	4661.56
378.35	4630.56
378.576	4589.56
378.802	4572.56
379.027	4662.56
379.253	4637.56
379.478	4663.56
379.704	4587.56
379.929	4727.56
380.155	4704.56
380.38	4669.56
380.606	4761.56
380.831	4745.56
381.057	4777.56
381.282	4742.56
381.507	4808.56
381.733	4789.56
381.958	4858.56
382.184	4877.56
382.409	4952.56
382.634	4969.56
382.86	4971.56
383.085	5065.56
383.31	5127.56
383.535	5151.56
383.761	5241.56
383.986	5281.56
384.211	5386.56
384.436	5422.56
384.662	5458.56
384.887	5642.56
385.112	5638.56
385.337	5626.56
385.562	5670.56
385.787	5663.56
386.013	5821.56
386.238	5833.56
386.463	5746.56
386.688	5740.56
386.913	5561.56
387.138	5617.56
387.363	5602.56
387.588	5505.56
387.813	5640.56
388.038	5565.56
388.263	5647.56
388.488	5638.56
388.713	5602.56
388.938	5611.56
389.163	5577.56
389.387	5596.56
389.612	5416.56
389.837	5414.56
390.062	5437.56
390.287	5468.56
390.512	5534.56
390.736	5545.56
390.961	5763.56
391.186	5740.56
391.411	5963.56
391.636	6124.56
391.86	6217.56
392.085	6263.56
392.31	6157.56
392.534	6022.56
392.759	5941.56
392.984	5881.56
393.208	5792.56
393.433	5768.56
393.658	5739.56
393.882	5771.56
394.107	5807.56
394.331	5782.56
394.556	5846.56
394.78	5936.56
395.005	5992.56
395.229	5999.56
395.454	6196.56
395.678	6380.56
395.903	6337.56
396.127	6463.56
396.352	6226.56
396.576	6012.56
396.801	5934.56
397.025	6029.56
397.249	6211.56
397.474	6267.56
397.698	6414.56
397.922	6493.56
398.147	6715.56
398.371	6703.56
398.595	6781.56
398.82	7206.56
399.044	7780.56
399.268	8433.56
399.492	9566.56
399.717	10134.56
399.941	9951.56
400.165	9391.56
400.389	8720.56
400.613	7898.56
400.837	7387.56
401.062	7273.56
401.286	7219.56
401.51	7125.56
401.734	7113.56
401.958	7269.56
402.182	7330.56
402.406	7493.56
402.63	7582.56
402.854	7675.56
403.078	7764.56
403.302	7812.56
403.526	7983.56
403.75	8085.56
403.974	8186.56
404.198	8230.56
404.422	8474.56
404.645	8685.56
404.869	8911.56
405.093	9685.56
405.317	10398.56
405.541	10234.56
405.765	9076.56
405.988	8431.56
406.212	8486.56
406.436	8677.56
406.66	8681.56
406.883	8506.56
407.107	9157.56
407.331	9697.56
407.555	10262.56
407.778	9860.56
408.002	8924.56
408.226	8606.56
408.449	8518.56
408.673	8334.56
408.896	8495.56
409.12	8716.56
409.344	8092.56
409.567	7792.56
409.791	7788.56
410.014	7671.56
410.238	7636.56
410.461	7649.56
410.685	7764.56
410.908	7872.56
411.132	8143.56
411.355	8251.56
411.578	7830.56
411.802	7772.56
412.025	7946.56
412.249	8600.56
412.472	9448.56
412.695	10326.56
412.919	9359.56
413.142	8691.56
413.365	8230.56
413.589	7830.56
413.812	7491.56
414.035	7385.56
414.258	7450.56
414.482	7378.56
414.705	7241.56
414.928	7194.56
415.151	7120.56
415.374	7182.56
415.597	7085.56
415.821	7011.56
416.044	7095.56
416.267	6995.56
416.49	6868.56
416.713	6891.56
416.936	7047.56
417.159	7106.56
417.382	7273.56
417.605	7512.56
417.828	7614.56
418.051	7493.56
418.274	7206.56
418.497	7070.56
418.72	7246.56
418.943	7271.56
419.166	7754.56
419.389	8094.56
419.611	8134.56
419.834	8179.56
420.057	8474.56
420.28	9037.56
420.503	8686.56
420.726	8238.56
420.948	8089.56
421.171	8356.56
421.394	8018.56
421.617	7381.56
421.839	7263.56
422.062	7399.56
422.285	7495.56
422.507	8272.56
422.73	8824.56
422.953	8044.56
423.175	7634.56
423.398	7574.56
423.621	7622.56
423.843	7866.56
424.066	7790.56
424.288	7673.56
424.511	7990.56
424.733	8560.56
424.956	9024.56
425.178	8431.56
425.401	8628.56
425.623	8474.56
425.846	7425.56
426.068	7250.56
426.291	7102.56
426.513	7228.56
426.735	7340.56
426.958	7916.56
427.18	8872.56
427.402	10448.56
427.625	11126.56
427.847	10410.56
428.069	10207.56
428.292	8251.56
428.514	7194.56
428.736	6728.56
428.958	6702.56
429.181	6461.56
429.403	6489.56
429.625	6597.56
429.847	6934.56
430.069	7698.56
430.292	6997.56
430.514	6378.56
430.736	6302.56
430.958	6209.56
431.18	6134.56
431.402	6119.56
431.624	6138.56
431.846	6286.56
432.068	6164.56
432.29	6368.56
432.512	6199.56
432.734	6302.56
432.956	6198.56
433.178	6350.56
433.4	6453.56
433.622	6300.56
433.844	6347.56
434.066	6311.56
434.287	6324.56
434.509	6616.56
434.731	6859.56
434.953	6955.56
435.175	7173.56
435.397	7221.56
435.618	7176.56
435.84	7658.56
436.062	8720.56
436.284	8568.56
436.505	7045.56
436.727	6772.56
436.949	6494.56
437.17	6372.56
437.392	6285.56
437.614	6591.56
437.835	7119.56
438.057	8262.56
438.278	8932.56
438.5	8774.56
438.721	9808.56
438.943	8232.56
439.165	6937.56
439.386	6788.56
439.608	6843.56
439.829	6963.56
440.05	7583.56
440.272	8048.56
440.493	7144.56
440.715	6753.56
440.936	6560.56
441.158	6663.56
441.379	6736.56
441.6	7125.56
441.822	7394.56
442.043	7989.56
442.264	9046.56
442.486	8490.56
442.707	7376.56
442.928	7316.56
443.149	7673.56
443.371	7968.56
443.592	8496.56
443.813	9703.56
444.034	9490.56
444.255	8088.56
444.476	7868.56
444.698	8063.56
444.919	8018.56
445.14	7952.56
445.361	7993.56
445.582	8260.56
445.803	9293.56
446.024	10118.56
446.245	9479.56
446.466	8237.56
446.687	6940.56
446.908	6611.56
447.129	6245.56
447.35	6184.56
447.571	6177.56
447.792	6008.56
448.013	6173.56
448.234	6448.56
448.455	7165.56
448.675	8698.56
448.896	9276.56
449.117	7368.56
449.338	7674.56
449.559	9350.56
449.779	9437.56
450	6986.56
450.221	6143.56
450.442	5966.56
450.662	5958.56
450.883	6115.56
451.104	6323.56
451.324	6091.56
451.545	5783.56
451.766	5739.56
451.986	5487.56
452.207	5483.56
452.428	5495.56
452.648	5523.56
452.869	5600.56
453.089	5694.56
453.31	5771.56
453.53	5533.56
453.751	5523.56
453.971	5561.56
454.192	5792.56
454.412	5458.56
454.633	5352.56
454.853	5394.56
455.073	5402.56
455.294	5835.56
455.514	6561.56
455.734	5978.56
455.955	5271.56
456.175	5141.56
456.395	5095.56
456.616	5146.56
456.836	5165.56
457.056	5077.56
457.276	5072.56
457.497	5250.56
457.717	5272.56
457.937	5291.56
458.157	5344.56
458.377	5549.56
458.598	5964.56
458.818	6928.56
459.038	7832.56
459.258	7598.56
459.478	6533.56
459.698	6381.56
459.918	6452.56
460.138	6620.56
460.358	6840.56
460.578	6843.56
460.798	6946.56
461.018	6941.56
461.238	6807.56
461.458	6773.56
461.678	6743.56
461.898	6895.56
462.118	6981.56
462.338	7250.56
462.558	7469.56
462.777	7714.56
462.997	8300.56
463.217	8779.56
463.437	8573.56
463.657	7988.56
463.876	7799.56
464.096	7847.56
464.316	7830.56
464.536	7926.56
464.755	7671.56
464.975	7731.56
465.195	8168.56
465.414	8281.56
465.634	7009.56
465.854	6594.56
466.073	6331.56
466.293	6103.56
466.512	5939.56
466.732	5903.56
466.951	5917.56
467.171	5927.56
467.391	6118.56
467.61	6250.56
467.829	6729.56
468.049	8242.56
468.268	9972.56
468.488	7475.56
468.707	6418.56
468.927	6147.56
469.146	6012.56
469.365	5985.56
469.585	5959.56
469.804	6158.56
470.023	6314.56
470.243	6292.56
470.462	6423.56
470.681	6615.56
470.901	6458.56
471.12	6284.56
471.339	6316.56
471.558	6482.56
471.777	6606.56
471.997	7398.56
472.216	11493.56
472.435	15616.56
472.654	12245.56
472.873	8621.56
473.092	7486.56
473.311	6966.56
473.53	6649.56
473.749	6632.56
473.968	7139.56
474.187	8323.56
474.406	7600.56
474.625	6324.56
474.844	6078.56
475.063	5922.56
475.282	5915.56
475.501	6010.56
475.72	5988.56
475.939	5967.56
476.158	5978.56
476.377	6073.56
476.596	6113.56
476.814	6266.56
477.033	6292.56
477.252	6347.56
477.471	6460.56
477.69	6574.56
477.908	6638.56
478.127	6804.56
478.346	6897.56
478.564	7026.56
478.783	7115.56
479.002	7329.56
479.22	7360.56
479.439	7613.56
479.658	7858.56
479.876	7939.56
480.095	8182.56
480.313	8735.56
480.532	9016.56
480.751	9850.56
480.969	13379.56
481.188	15616.56
481.406	15616.56
481.624	14540.56
481.843	11300.56
482.061	9858.56
482.28	8949.56
482.498	8477.56
482.717	8044.56
482.935	7904.56
483.153	7670.56
483.372	7458.56
483.59	7390.56
483.808	7306.56
484.027	7256.56
484.245	7250.56
484.463	7238.56
484.681	7248.56
484.9	7330.56
485.118	7264.56
485.336	7428.56
485.554	7523.56
485.772	7460.56
485.99	7480.56
486.209	7479.56
486.427	7568.56
486.645	7687.56
486.863	7795.56
487.081	7757.56
487.299	7573.56
