Data from Circ_1997_H10_HRD10591_00029.txt Node
Date: Wed Jan 03 11:29:33 EST 2024
User: Yrep
Spectrometer: HR+D1059
Trigger mode: 1
Integration Time (sec): 1.000000E-1
Scans to average: 1
Electric dark correction enabled: true
Nonlinearity correction enabled: false
Boxcar width: 0
XAxis mode: Wavelengths
Number of Pixels in Spectrum: 2048
>>>>>Begin Spectral Data<<<<<
223.165	-29.12
223.4	-29.12
223.635	-29.12
223.869	-6.12
224.104	-17.12
224.338	-28.12
224.573	-20.12
224.808	-12.12
225.042	-15.12
225.277	-2.12
225.511	-0.12
225.746	7.88
225.98	5.88
226.215	9.88
226.449	22.88
226.683	30.88
226.918	22.88
227.152	29.88
227.387	36.88
227.621	34.88
227.856	47.88
228.09	45.88
228.324	44.88
228.559	49.88
228.793	181.88
229.027	486.88
229.262	556.88
229.496	684.88
229.73	916.88
229.964	883.88
230.199	583.88
230.433	512.88
230.667	483.88
230.901	489.88
231.136	486.88
231.37	461.88
231.604	502.88
231.838	483.88
232.072	487.88
232.306	517.88
232.541	482.88
232.775	488.88
233.009	510.88
233.243	517.88
233.477	508.88
233.711	551.88
233.945	552.88
234.179	531.88
234.413	533.88
234.647	543.88
234.881	564.88
235.115	604.88
235.349	599.88
235.583	612.88
235.817	646.88
236.051	671.88
236.285	676.88
236.519	684.88
236.753	760.88
236.987	1003.88
237.221	1530.88
237.455	1633.88
237.689	939.88
237.922	804.88
238.156	756.88
238.39	729.88
238.624	690.88
238.858	738.88
239.091	706.88
239.325	752.88
239.559	754.88
239.793	791.88
240.027	854.88
240.26	1010.88
240.494	1084.88
240.728	1039.88
240.961	950.88
241.195	891.88
241.429	871.88
241.662	849.88
241.896	853.88
242.13	858.88
242.363	899.88
242.597	912.88
242.83	954.88
243.064	966.88
243.298	927.88
243.531	967.88
243.765	944.88
243.998	975.88
244.232	1003.88
244.465	1024.88
244.699	1035.88
244.932	1013.88
245.166	1012.88
245.399	1067.88
245.633	1019.88
245.866	1003.88
246.099	1031.88
246.333	1066.88
246.566	1108.88
246.8	1113.88
247.033	1121.88
247.266	1179.88
247.5	1225.88
247.733	1256.88
247.966	1281.88
248.2	1272.88
248.433	1322.88
248.666	1412.88
248.899	1542.88
249.133	1653.88
249.366	1651.88
249.599	1661.88
249.832	1632.88
250.066	1876.88
250.299	2472.88
250.532	3208.88
250.765	3055.88
250.998	2539.88
251.231	2117.88
251.465	1828.88
251.698	1717.88
251.931	1696.88
252.164	1647.88
252.397	1639.88
252.63	1704.88
252.863	1760.88
253.096	1900.88
253.329	1974.88
253.562	1839.88
253.795	1781.88
254.028	1800.88
254.261	1837.88
254.494	2109.88
254.727	2504.88
254.96	2554.88
255.193	2411.88
255.426	2431.88
255.659	2989.88
255.892	4546.88
256.124	5944.88
256.357	4725.88
256.59	3348.88
256.823	2663.88
257.056	2356.88
257.289	2207.88
257.521	2136.88
257.754	2076.88
257.987	2000.88
258.22	1937.88
258.452	1924.88
258.685	1928.88
258.918	1895.88
259.151	1960.88
259.383	1978.88
259.616	1984.88
259.849	2056.88
260.081	2201.88
260.314	2378.88
260.547	2267.88
260.779	2084.88
261.012	2042.88
261.244	2030.88
261.477	1980.88
261.71	1986.88
261.942	2025.88
262.175	2126.88
262.407	1982.88
262.64	1868.88
262.872	1880.88
263.105	1879.88
263.337	1890.88
263.57	1906.88
263.802	1915.88
264.035	1933.88
264.267	1911.88
264.499	1921.88
264.732	1944.88
264.964	1927.88
265.197	1933.88
265.429	1970.88
265.661	1966.88
265.894	1956.88
266.126	2018.88
266.358	2038.88
266.591	2051.88
266.823	2125.88
267.055	2098.88
267.287	2100.88
267.52	2093.88
267.752	2059.88
267.984	2075.88
268.216	2167.88
268.448	2158.88
268.681	2225.88
268.913	2423.88
269.145	2572.88
269.377	2574.88
269.609	2482.88
269.841	2487.88
270.073	2619.88
270.306	2903.88
270.538	3040.88
270.77	2819.88
271.002	2685.88
271.234	2648.88
271.466	2843.88
271.698	2924.88
271.93	2981.88
272.162	3000.88
272.394	2864.88
272.626	2744.88
272.858	2539.88
273.09	2550.88
273.322	2538.88
273.553	2508.88
273.785	2502.88
274.017	2543.88
274.249	2625.88
274.481	2628.88
274.713	2665.88
274.945	2733.88
275.176	2735.88
275.408	2790.88
275.64	2789.88
275.872	2908.88
276.104	2857.88
276.335	2914.88
276.567	3062.88
276.799	3329.88
277.031	3786.88
277.262	3903.88
277.494	3700.88
277.726	3262.88
277.957	3135.88
278.189	3065.88
278.421	2974.88
278.652	2939.88
278.884	2933.88
279.115	2949.88
279.347	2982.88
279.579	3055.88
279.81	3215.88
280.042	3502.88
280.273	3788.88
280.505	3557.88
280.736	3220.88
280.968	3106.88
281.199	3060.88
281.431	3034.88
281.662	2939.88
281.894	2995.88
282.125	3021.88
282.356	3226.88
282.588	3413.88
282.819	3195.88
283.051	2956.88
283.282	2908.88
283.513	3030.88
283.745	3041.88
283.976	3069.88
284.207	3069.88
284.439	2975.88
284.67	2992.88
284.901	3023.88
285.132	3037.88
285.364	2949.88
285.595	2984.88
285.826	3046.88
286.057	3076.88
286.288	3065.88
286.52	3148.88
286.751	3077.88
286.982	3120.88
287.213	3149.88
287.444	3170.88
287.675	3211.88
287.906	3272.88
288.138	3336.88
288.369	3313.88
288.6	3242.88
288.831	3233.88
289.062	3262.88
289.293	3202.88
289.524	3262.88
289.755	3233.88
289.986	3221.88
290.217	3191.88
290.448	3195.88
290.679	3213.88
290.91	3132.88
291.141	3175.88
291.371	3186.88
291.602	3196.88
291.833	3117.88
292.064	3161.88
292.295	3170.88
292.526	3162.88
292.757	3138.88
292.987	3126.88
293.218	3127.88
293.449	3205.88
293.68	3153.88
293.91	3148.88
294.141	3112.88
294.372	3136.88
294.603	3188.88
294.833	3209.88
295.064	3224.88
295.295	3296.88
295.525	3216.88
295.756	3293.88
295.987	3406.88
296.217	3676.88
296.448	3555.88
296.679	3341.88
296.909	3237.88
297.14	3301.88
297.37	3319.88
297.601	3412.88
297.831	3340.88
298.062	3370.88
298.292	3459.88
298.523	3501.88
298.753	3424.88
298.984	3460.88
299.214	3475.88
299.445	3463.88
299.675	3517.88
299.905	3595.88
300.136	3512.88
300.366	3568.88
300.597	3620.88
300.827	3664.88
301.057	3813.88
301.288	3761.88
301.518	3792.88
301.748	3780.88
301.979	3876.88
302.209	3846.88
302.439	3856.88
302.669	3789.88
302.9	3681.88
303.13	3689.88
303.36	3821.88
303.59	3956.88
303.82	4048.88
304.051	3860.88
304.281	3816.88
304.511	3703.88
304.741	3673.88
304.971	3665.88
305.201	3639.88
305.431	3674.88
305.661	3610.88
305.891	3644.88
306.121	3628.88
306.352	3789.88
306.582	3717.88
306.812	3742.88
307.042	3909.88
307.272	4065.88
307.502	4165.88
307.731	4032.88
307.961	3918.88
308.191	3755.88
308.421	3722.88
308.651	3713.88
308.881	3749.88
309.111	3830.88
309.341	3803.88
309.571	3891.88
309.8	3966.88
310.03	4059.88
310.26	4164.88
310.49	4191.88
310.72	4292.88
310.949	4406.88
311.179	4364.88
311.409	4148.88
311.639	4164.88
311.868	4206.88
312.098	4204.88
312.328	4286.88
312.557	4567.88
312.787	4654.88
313.017	4445.88
313.246	4314.88
313.476	4223.88
313.706	4315.88
313.935	4353.88
314.165	4526.88
314.394	4574.88
314.624	4424.88
314.853	4295.88
315.083	4249.88
315.312	4190.88
315.542	4185.88
315.771	4139.88
316.001	4104.88
316.23	4140.88
316.46	4160.88
316.689	4223.88
316.919	4287.88
317.148	4369.88
317.377	4376.88
317.607	4291.88
317.836	4268.88
318.065	4193.88
318.295	4205.88
318.524	4243.88
318.753	4114.88
318.983	4235.88
319.212	4213.88
319.441	4307.88
319.67	4309.88
319.9	4256.88
320.129	4232.88
320.358	4337.88
320.587	4350.88
320.816	4399.88
321.046	4438.88
321.275	4481.88
321.504	4456.88
321.733	4482.88
321.962	4550.88
322.191	4709.88
322.42	4919.88
322.649	4961.88
322.878	5071.88
323.108	5245.88
323.337	5589.88
323.566	5780.88
323.795	6189.88
324.024	6982.88
324.253	9632.88
324.482	14131.88
324.71	15618.88
324.939	15618.88
325.168	14988.88
325.397	8017.88
325.626	6461.88
325.855	6054.88
326.084	5997.88
326.313	6070.88
326.542	6321.88
326.77	7338.88
326.999	9808.88
327.228	14000.88
327.457	15618.88
327.686	15618.88
327.914	12510.88
328.143	11398.88
328.372	12076.88
328.6	9695.88
328.829	8183.88
329.058	8354.88
329.287	8579.88
329.515	8631.88
329.744	9867.88
329.972	12712.88
330.201	15354.88
330.43	15618.88
330.658	13431.88
330.887	10186.88
331.115	8412.88
331.344	7354.88
331.572	7066.88
331.801	7071.88
332.03	6981.88
332.258	6849.88
332.486	6917.88
332.715	7101.88
332.943	7393.88
333.172	7856.88
333.4	8467.88
333.629	9412.88
333.857	11186.88
334.085	13801.88
334.314	15618.88
334.542	15618.88
334.771	15618.88
334.999	13446.88
335.227	9407.88
335.455	8036.88
335.684	7348.88
335.912	6932.88
336.14	6652.88
336.369	6442.88
336.597	6448.88
336.825	6256.88
337.053	5960.88
337.281	5798.88
337.51	5750.88
337.738	5738.88
337.966	5664.88
338.194	5640.88
338.422	5469.88
338.65	5394.88
338.878	5346.88
339.106	5290.88
339.334	5241.88
339.562	5126.88
339.79	5094.88
340.018	5177.88
340.246	5116.88
340.474	5087.88
340.702	5140.88
340.93	4982.88
341.158	4995.88
341.386	5038.88
341.614	5039.88
341.842	4989.88
342.07	4938.88
342.298	4887.88
342.526	4846.88
342.754	4794.88
342.981	4852.88
343.209	5002.88
343.437	5177.88
343.665	5408.88
343.893	5744.88
344.12	5677.88
344.348	5462.88
344.576	5337.88
344.804	5288.88
345.031	5248.88
345.259	5288.88
345.487	5090.88
345.714	4887.88
345.942	4753.88
346.17	4793.88
346.397	4696.88
346.625	4740.88
346.853	4614.88
347.08	4672.88
347.308	4767.88
347.535	4906.88
347.763	4912.88
347.99	4794.88
348.218	4884.88
348.445	4985.88
348.673	4878.88
348.9	4691.88
349.128	4612.88
349.355	4557.88
349.583	4510.88
349.81	4528.88
350.037	4574.88
350.265	4576.88
350.492	4453.88
350.72	4570.88
350.947	4616.88
351.174	4658.88
351.402	4834.88
351.629	4668.88
351.856	4811.88
352.083	4900.88
352.311	4863.88
352.538	4943.88
352.765	4894.88
352.992	4706.88
353.22	4662.88
353.447	4693.88
353.674	4513.88
353.901	4440.88
354.128	4397.88
354.355	4447.88
354.583	4482.88
354.81	4423.88
355.037	4396.88
355.264	4376.88
355.491	4348.88
355.718	4432.88
355.945	4407.88
356.172	4370.88
356.399	4403.88
356.626	4437.88
356.853	4443.88
357.08	4387.88
357.307	4383.88
357.534	4380.88
357.761	4380.88
357.988	4422.88
358.215	4404.88
358.441	4359.88
358.668	4454.88
358.895	4513.88
359.122	4605.88
359.349	4598.88
359.576	4799.88
359.802	5106.88
360.029	5398.88
360.256	5401.88
360.483	5039.88
360.709	4808.88
360.936	4662.88
361.163	4749.88
361.39	4783.88
361.616	4713.88
361.843	4683.88
362.07	4762.88
362.296	4836.88
362.523	4692.88
362.749	4674.88
362.976	4682.88
363.203	4530.88
363.429	4553.88
363.656	4614.88
363.882	4581.88
364.109	4502.88
364.335	4498.88
364.562	4507.88
364.788	4552.88
365.015	4529.88
365.241	4520.88
365.468	4631.88
365.694	4657.88
365.92	4630.88
366.147	4550.88
366.373	4524.88
366.599	4543.88
366.826	4487.88
367.052	4475.88
367.278	4526.88
367.505	4564.88
367.731	4544.88
367.957	4510.88
368.184	4605.88
368.41	4699.88
368.636	4736.88
368.862	4731.88
369.089	4620.88
369.315	4582.88
369.541	4640.88
369.767	4617.88
369.993	4623.88
370.219	4638.88
370.445	4669.88
370.672	4685.88
370.898	4649.88
371.124	4698.88
371.35	4726.88
371.576	4681.88
371.802	4685.88
372.028	4743.88
372.254	4702.88
372.48	4732.88
372.706	4884.88
372.932	4872.88
373.158	4838.88
373.384	4799.88
373.61	4819.88
373.835	4755.88
374.061	4828.88
374.287	4902.88
374.513	4995.88
374.739	5130.88
374.965	5101.88
375.191	5116.88
375.416	5052.88
375.642	4909.88
375.868	4851.88
376.094	4824.88
376.319	4752.88
376.545	4792.88
376.771	4675.88
376.997	4685.88
377.222	4673.88
377.448	4710.88
377.674	4687.88
377.899	4642.88
378.125	4654.88
378.35	4637.88
378.576	4552.88
378.802	4680.88
379.027	4589.88
379.253	4622.88
379.478	4651.88
379.704	4689.88
379.929	4694.88
380.155	4688.88
380.38	4706.88
380.606	4770.88
380.831	4713.88
381.057	4844.88
381.282	4694.88
381.507	4735.88
381.733	4828.88
381.958	4816.88
382.184	4855.88
382.409	4937.88
382.634	4948.88
382.86	5007.88
383.085	4965.88
383.31	5097.88
383.535	5110.88
383.761	5306.88
383.986	5287.88
384.211	5343.88
384.436	5471.88
384.662	5529.88
384.887	5584.88
385.112	5580.88
385.337	5596.88
385.562	5589.88
385.787	5662.88
386.013	5790.88
386.238	5779.88
386.463	5721.88
386.688	5654.88
386.913	5573.88
387.138	5636.88
387.363	5604.88
387.588	5488.88
387.813	5580.88
388.038	5538.88
388.263	5586.88
388.488	5606.88
388.713	5556.88
388.938	5592.88
389.163	5546.88
389.387	5537.88
389.612	5396.88
389.837	5449.88
390.062	5510.88
390.287	5480.88
390.512	5475.88
390.736	5597.88
390.961	5642.88
391.186	5720.88
391.411	5882.88
391.636	6015.88
391.86	6197.88
392.085	6262.88
392.31	6111.88
392.534	6036.88
392.759	5945.88
392.984	5799.88
393.208	5802.88
393.433	5810.88
393.658	5758.88
393.882	5830.88
394.107	5837.88
394.331	5908.88
394.556	5907.88
394.78	5876.88
395.005	6015.88
395.229	5978.88
395.454	6198.88
395.678	6295.88
395.903	6380.88
396.127	6383.88
396.352	6206.88
396.576	5887.88
396.801	5900.88
397.025	6082.88
397.249	6188.88
397.474	6334.88
397.698	6333.88
397.922	6421.88
398.147	6621.88
398.371	6662.88
398.595	6785.88
398.82	7057.88
399.044	7670.88
399.268	8454.88
399.492	9568.88
399.717	10260.88
399.941	9997.88
400.165	9469.88
400.389	8744.88
400.613	7918.88
400.837	7399.88
401.062	7246.88
401.286	7176.88
401.51	7186.88
401.734	7150.88
401.958	7164.88
402.182	7348.88
402.406	7502.88
402.63	7616.88
402.854	7611.88
403.078	7642.88
403.302	7950.88
403.526	7982.88
403.75	8001.88
403.974	8299.88
404.198	8212.88
404.422	8462.88
404.645	8525.88
404.869	8886.88
405.093	9689.88
405.317	10317.88
405.541	10083.88
405.765	9000.88
405.988	8454.88
406.212	8453.88
406.436	8577.88
406.66	8666.88
406.883	8524.88
407.107	9130.88
407.331	9664.88
407.555	10182.88
407.778	9858.88
408.002	8971.88
408.226	8582.88
408.449	8428.88
408.673	8353.88
408.896	8447.88
409.12	8694.88
409.344	8119.88
409.567	7692.88
409.791	7752.88
410.014	7694.88
410.238	7647.88
410.461	7624.88
410.685	7699.88
410.908	7855.88
411.132	8093.88
411.355	8236.88
411.578	7754.88
411.802	7663.88
412.025	8018.88
412.249	8590.88
412.472	9435.88
412.695	10056.88
412.919	9321.88
413.142	8554.88
413.365	8202.88
413.589	7755.88
413.812	7345.88
414.035	7342.88
414.258	7377.88
414.482	7245.88
414.705	7195.88
414.928	7199.88
415.151	7179.88
415.374	7073.88
415.597	7079.88
415.821	7001.88
416.044	7071.88
416.267	7045.88
416.49	6775.88
416.713	6869.88
416.936	6985.88
417.159	7034.88
417.382	7258.88
417.605	7386.88
417.828	7611.88
418.051	7513.88
418.274	7111.88
418.497	7031.88
418.72	7276.88
418.943	7201.88
419.166	7642.88
419.389	8128.88
419.611	8162.88
419.834	8252.88
420.057	8495.88
420.28	9017.88
420.503	8628.88
420.726	8109.88
420.948	7972.88
421.171	8322.88
421.394	7960.88
421.617	7429.88
421.839	7321.88
422.062	7324.88
422.285	7462.88
422.507	8236.88
422.73	8732.88
422.953	7986.88
423.175	7550.88
423.398	7593.88
423.621	7566.88
423.843	7820.88
424.066	7700.88
424.288	7638.88
424.511	8024.88
424.733	8527.88
424.956	9008.88
425.178	8375.88
425.401	8632.88
425.623	8422.88
425.846	7308.88
426.068	7223.88
426.291	7182.88
426.513	7222.88
426.735	7332.88
426.958	7870.88
427.18	8822.88
427.402	10413.88
427.625	11054.88
427.847	10568.88
428.069	10212.88
428.292	8205.88
428.514	7194.88
428.736	6822.88
428.958	6680.88
429.181	6454.88
429.403	6480.88
429.625	6627.88
429.847	6954.88
430.069	7594.88
430.292	6958.88
430.514	6346.88
430.736	6313.88
430.958	6243.88
431.18	6113.88
431.402	6127.88
431.624	6181.88
431.846	6228.88
432.068	6121.88
432.29	6296.88
432.512	6200.88
432.734	6347.88
432.956	6253.88
433.178	6408.88
433.4	6427.88
433.622	6277.88
433.844	6324.88
434.066	6271.88
434.287	6267.88
434.509	6596.88
434.731	6847.88
434.953	6995.88
435.175	7148.88
435.397	7202.88
435.618	7120.88
435.84	7720.88
436.062	8633.88
436.284	8617.88
436.505	7137.88
436.727	6756.88
436.949	6448.88
437.17	6281.88
437.392	6340.88
437.614	6509.88
437.835	6981.88
438.057	8197.88
438.278	8879.88
438.5	8687.88
438.721	9735.88
438.943	8236.88
439.165	6880.88
439.386	6810.88
439.608	6847.88
439.829	7029.88
440.05	7622.88
440.272	8225.88
440.493	7077.88
440.715	6664.88
440.936	6589.88
441.158	6600.88
441.379	6792.88
441.6	7112.88
441.822	7375.88
442.043	7924.88
442.264	8900.88
442.486	8341.88
442.707	7420.88
442.928	7300.88
443.149	7663.88
443.371	7990.88
443.592	8418.88
443.813	9597.88
444.034	9321.88
444.255	8027.88
444.476	7770.88
444.698	8105.88
444.919	8124.88
445.14	7969.88
445.361	7974.88
445.582	8329.88
445.803	9264.88
446.024	9990.88
446.245	9460.88
446.466	8356.88
446.687	6907.88
446.908	6584.88
447.129	6278.88
447.35	6166.88
447.571	6184.88
447.792	5983.88
448.013	6171.88
448.234	6459.88
448.455	7146.88
448.675	8543.88
448.896	9113.88
449.117	7326.88
449.338	7578.88
449.559	9237.88
449.779	9391.88
450	7007.88
450.221	6244.88
450.442	5988.88
450.662	6008.88
450.883	6205.88
451.104	6333.88
451.324	6093.88
451.545	5815.88
451.766	5634.88
451.986	5560.88
452.207	5497.88
452.428	5544.88
452.648	5563.88
452.869	5582.88
453.089	5650.88
453.31	5792.88
453.53	5523.88
453.751	5473.88
453.971	5630.88
454.192	5783.88
454.412	5495.88
454.633	5392.88
454.853	5307.88
455.073	5368.88
455.294	5909.88
455.514	6554.88
455.734	5843.88
455.955	5275.88
456.175	5135.88
456.395	5128.88
456.616	5036.88
456.836	5121.88
457.056	5043.88
457.276	5038.88
457.497	5262.88
457.717	5241.88
457.937	5332.88
458.157	5354.88
458.377	5582.88
458.598	5960.88
458.818	6961.88
459.038	7951.88
459.258	7580.88
459.478	6622.88
459.698	6410.88
459.918	6430.88
460.138	6632.88
460.358	6868.88
460.578	6836.88
460.798	6916.88
461.018	6858.88
461.238	6794.88
461.458	6819.88
461.678	6718.88
461.898	6892.88
462.118	6935.88
462.338	7310.88
462.558	7454.88
462.777	7735.88
462.997	8327.88
463.217	8847.88
463.437	8561.88
463.657	8055.88
463.876	7784.88
464.096	7782.88
464.316	7844.88
464.536	7870.88
464.755	7697.88
464.975	7761.88
465.195	8241.88
465.414	8251.88
465.634	7117.88
465.854	6619.88
466.073	6311.88
466.293	6098.88
466.512	5960.88
466.732	5899.88
466.951	5854.88
467.171	5955.88
467.391	6008.88
467.61	6264.88
467.829	6648.88
468.049	8218.88
468.268	9892.88
468.488	7528.88
468.707	6509.88
468.927	6168.88
469.146	5975.88
469.365	5938.88
469.585	5972.88
469.804	6196.88
470.023	6392.88
470.243	6270.88
470.462	6485.88
470.681	6633.88
470.901	6422.88
471.12	6323.88
471.339	6298.88
471.558	6378.88
471.777	6552.88
471.997	7425.88
472.216	11518.88
472.435	15618.88
472.654	12385.88
472.873	8591.88
473.092	7436.88
473.311	6926.88
473.53	6639.88
473.749	6510.88
473.968	7001.88
474.187	8205.88
474.406	7397.88
474.625	6342.88
474.844	6018.88
475.063	5927.88
475.282	5944.88
475.501	5928.88
475.72	5942.88
475.939	6024.88
476.158	6032.88
476.377	5937.88
476.596	6028.88
476.814	6253.88
477.033	6296.88
477.252	6363.88
477.471	6382.88
477.69	6488.88
477.908	6613.88
478.127	6714.88
478.346	6879.88
478.564	6969.88
478.783	7149.88
479.002	7321.88
479.22	7331.88
479.439	7640.88
479.658	7784.88
479.876	7977.88
480.095	8169.88
480.313	8806.88
480.532	9049.88
480.751	9846.88
480.969	13355.88
481.188	15618.88
481.406	15618.88
481.624	14582.88
481.843	11193.88
482.061	9685.88
482.28	8852.88
482.498	8341.88
482.717	7912.88
482.935	7764.88
483.153	7664.88
483.372	7370.88
483.59	7389.88
483.808	7314.88
484.027	7239.88
484.245	7218.88
484.463	7206.88
484.681	7227.88
484.9	7332.88
485.118	7343.88
485.336	7315.88
485.554	7501.88
485.772	7364.88
485.99	7380.88
486.209	7511.88
486.427	7523.88
486.645	7597.88
486.863	7794.88
487.081	7744.88
487.299	7531.88
