Data from Circ_1997_H10_HRD10591_00028.txt Node
Date: Wed Jan 03 11:29:33 EST 2024
User: Yrep
Spectrometer: HR+D1059
Trigger mode: 1
Integration Time (sec): 1.000000E-1
Scans to average: 1
Electric dark correction enabled: true
Nonlinearity correction enabled: false
Boxcar width: 0
XAxis mode: Wavelengths
Number of Pixels in Spectrum: 2048
>>>>>Begin Spectral Data<<<<<
223.165	-17.25
223.4	-17.25
223.635	-17.25
223.869	-17.25
224.104	-18.25
224.338	-9.25
224.573	-9.25
224.808	-16.25
225.042	-4.25
225.277	-9.25
225.511	-6.25
225.746	18.75
225.98	-5.25
226.215	11.75
226.449	10.75
226.683	28.75
226.918	22.75
227.152	19.75
227.387	33.75
227.621	43.75
227.856	43.75
228.09	43.75
228.324	49.75
228.559	51.75
228.793	69.75
229.027	76.75
229.262	72.75
229.496	95.75
229.73	82.75
229.964	93.75
230.199	82.75
230.433	79.75
230.667	81.75
230.901	77.75
231.136	77.75
231.37	76.75
231.604	80.75
231.838	83.75
232.072	79.75
232.306	101.75
232.541	79.75
232.775	80.75
233.009	88.75
233.243	83.75
233.477	71.75
233.711	78.75
233.945	76.75
234.179	95.75
234.413	82.75
234.647	72.75
234.881	74.75
235.115	81.75
235.349	88.75
235.583	87.75
235.817	77.75
236.051	86.75
236.285	85.75
236.519	92.75
236.753	87.75
236.987	75.75
237.221	81.75
237.455	76.75
237.689	73.75
237.922	66.75
238.156	73.75
238.39	78.75
238.624	69.75
238.858	69.75
239.091	78.75
239.325	81.75
239.559	62.75
239.793	68.75
240.027	81.75
240.26	76.75
240.494	73.75
240.728	73.75
240.961	65.75
241.195	66.75
241.429	71.75
241.662	80.75
241.896	71.75
242.13	81.75
242.363	61.75
242.597	80.75
242.83	86.75
243.064	77.75
243.298	60.75
243.531	92.75
243.765	73.75
243.998	78.75
244.232	73.75
244.465	102.75
244.699	89.75
244.932	85.75
245.166	69.75
245.399	79.75
245.633	86.75
245.866	75.75
246.099	83.75
246.333	83.75
246.566	70.75
246.8	86.75
247.033	88.75
247.266	92.75
247.5	87.75
247.733	66.75
247.966	86.75
248.2	85.75
248.433	79.75
248.666	66.75
248.899	78.75
249.133	85.75
249.366	99.75
249.599	115.75
249.832	82.75
250.066	92.75
250.299	81.75
250.532	80.75
250.765	87.75
250.998	78.75
251.231	89.75
251.465	89.75
251.698	93.75
251.931	88.75
252.164	80.75
252.397	83.75
252.63	102.75
252.863	80.75
253.096	86.75
253.329	88.75
253.562	80.75
253.795	78.75
254.028	86.75
254.261	78.75
254.494	90.75
254.727	69.75
254.96	92.75
255.193	78.75
255.426	70.75
255.659	85.75
255.892	78.75
256.124	88.75
256.357	89.75
256.59	92.75
256.823	78.75
257.056	91.75
257.289	85.75
257.521	94.75
257.754	89.75
257.987	76.75
258.22	89.75
258.452	81.75
258.685	77.75
258.918	85.75
259.151	84.75
259.383	95.75
259.616	94.75
259.849	84.75
260.081	87.75
260.314	77.75
260.547	91.75
260.779	88.75
261.012	84.75
261.244	103.75
261.477	98.75
261.71	108.75
261.942	121.75
262.175	128.75
262.407	86.75
262.64	96.75
262.872	80.75
263.105	88.75
263.337	88.75
263.57	82.75
263.802	74.75
264.035	79.75
264.267	79.75
264.499	89.75
264.732	90.75
264.964	82.75
265.197	73.75
265.429	72.75
265.661	90.75
265.894	85.75
266.126	97.75
266.358	80.75
266.591	91.75
266.823	95.75
267.055	87.75
267.287	78.75
267.52	98.75
267.752	85.75
267.984	85.75
268.216	96.75
268.448	76.75
268.681	92.75
268.913	85.75
269.145	84.75
269.377	76.75
269.609	83.75
269.841	84.75
270.073	75.75
270.306	83.75
270.538	81.75
270.77	92.75
271.002	83.75
271.234	83.75
271.466	90.75
271.698	96.75
271.93	84.75
272.162	67.75
272.394	74.75
272.626	84.75
272.858	96.75
273.09	96.75
273.322	93.75
273.553	89.75
273.785	87.75
274.017	80.75
274.249	79.75
274.481	96.75
274.713	95.75
274.945	81.75
275.176	90.75
275.408	96.75
275.64	106.75
275.872	102.75
276.104	102.75
276.335	103.75
276.567	124.75
276.799	129.75
277.031	139.75
277.262	169.75
277.494	129.75
277.726	109.75
277.957	92.75
278.189	98.75
278.421	70.75
278.652	92.75
278.884	85.75
279.115	74.75
279.347	90.75
279.579	94.75
279.81	119.75
280.042	167.75
280.273	217.75
280.505	138.75
280.736	101.75
280.968	109.75
281.199	82.75
281.431	84.75
281.662	96.75
281.894	86.75
282.125	108.75
282.356	141.75
282.588	173.75
282.819	130.75
283.051	90.75
283.282	91.75
283.513	97.75
283.745	86.75
283.976	73.75
284.207	82.75
284.439	86.75
284.67	84.75
284.901	80.75
285.132	75.75
285.364	78.75
285.595	90.75
285.826	88.75
286.057	84.75
286.288	83.75
286.52	89.75
286.751	94.75
286.982	82.75
287.213	82.75
287.444	86.75
287.675	78.75
287.906	100.75
288.138	81.75
288.369	96.75
288.6	101.75
288.831	89.75
289.062	86.75
289.293	84.75
289.524	81.75
289.755	89.75
289.986	71.75
290.217	93.75
290.448	77.75
290.679	89.75
290.91	105.75
291.141	85.75
291.371	81.75
291.602	90.75
291.833	80.75
292.064	93.75
292.295	85.75
292.526	81.75
292.757	80.75
292.987	94.75
293.218	96.75
293.449	85.75
293.68	92.75
293.91	104.75
294.141	95.75
294.372	95.75
294.603	87.75
294.833	80.75
295.064	99.75
295.295	100.75
295.525	93.75
295.756	95.75
295.987	114.75
296.217	148.75
296.448	126.75
296.679	87.75
296.909	87.75
297.14	92.75
297.37	100.75
297.601	91.75
297.831	103.75
298.062	100.75
298.292	93.75
298.523	98.75
298.753	85.75
298.984	105.75
299.214	98.75
299.445	87.75
299.675	101.75
299.905	96.75
300.136	89.75
300.366	72.75
300.597	85.75
300.827	92.75
301.057	96.75
301.288	102.75
301.518	88.75
301.748	81.75
301.979	113.75
302.209	103.75
302.439	93.75
302.669	94.75
302.9	87.75
303.13	97.75
303.36	108.75
303.59	118.75
303.82	128.75
304.051	102.75
304.281	96.75
304.511	93.75
304.741	97.75
304.971	86.75
305.201	87.75
305.431	106.75
305.661	98.75
305.891	93.75
306.121	77.75
306.352	106.75
306.582	98.75
306.812	118.75
307.042	107.75
307.272	125.75
307.502	159.75
307.731	143.75
307.961	110.75
308.191	93.75
308.421	96.75
308.651	77.75
308.881	93.75
309.111	100.75
309.341	102.75
309.571	96.75
309.8	99.75
310.03	94.75
310.26	101.75
310.49	97.75
310.72	100.75
310.949	110.75
311.179	102.75
311.409	95.75
311.639	88.75
311.868	114.75
312.098	107.75
312.328	100.75
312.557	104.75
312.787	115.75
313.017	98.75
313.246	93.75
313.476	85.75
313.706	98.75
313.935	95.75
314.165	108.75
314.394	110.75
314.624	111.75
314.853	106.75
315.083	91.75
315.312	100.75
315.542	92.75
315.771	99.75
316.001	90.75
316.23	92.75
316.46	98.75
316.689	91.75
316.919	94.75
317.148	100.75
317.377	97.75
317.607	111.75
317.836	93.75
318.065	92.75
318.295	97.75
318.524	89.75
318.753	93.75
318.983	93.75
319.212	103.75
319.441	119.75
319.67	119.75
319.9	80.75
320.129	95.75
320.358	92.75
320.587	89.75
320.816	115.75
321.046	102.75
321.275	107.75
321.504	99.75
321.733	92.75
321.962	97.75
322.191	111.75
322.42	118.75
322.649	105.75
322.878	122.75
323.108	140.75
323.337	151.75
323.566	165.75
323.795	194.75
324.024	275.75
324.253	605.75
324.482	1301.75
324.71	2837.75
324.939	3794.75
325.168	1276.75
325.397	334.75
325.626	182.75
325.855	153.75
326.084	137.75
326.313	152.75
326.542	194.75
326.77	320.75
326.999	686.75
327.228	1489.75
327.457	2870.75
327.686	2195.75
327.914	641.75
328.143	486.75
328.372	569.75
328.6	316.75
328.829	179.75
329.058	175.75
329.287	190.75
329.515	162.75
329.744	235.75
329.972	413.75
330.201	839.75
330.43	1193.75
330.658	557.75
330.887	248.75
331.115	177.75
331.344	118.75
331.572	112.75
331.801	112.75
332.03	127.75
332.258	109.75
332.486	99.75
332.715	109.75
332.943	112.75
333.172	122.75
333.4	135.75
333.629	158.75
333.857	211.75
334.085	376.75
334.314	791.75
334.542	1569.75
334.771	1465.75
334.999	380.75
335.227	169.75
335.455	124.75
335.684	122.75
335.912	105.75
336.14	106.75
336.369	120.75
336.597	120.75
336.825	106.75
337.053	92.75
337.281	107.75
337.51	103.75
337.738	111.75
337.966	109.75
338.194	102.75
338.422	96.75
338.65	95.75
338.878	110.75
339.106	87.75
339.334	97.75
339.562	88.75
339.79	90.75
340.018	89.75
340.246	91.75
340.474	97.75
340.702	91.75
340.93	86.75
341.158	94.75
341.386	105.75
341.614	108.75
341.842	102.75
342.07	92.75
342.298	86.75
342.526	78.75
342.754	88.75
342.981	75.75
343.209	81.75
343.437	112.75
343.665	88.75
343.893	95.75
344.12	96.75
344.348	93.75
344.576	102.75
344.804	89.75
345.031	100.75
345.259	101.75
345.487	95.75
345.714	103.75
345.942	99.75
346.17	86.75
346.397	86.75
346.625	103.75
346.853	103.75
347.08	85.75
347.308	104.75
347.535	110.75
347.763	113.75
347.99	111.75
348.218	90.75
348.445	107.75
348.673	103.75
348.9	91.75
349.128	98.75
349.355	92.75
349.583	104.75
349.81	103.75
350.037	91.75
350.265	88.75
350.492	109.75
350.72	95.75
350.947	96.75
351.174	113.75
351.402	116.75
351.629	113.75
351.856	90.75
352.083	120.75
352.311	106.75
352.538	128.75
352.765	106.75
352.992	129.75
353.22	111.75
353.447	110.75
353.674	110.75
353.901	94.75
354.128	102.75
354.355	98.75
354.583	90.75
354.81	110.75
355.037	108.75
355.264	87.75
355.491	95.75
355.718	82.75
355.945	99.75
356.172	87.75
356.399	90.75
356.626	88.75
356.853	97.75
357.08	91.75
357.307	85.75
357.534	91.75
357.761	90.75
357.988	93.75
358.215	90.75
358.441	109.75
358.668	91.75
358.895	87.75
359.122	99.75
359.349	84.75
359.576	111.75
359.802	98.75
360.029	121.75
360.256	129.75
360.483	103.75
360.709	99.75
360.936	94.75
361.163	103.75
361.39	111.75
361.616	90.75
361.843	97.75
362.07	107.75
362.296	95.75
362.523	105.75
362.749	105.75
362.976	109.75
363.203	117.75
363.429	97.75
363.656	90.75
363.882	91.75
364.109	98.75
364.335	98.75
364.562	95.75
364.788	98.75
365.015	91.75
365.241	112.75
365.468	110.75
365.694	106.75
365.92	105.75
366.147	87.75
366.373	85.75
366.599	77.75
366.826	86.75
367.052	85.75
367.278	97.75
367.505	88.75
367.731	100.75
367.957	88.75
368.184	103.75
368.41	119.75
368.636	124.75
368.862	125.75
369.089	110.75
369.315	103.75
369.541	94.75
369.767	95.75
369.993	98.75
370.219	101.75
370.445	92.75
370.672	82.75
370.898	91.75
371.124	74.75
371.35	91.75
371.576	79.75
371.802	94.75
372.028	88.75
372.254	85.75
372.48	96.75
372.706	84.75
372.932	104.75
373.158	95.75
373.384	95.75
373.61	87.75
373.835	96.75
374.061	92.75
374.287	95.75
374.513	104.75
374.739	85.75
374.965	72.75
375.191	104.75
375.416	89.75
375.642	96.75
375.868	105.75
376.094	80.75
376.319	81.75
376.545	96.75
376.771	90.75
376.997	87.75
377.222	96.75
377.448	99.75
377.674	92.75
377.899	92.75
378.125	93.75
378.35	82.75
378.576	88.75
378.802	81.75
379.027	87.75
379.253	98.75
379.478	110.75
379.704	78.75
379.929	81.75
380.155	92.75
380.38	80.75
380.606	97.75
380.831	86.75
381.057	106.75
381.282	92.75
381.507	105.75
381.733	97.75
381.958	102.75
382.184	102.75
382.409	103.75
382.634	111.75
382.86	91.75
383.085	98.75
383.31	94.75
383.535	106.75
383.761	85.75
383.986	94.75
384.211	94.75
384.436	97.75
384.662	89.75
384.887	96.75
385.112	88.75
385.337	109.75
385.562	103.75
385.787	106.75
386.013	118.75
386.238	95.75
386.463	95.75
386.688	104.75
386.913	119.75
387.138	122.75
387.363	114.75
387.588	102.75
387.813	106.75
388.038	85.75
388.263	114.75
388.488	113.75
388.713	86.75
388.938	105.75
389.163	95.75
389.387	91.75
389.612	85.75
389.837	101.75
390.062	91.75
390.287	102.75
390.512	100.75
390.736	82.75
390.961	115.75
391.186	100.75
391.411	97.75
391.636	96.75
391.86	78.75
392.085	80.75
392.31	73.75
392.534	76.75
392.759	98.75
392.984	96.75
393.208	92.75
393.433	85.75
393.658	98.75
393.882	81.75
394.107	78.75
394.331	89.75
394.556	82.75
394.78	79.75
395.005	76.75
395.229	86.75
395.454	96.75
395.678	76.75
395.903	91.75
396.127	92.75
396.352	97.75
396.576	79.75
396.801	82.75
397.025	90.75
397.249	90.75
397.474	103.75
397.698	98.75
397.922	92.75
398.147	92.75
398.371	91.75
398.595	97.75
398.82	91.75
399.044	90.75
399.268	73.75
399.492	77.75
399.717	91.75
399.941	95.75
400.165	106.75
400.389	109.75
400.613	85.75
400.837	96.75
401.062	108.75
401.286	97.75
401.51	99.75
401.734	88.75
401.958	108.75
402.182	151.75
402.406	197.75
402.63	126.75
402.854	96.75
403.078	94.75
403.302	79.75
403.526	96.75
403.75	109.75
403.974	94.75
404.198	82.75
404.422	96.75
404.645	95.75
404.869	99.75
405.093	119.75
405.317	155.75
405.541	153.75
405.765	109.75
405.988	138.75
406.212	199.75
406.436	296.75
406.66	193.75
406.883	112.75
407.107	107.75
407.331	101.75
407.555	105.75
407.778	106.75
408.002	96.75
408.226	95.75
408.449	71.75
408.673	97.75
408.896	107.75
409.12	105.75
409.344	107.75
409.567	78.75
409.791	102.75
410.014	97.75
410.238	89.75
410.461	88.75
410.685	99.75
410.908	108.75
411.132	118.75
411.355	115.75
411.578	81.75
411.802	94.75
412.025	93.75
412.249	103.75
412.472	121.75
412.695	145.75
412.919	114.75
413.142	96.75
413.365	99.75
413.589	98.75
413.812	96.75
414.035	93.75
414.258	94.75
414.482	100.75
414.705	101.75
414.928	90.75
415.151	107.75
415.374	103.75
415.597	92.75
415.821	86.75
416.044	89.75
416.267	95.75
416.49	94.75
416.713	94.75
416.936	92.75
417.159	99.75
417.382	98.75
417.605	99.75
417.828	105.75
418.051	101.75
418.274	88.75
418.497	95.75
418.72	85.75
418.943	82.75
419.166	99.75
419.389	99.75
419.611	81.75
419.834	78.75
420.057	98.75
420.28	86.75
420.503	80.75
420.726	99.75
420.948	101.75
421.171	108.75
421.394	97.75
421.617	78.75
421.839	101.75
422.062	90.75
422.285	111.75
422.507	96.75
422.73	94.75
422.953	93.75
423.175	83.75
423.398	89.75
423.621	95.75
423.843	89.75
424.066	86.75
424.288	102.75
424.511	94.75
424.733	92.75
424.956	120.75
425.178	114.75
425.401	115.75
425.623	103.75
425.846	90.75
426.068	102.75
426.291	93.75
426.513	94.75
426.735	96.75
426.958	109.75
427.18	122.75
427.402	204.75
427.625	245.75
427.847	264.75
428.069	252.75
428.292	126.75
428.514	92.75
428.736	91.75
428.958	90.75
429.181	91.75
429.403	85.75
429.625	97.75
429.847	89.75
430.069	112.75
430.292	102.75
430.514	94.75
430.736	77.75
430.958	85.75
431.18	93.75
431.402	75.75
431.624	91.75
431.846	89.75
432.068	83.75
432.29	95.75
432.512	98.75
432.734	75.75
432.956	103.75
433.178	116.75
433.4	111.75
433.622	93.75
433.844	85.75
434.066	87.75
434.287	98.75
434.509	99.75
434.731	99.75
434.953	85.75
435.175	93.75
435.397	97.75
435.618	92.75
435.84	122.75
436.062	148.75
436.284	131.75
436.505	125.75
436.727	129.75
436.949	109.75
437.17	79.75
437.392	103.75
437.614	96.75
437.835	139.75
438.057	138.75
438.278	127.75
438.5	121.75
438.721	155.75
438.943	126.75
439.165	104.75
439.386	92.75
439.608	93.75
439.829	123.75
440.05	149.75
440.272	189.75
440.493	119.75
440.715	90.75
440.936	93.75
441.158	99.75
441.379	85.75
441.6	98.75
441.822	90.75
442.043	105.75
442.264	127.75
442.486	106.75
442.707	90.75
442.928	123.75
443.149	174.75
443.371	169.75
443.592	124.75
443.813	133.75
444.034	124.75
444.255	103.75
444.476	95.75
444.698	90.75
444.919	106.75
445.14	146.75
445.361	146.75
445.582	166.75
445.803	198.75
446.024	199.75
446.245	176.75
446.466	119.75
446.687	91.75
446.908	91.75
447.129	100.75
447.35	119.75
447.571	102.75
447.792	96.75
448.013	110.75
448.234	121.75
448.455	105.75
448.675	134.75
448.896	149.75
449.117	118.75
449.338	119.75
449.559	159.75
449.779	161.75
450	109.75
450.221	95.75
450.442	91.75
450.662	102.75
450.883	124.75
451.104	131.75
451.324	103.75
451.545	95.75
451.766	96.75
451.986	90.75
452.207	89.75
452.428	89.75
452.648	96.75
452.869	121.75
453.089	114.75
453.31	129.75
453.53	106.75
453.751	90.75
453.971	110.75
454.192	118.75
454.412	95.75
454.633	86.75
454.853	97.75
455.073	94.75
455.294	97.75
455.514	106.75
455.734	101.75
455.955	75.75
456.175	89.75
456.395	88.75
456.616	89.75
456.836	91.75
457.056	94.75
457.276	93.75
457.497	79.75
457.717	76.75
457.937	106.75
458.157	93.75
458.377	106.75
458.598	120.75
458.818	201.75
459.038	226.75
459.258	144.75
459.478	109.75
459.698	94.75
459.918	96.75
460.138	97.75
460.358	81.75
460.578	84.75
460.798	73.75
461.018	86.75
461.238	113.75
461.458	87.75
461.678	95.75
461.898	97.75
462.118	79.75
462.338	69.75
462.558	97.75
462.777	81.75
462.997	101.75
463.217	107.75
463.437	100.75
463.657	95.75
463.876	87.75
464.096	91.75
464.316	112.75
464.536	98.75
464.755	103.75
464.975	123.75
465.195	209.75
465.414	223.75
465.634	116.75
465.854	85.75
466.073	98.75
466.293	91.75
466.512	77.75
466.732	81.75
466.951	97.75
467.171	108.75
467.391	110.75
467.61	119.75
467.829	196.75
468.049	477.75
468.268	687.75
468.488	200.75
468.707	89.75
468.927	93.75
469.146	88.75
469.365	105.75
469.585	99.75
469.804	120.75
470.023	107.75
470.243	99.75
470.462	102.75
470.681	135.75
470.901	105.75
471.12	99.75
471.339	106.75
471.558	127.75
471.777	158.75
471.997	267.75
472.216	967.75
472.435	2178.75
472.654	517.75
472.873	159.75
473.092	98.75
473.311	97.75
473.53	96.75
473.749	103.75
473.968	98.75
474.187	122.75
474.406	120.75
474.625	97.75
474.844	91.75
475.063	93.75
475.282	86.75
475.501	85.75
475.72	97.75
475.939	95.75
476.158	99.75
476.377	97.75
476.596	112.75
476.814	103.75
477.033	97.75
477.252	100.75
477.471	88.75
477.69	100.75
477.908	90.75
478.127	93.75
478.346	90.75
478.564	116.75
478.783	103.75
479.002	100.75
479.22	106.75
479.439	107.75
479.658	138.75
479.876	104.75
480.095	99.75
480.313	128.75
480.532	157.75
480.751	273.75
480.969	881.75
481.188	3761.75
481.406	2169.75
481.624	320.75
481.843	142.75
482.061	109.75
482.28	103.75
482.498	83.75
482.717	94.75
482.935	89.75
483.153	96.75
483.372	95.75
483.59	84.75
483.808	89.75
484.027	102.75
484.245	104.75
484.463	93.75
484.681	95.75
484.9	89.75
485.118	93.75
485.336	91.75
485.554	94.75
485.772	99.75
485.99	103.75
486.209	106.75
486.427	97.75
486.645	116.75
486.863	136.75
487.081	106.75
487.299	91.75
487.517	94.75
487.735	97.75
487.953	115.75
488.171	110.75
488.389	82.75
488.607	98.75
488.825	87.75
489.043	91.75
489.261	83.75
489.479	82.75
489.696	79.75
489.914	92.75
490.132	101.75
490.35	92.75
490.568	102.75
490.786	85.75
491.003	97.75
491.221	94.75
491.439	92.75
491.657	103.75
491.874	95.75
492.092	91.75
492.31	89.75
492.527	89.75
492.745	96.75
492.963	108.75
493.18	92.75
493.398	97.75
493.615	82.75
493.833	93.75
494.05	101.75
494.268	96.75
494.485	97.75
494.703	83.75
494.92	91.75
495.138	88.75
495.355	93.75
495.573	81.75
495.79	76.75
496.008	101.75
496.225	97.75
496.442	98.75
496.66	83.75
496.877	95.75
497.094	85.75
497.312	102.75
497.529	96.75
497.746	95.75
497.963	96.75
498.181	96.75
498.398	105.75
498.615	111.75
498.832	112.75
499.049	87.75
499.267	111.75
499.484	90.75
499.701	95.75
499.918	85.75
500.135	93.75
500.352	96.75
500.569	97.75
500.786	96.75
501.003	91.75
501.22	72.75
501.437	93.75
501.654	95.75
501.871	122.75
502.088	89.75
502.305	88.75
502.522	95.75
502.739	86.75
502.956	95.75
503.172	90.75
503.389	100.75
503.606	119.75
503.823	101.75
504.04	106.75
504.256	90.75
504.473	86.75
504.69	90.75
504.907	98.75
505.123	99.75
505.34	90.75
505.557	79.75
505.773	98.75
505.99	96.75
506.207	92.75
506.423	96.75
506.64	102.75
506.856	96.75
507.073	99.75
507.289	97.75
507.506	91.75
507.722	126.75
507.939	127.75
508.155	100.75
508.372	90.75
508.588	98.75
508.805	97.75
509.021	98.75
509.238	105.75
509.454	88.75
509.67	102.75
509.887	109.75
510.103	156.75
510.319	223.75
510.536	867.75
510.752	3023.75
510.968	780.75
511.184	176.75
511.401	133.75
511.617	109.75
511.833	116.75
512.049	104.75
512.265	89.75
512.481	87.75
512.698	109.75
512.914	98.75
513.13	97.75
513.346	79.75
