Data from Circ_1997_H10_HRD10591_00089.txt Node
Date: Wed Jan 03 11:29:45 EST 2024
User: Yrep
Spectrometer: HR+D1059
Trigger mode: 1
Integration Time (sec): 1.000000E-1
Scans to average: 1
Electric dark correction enabled: true
Nonlinearity correction enabled: false
Boxcar width: 0
XAxis mode: Wavelengths
Number of Pixels in Spectrum: 2048
>>>>>Begin Spectral Data<<<<<
223.165	-21.19
223.4	-21.19
223.635	-21.19
223.869	-31.19
224.104	-8.19
224.338	-25.19
224.573	-10.19
224.808	-18.19
225.042	-5.19
225.277	-6.19
225.511	-3.19
225.746	3.81
225.98	24.81
226.215	19.81
226.449	5.81
226.683	29.81
226.918	23.81
227.152	20.81
227.387	28.81
227.621	34.81
227.856	44.81
228.09	42.81
228.324	48.81
228.559	57.81
228.793	46.81
229.027	58.81
229.262	58.81
229.496	67.81
229.73	90.81
229.964	76.81
230.199	79.81
230.433	74.81
230.667	68.81
230.901	69.81
231.136	79.81
231.37	63.81
231.604	66.81
231.838	71.81
232.072	88.81
232.306	66.81
232.541	90.81
232.775	64.81
233.009	84.81
233.243	88.81
233.477	79.81
233.711	81.81
233.945	88.81
234.179	74.81
234.413	73.81
234.647	81.81
234.881	84.81
235.115	97.81
235.349	84.81
235.583	76.81
235.817	68.81
236.051	95.81
236.285	72.81
236.519	83.81
236.753	86.81
236.987	70.81
237.221	82.81
237.455	92.81
237.689	76.81
237.922	69.81
238.156	82.81
238.39	92.81
238.624	65.81
238.858	84.81
239.091	90.81
239.325	79.81
239.559	75.81
239.793	78.81
240.027	65.81
240.26	74.81
240.494	85.81
240.728	78.81
240.961	79.81
241.195	85.81
241.429	80.81
241.662	82.81
241.896	75.81
242.13	73.81
242.363	74.81
242.597	89.81
242.83	75.81
243.064	73.81
243.298	89.81
243.531	73.81
243.765	69.81
243.998	85.81
244.232	81.81
244.465	77.81
244.699	92.81
244.932	63.81
245.166	81.81
245.399	74.81
245.633	79.81
245.866	76.81
246.099	71.81
246.333	76.81
246.566	82.81
246.8	80.81
247.033	72.81
247.266	87.81
247.5	86.81
247.733	72.81
247.966	85.81
248.2	80.81
248.433	80.81
248.666	74.81
248.899	89.81
249.133	85.81
249.366	92.81
249.599	97.81
249.832	84.81
250.066	82.81
250.299	90.81
250.532	87.81
250.765	77.81
250.998	77.81
251.231	91.81
251.465	98.81
251.698	83.81
251.931	96.81
252.164	89.81
252.397	79.81
252.63	92.81
252.863	88.81
253.096	98.81
253.329	91.81
253.562	77.81
253.795	93.81
254.028	90.81
254.261	87.81
254.494	65.81
254.727	82.81
254.96	79.81
255.193	86.81
255.426	77.81
255.659	83.81
255.892	86.81
256.124	98.81
256.357	87.81
256.59	94.81
256.823	79.81
257.056	87.81
257.289	83.81
257.521	95.81
257.754	85.81
257.987	86.81
258.22	93.81
258.452	98.81
258.685	91.81
258.918	84.81
259.151	89.81
259.383	91.81
259.616	89.81
259.849	74.81
260.081	84.81
260.314	81.81
260.547	87.81
260.779	95.81
261.012	99.81
261.244	93.81
261.477	87.81
261.71	110.81
261.942	129.81
262.175	141.81
262.407	101.81
262.64	87.81
262.872	73.81
263.105	91.81
263.337	88.81
263.57	85.81
263.802	93.81
264.035	76.81
264.267	84.81
264.499	79.81
264.732	88.81
264.964	80.81
265.197	78.81
265.429	92.81
265.661	79.81
265.894	87.81
266.126	84.81
266.358	83.81
266.591	86.81
266.823	81.81
267.055	86.81
267.287	88.81
267.52	87.81
267.752	91.81
267.984	81.81
268.216	87.81
268.448	89.81
268.681	86.81
268.913	90.81
269.145	81.81
269.377	66.81
269.609	77.81
269.841	84.81
270.073	95.81
270.306	86.81
270.538	94.81
270.77	84.81
271.002	88.81
271.234	84.81
271.466	96.81
271.698	88.81
271.93	98.81
272.162	92.81
272.394	86.81
272.626	74.81
272.858	77.81
273.09	85.81
273.322	84.81
273.553	79.81
273.785	97.81
274.017	76.81
274.249	72.81
274.481	107.81
274.713	85.81
274.945	81.81
275.176	85.81
275.408	92.81
275.64	111.81
275.872	122.81
276.104	108.81
276.335	107.81
276.567	110.81
276.799	133.81
277.031	168.81
277.262	190.81
277.494	147.81
277.726	112.81
277.957	88.81
278.189	85.81
278.421	98.81
278.652	102.81
278.884	92.81
279.115	81.81
279.347	87.81
279.579	109.81
279.81	134.81
280.042	220.81
280.273	267.81
280.505	193.81
280.736	102.81
280.968	103.81
281.199	99.81
281.431	85.81
281.662	92.81
281.894	96.81
282.125	94.81
282.356	127.81
282.588	163.81
282.819	137.81
283.051	100.81
283.282	96.81
283.513	95.81
283.745	73.81
283.976	75.81
284.207	82.81
284.439	99.81
284.67	99.81
284.901	84.81
285.132	93.81
285.364	89.81
285.595	96.81
285.826	87.81
286.057	84.81
286.288	83.81
286.52	85.81
286.751	71.81
286.982	85.81
287.213	80.81
287.444	88.81
287.675	87.81
287.906	93.81
288.138	93.81
288.369	101.81
288.6	96.81
288.831	82.81
289.062	83.81
289.293	85.81
289.524	92.81
289.755	72.81
289.986	83.81
290.217	91.81
290.448	90.81
290.679	81.81
290.91	75.81
291.141	85.81
291.371	111.81
291.602	93.81
291.833	100.81
292.064	92.81
292.295	81.81
292.526	94.81
292.757	93.81
292.987	88.81
293.218	80.81
293.449	91.81
293.68	88.81
293.91	85.81
294.141	82.81
294.372	81.81
294.603	112.81
294.833	94.81
295.064	81.81
295.295	91.81
295.525	90.81
295.756	107.81
295.987	121.81
296.217	165.81
296.448	134.81
296.679	90.81
296.909	94.81
297.14	89.81
297.37	92.81
297.601	86.81
297.831	92.81
298.062	80.81
298.292	104.81
298.523	98.81
298.753	83.81
298.984	81.81
299.214	100.81
299.445	85.81
299.675	98.81
299.905	110.81
300.136	89.81
300.366	84.81
300.597	93.81
300.827	75.81
301.057	97.81
301.288	110.81
301.518	90.81
301.748	116.81
301.979	109.81
302.209	93.81
302.439	106.81
302.669	100.81
302.9	90.81
303.13	93.81
303.36	99.81
303.59	125.81
303.82	143.81
304.051	102.81
304.281	99.81
304.511	97.81
304.741	84.81
304.971	84.81
305.201	91.81
305.431	101.81
305.661	88.81
305.891	90.81
306.121	105.81
306.352	123.81
306.582	108.81
306.812	96.81
307.042	112.81
307.272	161.81
307.502	200.81
307.731	184.81
307.961	125.81
308.191	89.81
308.421	103.81
308.651	101.81
308.881	100.81
309.111	99.81
309.341	96.81
309.571	101.81
309.8	80.81
310.03	106.81
310.26	94.81
310.49	95.81
310.72	96.81
310.949	103.81
311.179	109.81
311.409	112.81
311.639	98.81
311.868	104.81
312.098	92.81
312.328	84.81
312.557	112.81
312.787	120.81
313.017	124.81
313.246	99.81
313.476	102.81
313.706	87.81
313.935	104.81
314.165	111.81
314.394	125.81
314.624	105.81
314.853	87.81
315.083	94.81
315.312	94.81
315.542	81.81
315.771	98.81
316.001	101.81
316.23	102.81
316.46	79.81
316.689	84.81
316.919	100.81
317.148	104.81
317.377	109.81
317.607	109.81
317.836	97.81
318.065	91.81
318.295	81.81
318.524	100.81
318.753	91.81
318.983	80.81
319.212	108.81
319.441	104.81
319.67	122.81
319.9	94.81
320.129	93.81
320.358	91.81
320.587	97.81
320.816	97.81
321.046	110.81
321.275	104.81
321.504	97.81
321.733	89.81
321.962	90.81
322.191	123.81
322.42	115.81
322.649	124.81
322.878	121.81
323.108	127.81
323.337	134.81
323.566	170.81
323.795	184.81
324.024	285.81
324.253	553.81
324.482	1150.81
324.71	2540.81
324.939	3325.81
325.168	1153.81
325.397	317.81
325.626	167.81
325.855	144.81
326.084	134.81
326.313	165.81
326.542	187.81
326.77	287.81
326.999	592.81
327.228	1339.81
327.457	2454.81
327.686	1925.81
327.914	625.81
328.143	565.81
328.372	763.81
328.6	384.81
328.829	197.81
329.058	177.81
329.287	199.81
329.515	198.81
329.744	283.81
329.972	522.81
330.201	1116.81
330.43	1646.81
330.658	700.81
330.887	286.81
331.115	184.81
331.344	138.81
331.572	127.81
331.801	120.81
332.03	145.81
332.258	102.81
332.486	106.81
332.715	110.81
332.943	91.81
333.172	118.81
333.4	138.81
333.629	168.81
333.857	244.81
334.085	492.81
334.314	1030.81
334.542	2089.81
334.771	1909.81
334.999	459.81
335.227	200.81
335.455	124.81
335.684	111.81
335.912	103.81
336.14	109.81
336.369	93.81
336.597	111.81
336.825	102.81
337.053	98.81
337.281	102.81
337.51	96.81
337.738	100.81
337.966	87.81
338.194	100.81
338.422	95.81
338.65	104.81
338.878	105.81
339.106	88.81
339.334	94.81
339.562	90.81
339.79	77.81
340.018	82.81
340.246	97.81
340.474	105.81
340.702	96.81
340.93	98.81
341.158	93.81
341.386	96.81
341.614	106.81
341.842	93.81
342.07	84.81
342.298	97.81
342.526	101.81
342.754	80.81
342.981	94.81
343.209	84.81
343.437	92.81
343.665	82.81
343.893	90.81
344.12	92.81
344.348	74.81
344.576	88.81
344.804	97.81
345.031	98.81
345.259	120.81
345.487	104.81
345.714	92.81
345.942	97.81
346.17	106.81
346.397	93.81
346.625	84.81
346.853	87.81
347.08	93.81
347.308	92.81
347.535	104.81
347.763	108.81
347.99	96.81
348.218	105.81
348.445	114.81
348.673	121.81
348.9	91.81
349.128	103.81
349.355	105.81
349.583	102.81
349.81	99.81
350.037	95.81
350.265	99.81
350.492	97.81
350.72	97.81
350.947	93.81
351.174	113.81
351.402	112.81
351.629	106.81
351.856	103.81
352.083	106.81
352.311	110.81
352.538	108.81
352.765	129.81
352.992	125.81
353.22	110.81
353.447	103.81
353.674	105.81
353.901	88.81
354.128	95.81
354.355	91.81
354.583	105.81
354.81	100.81
355.037	103.81
355.264	90.81
355.491	89.81
355.718	95.81
355.945	105.81
356.172	89.81
356.399	83.81
356.626	94.81
356.853	87.81
357.08	86.81
357.307	90.81
357.534	83.81
357.761	95.81
357.988	89.81
358.215	97.81
358.441	88.81
358.668	90.81
358.895	96.81
359.122	67.81
359.349	89.81
359.576	104.81
359.802	129.81
360.029	131.81
360.256	132.81
360.483	109.81
360.709	70.81
360.936	111.81
361.163	98.81
361.39	97.81
361.616	102.81
361.843	112.81
362.07	101.81
362.296	97.81
362.523	97.81
362.749	99.81
362.976	86.81
363.203	96.81
363.429	95.81
363.656	100.81
363.882	85.81
364.109	87.81
364.335	102.81
364.562	97.81
364.788	80.81
365.015	83.81
365.241	110.81
365.468	121.81
365.694	111.81
365.92	104.81
366.147	90.81
366.373	87.81
366.599	72.81
366.826	81.81
367.052	88.81
367.278	91.81
367.505	82.81
367.731	100.81
367.957	85.81
368.184	95.81
368.41	111.81
368.636	118.81
368.862	120.81
369.089	112.81
369.315	104.81
369.541	96.81
369.767	93.81
369.993	100.81
370.219	100.81
370.445	91.81
370.672	97.81
370.898	96.81
371.124	84.81
371.35	85.81
371.576	99.81
371.802	97.81
372.028	80.81
372.254	88.81
372.48	81.81
372.706	100.81
372.932	87.81
373.158	81.81
373.384	83.81
373.61	88.81
373.835	93.81
374.061	99.81
374.287	89.81
374.513	78.81
374.739	96.81
374.965	78.81
375.191	86.81
375.416	86.81
375.642	96.81
375.868	88.81
376.094	82.81
376.319	83.81
376.545	86.81
376.771	95.81
376.997	87.81
377.222	84.81
377.448	93.81
377.674	78.81
377.899	90.81
378.125	94.81
378.35	95.81
378.576	76.81
378.802	85.81
379.027	76.81
379.253	84.81
379.478	89.81
379.704	83.81
379.929	98.81
380.155	101.81
380.38	96.81
380.606	91.81
380.831	103.81
381.057	115.81
381.282	100.81
381.507	91.81
381.733	94.81
381.958	96.81
382.184	89.81
382.409	98.81
382.634	97.81
382.86	93.81
383.085	90.81
383.31	91.81
383.535	96.81
383.761	91.81
383.986	92.81
384.211	78.81
384.436	82.81
384.662	96.81
384.887	93.81
385.112	96.81
385.337	104.81
385.562	107.81
385.787	115.81
386.013	104.81
386.238	115.81
386.463	94.81
386.688	89.81
386.913	104.81
387.138	101.81
387.363	104.81
387.588	90.81
387.813	103.81
388.038	92.81
388.263	98.81
388.488	110.81
388.713	104.81
388.938	95.81
389.163	107.81
389.387	82.81
389.612	87.81
389.837	78.81
390.062	96.81
390.287	94.81
390.512	87.81
390.736	88.81
390.961	94.81
391.186	91.81
391.411	88.81
391.636	82.81
391.86	89.81
392.085	76.81
392.31	88.81
392.534	95.81
392.759	95.81
392.984	91.81
393.208	76.81
393.433	86.81
393.658	86.81
393.882	80.81
394.107	96.81
394.331	86.81
394.556	77.81
394.78	95.81
395.005	84.81
395.229	89.81
395.454	89.81
395.678	86.81
395.903	73.81
396.127	87.81
396.352	79.81
396.576	94.81
396.801	89.81
397.025	85.81
397.249	90.81
397.474	84.81
397.698	86.81
397.922	94.81
398.147	88.81
398.371	82.81
398.595	87.81
398.82	87.81
399.044	86.81
399.268	81.81
399.492	77.81
399.717	86.81
399.941	78.81
400.165	102.81
400.389	94.81
400.613	93.81
400.837	98.81
401.062	93.81
401.286	88.81
401.51	95.81
401.734	94.81
401.958	100.81
402.182	137.81
402.406	193.81
402.63	160.81
402.854	119.81
403.078	96.81
403.302	82.81
403.526	97.81
403.75	84.81
403.974	95.81
404.198	87.81
404.422	101.81
404.645	89.81
404.869	101.81
405.093	115.81
405.317	144.81
405.541	160.81
405.765	116.81
405.988	140.81
406.212	213.81
406.436	311.81
406.66	180.81
406.883	124.81
407.107	109.81
407.331	97.81
407.555	104.81
407.778	107.81
408.002	88.81
408.226	85.81
408.449	96.81
408.673	88.81
408.896	91.81
409.12	108.81
409.344	102.81
409.567	90.81
409.791	87.81
410.014	81.81
410.238	93.81
410.461	97.81
410.685	105.81
410.908	114.81
411.132	104.81
411.355	106.81
411.578	90.81
411.802	104.81
412.025	95.81
412.249	111.81
412.472	117.81
412.695	157.81
412.919	107.81
413.142	92.81
413.365	108.81
413.589	84.81
413.812	92.81
414.035	104.81
414.258	81.81
414.482	77.81
414.705	100.81
414.928	87.81
415.151	92.81
415.374	84.81
415.597	91.81
415.821	87.81
416.044	89.81
416.267	77.81
416.49	78.81
416.713	89.81
416.936	87.81
417.159	100.81
417.382	97.81
417.605	100.81
417.828	107.81
418.051	95.81
418.274	81.81
418.497	93.81
418.72	86.81
418.943	97.81
419.166	91.81
419.389	90.81
419.611	82.81
419.834	92.81
420.057	91.81
420.28	82.81
420.503	93.81
420.726	85.81
420.948	93.81
421.171	106.81
421.394	107.81
421.617	81.81
421.839	98.81
422.062	87.81
422.285	95.81
422.507	103.81
422.73	116.81
422.953	101.81
423.175	101.81
423.398	97.81
423.621	64.81
423.843	87.81
424.066	87.81
424.288	101.81
424.511	100.81
424.733	117.81
424.956	108.81
425.178	93.81
425.401	109.81
425.623	99.81
425.846	83.81
426.068	104.81
426.291	108.81
426.513	103.81
426.735	104.81
426.958	103.81
427.18	128.81
427.402	183.81
427.625	271.81
427.847	260.81
428.069	249.81
428.292	134.81
428.514	91.81
428.736	91.81
428.958	92.81
429.181	94.81
429.403	84.81
429.625	93.81
429.847	101.81
430.069	113.81
430.292	102.81
430.514	97.81
430.736	86.81
430.958	92.81
431.18	81.81
431.402	90.81
431.624	77.81
431.846	88.81
432.068	89.81
432.29	82.81
432.512	76.81
432.734	101.81
432.956	93.81
433.178	99.81
433.4	117.81
433.622	95.81
433.844	93.81
434.066	92.81
434.287	86.81
434.509	87.81
434.731	84.81
434.953	93.81
435.175	98.81
435.397	89.81
435.618	98.81
435.84	116.81
436.062	151.81
436.284	136.81
436.505	118.81
436.727	117.81
436.949	100.81
437.17	86.81
437.392	93.81
437.614	97.81
437.835	129.81
438.057	133.81
438.278	144.81
438.5	123.81
438.721	144.81
438.943	111.81
439.165	80.81
439.386	84.81
439.608	100.81
439.829	117.81
440.05	157.81
440.272	209.81
440.493	120.81
440.715	86.81
440.936	99.81
441.158	86.81
441.379	80.81
441.6	93.81
441.822	111.81
442.043	95.81
442.264	125.81
442.486	113.81
442.707	98.81
442.928	122.81
443.149	175.81
443.371	168.81
443.592	126.81
443.813	140.81
444.034	105.81
444.255	102.81
444.476	92.81
444.698	84.81
444.919	82.81
445.14	129.81
445.361	136.81
445.582	146.81
445.803	191.81
446.024	200.81
446.245	180.81
446.466	138.81
446.687	85.81
446.908	81.81
447.129	93.81
447.35	85.81
447.571	96.81
447.792	90.81
448.013	100.81
448.234	116.81
448.455	121.81
448.675	133.81
448.896	138.81
449.117	106.81
449.338	107.81
449.559	158.81
449.779	145.81
450	92.81
450.221	97.81
450.442	102.81
450.662	98.81
450.883	121.81
451.104	144.81
451.324	108.81
451.545	83.81
451.766	89.81
451.986	93.81
452.207	89.81
452.428	95.81
452.648	119.81
452.869	117.81
453.089	122.81
453.31	132.81
453.53	97.81
453.751	88.81
453.971	108.81
454.192	119.81
454.412	101.81
454.633	80.81
454.853	81.81
455.073	81.81
455.294	93.81
455.514	113.81
455.734	88.81
455.955	84.81
456.175	96.81
456.395	88.81
456.616	92.81
456.836	93.81
457.056	91.81
457.276	92.81
457.497	91.81
457.717	89.81
457.937	86.81
458.157	94.81
458.377	109.81
458.598	129.81
458.818	208.81
459.038	214.81
459.258	149.81
459.478	105.81
459.698	91.81
459.918	97.81
460.138	89.81
460.358	84.81
460.578	87.81
460.798	91.81
461.018	94.81
461.238	88.81
461.458	93.81
461.678	75.81
461.898	86.81
462.118	94.81
462.338	98.81
462.558	94.81
462.777	101.81
462.997	123.81
463.217	112.81
463.437	108.81
463.657	99.81
463.876	94.81
464.096	86.81
464.316	86.81
464.536	103.81
464.755	112.81
464.975	131.81
465.195	243.81
465.414	225.81
465.634	103.81
465.854	98.81
466.073	93.81
466.293	73.81
466.512	92.81
466.732	97.81
466.951	94.81
467.171	115.81
467.391	120.81
467.61	143.81
467.829	245.81
468.049	629.81
468.268	928.81
468.488	246.81
468.707	125.81
468.927	98.81
469.146	87.81
469.365	102.81
469.585	98.81
469.804	105.81
470.023	105.81
470.243	114.81
470.462	124.81
470.681	145.81
470.901	108.81
471.12	110.81
471.339	110.81
471.558	114.81
471.777	169.81
471.997	326.81
472.216	1266.81
472.435	2873.81
472.654	662.81
472.873	174.81
473.092	97.81
473.311	108.81
473.53	95.81
473.749	93.81
473.968	98.81
474.187	141.81
474.406	113.81
474.625	98.81
474.844	88.81
475.063	101.81
475.282	84.81
475.501	97.81
475.72	88.81
475.939	92.81
476.158	92.81
476.377	99.81
476.596	99.81
476.814	109.81
477.033	88.81
477.252	82.81
477.471	84.81
477.69	96.81
477.908	96.81
478.127	86.81
478.346	93.81
478.564	89.81
478.783	115.81
479.002	107.81
479.22	112.81
479.439	136.81
479.658	126.81
479.876	128.81
480.095	108.81
480.313	136.81
480.532	180.81
480.751	305.81
480.969	1164.81
481.188	5054.81
481.406	2812.81
481.624	404.81
481.843	142.81
482.061	114.81
482.28	113.81
482.498	106.81
482.717	97.81
482.935	87.81
483.153	94.81
483.372	102.81
483.59	78.81
483.808	88.81
484.027	96.81
484.245	87.81
484.463	93.81
484.681	107.81
484.9	84.81
485.118	105.81
485.336	81.81
485.554	108.81
485.772	104.81
485.99	115.81
486.209	100.81
486.427	96.81
486.645	117.81
486.863	123.81
487.081	95.81
487.299	88.81
487.517	90.81
487.735	93.81
487.953	96.81
488.171	93.81
488.389	106.81
488.607	100.81
488.825	94.81
489.043	88.81
489.261	93.81
489.479	84.81
489.696	92.81
489.914	88.81
490.132	100.81
490.35	93.81
490.568	83.81
490.786	101.81
491.003	82.81
491.221	105.81
491.439	104.81
491.657	84.81
491.874	94.81
492.092	92.81
492.31	96.81
492.527	97.81
492.745	114.81
492.963	107.81
493.18	90.81
493.398	96.81
493.615	102.81
493.833	94.81
494.05	94.81
494.268	93.81
494.485	91.81
494.703	81.81
494.92	81.81
495.138	89.81
495.355	82.81
495.573	92.81
495.79	96.81
496.008	101.81
496.225	96.81
496.442	99.81
496.66	85.81
496.877	100.81
497.094	104.81
497.312	94.81
497.529	93.81
497.746	84.81
497.963	78.81
498.181	84.81
498.398	97.81
498.615	122.81
498.832	119.81
499.049	97.81
499.267	101.81
499.484	81.81
499.701	89.81
499.918	91.81
500.135	82.81
500.352	86.81
500.569	90.81
500.786	95.81
501.003	96.81
501.22	87.81
501.437	92.81
501.654	93.81
501.871	119.81
502.088	109.81
502.305	102.81
502.522	95.81
502.739	85.81
502.956	94.81
503.172	92.81
503.389	108.81
503.606	126.81
503.823	114.81
504.04	84.81
504.256	91.81
504.473	95.81
504.69	84.81
504.907	99.81
505.123	87.81
505.34	108.81
505.557	107.81
505.773	86.81
505.99	75.81
506.207	88.81
506.423	100.81
506.64	93.81
506.856	88.81
507.073	92.81
507.289	104.81
507.506	102.81
507.722	135.81
507.939	111.81
508.155	110.81
508.372	99.81
508.588	98.81
508.805	107.81
509.021	93.81
509.238	96.81
509.454	94.81
509.67	114.81
509.887	113.81
510.103	120.81
510.319	228.81
510.536	894.81
510.752	2996.81
510.968	804.81
511.184	175.81
511.401	132.81
511.617	111.81
511.833	98.81
512.049	112.81
512.265	107.81
512.481	111.81
512.698	88.81
512.914	100.81
513.13	91.81
513.346	92.81
