Data from Circ_1997_H10_HRD10591_00088.txt Node
Date: Wed Jan 03 11:29:45 EST 2024
User: Yrep
Spectrometer: HR+D1059
Trigger mode: 1
Integration Time (sec): 1.000000E-1
Scans to average: 1
Electric dark correction enabled: true
Nonlinearity correction enabled: false
Boxcar width: 0
XAxis mode: Wavelengths
Number of Pixels in Spectrum: 2048
>>>>>Begin Spectral Data<<<<<
223.165	-16.5
223.4	-16.5
223.635	-16.5
223.869	-24.5
224.104	-32.5
224.338	-16.5
224.573	-18.5
224.808	-12.5
225.042	-13.5
225.277	4.5
225.511	10.5
225.746	4.5
225.98	3.5
226.215	12.5
226.449	4.5
226.683	22.5
226.918	38.5
227.152	33.5
227.387	28.5
227.621	28.5
227.856	26.5
228.09	33.5
228.324	44.5
228.559	62.5
228.793	55.5
229.027	63.5
229.262	62.5
229.496	73.5
229.73	101.5
229.964	90.5
230.199	69.5
230.433	77.5
230.667	76.5
230.901	71.5
231.136	63.5
231.37	75.5
231.604	84.5
231.838	78.5
232.072	77.5
232.306	66.5
232.541	74.5
232.775	79.5
233.009	80.5
233.243	69.5
233.477	74.5
233.711	84.5
233.945	79.5
234.179	70.5
234.413	86.5
234.647	78.5
234.881	62.5
235.115	86.5
235.349	73.5
235.583	89.5
235.817	83.5
236.051	71.5
236.285	62.5
236.519	80.5
236.753	59.5
236.987	88.5
237.221	96.5
237.455	99.5
237.689	68.5
237.922	76.5
238.156	71.5
238.39	64.5
238.624	78.5
238.858	70.5
239.091	80.5
239.325	74.5
239.559	81.5
239.793	87.5
240.027	75.5
240.26	80.5
240.494	83.5
240.728	92.5
240.961	88.5
241.195	85.5
241.429	84.5
241.662	87.5
241.896	83.5
242.13	71.5
242.363	80.5
242.597	74.5
242.83	85.5
243.064	87.5
243.298	89.5
243.531	88.5
243.765	77.5
243.998	91.5
244.232	87.5
244.465	85.5
244.699	68.5
244.932	79.5
245.166	98.5
245.399	79.5
245.633	77.5
245.866	78.5
246.099	82.5
246.333	78.5
246.566	86.5
246.8	57.5
247.033	81.5
247.266	83.5
247.5	66.5
247.733	77.5
247.966	84.5
248.2	79.5
248.433	66.5
248.666	76.5
248.899	101.5
249.133	80.5
249.366	104.5
249.599	105.5
249.832	78.5
250.066	84.5
250.299	82.5
250.532	92.5
250.765	79.5
250.998	94.5
251.231	91.5
251.465	89.5
251.698	89.5
251.931	80.5
252.164	80.5
252.397	80.5
252.63	88.5
252.863	83.5
253.096	85.5
253.329	85.5
253.562	89.5
253.795	91.5
254.028	79.5
254.261	66.5
254.494	76.5
254.727	86.5
254.96	77.5
255.193	77.5
255.426	77.5
255.659	88.5
255.892	102.5
256.124	94.5
256.357	77.5
256.59	102.5
256.823	89.5
257.056	86.5
257.289	92.5
257.521	90.5
257.754	79.5
257.987	93.5
258.22	98.5
258.452	102.5
258.685	90.5
258.918	98.5
259.151	72.5
259.383	89.5
259.616	88.5
259.849	76.5
260.081	92.5
260.314	89.5
260.547	98.5
260.779	91.5
261.012	111.5
261.244	128.5
261.477	102.5
261.71	88.5
261.942	135.5
262.175	144.5
262.407	104.5
262.64	73.5
262.872	97.5
263.105	81.5
263.337	94.5
263.57	87.5
263.802	74.5
264.035	87.5
264.267	59.5
264.499	80.5
264.732	83.5
264.964	77.5
265.197	86.5
265.429	89.5
265.661	90.5
265.894	87.5
266.126	81.5
266.358	90.5
266.591	81.5
266.823	69.5
267.055	84.5
267.287	92.5
267.52	78.5
267.752	79.5
267.984	88.5
268.216	92.5
268.448	87.5
268.681	88.5
268.913	82.5
269.145	81.5
269.377	80.5
269.609	81.5
269.841	84.5
270.073	92.5
270.306	96.5
270.538	80.5
270.77	81.5
271.002	87.5
271.234	93.5
271.466	112.5
271.698	93.5
271.93	84.5
272.162	94.5
272.394	111.5
272.626	93.5
272.858	88.5
273.09	82.5
273.322	102.5
273.553	79.5
273.785	86.5
274.017	86.5
274.249	86.5
274.481	92.5
274.713	87.5
274.945	97.5
275.176	93.5
275.408	107.5
275.64	112.5
275.872	116.5
276.104	97.5
276.335	98.5
276.567	109.5
276.799	147.5
277.031	177.5
277.262	225.5
277.494	141.5
277.726	111.5
277.957	90.5
278.189	102.5
278.421	84.5
278.652	92.5
278.884	88.5
279.115	98.5
279.347	87.5
279.579	109.5
279.81	126.5
280.042	222.5
280.273	296.5
280.505	186.5
280.736	121.5
280.968	108.5
281.199	89.5
281.431	105.5
281.662	98.5
281.894	95.5
282.125	105.5
282.356	137.5
282.588	168.5
282.819	132.5
283.051	88.5
283.282	94.5
283.513	90.5
283.745	90.5
283.976	97.5
284.207	75.5
284.439	88.5
284.67	88.5
284.901	85.5
285.132	85.5
285.364	93.5
285.595	80.5
285.826	79.5
286.057	96.5
286.288	89.5
286.52	96.5
286.751	78.5
286.982	76.5
287.213	90.5
287.444	99.5
287.675	91.5
287.906	97.5
288.138	98.5
288.369	91.5
288.6	102.5
288.831	92.5
289.062	93.5
289.293	93.5
289.524	80.5
289.755	73.5
289.986	90.5
290.217	91.5
290.448	88.5
290.679	94.5
290.91	98.5
291.141	98.5
291.371	94.5
291.602	90.5
291.833	95.5
292.064	92.5
292.295	88.5
292.526	92.5
292.757	90.5
292.987	92.5
293.218	97.5
293.449	91.5
293.68	77.5
293.91	96.5
294.141	97.5
294.372	84.5
294.603	84.5
294.833	100.5
295.064	92.5
295.295	105.5
295.525	93.5
295.756	104.5
295.987	125.5
296.217	158.5
296.448	145.5
296.679	98.5
296.909	96.5
297.14	84.5
297.37	91.5
297.601	89.5
297.831	88.5
298.062	82.5
298.292	88.5
298.523	97.5
298.753	92.5
298.984	85.5
299.214	91.5
299.445	82.5
299.675	103.5
299.905	103.5
300.136	95.5
300.366	91.5
300.597	85.5
300.827	80.5
301.057	106.5
301.288	107.5
301.518	108.5
301.748	102.5
301.979	129.5
302.209	107.5
302.439	98.5
302.669	104.5
302.9	103.5
303.13	88.5
303.36	106.5
303.59	140.5
303.82	152.5
304.051	101.5
304.281	92.5
304.511	89.5
304.741	87.5
304.971	96.5
305.201	90.5
305.431	98.5
305.661	86.5
305.891	89.5
306.121	104.5
306.352	121.5
306.582	120.5
306.812	113.5
307.042	128.5
307.272	169.5
307.502	191.5
307.731	187.5
307.961	147.5
308.191	107.5
308.421	103.5
308.651	102.5
308.881	98.5
309.111	108.5
309.341	102.5
309.571	107.5
309.8	97.5
310.03	101.5
310.26	102.5
310.49	98.5
310.72	97.5
310.949	126.5
311.179	108.5
311.409	107.5
311.639	102.5
311.868	102.5
312.098	99.5
312.328	112.5
312.557	120.5
312.787	135.5
313.017	115.5
313.246	95.5
313.476	105.5
313.706	103.5
313.935	100.5
314.165	115.5
314.394	127.5
314.624	108.5
314.853	110.5
315.083	95.5
315.312	87.5
315.542	85.5
315.771	100.5
316.001	104.5
316.23	108.5
316.46	106.5
316.689	95.5
316.919	84.5
317.148	100.5
317.377	107.5
317.607	101.5
317.836	95.5
318.065	88.5
318.295	94.5
318.524	103.5
318.753	96.5
318.983	104.5
319.212	113.5
319.441	118.5
319.67	107.5
319.9	89.5
320.129	96.5
320.358	103.5
320.587	101.5
320.816	97.5
321.046	109.5
321.275	96.5
321.504	98.5
321.733	115.5
321.962	97.5
322.191	111.5
322.42	114.5
322.649	121.5
322.878	127.5
323.108	136.5
323.337	154.5
323.566	166.5
323.795	170.5
324.024	272.5
324.253	546.5
324.482	1232.5
324.71	2632.5
324.939	3478.5
325.168	1185.5
325.397	336.5
325.626	185.5
325.855	154.5
326.084	144.5
326.313	154.5
326.542	202.5
326.77	291.5
326.999	598.5
327.228	1297.5
327.457	2520.5
327.686	1996.5
327.914	674.5
328.143	615.5
328.372	776.5
328.6	454.5
328.829	220.5
329.058	189.5
329.287	204.5
329.515	193.5
329.744	296.5
329.972	571.5
330.201	1218.5
330.43	1741.5
330.658	758.5
330.887	318.5
331.115	212.5
331.344	119.5
331.572	130.5
331.801	134.5
332.03	146.5
332.258	113.5
332.486	111.5
332.715	111.5
332.943	120.5
333.172	126.5
333.4	140.5
333.629	180.5
333.857	253.5
334.085	507.5
334.314	1112.5
334.542	2216.5
334.771	2065.5
334.999	534.5
335.227	198.5
335.455	119.5
335.684	104.5
335.912	106.5
336.14	101.5
336.369	112.5
336.597	109.5
336.825	115.5
337.053	96.5
337.281	95.5
337.51	92.5
337.738	93.5
337.966	110.5
338.194	114.5
338.422	90.5
338.65	97.5
338.878	87.5
339.106	85.5
339.334	97.5
339.562	88.5
339.79	102.5
340.018	87.5
340.246	111.5
340.474	101.5
340.702	106.5
340.93	87.5
341.158	81.5
341.386	116.5
341.614	90.5
341.842	108.5
342.07	101.5
342.298	93.5
342.526	94.5
342.754	103.5
342.981	84.5
343.209	88.5
343.437	97.5
343.665	99.5
343.893	84.5
344.12	94.5
344.348	84.5
344.576	86.5
344.804	110.5
345.031	96.5
345.259	98.5
345.487	104.5
345.714	109.5
345.942	95.5
346.17	98.5
346.397	91.5
346.625	89.5
346.853	87.5
347.08	85.5
347.308	106.5
347.535	103.5
347.763	107.5
347.99	95.5
348.218	123.5
348.445	119.5
348.673	116.5
348.9	98.5
349.128	94.5
349.355	98.5
349.583	70.5
349.81	97.5
350.037	101.5
350.265	84.5
350.492	99.5
350.72	108.5
350.947	111.5
351.174	117.5
351.402	124.5
351.629	109.5
351.856	120.5
352.083	111.5
352.311	126.5
352.538	125.5
352.765	128.5
352.992	121.5
353.22	104.5
353.447	101.5
353.674	109.5
353.901	84.5
354.128	98.5
354.355	105.5
354.583	93.5
354.81	103.5
355.037	95.5
355.264	94.5
355.491	102.5
355.718	94.5
355.945	100.5
356.172	91.5
356.399	88.5
356.626	84.5
356.853	104.5
357.08	94.5
357.307	87.5
357.534	103.5
357.761	90.5
357.988	100.5
358.215	97.5
358.441	99.5
358.668	101.5
358.895	106.5
359.122	88.5
359.349	81.5
359.576	105.5
359.802	109.5
360.029	148.5
360.256	149.5
360.483	124.5
360.709	94.5
360.936	101.5
361.163	106.5
361.39	106.5
361.616	109.5
361.843	92.5
362.07	105.5
362.296	110.5
362.523	100.5
362.749	109.5
362.976	97.5
363.203	105.5
363.429	96.5
363.656	94.5
363.882	83.5
364.109	97.5
364.335	96.5
364.562	97.5
364.788	89.5
365.015	87.5
365.241	103.5
365.468	121.5
365.694	126.5
365.92	113.5
366.147	96.5
366.373	88.5
366.599	106.5
366.826	88.5
367.052	97.5
367.278	98.5
367.505	98.5
367.731	107.5
367.957	108.5
368.184	95.5
368.41	104.5
368.636	123.5
368.862	137.5
369.089	127.5
369.315	102.5
369.541	103.5
369.767	101.5
369.993	82.5
370.219	98.5
370.445	85.5
370.672	84.5
370.898	73.5
371.124	87.5
371.35	91.5
371.576	100.5
371.802	85.5
372.028	82.5
372.254	85.5
372.48	76.5
372.706	92.5
372.932	79.5
373.158	87.5
373.384	88.5
373.61	77.5
373.835	84.5
374.061	94.5
374.287	103.5
374.513	85.5
374.739	86.5
374.965	81.5
375.191	91.5
375.416	88.5
375.642	97.5
375.868	105.5
376.094	95.5
376.319	89.5
376.545	85.5
376.771	93.5
376.997	69.5
377.222	100.5
377.448	93.5
377.674	93.5
377.899	87.5
378.125	80.5
378.35	80.5
378.576	95.5
378.802	77.5
379.027	77.5
379.253	82.5
379.478	90.5
379.704	91.5
379.929	90.5
380.155	98.5
380.38	96.5
380.606	80.5
380.831	102.5
381.057	94.5
381.282	104.5
381.507	98.5
381.733	90.5
381.958	87.5
382.184	108.5
382.409	93.5
382.634	101.5
382.86	82.5
383.085	87.5
383.31	102.5
383.535	122.5
383.761	96.5
383.986	104.5
384.211	82.5
384.436	88.5
384.662	87.5
384.887	93.5
385.112	76.5
385.337	98.5
385.562	96.5
385.787	94.5
386.013	100.5
386.238	111.5
386.463	96.5
386.688	101.5
386.913	101.5
387.138	105.5
387.363	96.5
387.588	109.5
387.813	87.5
388.038	109.5
388.263	102.5
388.488	96.5
388.713	88.5
388.938	84.5
389.163	77.5
389.387	85.5
389.612	83.5
389.837	106.5
390.062	89.5
390.287	77.5
390.512	82.5
390.736	95.5
390.961	87.5
391.186	105.5
391.411	84.5
391.636	97.5
391.86	75.5
392.085	80.5
392.31	89.5
392.534	74.5
392.759	74.5
392.984	97.5
393.208	91.5
393.433	101.5
393.658	94.5
393.882	87.5
394.107	82.5
394.331	89.5
394.556	78.5
394.78	69.5
395.005	84.5
395.229	83.5
395.454	96.5
395.678	89.5
395.903	90.5
396.127	98.5
396.352	89.5
396.576	82.5
396.801	83.5
397.025	82.5
397.249	100.5
397.474	91.5
397.698	99.5
397.922	94.5
398.147	81.5
398.371	91.5
398.595	89.5
398.82	84.5
399.044	75.5
399.268	98.5
399.492	82.5
399.717	89.5
399.941	85.5
400.165	99.5
400.389	104.5
400.613	82.5
400.837	77.5
401.062	87.5
401.286	87.5
401.51	94.5
401.734	104.5
401.958	93.5
402.182	150.5
402.406	196.5
402.63	140.5
402.854	107.5
403.078	104.5
403.302	87.5
403.526	97.5
403.75	94.5
403.974	91.5
404.198	96.5
404.422	90.5
404.645	94.5
404.869	106.5
405.093	119.5
405.317	151.5
405.541	155.5
405.765	124.5
405.988	130.5
406.212	224.5
406.436	318.5
406.66	209.5
406.883	120.5
407.107	100.5
407.331	93.5
407.555	113.5
407.778	113.5
408.002	100.5
408.226	85.5
408.449	86.5
408.673	94.5
408.896	90.5
409.12	100.5
409.344	94.5
409.567	88.5
409.791	109.5
410.014	91.5
410.238	94.5
410.461	80.5
410.685	92.5
410.908	95.5
411.132	102.5
411.355	110.5
411.578	90.5
411.802	93.5
412.025	100.5
412.249	109.5
412.472	116.5
412.695	147.5
412.919	107.5
413.142	93.5
413.365	73.5
413.589	90.5
413.812	87.5
414.035	92.5
414.258	97.5
414.482	89.5
414.705	95.5
414.928	88.5
415.151	88.5
415.374	90.5
415.597	86.5
415.821	92.5
416.044	97.5
416.267	84.5
416.49	87.5
416.713	94.5
416.936	90.5
417.159	103.5
417.382	104.5
417.605	112.5
417.828	104.5
418.051	98.5
418.274	91.5
418.497	98.5
418.72	78.5
418.943	90.5
419.166	90.5
419.389	84.5
419.611	82.5
419.834	89.5
420.057	98.5
420.28	92.5
420.503	81.5
420.726	95.5
420.948	95.5
421.171	105.5
421.394	103.5
421.617	98.5
421.839	83.5
422.062	90.5
422.285	107.5
422.507	101.5
422.73	124.5
422.953	102.5
423.175	92.5
423.398	81.5
423.621	88.5
423.843	95.5
424.066	78.5
424.288	89.5
424.511	101.5
424.733	111.5
424.956	127.5
425.178	95.5
425.401	104.5
425.623	114.5
425.846	97.5
426.068	97.5
426.291	96.5
426.513	92.5
426.735	94.5
426.958	95.5
427.18	115.5
427.402	190.5
427.625	294.5
427.847	277.5
428.069	265.5
428.292	136.5
428.514	107.5
428.736	100.5
428.958	102.5
429.181	96.5
429.403	84.5
429.625	92.5
429.847	98.5
430.069	117.5
430.292	106.5
430.514	72.5
430.736	95.5
430.958	92.5
431.18	79.5
431.402	88.5
431.624	83.5
431.846	89.5
432.068	82.5
432.29	82.5
432.512	92.5
432.734	86.5
432.956	103.5
433.178	104.5
433.4	98.5
433.622	90.5
433.844	97.5
434.066	95.5
434.287	93.5
434.509	97.5
434.731	90.5
434.953	108.5
435.175	106.5
435.397	94.5
435.618	95.5
435.84	122.5
436.062	161.5
436.284	152.5
436.505	109.5
436.727	107.5
436.949	81.5
437.17	80.5
437.392	91.5
437.614	92.5
437.835	125.5
438.057	156.5
438.278	141.5
438.5	125.5
438.721	156.5
438.943	97.5
439.165	87.5
439.386	81.5
439.608	96.5
439.829	125.5
440.05	161.5
440.272	207.5
440.493	119.5
440.715	89.5
440.936	93.5
441.158	84.5
441.379	94.5
441.6	105.5
441.822	106.5
442.043	107.5
442.264	135.5
442.486	125.5
442.707	100.5
442.928	129.5
443.149	174.5
443.371	172.5
443.592	142.5
443.813	143.5
444.034	122.5
444.255	97.5
444.476	96.5
444.698	103.5
444.919	87.5
445.14	113.5
445.361	124.5
445.582	151.5
445.803	204.5
446.024	183.5
446.245	198.5
446.466	136.5
446.687	103.5
446.908	88.5
447.129	74.5
447.35	93.5
447.571	100.5
447.792	109.5
448.013	110.5
448.234	128.5
448.455	107.5
448.675	140.5
448.896	145.5
449.117	112.5
449.338	124.5
449.559	166.5
449.779	176.5
450	109.5
450.221	92.5
450.442	88.5
450.662	100.5
450.883	122.5
451.104	136.5
451.324	110.5
451.545	95.5
451.766	92.5
451.986	83.5
452.207	89.5
452.428	94.5
452.648	113.5
452.869	109.5
453.089	117.5
453.31	150.5
453.53	97.5
453.751	98.5
453.971	108.5
454.192	141.5
454.412	115.5
454.633	89.5
454.853	95.5
455.073	78.5
455.294	96.5
455.514	106.5
455.734	93.5
455.955	95.5
456.175	106.5
456.395	82.5
456.616	82.5
456.836	87.5
457.056	86.5
457.276	81.5
457.497	85.5
457.717	95.5
457.937	92.5
458.157	103.5
458.377	89.5
458.598	129.5
458.818	199.5
459.038	226.5
459.258	158.5
459.478	111.5
459.698	88.5
459.918	85.5
460.138	95.5
460.358	95.5
460.578	96.5
460.798	87.5
461.018	102.5
461.238	93.5
461.458	87.5
461.678	119.5
461.898	91.5
462.118	92.5
462.338	86.5
462.558	88.5
462.777	80.5
462.997	91.5
463.217	111.5
463.437	112.5
463.657	98.5
463.876	95.5
464.096	78.5
464.316	105.5
464.536	92.5
464.755	95.5
464.975	126.5
465.195	226.5
465.414	244.5
465.634	109.5
465.854	89.5
466.073	94.5
466.293	92.5
466.512	93.5
466.732	98.5
466.951	100.5
467.171	103.5
467.391	114.5
467.61	154.5
467.829	235.5
468.049	695.5
468.268	1030.5
468.488	237.5
468.707	120.5
468.927	101.5
469.146	105.5
469.365	107.5
469.585	99.5
469.804	105.5
470.023	112.5
470.243	102.5
470.462	118.5
470.681	145.5
470.901	107.5
471.12	101.5
471.339	123.5
471.558	123.5
471.777	171.5
471.997	340.5
472.216	1379.5
472.435	3132.5
472.654	674.5
472.873	174.5
473.092	112.5
473.311	103.5
473.53	94.5
473.749	105.5
473.968	106.5
474.187	125.5
474.406	110.5
474.625	99.5
474.844	101.5
475.063	93.5
475.282	94.5
475.501	89.5
475.72	85.5
475.939	95.5
476.158	97.5
476.377	100.5
476.596	87.5
476.814	91.5
477.033	108.5
477.252	95.5
477.471	94.5
477.69	88.5
477.908	80.5
478.127	90.5
478.346	98.5
478.564	100.5
478.783	106.5
479.002	107.5
479.22	102.5
479.439	117.5
479.658	142.5
479.876	135.5
480.095	133.5
480.313	137.5
480.532	182.5
480.751	333.5
480.969	1212.5
481.188	5507.5
481.406	3075.5
481.624	423.5
481.843	152.5
482.061	129.5
482.28	96.5
482.498	109.5
482.717	96.5
482.935	92.5
483.153	98.5
483.372	96.5
483.59	93.5
483.808	89.5
484.027	98.5
484.245	102.5
484.463	97.5
484.681	108.5
484.9	93.5
485.118	97.5
485.336	114.5
485.554	95.5
485.772	98.5
485.99	117.5
486.209	108.5
486.427	104.5
486.645	116.5
486.863	127.5
487.081	113.5
487.299	100.5
487.517	85.5
487.735	89.5
487.953	97.5
488.171	105.5
488.389	105.5
488.607	116.5
488.825	92.5
489.043	82.5
489.261	94.5
489.479	98.5
489.696	89.5
489.914	71.5
490.132	93.5
490.35	89.5
490.568	91.5
490.786	96.5
491.003	94.5
491.221	90.5
491.439	117.5
491.657	104.5
491.874	95.5
492.092	91.5
492.31	91.5
492.527	95.5
492.745	115.5
492.963	80.5
493.18	88.5
493.398	97.5
493.615	88.5
493.833	95.5
494.05	91.5
494.268	95.5
494.485	96.5
494.703	79.5
494.92	79.5
495.138	105.5
495.355	94.5
495.573	98.5
495.79	93.5
496.008	89.5
496.225	95.5
496.442	74.5
496.66	88.5
496.877	91.5
497.094	72.5
497.312	90.5
497.529	79.5
497.746	104.5
497.963	102.5
498.181	95.5
498.398	96.5
498.615	125.5
498.832	121.5
499.049	94.5
499.267	87.5
499.484	84.5
499.701	88.5
499.918	94.5
500.135	97.5
500.352	94.5
500.569	88.5
500.786	84.5
501.003	83.5
501.22	95.5
501.437	87.5
501.654	104.5
501.871	102.5
502.088	102.5
502.305	98.5
502.522	94.5
502.739	98.5
502.956	87.5
503.172	110.5
503.389	106.5
503.606	132.5
503.823	112.5
504.04	78.5
504.256	108.5
504.473	90.5
504.69	86.5
504.907	90.5
505.123	92.5
505.34	84.5
505.557	97.5
505.773	80.5
505.99	83.5
506.207	76.5
506.423	96.5
506.64	93.5
506.856	97.5
507.073	102.5
507.289	92.5
507.506	84.5
507.722	149.5
507.939	122.5
508.155	106.5
508.372	77.5
508.588	85.5
508.805	103.5
509.021	102.5
509.238	96.5
509.454	96.5
509.67	85.5
509.887	114.5
510.103	147.5
510.319	226.5
510.536	910.5
510.752	3169.5
510.968	864.5
511.184	183.5
511.401	119.5
511.617	107.5
511.833	96.5
512.049	91.5
512.265	93.5
512.481	103.5
512.698	101.5
512.914	93.5
513.13	118.5
513.346	92.5
513.562	109.5
513.778	104.5
513.994	111.5
514.21	119.5
514.426	142.5
514.642	174.5
514.858	164.5
515.074	241.5
515.29	716.5
515.506	2547.5
515.721	908.5
515.937	216.5
516.153	133.5
516.369	113.5
516.585	116.5
516.801	113.5
517.016	94.5
517.232	100.5
517.448	96.5
517.664	89.5
517.879	87.5
518.095	116.5
518.311	112.5
518.527	109.5
518.742	92.5
518.958	94.5
519.173	88.5
519.389	108.5
519.605	100.5
519.82	110.5
520.036	95.5
520.251	143.5
520.467	122.5
520.682	113.5
520.898	114.5
521.113	132.5
521.329	170.5
521.544	287.5
521.76	902.5
521.975	4246.5
522.19	2538.5
522.406	489.5
522.621	150.5
522.836	108.5
523.052	100.5
523.267	97.5
523.482	95.5
523.698	107.5
523.913	136.5
524.128	113.5
524.343	99.5
524.559	81.5
524.774	108.5
524.989	102.5
525.204	104.5
525.419	102.5
525.634	99.5
525.849	84.5
526.064	102.5
526.28	90.5
526.495	92.5
526.71	99.5
526.925	81.5
527.14	107.5
527.355	89.5
527.57	90.5
527.785	103.5
527.999	82.5
528.214	84.5
528.429	99.5
528.644	90.5
528.859	94.5
529.074	101.5
529.289	157.5
529.503	271.5
529.718	114.5
529.933	91.5
530.148	84.5
530.363	97.5
530.577	94.5
530.792	100.5
531.007	87.5
531.221	80.5
531.436	96.5
531.651	99.5
