Data from Circ_1997_H10_HRD10591_00031.txt Node
Date: Wed Jan 03 11:29:33 EST 2024
User: Yrep
Spectrometer: HR+D1059
Trigger mode: 1
Integration Time (sec): 1.000000E-1
Scans to average: 1
Electric dark correction enabled: true
Nonlinearity correction enabled: false
Boxcar width: 0
XAxis mode: Wavelengths
Number of Pixels in Spectrum: 2048
>>>>>Begin Spectral Data<<<<<
223.165	-14.62
223.4	-14.62
223.635	-14.62
223.869	-15.62
224.104	-33.62
224.338	-14.62
224.573	-14.62
224.808	-15.62
225.042	2.38
225.277	-3.62
225.511	-6.62
225.746	-2.62
225.98	9.38
226.215	6.38
226.449	22.38
226.683	23.38
226.918	26.38
227.152	31.38
227.387	27.38
227.621	30.38
227.856	38.38
228.09	37.38
228.324	58.38
228.559	24.38
228.793	68.38
229.027	56.38
229.262	62.38
229.496	90.38
229.73	83.38
229.964	93.38
230.199	68.38
230.433	73.38
230.667	93.38
230.901	68.38
231.136	71.38
231.37	77.38
231.604	72.38
231.838	70.38
232.072	77.38
232.306	66.38
232.541	89.38
232.775	77.38
233.009	79.38
233.243	80.38
233.477	73.38
233.711	89.38
233.945	74.38
234.179	89.38
234.413	61.38
234.647	78.38
234.881	90.38
235.115	90.38
235.349	73.38
235.583	97.38
235.817	76.38
236.051	72.38
236.285	92.38
236.519	72.38
236.753	85.38
236.987	77.38
237.221	82.38
237.455	93.38
237.689	92.38
237.922	69.38
238.156	78.38
238.39	75.38
238.624	77.38
238.858	65.38
239.091	76.38
239.325	64.38
239.559	82.38
239.793	81.38
240.027	78.38
240.26	68.38
240.494	80.38
240.728	75.38
240.961	63.38
241.195	78.38
241.429	76.38
241.662	79.38
241.896	74.38
242.13	77.38
242.363	73.38
242.597	81.38
242.83	69.38
243.064	79.38
243.298	73.38
243.531	82.38
243.765	76.38
243.998	73.38
244.232	79.38
244.465	83.38
244.699	68.38
244.932	79.38
245.166	69.38
245.399	83.38
245.633	84.38
245.866	76.38
246.099	64.38
246.333	80.38
246.566	80.38
246.8	62.38
247.033	78.38
247.266	78.38
247.5	81.38
247.733	68.38
247.966	81.38
248.2	75.38
248.433	72.38
248.666	92.38
248.899	77.38
249.133	98.38
249.366	100.38
249.599	107.38
249.832	93.38
250.066	99.38
250.299	95.38
250.532	86.38
250.765	88.38
250.998	71.38
251.231	78.38
251.465	62.38
251.698	91.38
251.931	86.38
252.164	89.38
252.397	61.38
252.63	70.38
252.863	76.38
253.096	84.38
253.329	77.38
253.562	72.38
253.795	81.38
254.028	68.38
254.261	80.38
254.494	65.38
254.727	85.38
254.96	81.38
255.193	76.38
255.426	81.38
255.659	75.38
255.892	84.38
256.124	75.38
256.357	85.38
256.59	90.38
256.823	88.38
257.056	100.38
257.289	81.38
257.521	78.38
257.754	87.38
257.987	84.38
258.22	87.38
258.452	91.38
258.685	83.38
258.918	84.38
259.151	79.38
259.383	90.38
259.616	81.38
259.849	77.38
260.081	81.38
260.314	89.38
260.547	88.38
260.779	72.38
261.012	104.38
261.244	100.38
261.477	83.38
261.71	96.38
261.942	135.38
262.175	127.38
262.407	80.38
262.64	89.38
262.872	81.38
263.105	73.38
263.337	87.38
263.57	89.38
263.802	77.38
264.035	78.38
264.267	74.38
264.499	86.38
264.732	85.38
264.964	95.38
265.197	74.38
265.429	84.38
265.661	77.38
265.894	74.38
266.126	83.38
266.358	75.38
266.591	76.38
266.823	70.38
267.055	78.38
267.287	91.38
267.52	78.38
267.752	93.38
267.984	72.38
268.216	84.38
268.448	98.38
268.681	81.38
268.913	66.38
269.145	89.38
269.377	88.38
269.609	85.38
269.841	89.38
270.073	79.38
270.306	76.38
270.538	77.38
270.77	85.38
271.002	88.38
271.234	103.38
271.466	84.38
271.698	91.38
271.93	87.38
272.162	76.38
272.394	80.38
272.626	95.38
272.858	80.38
273.09	89.38
273.322	88.38
273.553	95.38
273.785	84.38
274.017	88.38
274.249	97.38
274.481	88.38
274.713	80.38
274.945	84.38
275.176	95.38
275.408	116.38
275.64	97.38
275.872	112.38
276.104	88.38
276.335	103.38
276.567	97.38
276.799	138.38
277.031	136.38
277.262	163.38
277.494	126.38
277.726	104.38
277.957	83.38
278.189	80.38
278.421	88.38
278.652	85.38
278.884	92.38
279.115	90.38
279.347	85.38
279.579	98.38
279.81	100.38
280.042	163.38
280.273	202.38
280.505	152.38
280.736	80.38
280.968	95.38
281.199	95.38
281.431	85.38
281.662	85.38
281.894	97.38
282.125	108.38
282.356	116.38
282.588	137.38
282.819	117.38
283.051	84.38
283.282	88.38
283.513	93.38
283.745	85.38
283.976	90.38
284.207	85.38
284.439	81.38
284.67	90.38
284.901	78.38
285.132	88.38
285.364	102.38
285.595	107.38
285.826	102.38
286.057	74.38
286.288	85.38
286.52	81.38
286.751	74.38
286.982	84.38
287.213	104.38
287.444	93.38
287.675	86.38
287.906	90.38
288.138	82.38
288.369	96.38
288.6	95.38
288.831	73.38
289.062	88.38
289.293	86.38
289.524	71.38
289.755	66.38
289.986	78.38
290.217	89.38
290.448	92.38
290.679	90.38
290.91	84.38
291.141	79.38
291.371	93.38
291.602	95.38
291.833	83.38
292.064	88.38
292.295	83.38
292.526	91.38
292.757	94.38
292.987	82.38
293.218	90.38
293.449	93.38
293.68	87.38
293.91	83.38
294.141	81.38
294.372	86.38
294.603	86.38
294.833	90.38
295.064	76.38
295.295	94.38
295.525	80.38
295.756	95.38
295.987	114.38
296.217	134.38
296.448	125.38
296.679	84.38
296.909	93.38
297.14	88.38
297.37	70.38
297.601	89.38
297.831	88.38
298.062	91.38
298.292	99.38
298.523	100.38
298.753	91.38
298.984	92.38
299.214	88.38
299.445	104.38
299.675	88.38
299.905	92.38
300.136	95.38
300.366	88.38
300.597	96.38
300.827	94.38
301.057	106.38
301.288	113.38
301.518	102.38
301.748	86.38
301.979	103.38
302.209	107.38
302.439	97.38
302.669	96.38
302.9	92.38
303.13	96.38
303.36	92.38
303.59	113.38
303.82	134.38
304.051	88.38
304.281	98.38
304.511	69.38
304.741	80.38
304.971	81.38
305.201	80.38
305.431	101.38
305.661	91.38
305.891	90.38
306.121	94.38
306.352	98.38
306.582	103.38
306.812	96.38
307.042	123.38
307.272	136.38
307.502	150.38
307.731	135.38
307.961	115.38
308.191	85.38
308.421	77.38
308.651	84.38
308.881	80.38
309.111	85.38
309.341	99.38
309.571	104.38
309.8	97.38
310.03	97.38
310.26	99.38
310.49	114.38
310.72	111.38
310.949	105.38
311.179	110.38
311.409	102.38
311.639	95.38
311.868	102.38
312.098	90.38
312.328	108.38
312.557	108.38
312.787	109.38
313.017	107.38
313.246	90.38
313.476	77.38
313.706	90.38
313.935	81.38
314.165	111.38
314.394	119.38
314.624	110.38
314.853	93.38
315.083	98.38
315.312	88.38
315.542	85.38
315.771	90.38
316.001	86.38
316.23	93.38
316.46	85.38
316.689	100.38
316.919	109.38
317.148	93.38
317.377	93.38
317.607	112.38
317.836	90.38
318.065	87.38
318.295	92.38
318.524	90.38
318.753	88.38
318.983	81.38
319.212	88.38
319.441	112.38
319.67	96.38
319.9	105.38
320.129	96.38
320.358	95.38
320.587	100.38
320.816	94.38
321.046	111.38
321.275	111.38
321.504	89.38
321.733	97.38
321.962	98.38
322.191	118.38
322.42	119.38
322.649	115.38
322.878	103.38
323.108	133.38
323.337	135.38
323.566	160.38
323.795	180.38
324.024	252.38
324.253	525.38
324.482	1232.38
324.71	2644.38
324.939	3584.38
325.168	1200.38
325.397	342.38
325.626	180.38
325.855	148.38
326.084	147.38
326.313	155.38
326.542	182.38
326.77	314.38
326.999	657.38
327.228	1430.38
327.457	2760.38
327.686	2120.38
327.914	600.38
328.143	473.38
328.372	530.38
328.6	295.38
328.829	160.38
329.058	162.38
329.287	174.38
329.515	162.38
329.744	236.38
329.972	422.38
330.201	796.38
330.43	1106.38
330.658	512.38
330.887	251.38
331.115	155.38
331.344	119.38
331.572	117.38
331.801	117.38
332.03	112.38
332.258	109.38
332.486	99.38
332.715	104.38
332.943	112.38
333.172	137.38
333.4	117.38
333.629	144.38
333.857	202.38
334.085	369.38
334.314	774.38
334.542	1429.38
334.771	1314.38
334.999	346.38
335.227	146.38
335.455	122.38
335.684	107.38
335.912	90.38
336.14	100.38
336.369	100.38
336.597	97.38
336.825	100.38
337.053	85.38
337.281	84.38
337.51	92.38
337.738	103.38
337.966	95.38
338.194	95.38
338.422	106.38
338.65	98.38
338.878	97.38
339.106	88.38
339.334	109.38
339.562	84.38
339.79	81.38
340.018	97.38
340.246	94.38
340.474	90.38
340.702	89.38
340.93	86.38
341.158	90.38
341.386	90.38
341.614	91.38
341.842	94.38
342.07	90.38
342.298	99.38
342.526	80.38
342.754	87.38
342.981	103.38
343.209	96.38
343.437	104.38
343.665	98.38
343.893	84.38
344.12	80.38
344.348	98.38
344.576	77.38
344.804	85.38
345.031	102.38
345.259	98.38
345.487	118.38
345.714	104.38
345.942	94.38
346.17	95.38
346.397	90.38
346.625	95.38
346.853	93.38
347.08	87.38
347.308	96.38
347.535	105.38
347.763	108.38
347.99	94.38
348.218	91.38
348.445	112.38
348.673	102.38
348.9	104.38
349.128	80.38
349.355	99.38
349.583	86.38
349.81	88.38
350.037	101.38
350.265	97.38
350.492	91.38
350.72	94.38
350.947	96.38
351.174	95.38
351.402	113.38
351.629	98.38
351.856	106.38
352.083	99.38
352.311	105.38
352.538	106.38
352.765	109.38
352.992	121.38
353.22	107.38
353.447	118.38
353.674	89.38
353.901	102.38
354.128	100.38
354.355	93.38
354.583	99.38
354.81	87.38
355.037	104.38
355.264	87.38
355.491	80.38
355.718	89.38
355.945	97.38
356.172	73.38
356.399	96.38
356.626	96.38
356.853	77.38
357.08	92.38
357.307	100.38
357.534	88.38
357.761	88.38
357.988	95.38
358.215	94.38
358.441	84.38
358.668	81.38
358.895	95.38
359.122	92.38
359.349	96.38
359.576	89.38
359.802	112.38
360.029	132.38
360.256	119.38
360.483	108.38
360.709	82.38
360.936	92.38
361.163	91.38
361.39	85.38
361.616	100.38
361.843	96.38
362.07	90.38
362.296	92.38
362.523	79.38
362.749	96.38
362.976	101.38
363.203	80.38
363.429	86.38
363.656	86.38
363.882	80.38
364.109	102.38
364.335	76.38
364.562	91.38
364.788	75.38
365.015	109.38
365.241	109.38
365.468	103.38
365.694	107.38
365.92	86.38
366.147	90.38
366.373	90.38
366.599	96.38
366.826	93.38
367.052	104.38
367.278	81.38
367.505	84.38
367.731	83.38
367.957	81.38
368.184	89.38
368.41	93.38
368.636	132.38
368.862	115.38
369.089	121.38
369.315	90.38
369.541	106.38
369.767	94.38
369.993	96.38
370.219	92.38
370.445	79.38
370.672	83.38
370.898	85.38
371.124	85.38
371.35	92.38
371.576	82.38
371.802	86.38
372.028	92.38
372.254	81.38
372.48	82.38
372.706	88.38
372.932	82.38
373.158	100.38
373.384	97.38
373.61	99.38
373.835	104.38
374.061	91.38
374.287	98.38
374.513	95.38
374.739	86.38
374.965	88.38
375.191	102.38
375.416	99.38
375.642	67.38
375.868	92.38
376.094	91.38
376.319	85.38
376.545	78.38
376.771	81.38
376.997	93.38
377.222	98.38
377.448	102.38
377.674	93.38
377.899	94.38
378.125	87.38
378.35	93.38
378.576	95.38
378.802	69.38
379.027	95.38
379.253	105.38
379.478	92.38
379.704	98.38
379.929	91.38
380.155	88.38
380.38	91.38
380.606	93.38
380.831	98.38
381.057	108.38
381.282	88.38
381.507	89.38
381.733	92.38
381.958	89.38
382.184	95.38
382.409	101.38
382.634	87.38
382.86	94.38
383.085	93.38
383.31	101.38
383.535	92.38
383.761	99.38
383.986	94.38
384.211	95.38
384.436	98.38
384.662	81.38
384.887	99.38
385.112	96.38
385.337	105.38
385.562	98.38
385.787	108.38
386.013	127.38
386.238	111.38
386.463	95.38
386.688	113.38
386.913	102.38
387.138	102.38
387.363	105.38
387.588	100.38
387.813	89.38
388.038	102.38
388.263	102.38
388.488	97.38
388.713	92.38
388.938	85.38
389.163	89.38
389.387	90.38
389.612	96.38
389.837	104.38
390.062	86.38
390.287	93.38
390.512	88.38
390.736	85.38
390.961	84.38
391.186	82.38
391.411	95.38
391.636	78.38
391.86	80.38
392.085	93.38
392.31	80.38
392.534	86.38
392.759	85.38
392.984	80.38
393.208	87.38
393.433	93.38
393.658	92.38
393.882	77.38
394.107	89.38
394.331	79.38
394.556	84.38
394.78	91.38
395.005	76.38
395.229	76.38
395.454	96.38
395.678	88.38
395.903	88.38
396.127	79.38
396.352	93.38
396.576	95.38
396.801	89.38
397.025	77.38
397.249	90.38
397.474	102.38
397.698	84.38
397.922	83.38
398.147	82.38
398.371	95.38
398.595	80.38
398.82	84.38
399.044	76.38
399.268	88.38
399.492	94.38
399.717	98.38
399.941	90.38
400.165	74.38
400.389	89.38
400.613	84.38
400.837	91.38
401.062	96.38
401.286	91.38
401.51	98.38
401.734	87.38
401.958	113.38
402.182	136.38
402.406	165.38
402.63	139.38
402.854	107.38
403.078	91.38
403.302	80.38
403.526	90.38
403.75	95.38
403.974	103.38
404.198	84.38
404.422	103.38
404.645	95.38
404.869	98.38
405.093	120.38
405.317	127.38
405.541	125.38
405.765	119.38
405.988	119.38
406.212	184.38
406.436	253.38
406.66	182.38
406.883	107.38
407.107	115.38
407.331	103.38
407.555	90.38
407.778	100.38
408.002	102.38
408.226	108.38
408.449	90.38
408.673	86.38
408.896	93.38
409.12	98.38
409.344	94.38
409.567	82.38
409.791	76.38
410.014	95.38
410.238	102.38
410.461	95.38
410.685	93.38
410.908	89.38
411.132	91.38
411.355	97.38
411.578	82.38
411.802	107.38
412.025	85.38
412.249	101.38
412.472	117.38
412.695	137.38
412.919	104.38
413.142	101.38
413.365	95.38
413.589	100.38
413.812	82.38
414.035	89.38
414.258	80.38
414.482	102.38
414.705	92.38
414.928	88.38
415.151	81.38
415.374	85.38
415.597	84.38
415.821	92.38
416.044	90.38
416.267	97.38
416.49	83.38
416.713	89.38
416.936	82.38
417.159	91.38
417.382	78.38
417.605	103.38
417.828	112.38
418.051	103.38
418.274	113.38
418.497	88.38
418.72	85.38
418.943	87.38
419.166	85.38
419.389	89.38
419.611	85.38
419.834	98.38
420.057	97.38
420.28	76.38
420.503	84.38
420.726	90.38
420.948	87.38
421.171	105.38
421.394	98.38
421.617	105.38
421.839	80.38
422.062	88.38
422.285	91.38
422.507	99.38
422.73	112.38
422.953	97.38
423.175	71.38
423.398	69.38
423.621	94.38
423.843	88.38
424.066	89.38
424.288	89.38
424.511	100.38
424.733	105.38
424.956	100.38
425.178	104.38
425.401	103.38
425.623	113.38
425.846	85.38
426.068	100.38
426.291	82.38
426.513	92.38
426.735	92.38
426.958	105.38
427.18	116.38
427.402	164.38
427.625	242.38
427.847	212.38
428.069	220.38
428.292	116.38
428.514	97.38
428.736	92.38
428.958	76.38
429.181	82.38
429.403	90.38
429.625	90.38
429.847	98.38
430.069	93.38
430.292	97.38
430.514	88.38
430.736	76.38
430.958	88.38
431.18	80.38
431.402	78.38
431.624	95.38
431.846	90.38
432.068	81.38
432.29	88.38
432.512	82.38
432.734	92.38
432.956	111.38
433.178	105.38
433.4	104.38
433.622	94.38
433.844	86.38
434.066	102.38
434.287	88.38
434.509	93.38
434.731	94.38
434.953	82.38
435.175	94.38
435.397	90.38
435.618	104.38
435.84	138.38
436.062	140.38
436.284	126.38
436.505	116.38
436.727	118.38
436.949	99.38
437.17	80.38
437.392	84.38
437.614	96.38
437.835	125.38
438.057	132.38
438.278	122.38
438.5	127.38
438.721	156.38
438.943	103.38
439.165	80.38
439.386	107.38
439.608	86.38
439.829	104.38
440.05	142.38
440.272	196.38
440.493	110.38
440.715	89.38
440.936	84.38
441.158	91.38
441.379	96.38
441.6	84.38
441.822	121.38
442.043	98.38
442.264	99.38
442.486	108.38
442.707	102.38
442.928	105.38
443.149	152.38
443.371	184.38
443.592	117.38
443.813	103.38
444.034	129.38
444.255	97.38
444.476	93.38
444.698	89.38
444.919	84.38
445.14	116.38
445.361	118.38
445.582	133.38
445.803	185.38
446.024	163.38
446.245	174.38
446.466	132.38
446.687	80.38
446.908	89.38
447.129	86.38
447.35	98.38
447.571	103.38
447.792	100.38
448.013	95.38
448.234	111.38
448.455	101.38
448.675	121.38
448.896	126.38
449.117	109.38
449.338	120.38
449.559	166.38
449.779	142.38
450	100.38
450.221	88.38
450.442	86.38
450.662	105.38
450.883	100.38
451.104	133.38
451.324	95.38
451.545	87.38
451.766	78.38
451.986	88.38
452.207	88.38
452.428	94.38
452.648	107.38
452.869	120.38
453.089	138.38
453.31	119.38
453.53	103.38
453.751	91.38
453.971	115.38
454.192	130.38
454.412	89.38
454.633	87.38
454.853	87.38
455.073	92.38
455.294	87.38
455.514	106.38
455.734	98.38
455.955	82.38
456.175	90.38
456.395	84.38
456.616	90.38
456.836	91.38
457.056	88.38
457.276	95.38
457.497	87.38
457.717	91.38
457.937	89.38
458.157	105.38
458.377	95.38
458.598	128.38
458.818	182.38
459.038	190.38
459.258	124.38
459.478	101.38
459.698	88.38
459.918	87.38
460.138	80.38
460.358	81.38
460.578	90.38
460.798	89.38
461.018	100.38
461.238	86.38
461.458	95.38
461.678	82.38
461.898	94.38
462.118	96.38
462.338	69.38
462.558	86.38
462.777	100.38
462.997	92.38
463.217	104.38
463.437	94.38
463.657	88.38
463.876	92.38
464.096	89.38
464.316	86.38
464.536	95.38
464.755	95.38
464.975	108.38
465.195	203.38
465.414	205.38
465.634	108.38
465.854	92.38
466.073	81.38
466.293	87.38
466.512	86.38
466.732	94.38
466.951	93.38
467.171	94.38
467.391	112.38
467.61	136.38
467.829	186.38
468.049	462.38
468.268	647.38
468.488	180.38
468.707	106.38
468.927	98.38
469.146	88.38
469.365	89.38
469.585	81.38
469.804	93.38
470.023	106.38
470.243	90.38
470.462	108.38
470.681	124.38
470.901	106.38
471.12	94.38
471.339	104.38
471.558	110.38
471.777	123.38
471.997	255.38
472.216	888.38
472.435	1957.38
472.654	480.38
472.873	152.38
473.092	106.38
473.311	104.38
473.53	85.38
473.749	102.38
473.968	102.38
474.187	118.38
474.406	101.38
474.625	89.38
474.844	79.38
475.063	80.38
475.282	87.38
475.501	86.38
475.72	85.38
475.939	98.38
476.158	98.38
476.377	75.38
476.596	79.38
476.814	101.38
477.033	92.38
477.252	97.38
477.471	93.38
477.69	97.38
477.908	85.38
478.127	83.38
478.346	65.38
478.564	80.38
478.783	106.38
479.002	103.38
479.22	95.38
479.439	115.38
479.658	133.38
479.876	121.38
480.095	116.38
480.313	138.38
480.532	153.38
480.751	255.38
480.969	830.38
481.188	3454.38
481.406	1958.38
481.624	304.38
481.843	128.38
482.061	103.38
482.28	88.38
482.498	95.38
482.717	87.38
482.935	81.38
483.153	95.38
483.372	104.38
483.59	96.38
483.808	85.38
484.027	86.38
484.245	94.38
484.463	94.38
484.681	101.38
484.9	106.38
485.118	71.38
485.336	88.38
485.554	101.38
485.772	97.38
485.99	107.38
486.209	104.38
486.427	100.38
486.645	119.38
486.863	109.38
487.081	113.38
487.299	103.38
487.517	105.38
487.735	91.38
487.953	97.38
488.171	98.38
488.389	97.38
488.607	111.38
488.825	97.38
489.043	87.38
489.261	89.38
489.479	76.38
489.696	90.38
489.914	74.38
490.132	86.38
490.35	84.38
490.568	91.38
490.786	103.38
491.003	90.38
491.221	91.38
491.439	101.38
491.657	95.38
491.874	91.38
492.092	91.38
492.31	85.38
492.527	92.38
492.745	104.38
492.963	84.38
493.18	90.38
493.398	96.38
493.615	96.38
493.833	85.38
494.05	96.38
494.268	89.38
494.485	88.38
494.703	83.38
494.92	92.38
495.138	81.38
495.355	88.38
495.573	83.38
495.79	87.38
496.008	81.38
496.225	87.38
496.442	106.38
496.66	95.38
496.877	103.38
497.094	104.38
497.312	107.38
497.529	97.38
497.746	94.38
497.963	85.38
498.181	101.38
498.398	91.38
498.615	108.38
498.832	119.38
499.049	101.38
499.267	100.38
499.484	85.38
499.701	82.38
499.918	70.38
500.135	82.38
500.352	92.38
500.569	85.38
500.786	99.38
501.003	97.38
501.22	86.38
501.437	93.38
501.654	107.38
501.871	123.38
502.088	102.38
502.305	89.38
502.522	87.38
502.739	99.38
502.956	92.38
503.172	104.38
503.389	103.38
503.606	112.38
503.823	107.38
504.04	91.38
504.256	91.38
504.473	76.38
504.69	91.38
504.907	102.38
505.123	99.38
505.34	78.38
505.557	90.38
505.773	88.38
505.99	86.38
506.207	99.38
506.423	94.38
506.64	86.38
506.856	94.38
507.073	92.38
507.289	106.38
507.506	98.38
507.722	118.38
507.939	114.38
508.155	89.38
508.372	87.38
508.588	95.38
508.805	88.38
509.021	93.38
509.238	106.38
509.454	115.38
509.67	113.38
509.887	108.38
510.103	142.38
510.319	215.38
510.536	803.38
510.752	2677.38
510.968	738.38
511.184	169.38
511.401	117.38
511.617	106.38
511.833	109.38
512.049	101.38
512.265	95.38
512.481	88.38
512.698	89.38
512.914	93.38
513.13	89.38
513.346	92.38
513.562	89.38
513.778	106.38
513.994	109.38
