Data from Circ_1997_H10_HRD10591_00036.txt Node
Date: Wed Jan 03 11:29:34 EST 2024
User: Yrep
Spectrometer: HR+D1059
Trigger mode: 1
Integration Time (sec): 1.000000E-1
Scans to average: 1
Electric dark correction enabled: true
Nonlinearity correction enabled: false
Boxcar width: 0
XAxis mode: Wavelengths
Number of Pixels in Spectrum: 2048
>>>>>Begin Spectral Data<<<<<
223.165	-12.31
223.4	-12.31
223.635	-12.31
223.869	-5.31
224.104	-21.31
224.338	-25.31
224.573	-22.31
224.808	-23.31
225.042	-10.31
225.277	-14.31
225.511	-10.31
225.746	12.69
225.98	12.69
226.215	16.69
226.449	19.69
226.683	22.69
226.918	23.69
227.152	36.69
227.387	16.69
227.621	45.69
227.856	45.69
228.09	50.69
228.324	63.69
228.559	60.69
228.793	56.69
229.027	70.69
229.262	57.69
229.496	77.69
229.73	93.69
229.964	87.69
230.199	69.69
230.433	62.69
230.667	77.69
230.901	60.69
231.136	82.69
231.37	75.69
231.604	81.69
231.838	89.69
232.072	68.69
232.306	80.69
232.541	89.69
232.775	80.69
233.009	88.69
233.243	70.69
233.477	71.69
233.711	64.69
233.945	92.69
234.179	77.69
234.413	84.69
234.647	83.69
234.881	73.69
235.115	77.69
235.349	71.69
235.583	80.69
235.817	82.69
236.051	74.69
236.285	79.69
236.519	77.69
236.753	80.69
236.987	80.69
237.221	96.69
237.455	76.69
237.689	75.69
237.922	87.69
238.156	78.69
238.39	81.69
238.624	60.69
238.858	64.69
239.091	70.69
239.325	78.69
239.559	92.69
239.793	73.69
240.027	79.69
240.26	80.69
240.494	71.69
240.728	77.69
240.961	65.69
241.195	82.69
241.429	77.69
241.662	82.69
241.896	78.69
242.13	89.69
242.363	85.69
242.597	81.69
242.83	69.69
243.064	66.69
243.298	85.69
243.531	70.69
243.765	74.69
243.998	90.69
244.232	89.69
244.465	81.69
244.699	89.69
244.932	66.69
245.166	78.69
245.399	75.69
245.633	73.69
245.866	82.69
246.099	89.69
246.333	82.69
246.566	81.69
246.8	83.69
247.033	82.69
247.266	74.69
247.5	86.69
247.733	80.69
247.966	93.69
248.2	89.69
248.433	78.69
248.666	77.69
248.899	69.69
249.133	81.69
249.366	102.69
249.599	101.69
249.832	90.69
250.066	89.69
250.299	73.69
250.532	92.69
250.765	89.69
250.998	81.69
251.231	80.69
251.465	81.69
251.698	79.69
251.931	100.69
252.164	73.69
252.397	79.69
252.63	79.69
252.863	74.69
253.096	71.69
253.329	83.69
253.562	59.69
253.795	91.69
254.028	94.69
254.261	77.69
254.494	70.69
254.727	91.69
254.96	81.69
255.193	80.69
255.426	74.69
255.659	85.69
255.892	95.69
256.124	89.69
256.357	97.69
256.59	84.69
256.823	78.69
257.056	95.69
257.289	86.69
257.521	75.69
257.754	88.69
257.987	85.69
258.22	100.69
258.452	104.69
258.685	85.69
258.918	82.69
259.151	71.69
259.383	57.69
259.616	71.69
259.849	98.69
260.081	74.69
260.314	84.69
260.547	86.69
260.779	93.69
261.012	100.69
261.244	97.69
261.477	83.69
261.71	106.69
261.942	113.69
262.175	133.69
262.407	90.69
262.64	85.69
262.872	91.69
263.105	77.69
263.337	79.69
263.57	94.69
263.802	92.69
264.035	89.69
264.267	99.69
264.499	64.69
264.732	85.69
264.964	95.69
265.197	78.69
265.429	77.69
265.661	79.69
265.894	69.69
266.126	95.69
266.358	84.69
266.591	82.69
266.823	84.69
267.055	79.69
267.287	83.69
267.52	74.69
267.752	86.69
267.984	90.69
268.216	78.69
268.448	72.69
268.681	91.69
268.913	90.69
269.145	87.69
269.377	90.69
269.609	78.69
269.841	88.69
270.073	91.69
270.306	75.69
270.538	79.69
270.77	89.69
271.002	79.69
271.234	75.69
271.466	87.69
271.698	90.69
271.93	85.69
272.162	102.69
272.394	93.69
272.626	95.69
272.858	83.69
273.09	100.69
273.322	74.69
273.553	73.69
273.785	81.69
274.017	75.69
274.249	79.69
274.481	85.69
274.713	79.69
274.945	98.69
275.176	71.69
275.408	84.69
275.64	120.69
275.872	107.69
276.104	115.69
276.335	106.69
276.567	110.69
276.799	142.69
277.031	158.69
277.262	151.69
277.494	117.69
277.726	103.69
277.957	88.69
278.189	73.69
278.421	77.69
278.652	101.69
278.884	72.69
279.115	103.69
279.347	99.69
279.579	95.69
279.81	110.69
280.042	161.69
280.273	214.69
280.505	139.69
280.736	99.69
280.968	96.69
281.199	93.69
281.431	92.69
281.662	109.69
281.894	95.69
282.125	106.69
282.356	120.69
282.588	151.69
282.819	121.69
283.051	88.69
283.282	90.69
283.513	88.69
283.745	95.69
283.976	86.69
284.207	96.69
284.439	93.69
284.67	86.69
284.901	99.69
285.132	85.69
285.364	95.69
285.595	75.69
285.826	94.69
286.057	83.69
286.288	83.69
286.52	93.69
286.751	89.69
286.982	94.69
287.213	93.69
287.444	91.69
287.675	81.69
287.906	106.69
288.138	98.69
288.369	77.69
288.6	98.69
288.831	83.69
289.062	90.69
289.293	82.69
289.524	94.69
289.755	89.69
289.986	96.69
290.217	92.69
290.448	74.69
290.679	95.69
290.91	94.69
291.141	80.69
291.371	87.69
291.602	87.69
291.833	79.69
292.064	77.69
292.295	82.69
292.526	80.69
292.757	89.69
292.987	74.69
293.218	89.69
293.449	90.69
293.68	99.69
293.91	91.69
294.141	95.69
294.372	87.69
294.603	89.69
294.833	97.69
295.064	81.69
295.295	74.69
295.525	94.69
295.756	97.69
295.987	122.69
296.217	161.69
296.448	135.69
296.679	107.69
296.909	99.69
297.14	78.69
297.37	83.69
297.601	83.69
297.831	89.69
298.062	91.69
298.292	103.69
298.523	77.69
298.753	92.69
298.984	88.69
299.214	85.69
299.445	95.69
299.675	97.69
299.905	110.69
300.136	86.69
300.366	98.69
300.597	101.69
300.827	94.69
301.057	103.69
301.288	104.69
301.518	93.69
301.748	99.69
301.979	102.69
302.209	83.69
302.439	94.69
302.669	96.69
302.9	91.69
303.13	99.69
303.36	98.69
303.59	123.69
303.82	131.69
304.051	103.69
304.281	90.69
304.511	93.69
304.741	86.69
304.971	80.69
305.201	89.69
305.431	107.69
305.661	71.69
305.891	95.69
306.121	89.69
306.352	95.69
306.582	107.69
306.812	108.69
307.042	120.69
307.272	136.69
307.502	152.69
307.731	142.69
307.961	117.69
308.191	110.69
308.421	106.69
308.651	102.69
308.881	101.69
309.111	89.69
309.341	84.69
309.571	109.69
309.8	87.69
310.03	89.69
310.26	98.69
310.49	100.69
310.72	105.69
310.949	105.69
311.179	102.69
311.409	97.69
311.639	89.69
311.868	85.69
312.098	94.69
312.328	106.69
312.557	105.69
312.787	109.69
313.017	100.69
313.246	94.69
313.476	80.69
313.706	83.69
313.935	98.69
314.165	103.69
314.394	94.69
314.624	101.69
314.853	89.69
315.083	93.69
315.312	89.69
315.542	95.69
315.771	86.69
316.001	95.69
316.23	87.69
316.46	101.69
316.689	90.69
316.919	112.69
317.148	101.69
317.377	98.69
317.607	92.69
317.836	97.69
318.065	92.69
318.295	96.69
318.524	108.69
318.753	91.69
318.983	88.69
319.212	108.69
319.441	117.69
319.67	97.69
319.9	98.69
320.129	86.69
320.358	111.69
320.587	103.69
320.816	102.69
321.046	102.69
321.275	103.69
321.504	102.69
321.733	110.69
321.962	99.69
322.191	109.69
322.42	126.69
322.649	102.69
322.878	118.69
323.108	133.69
323.337	139.69
323.566	160.69
323.795	199.69
324.024	260.69
324.253	577.69
324.482	1295.69
324.71	2790.69
324.939	3733.69
325.168	1255.69
325.397	342.69
325.626	194.69
325.855	163.69
326.084	160.69
326.313	161.69
326.542	198.69
326.77	328.69
326.999	665.69
327.228	1511.69
327.457	2844.69
327.686	2207.69
327.914	630.69
328.143	477.69
328.372	537.69
328.6	305.69
328.829	194.69
329.058	173.69
329.287	176.69
329.515	162.69
329.744	231.69
329.972	399.69
330.201	801.69
330.43	1148.69
330.658	505.69
330.887	229.69
331.115	154.69
331.344	123.69
331.572	126.69
331.801	108.69
332.03	135.69
332.258	108.69
332.486	112.69
332.715	109.69
332.943	119.69
333.172	127.69
333.4	129.69
333.629	149.69
333.857	201.69
334.085	393.69
334.314	756.69
334.542	1452.69
334.771	1341.69
334.999	350.69
335.227	164.69
335.455	117.69
335.684	113.69
335.912	105.69
336.14	118.69
336.369	101.69
336.597	107.69
336.825	111.69
337.053	96.69
337.281	89.69
337.51	97.69
337.738	94.69
337.966	97.69
338.194	97.69
338.422	85.69
338.65	105.69
338.878	87.69
339.106	86.69
339.334	103.69
339.562	108.69
339.79	98.69
340.018	102.69
340.246	104.69
340.474	107.69
340.702	102.69
340.93	90.69
341.158	98.69
341.386	109.69
341.614	110.69
341.842	95.69
342.07	101.69
342.298	94.69
342.526	107.69
342.754	81.69
342.981	93.69
343.209	91.69
343.437	94.69
343.665	100.69
343.893	92.69
344.12	97.69
344.348	98.69
344.576	96.69
344.804	91.69
345.031	113.69
345.259	90.69
345.487	91.69
345.714	96.69
345.942	86.69
346.17	87.69
346.397	107.69
346.625	87.69
346.853	90.69
347.08	90.69
347.308	105.69
347.535	103.69
347.763	91.69
347.99	99.69
348.218	90.69
348.445	118.69
348.673	103.69
348.9	102.69
349.128	104.69
349.355	93.69
349.583	91.69
349.81	89.69
350.037	94.69
350.265	73.69
350.492	83.69
350.72	89.69
350.947	127.69
351.174	115.69
351.402	113.69
351.629	86.69
351.856	109.69
352.083	106.69
352.311	101.69
352.538	113.69
352.765	112.69
352.992	134.69
353.22	127.69
353.447	98.69
353.674	88.69
353.901	94.69
354.128	85.69
354.355	90.69
354.583	107.69
354.81	106.69
355.037	106.69
355.264	79.69
355.491	96.69
355.718	90.69
355.945	74.69
356.172	93.69
356.399	92.69
356.626	86.69
356.853	102.69
357.08	83.69
357.307	74.69
357.534	91.69
357.761	88.69
357.988	95.69
358.215	84.69
358.441	102.69
358.668	80.69
358.895	83.69
359.122	90.69
359.349	94.69
359.576	104.69
359.802	111.69
360.029	123.69
360.256	119.69
360.483	114.69
360.709	97.69
360.936	119.69
361.163	98.69
361.39	102.69
361.616	100.69
361.843	94.69
362.07	102.69
362.296	103.69
362.523	95.69
362.749	85.69
362.976	98.69
363.203	90.69
363.429	82.69
363.656	98.69
363.882	105.69
364.109	97.69
364.335	95.69
364.562	94.69
364.788	110.69
365.015	103.69
365.241	104.69
365.468	93.69
365.694	105.69
365.92	108.69
366.147	89.69
366.373	101.69
366.599	96.69
366.826	89.69
367.052	97.69
367.278	96.69
367.505	96.69
367.731	104.69
367.957	92.69
368.184	77.69
368.41	105.69
368.636	116.69
368.862	127.69
369.089	108.69
369.315	88.69
369.541	91.69
369.767	103.69
369.993	108.69
370.219	99.69
370.445	89.69
370.672	80.69
370.898	94.69
371.124	89.69
371.35	80.69
371.576	89.69
371.802	77.69
372.028	89.69
372.254	95.69
372.48	85.69
372.706	95.69
372.932	86.69
373.158	77.69
373.384	95.69
373.61	84.69
373.835	80.69
374.061	93.69
374.287	90.69
374.513	76.69
374.739	97.69
374.965	81.69
375.191	84.69
375.416	100.69
375.642	85.69
375.868	84.69
376.094	83.69
376.319	73.69
376.545	90.69
376.771	93.69
376.997	103.69
377.222	83.69
377.448	91.69
377.674	88.69
377.899	81.69
378.125	95.69
378.35	108.69
378.576	101.69
378.802	89.69
379.027	87.69
379.253	63.69
379.478	95.69
379.704	95.69
379.929	94.69
380.155	98.69
380.38	98.69
380.606	85.69
380.831	89.69
381.057	99.69
381.282	107.69
381.507	102.69
381.733	85.69
381.958	97.69
382.184	106.69
382.409	99.69
382.634	103.69
382.86	103.69
383.085	96.69
383.31	100.69
383.535	83.69
383.761	87.69
383.986	94.69
384.211	99.69
384.436	94.69
384.662	89.69
384.887	80.69
385.112	98.69
385.337	95.69
385.562	93.69
385.787	98.69
386.013	118.69
386.238	108.69
386.463	118.69
386.688	114.69
386.913	99.69
387.138	107.69
387.363	98.69
387.588	98.69
387.813	105.69
388.038	108.69
388.263	112.69
388.488	108.69
388.713	98.69
388.938	92.69
389.163	101.69
389.387	110.69
389.612	96.69
389.837	99.69
390.062	85.69
390.287	95.69
390.512	95.69
390.736	85.69
390.961	83.69
391.186	102.69
391.411	93.69
391.636	87.69
391.86	89.69
392.085	83.69
392.31	88.69
392.534	98.69
392.759	75.69
392.984	90.69
393.208	94.69
393.433	98.69
393.658	83.69
393.882	86.69
394.107	66.69
394.331	92.69
394.556	92.69
394.78	96.69
395.005	97.69
395.229	90.69
395.454	95.69
395.678	101.69
395.903	91.69
396.127	92.69
396.352	86.69
396.576	83.69
396.801	87.69
397.025	71.69
397.249	86.69
397.474	85.69
397.698	90.69
397.922	82.69
398.147	95.69
398.371	86.69
398.595	75.69
398.82	85.69
399.044	83.69
399.268	78.69
399.492	94.69
399.717	91.69
399.941	95.69
400.165	91.69
400.389	107.69
400.613	92.69
400.837	91.69
401.062	106.69
401.286	92.69
401.51	79.69
401.734	90.69
401.958	112.69
402.182	153.69
402.406	186.69
402.63	138.69
402.854	99.69
403.078	77.69
403.302	92.69
403.526	99.69
403.75	92.69
403.974	77.69
404.198	107.69
404.422	88.69
404.645	90.69
404.869	99.69
405.093	126.69
405.317	146.69
405.541	146.69
405.765	112.69
405.988	137.69
406.212	208.69
406.436	277.69
406.66	192.69
406.883	121.69
407.107	120.69
407.331	107.69
407.555	98.69
407.778	108.69
408.002	96.69
408.226	99.69
408.449	75.69
408.673	88.69
408.896	99.69
409.12	97.69
409.344	86.69
409.567	96.69
409.791	104.69
410.014	94.69
410.238	96.69
410.461	102.69
410.685	97.69
410.908	109.69
411.132	122.69
411.355	105.69
411.578	97.69
411.802	87.69
412.025	95.69
412.249	94.69
412.472	95.69
412.695	130.69
412.919	106.69
413.142	99.69
413.365	92.69
413.589	86.69
413.812	78.69
414.035	99.69
414.258	92.69
414.482	98.69
414.705	88.69
414.928	95.69
415.151	86.69
415.374	89.69
415.597	83.69
415.821	93.69
416.044	87.69
416.267	86.69
416.49	85.69
416.713	88.69
416.936	96.69
417.159	79.69
417.382	95.69
417.605	94.69
417.828	107.69
418.051	96.69
418.274	85.69
418.497	78.69
418.72	87.69
418.943	92.69
419.166	90.69
419.389	99.69
419.611	94.69
419.834	102.69
420.057	100.69
420.28	83.69
420.503	94.69
420.726	88.69
420.948	94.69
421.171	90.69
421.394	107.69
421.617	81.69
421.839	102.69
422.062	86.69
422.285	98.69
422.507	96.69
422.73	110.69
422.953	85.69
423.175	91.69
423.398	99.69
423.621	94.69
423.843	74.69
424.066	77.69
424.288	70.69
424.511	101.69
424.733	100.69
424.956	123.69
425.178	95.69
425.401	107.69
425.623	101.69
425.846	77.69
426.068	110.69
426.291	95.69
426.513	87.69
426.735	96.69
426.958	109.69
427.18	121.69
427.402	175.69
427.625	242.69
427.847	244.69
428.069	237.69
428.292	119.69
428.514	89.69
428.736	96.69
428.958	93.69
429.181	89.69
429.403	107.69
429.625	91.69
429.847	100.69
430.069	102.69
430.292	110.69
430.514	90.69
430.736	82.69
430.958	92.69
431.18	90.69
431.402	85.69
431.624	93.69
431.846	76.69
432.068	86.69
432.29	88.69
432.512	89.69
432.734	81.69
432.956	110.69
433.178	103.69
433.4	117.69
433.622	97.69
433.844	81.69
434.066	90.69
434.287	98.69
434.509	85.69
434.731	97.69
434.953	86.69
435.175	89.69
435.397	88.69
435.618	100.69
435.84	115.69
436.062	161.69
436.284	133.69
436.505	123.69
436.727	125.69
436.949	105.69
437.17	106.69
437.392	99.69
437.614	101.69
437.835	122.69
438.057	142.69
438.278	122.69
438.5	119.69
438.721	126.69
438.943	112.69
439.165	95.69
439.386	84.69
439.608	97.69
439.829	114.69
440.05	163.69
440.272	197.69
440.493	122.69
440.715	95.69
440.936	101.69
441.158	90.69
441.379	89.69
441.6	99.69
441.822	101.69
442.043	105.69
442.264	109.69
442.486	111.69
442.707	113.69
442.928	112.69
443.149	155.69
443.371	161.69
443.592	117.69
443.813	141.69
444.034	121.69
444.255	100.69
444.476	103.69
444.698	86.69
444.919	92.69
445.14	146.69
445.361	126.69
445.582	132.69
445.803	181.69
446.024	193.69
446.245	184.69
446.466	114.69
446.687	97.69
446.908	96.69
447.129	103.69
447.35	83.69
447.571	101.69
447.792	91.69
448.013	106.69
448.234	126.69
448.455	118.69
448.675	145.69
448.896	146.69
449.117	106.69
449.338	103.69
449.559	163.69
449.779	141.69
450	102.69
450.221	101.69
450.442	103.69
450.662	89.69
450.883	105.69
451.104	117.69
451.324	97.69
451.545	83.69
451.766	89.69
451.986	99.69
452.207	106.69
452.428	101.69
452.648	101.69
452.869	112.69
453.089	117.69
453.31	140.69
453.53	94.69
453.751	97.69
453.971	112.69
454.192	114.69
454.412	97.69
454.633	79.69
454.853	69.69
455.073	98.69
455.294	90.69
455.514	116.69
455.734	91.69
455.955	91.69
456.175	79.69
456.395	96.69
456.616	91.69
456.836	97.69
457.056	89.69
457.276	89.69
457.497	93.69
457.717	81.69
457.937	94.69
458.157	84.69
458.377	104.69
458.598	122.69
458.818	193.69
459.038	209.69
459.258	146.69
459.478	99.69
459.698	89.69
459.918	89.69
460.138	96.69
460.358	95.69
460.578	91.69
460.798	82.69
461.018	90.69
461.238	94.69
461.458	94.69
461.678	83.69
461.898	78.69
462.118	86.69
462.338	94.69
462.558	88.69
462.777	97.69
462.997	96.69
463.217	105.69
463.437	98.69
463.657	92.69
463.876	92.69
464.096	80.69
464.316	97.69
464.536	101.69
464.755	93.69
464.975	119.69
465.195	211.69
465.414	220.69
465.634	113.69
465.854	93.69
466.073	99.69
466.293	100.69
466.512	91.69
466.732	93.69
466.951	90.69
467.171	104.69
467.391	100.69
467.61	130.69
467.829	179.69
468.049	476.69
468.268	711.69
468.488	199.69
468.707	82.69
468.927	91.69
469.146	89.69
469.365	84.69
469.585	101.69
469.804	122.69
470.023	98.69
470.243	97.69
470.462	111.69
470.681	130.69
470.901	97.69
471.12	105.69
471.339	109.69
471.558	115.69
471.777	151.69
471.997	271.69
472.216	923.69
472.435	2104.69
472.654	488.69
472.873	144.69
473.092	99.69
473.311	95.69
473.53	87.69
473.749	102.69
473.968	98.69
474.187	114.69
474.406	99.69
474.625	98.69
474.844	82.69
475.063	90.69
475.282	93.69
475.501	85.69
475.72	95.69
475.939	96.69
476.158	83.69
476.377	82.69
476.596	87.69
476.814	102.69
477.033	102.69
477.252	88.69
477.471	98.69
477.69	92.69
477.908	91.69
478.127	92.69
478.346	90.69
478.564	105.69
478.783	98.69
479.002	101.69
479.22	99.69
479.439	121.69
479.658	119.69
479.876	118.69
480.095	115.69
480.313	124.69
480.532	150.69
480.751	238.69
480.969	884.69
481.188	3641.69
481.406	2067.69
481.624	318.69
481.843	124.69
482.061	110.69
482.28	96.69
482.498	79.69
482.717	87.69
482.935	97.69
483.153	85.69
483.372	111.69
483.59	88.69
483.808	79.69
484.027	85.69
484.245	90.69
484.463	91.69
484.681	87.69
484.9	89.69
485.118	103.69
485.336	110.69
485.554	88.69
485.772	96.69
485.99	86.69
486.209	101.69
486.427	110.69
486.645	113.69
486.863	120.69
487.081	111.69
487.299	100.69
487.517	87.69
487.735	87.69
487.953	79.69
488.171	89.69
488.389	103.69
488.607	110.69
488.825	114.69
489.043	91.69
489.261	92.69
489.479	103.69
489.696	98.69
489.914	80.69
490.132	88.69
490.35	92.69
490.568	88.69
490.786	88.69
491.003	78.69
491.221	90.69
491.439	89.69
491.657	98.69
491.874	87.69
492.092	78.69
492.31	99.69
492.527	85.69
492.745	81.69
492.963	97.69
493.18	105.69
493.398	93.69
493.615	93.69
493.833	93.69
494.05	96.69
494.268	85.69
494.485	87.69
494.703	82.69
494.92	91.69
495.138	88.69
495.355	78.69
495.573	92.69
495.79	87.69
496.008	87.69
496.225	85.69
496.442	86.69
496.66	92.69
496.877	92.69
497.094	90.69
497.312	90.69
497.529	98.69
497.746	89.69
497.963	109.69
498.181	101.69
498.398	106.69
498.615	126.69
498.832	108.69
499.049	107.69
499.267	94.69
499.484	89.69
499.701	87.69
499.918	89.69
500.135	90.69
500.352	101.69
500.569	89.69
500.786	103.69
501.003	97.69
501.22	85.69
501.437	88.69
501.654	111.69
501.871	115.69
502.088	97.69
502.305	90.69
502.522	96.69
502.739	86.69
502.956	90.69
503.172	86.69
503.389	96.69
503.606	108.69
503.823	112.69
504.04	97.69
504.256	95.69
504.473	95.69
504.69	99.69
504.907	107.69
505.123	92.69
505.34	89.69
505.557	92.69
505.773	90.69
505.99	85.69
506.207	94.69
506.423	92.69
506.64	99.69
506.856	108.69
507.073	86.69
507.289	98.69
507.506	109.69
507.722	112.69
507.939	116.69
508.155	102.69
508.372	83.69
508.588	90.69
508.805	105.69
509.021	83.69
509.238	107.69
509.454	96.69
509.67	105.69
509.887	109.69
510.103	137.69
510.319	232.69
510.536	892.69
510.752	2983.69
510.968	830.69
511.184	191.69
511.401	139.69
511.617	102.69
511.833	102.69
512.049	103.69
512.265	100.69
512.481	106.69
512.698	90.69
512.914	95.69
513.13	88.69
513.346	74.69
513.562	112.69
