Data from Circ_1997_H10_HRD10591_00047.txt Node
Date: Wed Jan 03 11:29:37 EST 2024
User: Yrep
Spectrometer: HR+D1059
Trigger mode: 1
Integration Time (sec): 1.000000E-1
Scans to average: 1
Electric dark correction enabled: true
Nonlinearity correction enabled: false
Boxcar width: 0
XAxis mode: Wavelengths
Number of Pixels in Spectrum: 2048
>>>>>Begin Spectral Data<<<<<
223.165	-6.75
223.4	-6.75
223.635	-6.75
223.869	-18.75
224.104	-10.75
224.338	-7.75
224.573	-26.75
224.808	-11.75
225.042	-11.75
225.277	-8.75
225.511	0.25
225.746	-1.75
225.98	4.25
226.215	11.25
226.449	18.25
226.683	19.25
226.918	27.25
227.152	24.25
227.387	23.25
227.621	36.25
227.856	32.25
228.09	52.25
228.324	58.25
228.559	64.25
228.793	57.25
229.027	68.25
229.262	71.25
229.496	80.25
229.73	98.25
229.964	89.25
230.199	90.25
230.433	71.25
230.667	80.25
230.901	69.25
231.136	88.25
231.37	80.25
231.604	77.25
231.838	72.25
232.072	75.25
232.306	76.25
232.541	80.25
232.775	75.25
233.009	92.25
233.243	95.25
233.477	75.25
233.711	89.25
233.945	82.25
234.179	86.25
234.413	82.25
234.647	77.25
234.881	86.25
235.115	81.25
235.349	81.25
235.583	78.25
235.817	68.25
236.051	85.25
236.285	76.25
236.519	77.25
236.753	75.25
236.987	76.25
237.221	88.25
237.455	97.25
237.689	92.25
237.922	87.25
238.156	84.25
238.39	70.25
238.624	80.25
238.858	81.25
239.091	80.25
239.325	69.25
239.559	72.25
239.793	77.25
240.027	81.25
240.26	88.25
240.494	84.25
240.728	81.25
240.961	91.25
241.195	97.25
241.429	83.25
241.662	79.25
241.896	75.25
242.13	76.25
242.363	91.25
242.597	77.25
242.83	81.25
243.064	96.25
243.298	93.25
243.531	58.25
243.765	80.25
243.998	84.25
244.232	81.25
244.465	90.25
244.699	101.25
244.932	78.25
245.166	75.25
245.399	82.25
245.633	82.25
245.866	73.25
246.099	90.25
246.333	80.25
246.566	73.25
246.8	89.25
247.033	83.25
247.266	86.25
247.5	83.25
247.733	76.25
247.966	77.25
248.2	63.25
248.433	89.25
248.666	75.25
248.899	76.25
249.133	98.25
249.366	114.25
249.599	106.25
249.832	91.25
250.066	96.25
250.299	87.25
250.532	72.25
250.765	93.25
250.998	88.25
251.231	102.25
251.465	68.25
251.698	89.25
251.931	73.25
252.164	93.25
252.397	76.25
252.63	81.25
252.863	83.25
253.096	83.25
253.329	77.25
253.562	73.25
253.795	81.25
254.028	88.25
254.261	86.25
254.494	85.25
254.727	109.25
254.96	92.25
255.193	81.25
255.426	90.25
255.659	94.25
255.892	96.25
256.124	98.25
256.357	88.25
256.59	81.25
256.823	82.25
257.056	98.25
257.289	81.25
257.521	97.25
257.754	85.25
257.987	86.25
258.22	84.25
258.452	106.25
258.685	79.25
258.918	75.25
259.151	74.25
259.383	71.25
259.616	93.25
259.849	79.25
260.081	87.25
260.314	65.25
260.547	79.25
260.779	84.25
261.012	97.25
261.244	96.25
261.477	88.25
261.71	92.25
261.942	116.25
262.175	126.25
262.407	95.25
262.64	81.25
262.872	76.25
263.105	88.25
263.337	78.25
263.57	80.25
263.802	97.25
264.035	84.25
264.267	89.25
264.499	86.25
264.732	81.25
264.964	93.25
265.197	83.25
265.429	79.25
265.661	84.25
265.894	101.25
266.126	79.25
266.358	83.25
266.591	91.25
266.823	85.25
267.055	98.25
267.287	86.25
267.52	87.25
267.752	73.25
267.984	88.25
268.216	76.25
268.448	91.25
268.681	89.25
268.913	83.25
269.145	79.25
269.377	96.25
269.609	87.25
269.841	89.25
270.073	104.25
270.306	90.25
270.538	79.25
270.77	91.25
271.002	87.25
271.234	95.25
271.466	96.25
271.698	88.25
271.93	75.25
272.162	106.25
272.394	96.25
272.626	84.25
272.858	89.25
273.09	89.25
273.322	84.25
273.553	92.25
273.785	76.25
274.017	74.25
274.249	87.25
274.481	79.25
274.713	74.25
274.945	74.25
275.176	88.25
275.408	103.25
275.64	103.25
275.872	119.25
276.104	100.25
276.335	90.25
276.567	107.25
276.799	126.25
277.031	141.25
277.262	159.25
277.494	124.25
277.726	104.25
277.957	89.25
278.189	89.25
278.421	96.25
278.652	91.25
278.884	92.25
279.115	75.25
279.347	97.25
279.579	101.25
279.81	114.25
280.042	159.25
280.273	201.25
280.505	148.25
280.736	95.25
280.968	89.25
281.199	83.25
281.431	88.25
281.662	97.25
281.894	84.25
282.125	99.25
282.356	139.25
282.588	138.25
282.819	123.25
283.051	99.25
283.282	69.25
283.513	100.25
283.745	85.25
283.976	88.25
284.207	78.25
284.439	79.25
284.67	72.25
284.901	99.25
285.132	84.25
285.364	75.25
285.595	84.25
285.826	92.25
286.057	95.25
286.288	96.25
286.52	98.25
286.751	85.25
286.982	85.25
287.213	96.25
287.444	94.25
287.675	85.25
287.906	91.25
288.138	96.25
288.369	93.25
288.6	88.25
288.831	70.25
289.062	87.25
289.293	74.25
289.524	88.25
289.755	81.25
289.986	93.25
290.217	78.25
290.448	91.25
290.679	84.25
290.91	89.25
291.141	87.25
291.371	93.25
291.602	94.25
291.833	99.25
292.064	79.25
292.295	106.25
292.526	87.25
292.757	90.25
292.987	90.25
293.218	77.25
293.449	94.25
293.68	94.25
293.91	92.25
294.141	102.25
294.372	89.25
294.603	91.25
294.833	96.25
295.064	93.25
295.295	99.25
295.525	102.25
295.756	99.25
295.987	116.25
296.217	145.25
296.448	110.25
296.679	96.25
296.909	89.25
297.14	91.25
297.37	92.25
297.601	90.25
297.831	88.25
298.062	95.25
298.292	85.25
298.523	81.25
298.753	97.25
298.984	84.25
299.214	84.25
299.445	107.25
299.675	89.25
299.905	88.25
300.136	101.25
300.366	92.25
300.597	85.25
300.827	87.25
301.057	96.25
301.288	107.25
301.518	103.25
301.748	105.25
301.979	103.25
302.209	83.25
302.439	105.25
302.669	90.25
302.9	85.25
303.13	88.25
303.36	119.25
303.59	128.25
303.82	135.25
304.051	98.25
304.281	99.25
304.511	96.25
304.741	100.25
304.971	103.25
305.201	89.25
305.431	90.25
305.661	95.25
305.891	90.25
306.121	91.25
306.352	97.25
306.582	108.25
306.812	119.25
307.042	121.25
307.272	140.25
307.502	161.25
307.731	155.25
307.961	121.25
308.191	99.25
308.421	93.25
308.651	82.25
308.881	92.25
309.111	73.25
309.341	115.25
309.571	101.25
309.8	96.25
310.03	108.25
310.26	108.25
310.49	93.25
310.72	105.25
310.949	119.25
311.179	101.25
311.409	103.25
311.639	103.25
311.868	86.25
312.098	108.25
312.328	95.25
312.557	94.25
312.787	112.25
313.017	108.25
313.246	83.25
313.476	99.25
313.706	99.25
313.935	99.25
314.165	102.25
314.394	109.25
314.624	98.25
314.853	87.25
315.083	91.25
315.312	98.25
315.542	96.25
315.771	100.25
316.001	98.25
316.23	91.25
316.46	89.25
316.689	104.25
316.919	98.25
317.148	114.25
317.377	116.25
317.607	92.25
317.836	106.25
318.065	93.25
318.295	102.25
318.524	87.25
318.753	85.25
318.983	103.25
319.212	110.25
319.441	108.25
319.67	113.25
319.9	100.25
320.129	85.25
320.358	91.25
320.587	91.25
320.816	113.25
321.046	105.25
321.275	107.25
321.504	108.25
321.733	91.25
321.962	99.25
322.191	114.25
322.42	96.25
322.649	117.25
322.878	107.25
323.108	130.25
323.337	135.25
323.566	155.25
323.795	183.25
324.024	236.25
324.253	499.25
324.482	1067.25
324.71	2255.25
324.939	3118.25
325.168	1102.25
325.397	295.25
325.626	174.25
325.855	144.25
326.084	132.25
326.313	144.25
326.542	172.25
326.77	271.25
326.999	553.25
327.228	1257.25
327.457	2450.25
327.686	1892.25
327.914	560.25
328.143	436.25
328.372	541.25
328.6	324.25
328.829	174.25
329.058	183.25
329.287	165.25
329.515	163.25
329.744	227.25
329.972	403.25
330.201	796.25
330.43	1139.25
330.658	505.25
330.887	246.25
331.115	155.25
331.344	129.25
331.572	117.25
331.801	106.25
332.03	123.25
332.258	120.25
332.486	99.25
332.715	99.25
332.943	111.25
333.172	130.25
333.4	108.25
333.629	150.25
333.857	195.25
334.085	371.25
334.314	759.25
334.542	1453.25
334.771	1396.25
334.999	357.25
335.227	164.25
335.455	112.25
335.684	105.25
335.912	109.25
336.14	101.25
336.369	103.25
336.597	97.25
336.825	115.25
337.053	103.25
337.281	100.25
337.51	96.25
337.738	99.25
337.966	93.25
338.194	93.25
338.422	98.25
338.65	92.25
338.878	95.25
339.106	99.25
339.334	106.25
339.562	100.25
339.79	97.25
340.018	115.25
340.246	101.25
340.474	97.25
340.702	96.25
340.93	88.25
341.158	90.25
341.386	84.25
341.614	95.25
341.842	97.25
342.07	103.25
342.298	97.25
342.526	91.25
342.754	72.25
342.981	87.25
343.209	85.25
343.437	108.25
343.665	110.25
343.893	105.25
344.12	106.25
344.348	93.25
344.576	90.25
344.804	91.25
345.031	99.25
345.259	104.25
345.487	100.25
345.714	100.25
345.942	106.25
346.17	90.25
346.397	118.25
346.625	91.25
346.853	74.25
347.08	92.25
347.308	106.25
347.535	99.25
347.763	104.25
347.99	105.25
348.218	113.25
348.445	114.25
348.673	95.25
348.9	86.25
349.128	100.25
349.355	89.25
349.583	85.25
349.81	92.25
350.037	104.25
350.265	93.25
350.492	107.25
350.72	98.25
350.947	99.25
351.174	103.25
351.402	104.25
351.629	107.25
351.856	118.25
352.083	117.25
352.311	106.25
352.538	109.25
352.765	121.25
352.992	101.25
353.22	103.25
353.447	98.25
353.674	112.25
353.901	96.25
354.128	99.25
354.355	81.25
354.583	110.25
354.81	105.25
355.037	83.25
355.264	108.25
355.491	88.25
355.718	91.25
355.945	98.25
356.172	85.25
356.399	83.25
356.626	94.25
356.853	105.25
357.08	112.25
357.307	97.25
357.534	101.25
357.761	99.25
357.988	99.25
358.215	95.25
358.441	100.25
358.668	84.25
358.895	90.25
359.122	89.25
359.349	96.25
359.576	93.25
359.802	108.25
360.029	119.25
360.256	131.25
360.483	113.25
360.709	100.25
360.936	108.25
361.163	89.25
361.39	97.25
361.616	112.25
361.843	95.25
362.07	91.25
362.296	93.25
362.523	92.25
362.749	90.25
362.976	107.25
363.203	86.25
363.429	91.25
363.656	96.25
363.882	98.25
364.109	90.25
364.335	96.25
364.562	109.25
364.788	96.25
365.015	105.25
365.241	116.25
365.468	111.25
365.694	104.25
365.92	105.25
366.147	95.25
366.373	93.25
366.599	99.25
366.826	86.25
367.052	92.25
367.278	100.25
367.505	105.25
367.731	106.25
367.957	92.25
368.184	90.25
368.41	108.25
368.636	112.25
368.862	122.25
369.089	115.25
369.315	95.25
369.541	101.25
369.767	104.25
369.993	100.25
370.219	92.25
370.445	95.25
370.672	93.25
370.898	85.25
371.124	77.25
371.35	100.25
371.576	90.25
371.802	76.25
372.028	92.25
372.254	93.25
372.48	83.25
372.706	95.25
372.932	95.25
373.158	94.25
373.384	84.25
373.61	95.25
373.835	101.25
374.061	85.25
374.287	89.25
374.513	89.25
374.739	94.25
374.965	82.25
375.191	71.25
375.416	101.25
375.642	109.25
375.868	107.25
376.094	86.25
376.319	93.25
376.545	90.25
376.771	92.25
376.997	101.25
377.222	94.25
377.448	98.25
377.674	98.25
377.899	87.25
378.125	92.25
378.35	87.25
378.576	91.25
378.802	98.25
379.027	86.25
379.253	94.25
379.478	101.25
379.704	106.25
379.929	83.25
380.155	77.25
380.38	98.25
380.606	98.25
380.831	93.25
381.057	100.25
381.282	97.25
381.507	100.25
381.733	103.25
381.958	100.25
382.184	94.25
382.409	98.25
382.634	95.25
382.86	99.25
383.085	109.25
383.31	104.25
383.535	95.25
383.761	89.25
383.986	108.25
384.211	97.25
384.436	74.25
384.662	97.25
384.887	100.25
385.112	87.25
385.337	92.25
385.562	105.25
385.787	109.25
386.013	110.25
386.238	107.25
386.463	94.25
386.688	98.25
386.913	98.25
387.138	98.25
387.363	113.25
387.588	95.25
387.813	101.25
388.038	98.25
388.263	97.25
388.488	102.25
388.713	93.25
388.938	106.25
389.163	101.25
389.387	103.25
389.612	94.25
389.837	96.25
390.062	93.25
390.287	89.25
390.512	85.25
390.736	90.25
390.961	83.25
391.186	82.25
391.411	91.25
391.636	89.25
391.86	89.25
392.085	84.25
392.31	81.25
392.534	90.25
392.759	94.25
392.984	89.25
393.208	95.25
393.433	92.25
393.658	91.25
393.882	81.25
394.107	92.25
394.331	80.25
394.556	82.25
394.78	87.25
395.005	92.25
395.229	87.25
395.454	97.25
395.678	99.25
395.903	87.25
396.127	96.25
396.352	92.25
396.576	82.25
396.801	85.25
397.025	96.25
397.249	89.25
397.474	83.25
397.698	90.25
397.922	92.25
398.147	81.25
398.371	87.25
398.595	82.25
398.82	82.25
399.044	74.25
399.268	80.25
399.492	99.25
399.717	81.25
399.941	89.25
400.165	109.25
400.389	87.25
400.613	89.25
400.837	89.25
401.062	78.25
401.286	97.25
401.51	91.25
401.734	87.25
401.958	99.25
402.182	124.25
402.406	170.25
402.63	128.25
402.854	106.25
403.078	96.25
403.302	96.25
403.526	96.25
403.75	106.25
403.974	92.25
404.198	91.25
404.422	81.25
404.645	87.25
404.869	105.25
405.093	112.25
405.317	120.25
405.541	129.25
405.765	111.25
405.988	123.25
406.212	189.25
406.436	254.25
406.66	159.25
406.883	107.25
407.107	95.25
407.331	98.25
407.555	116.25
407.778	113.25
408.002	113.25
408.226	98.25
408.449	98.25
408.673	92.25
408.896	100.25
409.12	102.25
409.344	89.25
409.567	90.25
409.791	95.25
410.014	84.25
410.238	101.25
410.461	91.25
410.685	95.25
410.908	99.25
411.132	94.25
411.355	102.25
411.578	99.25
411.802	95.25
412.025	82.25
412.249	115.25
412.472	117.25
412.695	127.25
412.919	96.25
413.142	91.25
413.365	89.25
413.589	100.25
413.812	89.25
414.035	105.25
414.258	93.25
414.482	89.25
414.705	97.25
414.928	92.25
415.151	110.25
415.374	94.25
415.597	99.25
415.821	89.25
416.044	95.25
416.267	101.25
416.49	81.25
416.713	81.25
416.936	112.25
417.159	95.25
417.382	86.25
417.605	101.25
417.828	115.25
418.051	93.25
418.274	93.25
418.497	95.25
418.72	79.25
418.943	81.25
419.166	90.25
419.389	101.25
419.611	95.25
419.834	88.25
420.057	87.25
420.28	86.25
420.503	96.25
420.726	91.25
420.948	100.25
421.171	108.25
421.394	100.25
421.617	94.25
421.839	87.25
422.062	95.25
422.285	102.25
422.507	106.25
422.73	113.25
422.953	96.25
423.175	110.25
423.398	93.25
423.621	100.25
423.843	88.25
424.066	93.25
424.288	92.25
424.511	95.25
424.733	71.25
424.956	113.25
425.178	97.25
425.401	119.25
425.623	109.25
425.846	85.25
426.068	96.25
426.291	108.25
426.513	90.25
426.735	107.25
426.958	103.25
427.18	99.25
427.402	165.25
427.625	228.25
427.847	247.25
428.069	228.25
428.292	123.25
428.514	107.25
428.736	90.25
428.958	94.25
429.181	98.25
429.403	101.25
429.625	100.25
429.847	94.25
430.069	98.25
430.292	100.25
430.514	87.25
430.736	79.25
430.958	98.25
431.18	88.25
431.402	91.25
431.624	91.25
431.846	85.25
432.068	107.25
432.29	99.25
432.512	96.25
432.734	97.25
432.956	97.25
433.178	118.25
433.4	104.25
433.622	91.25
433.844	96.25
434.066	88.25
434.287	101.25
434.509	91.25
434.731	93.25
434.953	83.25
435.175	81.25
435.397	91.25
435.618	97.25
435.84	117.25
436.062	139.25
436.284	142.25
436.505	123.25
436.727	118.25
436.949	82.25
437.17	86.25
437.392	101.25
437.614	94.25
437.835	110.25
438.057	133.25
438.278	113.25
438.5	115.25
438.721	126.25
438.943	124.25
439.165	85.25
439.386	95.25
439.608	101.25
439.829	112.25
440.05	142.25
440.272	169.25
440.493	111.25
440.715	101.25
440.936	87.25
441.158	83.25
441.379	100.25
441.6	97.25
441.822	96.25
442.043	91.25
442.264	109.25
442.486	114.25
442.707	110.25
442.928	113.25
443.149	139.25
443.371	160.25
443.592	149.25
443.813	123.25
444.034	123.25
444.255	88.25
444.476	95.25
444.698	105.25
444.919	94.25
445.14	120.25
445.361	153.25
445.582	139.25
445.803	181.25
446.024	159.25
446.245	162.25
446.466	119.25
446.687	94.25
446.908	86.25
447.129	93.25
447.35	87.25
447.571	107.25
447.792	86.25
448.013	105.25
448.234	113.25
448.455	101.25
448.675	130.25
448.896	144.25
449.117	114.25
449.338	127.25
449.559	155.25
449.779	150.25
450	101.25
450.221	81.25
450.442	91.25
450.662	107.25
450.883	113.25
451.104	118.25
451.324	90.25
451.545	104.25
451.766	96.25
451.986	79.25
452.207	90.25
452.428	99.25
452.648	100.25
452.869	113.25
453.089	104.25
453.31	139.25
453.53	91.25
453.751	99.25
453.971	113.25
454.192	120.25
454.412	82.25
454.633	94.25
454.853	86.25
455.073	96.25
455.294	100.25
455.514	108.25
455.734	111.25
455.955	92.25
456.175	97.25
456.395	95.25
456.616	89.25
456.836	80.25
457.056	77.25
457.276	78.25
457.497	88.25
457.717	80.25
457.937	75.25
458.157	92.25
458.377	91.25
458.598	101.25
458.818	155.25
459.038	185.25
459.258	133.25
459.478	87.25
459.698	79.25
459.918	86.25
460.138	96.25
460.358	86.25
460.578	78.25
460.798	87.25
461.018	107.25
461.238	92.25
461.458	97.25
461.678	79.25
461.898	85.25
462.118	93.25
462.338	82.25
462.558	84.25
462.777	86.25
462.997	114.25
463.217	87.25
463.437	96.25
463.657	92.25
463.876	98.25
464.096	89.25
464.316	86.25
464.536	89.25
464.755	94.25
464.975	116.25
465.195	191.25
465.414	185.25
465.634	94.25
465.854	98.25
466.073	102.25
466.293	91.25
466.512	90.25
466.732	96.25
466.951	94.25
467.171	100.25
467.391	98.25
467.61	118.25
467.829	191.25
468.049	483.25
468.268	658.25
468.488	175.25
468.707	119.25
468.927	104.25
469.146	90.25
469.365	92.25
469.585	111.25
469.804	96.25
470.023	87.25
470.243	89.25
470.462	103.25
470.681	122.25
470.901	99.25
471.12	88.25
471.339	107.25
471.558	100.25
471.777	159.25
471.997	255.25
472.216	898.25
472.435	2028.25
472.654	492.25
472.873	132.25
473.092	109.25
473.311	114.25
473.53	83.25
473.749	93.25
473.968	92.25
474.187	120.25
474.406	104.25
474.625	98.25
474.844	104.25
475.063	84.25
475.282	75.25
475.501	84.25
475.72	99.25
475.939	97.25
476.158	79.25
476.377	97.25
476.596	98.25
476.814	91.25
477.033	95.25
477.252	106.25
477.471	96.25
477.69	98.25
477.908	90.25
478.127	100.25
478.346	77.25
478.564	88.25
478.783	106.25
479.002	107.25
479.22	102.25
479.439	108.25
479.658	97.25
479.876	105.25
480.095	115.25
480.313	132.25
480.532	160.25
480.751	252.25
480.969	860.25
481.188	3534.25
481.406	2041.25
481.624	311.25
481.843	131.25
482.061	108.25
482.28	103.25
482.498	109.25
482.717	105.25
482.935	94.25
483.153	84.25
483.372	91.25
483.59	97.25
483.808	91.25
484.027	91.25
484.245	97.25
484.463	100.25
484.681	100.25
484.9	103.25
485.118	103.25
485.336	93.25
485.554	117.25
485.772	99.25
485.99	107.25
486.209	103.25
486.427	110.25
486.645	108.25
486.863	110.25
487.081	110.25
487.299	89.25
487.517	88.25
487.735	91.25
487.953	92.25
488.171	92.25
488.389	102.25
488.607	86.25
488.825	86.25
489.043	93.25
489.261	91.25
489.479	90.25
489.696	89.25
489.914	84.25
490.132	99.25
490.35	90.25
490.568	96.25
490.786	90.25
491.003	90.25
491.221	87.25
491.439	90.25
491.657	88.25
491.874	94.25
492.092	101.25
492.31	98.25
492.527	106.25
492.745	90.25
492.963	85.25
493.18	97.25
493.398	103.25
493.615	93.25
493.833	98.25
494.05	89.25
494.268	82.25
494.485	83.25
494.703	92.25
494.92	82.25
495.138	91.25
495.355	84.25
495.573	105.25
495.79	86.25
496.008	99.25
496.225	89.25
496.442	95.25
496.66	92.25
496.877	103.25
497.094	88.25
497.312	86.25
497.529	83.25
497.746	96.25
497.963	86.25
498.181	94.25
498.398	111.25
498.615	127.25
498.832	113.25
499.049	99.25
499.267	90.25
499.484	95.25
499.701	107.25
499.918	93.25
500.135	101.25
500.352	85.25
500.569	89.25
500.786	103.25
501.003	95.25
501.22	89.25
501.437	106.25
501.654	86.25
501.871	124.25
502.088	105.25
502.305	95.25
502.522	97.25
502.739	99.25
502.956	109.25
503.172	91.25
503.389	100.25
503.606	116.25
503.823	117.25
504.04	101.25
504.256	93.25
504.473	91.25
504.69	97.25
504.907	93.25
505.123	106.25
505.34	103.25
505.557	93.25
505.773	96.25
505.99	83.25
506.207	95.25
506.423	96.25
506.64	89.25
506.856	92.25
507.073	121.25
507.289	87.25
507.506	97.25
507.722	116.25
507.939	122.25
508.155	96.25
508.372	84.25
508.588	96.25
508.805	100.25
509.021	96.25
509.238	93.25
509.454	106.25
509.67	107.25
509.887	108.25
510.103	130.25
510.319	199.25
510.536	747.25
510.752	2399.25
510.968	675.25
511.184	155.25
511.401	122.25
511.617	113.25
511.833	100.25
512.049	100.25
512.265	88.25
512.481	83.25
512.698	89.25
512.914	82.25
513.13	92.25
513.346	81.25
