Data from Circ_1997_H10_HRD10591_00091.txt Node
Date: Wed Jan 03 11:29:45 EST 2024
User: Yrep
Spectrometer: HR+D1059
Trigger mode: 1
Integration Time (sec): 1.000000E-1
Scans to average: 1
Electric dark correction enabled: true
Nonlinearity correction enabled: false
Boxcar width: 0
XAxis mode: Wavelengths
Number of Pixels in Spectrum: 2048
>>>>>Begin Spectral Data<<<<<
223.165	-20.88
223.4	-20.88
223.635	-20.88
223.869	-12.88
224.104	-13.88
224.338	-7.88
224.573	-13.88
224.808	-5.88
225.042	-11.88
225.277	-11.88
225.511	4.12
225.746	8.12
225.98	3.12
226.215	6.12
226.449	11.12
226.683	9.12
226.918	20.12
227.152	37.12
227.387	43.12
227.621	43.12
227.856	52.12
228.09	53.12
228.324	56.12
228.559	56.12
228.793	61.12
229.027	67.12
229.262	82.12
229.496	95.12
229.73	107.12
229.964	100.12
230.199	84.12
230.433	72.12
230.667	85.12
230.901	75.12
231.136	73.12
231.37	84.12
231.604	80.12
231.838	78.12
232.072	80.12
232.306	75.12
232.541	87.12
232.775	81.12
233.009	82.12
233.243	79.12
233.477	81.12
233.711	74.12
233.945	92.12
234.179	82.12
234.413	99.12
234.647	84.12
234.881	86.12
235.115	87.12
235.349	91.12
235.583	84.12
235.817	85.12
236.051	80.12
236.285	83.12
236.519	77.12
236.753	92.12
236.987	91.12
237.221	90.12
237.455	93.12
237.689	74.12
237.922	99.12
238.156	67.12
238.39	68.12
238.624	76.12
238.858	79.12
239.091	84.12
239.325	80.12
239.559	91.12
239.793	95.12
240.027	84.12
240.26	88.12
240.494	87.12
240.728	75.12
240.961	71.12
241.195	80.12
241.429	71.12
241.662	90.12
241.896	66.12
242.13	72.12
242.363	83.12
242.597	71.12
242.83	77.12
243.064	77.12
243.298	89.12
243.531	85.12
243.765	83.12
243.998	88.12
244.232	84.12
244.465	98.12
244.699	80.12
244.932	75.12
245.166	99.12
245.399	88.12
245.633	74.12
245.866	85.12
246.099	100.12
246.333	64.12
246.566	87.12
246.8	91.12
247.033	76.12
247.266	88.12
247.5	76.12
247.733	66.12
247.966	76.12
248.2	88.12
248.433	75.12
248.666	78.12
248.899	85.12
249.133	109.12
249.366	112.12
249.599	113.12
249.832	87.12
250.066	91.12
250.299	92.12
250.532	92.12
250.765	80.12
250.998	90.12
251.231	88.12
251.465	100.12
251.698	90.12
251.931	85.12
252.164	87.12
252.397	97.12
252.63	91.12
252.863	88.12
253.096	73.12
253.329	88.12
253.562	81.12
253.795	87.12
254.028	87.12
254.261	92.12
254.494	98.12
254.727	85.12
254.96	76.12
255.193	90.12
255.426	80.12
255.659	91.12
255.892	96.12
256.124	100.12
256.357	84.12
256.59	95.12
256.823	93.12
257.056	86.12
257.289	89.12
257.521	86.12
257.754	91.12
257.987	88.12
258.22	108.12
258.452	98.12
258.685	86.12
258.918	97.12
259.151	72.12
259.383	78.12
259.616	87.12
259.849	88.12
260.081	88.12
260.314	97.12
260.547	80.12
260.779	106.12
261.012	135.12
261.244	103.12
261.477	106.12
261.71	116.12
261.942	138.12
262.175	139.12
262.407	107.12
262.64	90.12
262.872	91.12
263.105	85.12
263.337	95.12
263.57	88.12
263.802	87.12
264.035	75.12
264.267	82.12
264.499	89.12
264.732	94.12
264.964	89.12
265.197	81.12
265.429	88.12
265.661	80.12
265.894	91.12
266.126	91.12
266.358	76.12
266.591	98.12
266.823	87.12
267.055	92.12
267.287	82.12
267.52	75.12
267.752	95.12
267.984	75.12
268.216	82.12
268.448	89.12
268.681	86.12
268.913	76.12
269.145	96.12
269.377	79.12
269.609	93.12
269.841	89.12
270.073	88.12
270.306	95.12
270.538	86.12
270.77	91.12
271.002	99.12
271.234	89.12
271.466	109.12
271.698	107.12
271.93	87.12
272.162	96.12
272.394	96.12
272.626	83.12
272.858	97.12
273.09	96.12
273.322	86.12
273.553	80.12
273.785	87.12
274.017	97.12
274.249	89.12
274.481	99.12
274.713	91.12
274.945	93.12
275.176	96.12
275.408	110.12
275.64	116.12
275.872	135.12
276.104	111.12
276.335	115.12
276.567	122.12
276.799	178.12
277.031	199.12
277.262	227.12
277.494	162.12
277.726	119.12
277.957	94.12
278.189	107.12
278.421	100.12
278.652	104.12
278.884	84.12
279.115	85.12
279.347	95.12
279.579	109.12
279.81	158.12
280.042	244.12
280.273	328.12
280.505	216.12
280.736	114.12
280.968	94.12
281.199	93.12
281.431	100.12
281.662	93.12
281.894	94.12
282.125	114.12
282.356	141.12
282.588	183.12
282.819	141.12
283.051	89.12
283.282	87.12
283.513	100.12
283.745	89.12
283.976	86.12
284.207	88.12
284.439	91.12
284.67	83.12
284.901	98.12
285.132	95.12
285.364	87.12
285.595	103.12
285.826	93.12
286.057	86.12
286.288	92.12
286.52	87.12
286.751	96.12
286.982	99.12
287.213	78.12
287.444	91.12
287.675	108.12
287.906	93.12
288.138	104.12
288.369	105.12
288.6	83.12
288.831	78.12
289.062	93.12
289.293	85.12
289.524	87.12
289.755	84.12
289.986	91.12
290.217	75.12
290.448	85.12
290.679	98.12
290.91	97.12
291.141	97.12
291.371	76.12
291.602	75.12
291.833	92.12
292.064	98.12
292.295	99.12
292.526	96.12
292.757	104.12
292.987	90.12
293.218	99.12
293.449	85.12
293.68	107.12
293.91	83.12
294.141	90.12
294.372	92.12
294.603	87.12
294.833	101.12
295.064	86.12
295.295	97.12
295.525	108.12
295.756	111.12
295.987	125.12
296.217	179.12
296.448	148.12
296.679	99.12
296.909	109.12
297.14	96.12
297.37	98.12
297.601	91.12
297.831	83.12
298.062	108.12
298.292	104.12
298.523	85.12
298.753	87.12
298.984	96.12
299.214	93.12
299.445	106.12
299.675	101.12
299.905	92.12
300.136	96.12
300.366	91.12
300.597	92.12
300.827	101.12
301.057	104.12
301.288	111.12
301.518	87.12
301.748	96.12
301.979	122.12
302.209	98.12
302.439	99.12
302.669	105.12
302.9	112.12
303.13	108.12
303.36	111.12
303.59	153.12
303.82	146.12
304.051	101.12
304.281	108.12
304.511	93.12
304.741	80.12
304.971	77.12
305.201	89.12
305.431	98.12
305.661	79.12
305.891	109.12
306.121	106.12
306.352	119.12
306.582	122.12
306.812	123.12
307.042	145.12
307.272	195.12
307.502	210.12
307.731	194.12
307.961	142.12
308.191	98.12
308.421	92.12
308.651	97.12
308.881	114.12
309.111	109.12
309.341	113.12
309.571	112.12
309.8	101.12
310.03	84.12
310.26	116.12
310.49	112.12
310.72	108.12
310.949	126.12
311.179	117.12
311.409	112.12
311.639	105.12
311.868	111.12
312.098	115.12
312.328	112.12
312.557	117.12
312.787	144.12
313.017	132.12
313.246	108.12
313.476	99.12
313.706	91.12
313.935	101.12
314.165	121.12
314.394	123.12
314.624	98.12
314.853	111.12
315.083	104.12
315.312	99.12
315.542	105.12
315.771	102.12
316.001	85.12
316.23	109.12
316.46	108.12
316.689	103.12
316.919	108.12
317.148	107.12
317.377	99.12
317.607	97.12
317.836	103.12
318.065	99.12
318.295	82.12
318.524	105.12
318.753	89.12
318.983	95.12
319.212	113.12
319.441	117.12
319.67	119.12
319.9	99.12
320.129	96.12
320.358	108.12
320.587	106.12
320.816	106.12
321.046	127.12
321.275	107.12
321.504	111.12
321.733	107.12
321.962	112.12
322.191	118.12
322.42	121.12
322.649	122.12
322.878	131.12
323.108	145.12
323.337	153.12
323.566	184.12
323.795	185.12
324.024	281.12
324.253	572.12
324.482	1253.12
324.71	2647.12
324.939	3451.12
325.168	1215.12
325.397	325.12
325.626	199.12
325.855	155.12
326.084	148.12
326.313	164.12
326.542	211.12
326.77	302.12
326.999	637.12
327.228	1369.12
327.457	2572.12
327.686	2081.12
327.914	722.12
328.143	698.12
328.372	925.12
328.6	493.12
328.829	211.12
329.058	225.12
329.287	225.12
329.515	214.12
329.744	335.12
329.972	671.12
330.201	1429.12
330.43	2060.12
330.658	852.12
330.887	352.12
331.115	223.12
331.344	160.12
331.572	140.12
331.801	145.12
332.03	133.12
332.258	138.12
332.486	115.12
332.715	124.12
332.943	120.12
333.172	132.12
333.4	154.12
333.629	198.12
333.857	310.12
334.085	617.12
334.314	1315.12
334.542	2599.12
334.771	2311.12
334.999	557.12
335.227	217.12
335.455	142.12
335.684	127.12
335.912	123.12
336.14	114.12
336.369	118.12
336.597	137.12
336.825	105.12
337.053	100.12
337.281	104.12
337.51	102.12
337.738	103.12
337.966	117.12
338.194	111.12
338.422	106.12
338.65	103.12
338.878	106.12
339.106	90.12
339.334	103.12
339.562	95.12
339.79	100.12
340.018	95.12
340.246	106.12
340.474	109.12
340.702	102.12
340.93	105.12
341.158	105.12
341.386	114.12
341.614	112.12
341.842	99.12
342.07	82.12
342.298	100.12
342.526	111.12
342.754	108.12
342.981	88.12
343.209	90.12
343.437	89.12
343.665	95.12
343.893	85.12
344.12	106.12
344.348	96.12
344.576	101.12
344.804	88.12
345.031	121.12
345.259	122.12
345.487	106.12
345.714	105.12
345.942	103.12
346.17	107.12
346.397	97.12
346.625	95.12
346.853	102.12
347.08	98.12
347.308	100.12
347.535	107.12
347.763	114.12
347.99	108.12
348.218	131.12
348.445	117.12
348.673	123.12
348.9	122.12
349.128	100.12
349.355	86.12
349.583	100.12
349.81	104.12
350.037	111.12
350.265	105.12
350.492	105.12
350.72	110.12
350.947	114.12
351.174	107.12
351.402	139.12
351.629	101.12
351.856	107.12
352.083	107.12
352.311	125.12
352.538	139.12
352.765	124.12
352.992	121.12
353.22	125.12
353.447	117.12
353.674	99.12
353.901	101.12
354.128	95.12
354.355	99.12
354.583	94.12
354.81	103.12
355.037	96.12
355.264	107.12
355.491	101.12
355.718	94.12
355.945	89.12
356.172	115.12
356.399	85.12
356.626	112.12
356.853	99.12
357.08	98.12
357.307	95.12
357.534	91.12
357.761	101.12
357.988	108.12
358.215	100.12
358.441	91.12
358.668	97.12
358.895	92.12
359.122	102.12
359.349	93.12
359.576	94.12
359.802	112.12
360.029	154.12
360.256	164.12
360.483	131.12
360.709	101.12
360.936	103.12
361.163	103.12
361.39	89.12
361.616	103.12
361.843	108.12
362.07	105.12
362.296	120.12
362.523	112.12
362.749	123.12
362.976	118.12
363.203	96.12
363.429	103.12
363.656	99.12
363.882	88.12
364.109	95.12
364.335	110.12
364.562	100.12
364.788	116.12
365.015	96.12
365.241	114.12
365.468	111.12
365.694	132.12
365.92	102.12
366.147	111.12
366.373	113.12
366.599	97.12
366.826	109.12
367.052	95.12
367.278	92.12
367.505	102.12
367.731	92.12
367.957	96.12
368.184	113.12
368.41	123.12
368.636	137.12
368.862	154.12
369.089	125.12
369.315	112.12
369.541	99.12
369.767	92.12
369.993	98.12
370.219	96.12
370.445	110.12
370.672	94.12
370.898	99.12
371.124	99.12
371.35	86.12
371.576	97.12
371.802	83.12
372.028	100.12
372.254	108.12
372.48	88.12
372.706	102.12
372.932	88.12
373.158	81.12
373.384	77.12
373.61	103.12
373.835	87.12
374.061	90.12
374.287	99.12
374.513	102.12
374.739	97.12
374.965	89.12
375.191	95.12
375.416	87.12
375.642	83.12
375.868	82.12
376.094	98.12
376.319	94.12
376.545	91.12
376.771	100.12
376.997	109.12
377.222	103.12
377.448	102.12
377.674	104.12
377.899	93.12
378.125	89.12
378.35	100.12
378.576	90.12
378.802	98.12
379.027	88.12
379.253	82.12
379.478	80.12
379.704	90.12
379.929	92.12
380.155	98.12
380.38	104.12
380.606	84.12
380.831	83.12
381.057	115.12
381.282	90.12
381.507	106.12
381.733	98.12
381.958	101.12
382.184	109.12
382.409	85.12
382.634	101.12
382.86	89.12
383.085	105.12
383.31	88.12
383.535	87.12
383.761	97.12
383.986	99.12
384.211	106.12
384.436	106.12
384.662	83.12
384.887	80.12
385.112	104.12
385.337	96.12
385.562	101.12
385.787	110.12
386.013	111.12
386.238	123.12
386.463	103.12
386.688	108.12
386.913	106.12
387.138	109.12
387.363	117.12
387.588	120.12
387.813	95.12
388.038	95.12
388.263	120.12
388.488	108.12
388.713	104.12
388.938	81.12
389.163	95.12
389.387	98.12
389.612	89.12
389.837	101.12
390.062	89.12
390.287	96.12
390.512	101.12
390.736	94.12
390.961	93.12
391.186	92.12
391.411	102.12
391.636	94.12
391.86	99.12
392.085	97.12
392.31	89.12
392.534	100.12
392.759	90.12
392.984	74.12
393.208	102.12
393.433	101.12
393.658	87.12
393.882	87.12
394.107	91.12
394.331	95.12
394.556	91.12
394.78	100.12
395.005	94.12
395.229	72.12
395.454	91.12
395.678	93.12
395.903	91.12
396.127	88.12
396.352	95.12
396.576	97.12
396.801	91.12
397.025	85.12
397.249	103.12
397.474	83.12
397.698	90.12
397.922	90.12
398.147	100.12
398.371	91.12
398.595	89.12
398.82	96.12
399.044	88.12
399.268	106.12
399.492	98.12
399.717	107.12
399.941	82.12
400.165	104.12
400.389	89.12
400.613	87.12
400.837	94.12
401.062	99.12
401.286	105.12
401.51	91.12
401.734	99.12
401.958	113.12
402.182	188.12
402.406	202.12
402.63	165.12
402.854	104.12
403.078	84.12
403.302	101.12
403.526	104.12
403.75	100.12
403.974	98.12
404.198	88.12
404.422	91.12
404.645	85.12
404.869	98.12
405.093	128.12
405.317	176.12
405.541	163.12
405.765	121.12
405.988	136.12
406.212	236.12
406.436	348.12
406.66	217.12
406.883	111.12
407.107	128.12
407.331	113.12
407.555	123.12
407.778	107.12
408.002	104.12
408.226	89.12
408.449	100.12
408.673	78.12
408.896	105.12
409.12	94.12
409.344	98.12
409.567	91.12
409.791	100.12
410.014	100.12
410.238	97.12
410.461	95.12
410.685	94.12
410.908	126.12
411.132	101.12
411.355	106.12
411.578	102.12
411.802	93.12
412.025	106.12
412.249	116.12
412.472	135.12
412.695	158.12
412.919	131.12
413.142	105.12
413.365	103.12
413.589	90.12
413.812	81.12
414.035	88.12
414.258	94.12
414.482	93.12
414.705	85.12
414.928	99.12
415.151	83.12
415.374	110.12
415.597	94.12
415.821	91.12
416.044	110.12
416.267	115.12
416.49	96.12
416.713	78.12
416.936	81.12
417.159	98.12
417.382	116.12
417.605	108.12
417.828	113.12
418.051	110.12
418.274	106.12
418.497	101.12
418.72	97.12
418.943	101.12
419.166	98.12
419.389	93.12
419.611	96.12
419.834	101.12
420.057	96.12
420.28	107.12
420.503	91.12
420.726	85.12
420.948	87.12
421.171	112.12
421.394	87.12
421.617	89.12
421.839	87.12
422.062	91.12
422.285	100.12
422.507	117.12
422.73	135.12
422.953	106.12
423.175	101.12
423.398	99.12
423.621	86.12
423.843	88.12
424.066	98.12
424.288	101.12
424.511	95.12
424.733	113.12
424.956	132.12
425.178	103.12
425.401	117.12
425.623	121.12
425.846	108.12
426.068	108.12
426.291	108.12
426.513	104.12
426.735	107.12
426.958	107.12
427.18	136.12
427.402	208.12
427.625	311.12
427.847	297.12
428.069	267.12
428.292	140.12
428.514	103.12
428.736	84.12
428.958	74.12
429.181	84.12
429.403	93.12
429.625	97.12
429.847	93.12
430.069	104.12
430.292	101.12
430.514	86.12
430.736	90.12
430.958	79.12
431.18	90.12
431.402	89.12
431.624	81.12
431.846	100.12
432.068	111.12
432.29	99.12
432.512	95.12
432.734	100.12
432.956	92.12
433.178	104.12
433.4	113.12
433.622	99.12
433.844	91.12
434.066	92.12
434.287	89.12
434.509	97.12
434.731	83.12
434.953	88.12
435.175	88.12
435.397	104.12
435.618	105.12
435.84	120.12
436.062	156.12
436.284	143.12
436.505	128.12
436.727	97.12
436.949	92.12
437.17	95.12
437.392	92.12
437.614	112.12
437.835	130.12
438.057	171.12
438.278	139.12
438.5	136.12
438.721	167.12
438.943	121.12
439.165	100.12
439.386	92.12
439.608	112.12
439.829	126.12
440.05	184.12
440.272	219.12
440.493	124.12
440.715	95.12
440.936	91.12
441.158	91.12
441.379	109.12
441.6	111.12
441.822	114.12
442.043	104.12
442.264	125.12
442.486	121.12
442.707	109.12
442.928	136.12
443.149	189.12
443.371	194.12
443.592	154.12
443.813	154.12
444.034	125.12
444.255	112.12
444.476	85.12
444.698	95.12
444.919	83.12
445.14	155.12
445.361	136.12
445.582	156.12
445.803	212.12
446.024	217.12
446.245	199.12
446.466	144.12
446.687	107.12
446.908	87.12
447.129	106.12
447.35	91.12
447.571	98.12
447.792	93.12
448.013	123.12
448.234	135.12
448.455	131.12
448.675	151.12
448.896	160.12
449.117	114.12
449.338	124.12
449.559	169.12
449.779	175.12
450	113.12
450.221	92.12
450.442	93.12
450.662	100.12
450.883	145.12
451.104	163.12
451.324	92.12
451.545	99.12
451.766	91.12
451.986	73.12
452.207	98.12
452.428	99.12
452.648	111.12
452.869	141.12
453.089	155.12
453.31	144.12
453.53	107.12
453.751	107.12
453.971	117.12
454.192	152.12
454.412	109.12
454.633	100.12
454.853	94.12
455.073	92.12
455.294	94.12
455.514	113.12
455.734	102.12
455.955	95.12
456.175	97.12
456.395	89.12
456.616	85.12
456.836	91.12
457.056	84.12
457.276	90.12
457.497	91.12
457.717	82.12
457.937	95.12
458.157	92.12
458.377	109.12
458.598	140.12
458.818	229.12
459.038	248.12
459.258	172.12
459.478	107.12
459.698	92.12
459.918	82.12
460.138	99.12
460.358	99.12
460.578	86.12
460.798	83.12
461.018	95.12
461.238	79.12
461.458	90.12
461.678	99.12
461.898	85.12
462.118	91.12
462.338	95.12
462.558	87.12
462.777	92.12
462.997	104.12
463.217	122.12
463.437	101.12
463.657	91.12
463.876	103.12
464.096	89.12
464.316	107.12
464.536	116.12
464.755	97.12
464.975	136.12
465.195	279.12
465.414	257.12
465.634	111.12
465.854	103.12
466.073	101.12
466.293	104.12
466.512	105.12
466.732	98.12
466.951	100.12
467.171	97.12
467.391	120.12
467.61	177.12
467.829	268.12
468.049	785.12
468.268	1148.12
468.488	276.12
468.707	140.12
468.927	103.12
469.146	102.12
469.365	89.12
469.585	108.12
469.804	125.12
470.023	118.12
470.243	113.12
470.462	124.12
470.681	160.12
470.901	113.12
471.12	117.12
471.339	96.12
471.558	133.12
471.777	188.12
471.997	407.12
472.216	1552.12
472.435	3554.12
472.654	740.12
472.873	200.12
473.092	125.12
473.311	101.12
473.53	108.12
473.749	100.12
473.968	114.12
474.187	148.12
474.406	111.12
474.625	90.12
474.844	91.12
475.063	80.12
475.282	93.12
475.501	87.12
475.72	115.12
475.939	87.12
476.158	101.12
476.377	88.12
476.596	101.12
476.814	127.12
477.033	118.12
477.252	82.12
477.471	110.12
477.69	86.12
477.908	96.12
478.127	101.12
478.346	84.12
478.564	107.12
478.783	119.12
479.002	108.12
479.22	107.12
479.439	124.12
479.658	144.12
479.876	135.12
480.095	137.12
480.313	157.12
480.532	216.12
480.751	365.12
480.969	1439.12
481.188	6162.12
481.406	3425.12
481.624	463.12
481.843	145.12
482.061	111.12
482.28	112.12
482.498	111.12
482.717	108.12
482.935	93.12
483.153	107.12
483.372	111.12
483.59	83.12
483.808	92.12
484.027	94.12
484.245	112.12
484.463	104.12
484.681	98.12
484.9	97.12
485.118	101.12
485.336	101.12
485.554	106.12
485.772	106.12
485.99	98.12
486.209	101.12
486.427	99.12
486.645	125.12
486.863	127.12
487.081	111.12
487.299	91.12
487.517	101.12
487.735	101.12
487.953	92.12
488.171	97.12
488.389	87.12
488.607	124.12
488.825	97.12
489.043	86.12
489.261	90.12
489.479	83.12
489.696	86.12
489.914	81.12
490.132	91.12
490.35	90.12
490.568	95.12
490.786	99.12
491.003	105.12
491.221	100.12
491.439	114.12
491.657	98.12
491.874	93.12
492.092	94.12
492.31	89.12
492.527	121.12
492.745	97.12
492.963	111.12
493.18	106.12
493.398	97.12
493.615	107.12
493.833	95.12
494.05	100.12
494.268	91.12
494.485	92.12
494.703	90.12
494.92	95.12
495.138	96.12
495.355	89.12
495.573	99.12
495.79	93.12
496.008	103.12
496.225	96.12
496.442	97.12
496.66	90.12
496.877	88.12
497.094	90.12
497.312	100.12
497.529	90.12
497.746	111.12
497.963	91.12
498.181	91.12
498.398	108.12
498.615	123.12
498.832	122.12
499.049	93.12
499.267	106.12
499.484	84.12
499.701	93.12
499.918	93.12
500.135	78.12
500.352	93.12
500.569	90.12
500.786	104.12
501.003	85.12
501.22	101.12
501.437	98.12
501.654	101.12
501.871	138.12
502.088	100.12
502.305	99.12
502.522	101.12
502.739	92.12
502.956	92.12
503.172	93.12
503.389	117.12
503.606	134.12
503.823	108.12
504.04	98.12
504.256	97.12
504.473	96.12
504.69	90.12
504.907	109.12
505.123	87.12
505.34	92.12
505.557	90.12
505.773	90.12
505.99	91.12
506.207	87.12
506.423	101.12
506.64	78.12
506.856	91.12
507.073	91.12
507.289	100.12
507.506	116.12
507.722	148.12
507.939	141.12
508.155	109.12
508.372	104.12
508.588	81.12
508.805	88.12
509.021	90.12
509.238	113.12
509.454	108.12
509.67	118.12
509.887	119.12
510.103	151.12
510.319	265.12
510.536	1013.12
510.752	3481.12
510.968	939.12
