Data from Circ_1997_H10_HRD10591_00066.txt Node
Date: Wed Jan 03 11:29:40 EST 2024
User: Yrep
Spectrometer: HR+D1059
Trigger mode: 1
Integration Time (sec): 1.000000E-1
Scans to average: 1
Electric dark correction enabled: true
Nonlinearity correction enabled: false
Boxcar width: 0
XAxis mode: Wavelengths
Number of Pixels in Spectrum: 2048
>>>>>Begin Spectral Data<<<<<
223.165	-21.88
223.4	-21.88
223.635	-21.88
223.869	-20.88
224.104	-19.88
224.338	-22.88
224.573	-22.88
224.808	0.12
225.042	-11.88
225.277	-4.88
225.511	-3.88
225.746	9.12
225.98	4.12
226.215	13.12
226.449	9.12
226.683	13.12
226.918	33.12
227.152	47.12
227.387	43.12
227.621	46.12
227.856	59.12
228.09	45.12
228.324	38.12
228.559	64.12
228.793	59.12
229.027	76.12
229.262	73.12
229.496	74.12
229.73	105.12
229.964	101.12
230.199	68.12
230.433	71.12
230.667	84.12
230.901	84.12
231.136	69.12
231.37	76.12
231.604	86.12
231.838	79.12
232.072	88.12
232.306	83.12
232.541	73.12
232.775	78.12
233.009	88.12
233.243	88.12
233.477	90.12
233.711	77.12
233.945	88.12
234.179	77.12
234.413	75.12
234.647	95.12
234.881	71.12
235.115	64.12
235.349	96.12
235.583	82.12
235.817	73.12
236.051	80.12
236.285	65.12
236.519	88.12
236.753	77.12
236.987	98.12
237.221	96.12
237.455	99.12
237.689	73.12
237.922	67.12
238.156	78.12
238.39	68.12
238.624	88.12
238.858	85.12
239.091	88.12
239.325	79.12
239.559	99.12
239.793	82.12
240.027	85.12
240.26	92.12
240.494	76.12
240.728	86.12
240.961	74.12
241.195	76.12
241.429	71.12
241.662	83.12
241.896	76.12
242.13	71.12
242.363	86.12
242.597	64.12
242.83	76.12
243.064	69.12
243.298	79.12
243.531	80.12
243.765	79.12
243.998	81.12
244.232	73.12
244.465	90.12
244.699	77.12
244.932	76.12
245.166	86.12
245.399	87.12
245.633	81.12
245.866	77.12
246.099	61.12
246.333	85.12
246.566	81.12
246.8	72.12
247.033	82.12
247.266	81.12
247.5	83.12
247.733	78.12
247.966	83.12
248.2	82.12
248.433	80.12
248.666	85.12
248.899	99.12
249.133	87.12
249.366	118.12
249.599	111.12
249.832	96.12
250.066	100.12
250.299	96.12
250.532	99.12
250.765	92.12
250.998	71.12
251.231	77.12
251.465	92.12
251.698	88.12
251.931	94.12
252.164	91.12
252.397	85.12
252.63	79.12
252.863	88.12
253.096	88.12
253.329	68.12
253.562	87.12
253.795	94.12
254.028	92.12
254.261	77.12
254.494	80.12
254.727	82.12
254.96	75.12
255.193	78.12
255.426	88.12
255.659	97.12
255.892	106.12
256.124	91.12
256.357	95.12
256.59	79.12
256.823	79.12
257.056	68.12
257.289	91.12
257.521	85.12
257.754	94.12
257.987	92.12
258.22	95.12
258.452	121.12
258.685	94.12
258.918	84.12
259.151	79.12
259.383	86.12
259.616	91.12
259.849	78.12
260.081	87.12
260.314	85.12
260.547	90.12
260.779	106.12
261.012	126.12
261.244	117.12
261.477	93.12
261.71	112.12
261.942	148.12
262.175	165.12
262.407	118.12
262.64	81.12
262.872	86.12
263.105	83.12
263.337	80.12
263.57	73.12
263.802	75.12
264.035	97.12
264.267	85.12
264.499	72.12
264.732	76.12
264.964	73.12
265.197	78.12
265.429	89.12
265.661	84.12
265.894	87.12
266.126	75.12
266.358	84.12
266.591	73.12
266.823	83.12
267.055	77.12
267.287	92.12
267.52	83.12
267.752	77.12
267.984	79.12
268.216	89.12
268.448	82.12
268.681	104.12
268.913	94.12
269.145	71.12
269.377	85.12
269.609	79.12
269.841	77.12
270.073	77.12
270.306	80.12
270.538	76.12
270.77	93.12
271.002	85.12
271.234	96.12
271.466	106.12
271.698	92.12
271.93	87.12
272.162	84.12
272.394	88.12
272.626	96.12
272.858	80.12
273.09	90.12
273.322	91.12
273.553	79.12
273.785	99.12
274.017	79.12
274.249	88.12
274.481	88.12
274.713	93.12
274.945	97.12
275.176	95.12
275.408	109.12
275.64	128.12
275.872	138.12
276.104	115.12
276.335	117.12
276.567	136.12
276.799	186.12
277.031	208.12
277.262	240.12
277.494	166.12
277.726	114.12
277.957	87.12
278.189	92.12
278.421	85.12
278.652	85.12
278.884	104.12
279.115	107.12
279.347	92.12
279.579	109.12
279.81	152.12
280.042	254.12
280.273	337.12
280.505	230.12
280.736	121.12
280.968	95.12
281.199	88.12
281.431	95.12
281.662	96.12
281.894	80.12
282.125	121.12
282.356	159.12
282.588	192.12
282.819	132.12
283.051	90.12
283.282	92.12
283.513	93.12
283.745	104.12
283.976	83.12
284.207	98.12
284.439	88.12
284.67	108.12
284.901	75.12
285.132	102.12
285.364	73.12
285.595	85.12
285.826	88.12
286.057	94.12
286.288	86.12
286.52	92.12
286.751	81.12
286.982	95.12
287.213	71.12
287.444	89.12
287.675	89.12
287.906	98.12
288.138	101.12
288.369	100.12
288.6	91.12
288.831	93.12
289.062	103.12
289.293	98.12
289.524	87.12
289.755	87.12
289.986	79.12
290.217	86.12
290.448	84.12
290.679	90.12
290.91	93.12
291.141	102.12
291.371	83.12
291.602	77.12
291.833	77.12
292.064	89.12
292.295	77.12
292.526	79.12
292.757	89.12
292.987	87.12
293.218	88.12
293.449	88.12
293.68	87.12
293.91	90.12
294.141	93.12
294.372	96.12
294.603	98.12
294.833	105.12
295.064	84.12
295.295	80.12
295.525	95.12
295.756	107.12
295.987	133.12
296.217	195.12
296.448	159.12
296.679	110.12
296.909	89.12
297.14	87.12
297.37	77.12
297.601	98.12
297.831	88.12
298.062	107.12
298.292	87.12
298.523	88.12
298.753	81.12
298.984	93.12
299.214	82.12
299.445	92.12
299.675	97.12
299.905	85.12
300.136	87.12
300.366	89.12
300.597	85.12
300.827	98.12
301.057	122.12
301.288	117.12
301.518	112.12
301.748	101.12
301.979	125.12
302.209	108.12
302.439	93.12
302.669	106.12
302.9	92.12
303.13	90.12
303.36	103.12
303.59	153.12
303.82	159.12
304.051	104.12
304.281	101.12
304.511	101.12
304.741	85.12
304.971	87.12
305.201	87.12
305.431	71.12
305.661	87.12
305.891	86.12
306.121	108.12
306.352	115.12
306.582	118.12
306.812	126.12
307.042	142.12
307.272	192.12
307.502	216.12
307.731	189.12
307.961	136.12
308.191	87.12
308.421	89.12
308.651	101.12
308.881	93.12
309.111	97.12
309.341	99.12
309.571	115.12
309.8	110.12
310.03	101.12
310.26	123.12
310.49	105.12
310.72	128.12
310.949	137.12
311.179	106.12
311.409	109.12
311.639	113.12
311.868	111.12
312.098	109.12
312.328	103.12
312.557	109.12
312.787	138.12
313.017	136.12
313.246	108.12
313.476	108.12
313.706	100.12
313.935	104.12
314.165	104.12
314.394	126.12
314.624	110.12
314.853	116.12
315.083	107.12
315.312	95.12
315.542	97.12
315.771	97.12
316.001	91.12
316.23	82.12
316.46	111.12
316.689	95.12
316.919	88.12
317.148	110.12
317.377	98.12
317.607	91.12
317.836	106.12
318.065	87.12
318.295	92.12
318.524	87.12
318.753	91.12
318.983	97.12
319.212	104.12
319.441	124.12
319.67	125.12
319.9	104.12
320.129	100.12
320.358	96.12
320.587	86.12
320.816	111.12
321.046	114.12
321.275	107.12
321.504	96.12
321.733	97.12
321.962	111.12
322.191	105.12
322.42	123.12
322.649	126.12
322.878	127.12
323.108	149.12
323.337	155.12
323.566	166.12
323.795	212.12
324.024	289.12
324.253	630.12
324.482	1402.12
324.71	2919.12
324.939	3871.12
325.168	1329.12
325.397	366.12
325.626	209.12
325.855	168.12
326.084	157.12
326.313	172.12
326.542	215.12
326.77	315.12
326.999	663.12
327.228	1472.12
327.457	2783.12
327.686	2167.12
327.914	755.12
328.143	719.12
328.372	939.12
328.6	502.12
328.829	221.12
329.058	229.12
329.287	252.12
329.515	221.12
329.744	341.12
329.972	683.12
330.201	1511.12
330.43	2160.12
330.658	913.12
330.887	400.12
331.115	244.12
331.344	152.12
331.572	144.12
331.801	143.12
332.03	125.12
332.258	130.12
332.486	127.12
332.715	116.12
332.943	122.12
333.172	134.12
333.4	149.12
333.629	180.12
333.857	295.12
334.085	640.12
334.314	1388.12
334.542	2769.12
334.771	2479.12
334.999	604.12
335.227	231.12
335.455	155.12
335.684	130.12
335.912	123.12
336.14	125.12
336.369	101.12
336.597	133.12
336.825	115.12
337.053	103.12
337.281	97.12
337.51	95.12
337.738	111.12
337.966	111.12
338.194	117.12
338.422	115.12
338.65	82.12
338.878	99.12
339.106	94.12
339.334	110.12
339.562	85.12
339.79	105.12
340.018	104.12
340.246	96.12
340.474	109.12
340.702	103.12
340.93	97.12
341.158	92.12
341.386	105.12
341.614	110.12
341.842	105.12
342.07	93.12
342.298	101.12
342.526	97.12
342.754	80.12
342.981	92.12
343.209	81.12
343.437	95.12
343.665	77.12
343.893	95.12
344.12	101.12
344.348	93.12
344.576	103.12
344.804	108.12
345.031	125.12
345.259	103.12
345.487	107.12
345.714	112.12
345.942	94.12
346.17	92.12
346.397	89.12
346.625	95.12
346.853	100.12
347.08	102.12
347.308	90.12
347.535	106.12
347.763	98.12
347.99	105.12
348.218	124.12
348.445	136.12
348.673	117.12
348.9	104.12
349.128	98.12
349.355	83.12
349.583	86.12
349.81	90.12
350.037	82.12
350.265	100.12
350.492	99.12
350.72	93.12
350.947	93.12
351.174	124.12
351.402	137.12
351.629	103.12
351.856	112.12
352.083	112.12
352.311	120.12
352.538	131.12
352.765	133.12
352.992	130.12
353.22	126.12
353.447	116.12
353.674	94.12
353.901	94.12
354.128	89.12
354.355	102.12
354.583	98.12
354.81	110.12
355.037	96.12
355.264	100.12
355.491	91.12
355.718	84.12
355.945	95.12
356.172	79.12
356.399	94.12
356.626	91.12
356.853	93.12
357.08	86.12
357.307	74.12
357.534	108.12
357.761	85.12
357.988	92.12
358.215	93.12
358.441	87.12
358.668	87.12
358.895	91.12
359.122	77.12
359.349	85.12
359.576	100.12
359.802	133.12
360.029	155.12
360.256	153.12
360.483	134.12
360.709	103.12
360.936	101.12
361.163	116.12
361.39	117.12
361.616	108.12
361.843	105.12
362.07	107.12
362.296	109.12
362.523	103.12
362.749	102.12
362.976	103.12
363.203	85.12
363.429	100.12
363.656	96.12
363.882	89.12
364.109	100.12
364.335	84.12
364.562	93.12
364.788	103.12
365.015	115.12
365.241	96.12
365.468	122.12
365.694	125.12
365.92	106.12
366.147	107.12
366.373	94.12
366.599	101.12
366.826	103.12
367.052	89.12
367.278	99.12
367.505	81.12
367.731	101.12
367.957	108.12
368.184	102.12
368.41	112.12
368.636	142.12
368.862	134.12
369.089	122.12
369.315	105.12
369.541	87.12
369.767	102.12
369.993	101.12
370.219	87.12
370.445	99.12
370.672	89.12
370.898	75.12
371.124	97.12
371.35	91.12
371.576	88.12
371.802	87.12
372.028	90.12
372.254	90.12
372.48	89.12
372.706	90.12
372.932	84.12
373.158	89.12
373.384	91.12
373.61	93.12
373.835	83.12
374.061	84.12
374.287	90.12
374.513	68.12
374.739	81.12
374.965	61.12
375.191	87.12
375.416	88.12
375.642	94.12
375.868	95.12
376.094	99.12
376.319	87.12
376.545	101.12
376.771	97.12
376.997	76.12
377.222	78.12
377.448	84.12
377.674	92.12
377.899	64.12
378.125	73.12
378.35	87.12
378.576	84.12
378.802	93.12
379.027	92.12
379.253	89.12
379.478	91.12
379.704	104.12
379.929	89.12
380.155	98.12
380.38	82.12
380.606	118.12
380.831	85.12
381.057	91.12
381.282	103.12
381.507	95.12
381.733	98.12
381.958	83.12
382.184	97.12
382.409	98.12
382.634	85.12
382.86	94.12
383.085	99.12
383.31	102.12
383.535	93.12
383.761	100.12
383.986	99.12
384.211	87.12
384.436	92.12
384.662	94.12
384.887	110.12
385.112	102.12
385.337	100.12
385.562	112.12
385.787	104.12
386.013	109.12
386.238	118.12
386.463	108.12
386.688	96.12
386.913	86.12
387.138	105.12
387.363	92.12
387.588	104.12
387.813	87.12
388.038	94.12
388.263	98.12
388.488	91.12
388.713	83.12
388.938	89.12
389.163	97.12
389.387	89.12
389.612	100.12
389.837	96.12
390.062	88.12
390.287	87.12
390.512	88.12
390.736	85.12
390.961	73.12
391.186	96.12
391.411	96.12
391.636	81.12
391.86	87.12
392.085	84.12
392.31	77.12
392.534	93.12
392.759	79.12
392.984	81.12
393.208	94.12
393.433	93.12
393.658	79.12
393.882	84.12
394.107	86.12
394.331	81.12
394.556	75.12
394.78	97.12
395.005	80.12
395.229	83.12
395.454	96.12
395.678	84.12
395.903	95.12
396.127	81.12
396.352	81.12
396.576	71.12
396.801	63.12
397.025	79.12
397.249	93.12
397.474	97.12
397.698	86.12
397.922	93.12
398.147	97.12
398.371	87.12
398.595	92.12
398.82	68.12
399.044	79.12
399.268	75.12
399.492	84.12
399.717	79.12
399.941	110.12
400.165	107.12
400.389	95.12
400.613	93.12
400.837	89.12
401.062	91.12
401.286	90.12
401.51	106.12
401.734	96.12
401.958	95.12
402.182	177.12
402.406	208.12
402.63	169.12
402.854	110.12
403.078	102.12
403.302	104.12
403.526	91.12
403.75	91.12
403.974	82.12
404.198	90.12
404.422	74.12
404.645	105.12
404.869	108.12
405.093	137.12
405.317	154.12
405.541	164.12
405.765	131.12
405.988	151.12
406.212	262.12
406.436	368.12
406.66	236.12
406.883	132.12
407.107	108.12
407.331	111.12
407.555	122.12
407.778	120.12
408.002	106.12
408.226	95.12
408.449	78.12
408.673	94.12
408.896	91.12
409.12	111.12
409.344	85.12
409.567	85.12
409.791	88.12
410.014	82.12
410.238	89.12
410.461	86.12
410.685	93.12
410.908	97.12
411.132	117.12
411.355	97.12
411.578	99.12
411.802	108.12
412.025	91.12
412.249	118.12
412.472	136.12
412.695	154.12
412.919	118.12
413.142	101.12
413.365	97.12
413.589	87.12
413.812	100.12
414.035	83.12
414.258	91.12
414.482	103.12
414.705	88.12
414.928	96.12
415.151	105.12
415.374	100.12
415.597	92.12
415.821	93.12
416.044	82.12
416.267	90.12
416.49	88.12
416.713	89.12
416.936	85.12
417.159	91.12
417.382	82.12
417.605	104.12
417.828	132.12
418.051	96.12
418.274	92.12
418.497	93.12
418.72	88.12
418.943	76.12
419.166	92.12
419.389	83.12
419.611	93.12
419.834	96.12
420.057	79.12
420.28	108.12
420.503	90.12
420.726	96.12
420.948	115.12
421.171	115.12
421.394	110.12
421.617	90.12
421.839	75.12
422.062	83.12
422.285	92.12
422.507	101.12
422.73	119.12
422.953	87.12
423.175	95.12
423.398	88.12
423.621	96.12
423.843	89.12
424.066	89.12
424.288	87.12
424.511	94.12
424.733	120.12
424.956	142.12
425.178	117.12
425.401	115.12
425.623	101.12
425.846	116.12
426.068	101.12
426.291	103.12
426.513	92.12
426.735	79.12
426.958	95.12
427.18	134.12
427.402	215.12
427.625	308.12
427.847	301.12
428.069	284.12
428.292	135.12
428.514	111.12
428.736	97.12
428.958	108.12
429.181	97.12
429.403	86.12
429.625	96.12
429.847	109.12
430.069	126.12
430.292	101.12
430.514	91.12
430.736	81.12
430.958	78.12
431.18	83.12
431.402	77.12
431.624	86.12
431.846	83.12
432.068	89.12
432.29	83.12
432.512	95.12
432.734	101.12
432.956	84.12
433.178	100.12
433.4	123.12
433.622	88.12
433.844	89.12
434.066	84.12
434.287	83.12
434.509	84.12
434.731	95.12
434.953	84.12
435.175	69.12
435.397	90.12
435.618	111.12
435.84	110.12
436.062	169.12
436.284	149.12
436.505	105.12
436.727	117.12
436.949	86.12
437.17	91.12
437.392	97.12
437.614	99.12
437.835	141.12
438.057	175.12
438.278	141.12
438.5	127.12
438.721	174.12
438.943	123.12
439.165	111.12
439.386	95.12
439.608	102.12
439.829	126.12
440.05	189.12
440.272	229.12
440.493	140.12
440.715	103.12
440.936	91.12
441.158	88.12
441.379	87.12
441.6	105.12
441.822	113.12
442.043	118.12
442.264	145.12
442.486	124.12
442.707	108.12
442.928	147.12
443.149	205.12
443.371	208.12
443.592	151.12
443.813	163.12
444.034	126.12
444.255	115.12
444.476	98.12
444.698	94.12
444.919	85.12
445.14	135.12
445.361	151.12
445.582	152.12
445.803	237.12
446.024	227.12
446.245	193.12
446.466	161.12
446.687	79.12
446.908	85.12
447.129	80.12
447.35	78.12
447.571	104.12
447.792	111.12
448.013	122.12
448.234	151.12
448.455	119.12
448.675	142.12
448.896	165.12
449.117	124.12
449.338	122.12
449.559	157.12
449.779	174.12
450	97.12
450.221	100.12
450.442	92.12
450.662	110.12
450.883	151.12
451.104	152.12
451.324	113.12
451.545	85.12
451.766	89.12
451.986	92.12
452.207	96.12
452.428	104.12
452.648	105.12
452.869	140.12
453.089	158.12
453.31	151.12
453.53	105.12
453.751	116.12
453.971	133.12
454.192	154.12
454.412	110.12
454.633	89.12
454.853	90.12
455.073	88.12
455.294	95.12
455.514	112.12
455.734	106.12
455.955	88.12
456.175	94.12
456.395	84.12
456.616	85.12
456.836	75.12
457.056	85.12
457.276	85.12
457.497	84.12
457.717	80.12
457.937	95.12
458.157	90.12
458.377	99.12
458.598	153.12
458.818	264.12
459.038	295.12
459.258	185.12
459.478	98.12
459.698	100.12
459.918	75.12
460.138	104.12
460.358	103.12
460.578	80.12
460.798	104.12
461.018	103.12
461.238	82.12
461.458	97.12
461.678	81.12
461.898	80.12
462.118	89.12
462.338	85.12
462.558	85.12
462.777	100.12
462.997	103.12
463.217	122.12
463.437	100.12
463.657	83.12
463.876	85.12
464.096	103.12
464.316	99.12
464.536	105.12
464.755	104.12
464.975	146.12
465.195	314.12
465.414	307.12
465.634	111.12
465.854	99.12
466.073	103.12
466.293	84.12
466.512	65.12
466.732	90.12
466.951	91.12
467.171	93.12
467.391	120.12
467.61	182.12
467.829	254.12
468.049	786.12
468.268	1150.12
468.488	279.12
468.707	125.12
468.927	92.12
469.146	106.12
469.365	100.12
469.585	94.12
469.804	115.12
470.023	114.12
470.243	96.12
470.462	126.12
470.681	139.12
470.901	101.12
471.12	102.12
471.339	113.12
471.558	139.12
471.777	183.12
471.997	400.12
472.216	1582.12
472.435	3657.12
472.654	781.12
472.873	193.12
473.092	111.12
473.311	107.12
473.53	91.12
473.749	106.12
473.968	127.12
474.187	153.12
474.406	129.12
474.625	97.12
474.844	92.12
475.063	97.12
475.282	96.12
475.501	84.12
475.72	97.12
475.939	88.12
476.158	94.12
476.377	92.12
476.596	102.12
476.814	110.12
477.033	104.12
477.252	108.12
477.471	91.12
477.69	95.12
477.908	79.12
478.127	99.12
478.346	83.12
478.564	111.12
478.783	112.12
479.002	120.12
479.22	114.12
479.439	136.12
479.658	155.12
479.876	132.12
480.095	140.12
480.313	173.12
480.532	200.12
480.751	363.12
480.969	1435.12
481.188	6342.12
481.406	3488.12
481.624	482.12
481.843	160.12
482.061	115.12
482.28	120.12
482.498	95.12
482.717	97.12
482.935	103.12
483.153	91.12
483.372	100.12
483.59	89.12
483.808	87.12
484.027	76.12
484.245	95.12
484.463	100.12
484.681	96.12
484.9	85.12
485.118	100.12
485.336	96.12
485.554	94.12
485.772	94.12
485.99	84.12
486.209	107.12
486.427	117.12
486.645	125.12
486.863	150.12
487.081	108.12
487.299	81.12
487.517	87.12
487.735	96.12
487.953	84.12
488.171	98.12
488.389	89.12
488.607	96.12
488.825	97.12
489.043	89.12
489.261	75.12
489.479	83.12
489.696	104.12
489.914	83.12
490.132	88.12
490.35	92.12
490.568	98.12
490.786	91.12
491.003	91.12
491.221	102.12
491.439	83.12
491.657	90.12
491.874	96.12
492.092	116.12
492.31	112.12
492.527	112.12
492.745	103.12
492.963	99.12
493.18	88.12
493.398	85.12
493.615	97.12
493.833	84.12
494.05	103.12
494.268	102.12
494.485	89.12
494.703	90.12
494.92	98.12
495.138	84.12
495.355	105.12
495.573	103.12
495.79	94.12
496.008	100.12
496.225	79.12
496.442	79.12
496.66	89.12
496.877	89.12
497.094	90.12
497.312	80.12
497.529	90.12
497.746	86.12
497.963	104.12
498.181	97.12
498.398	102.12
498.615	125.12
498.832	105.12
499.049	87.12
499.267	80.12
499.484	83.12
499.701	86.12
499.918	98.12
500.135	91.12
500.352	91.12
500.569	116.12
500.786	94.12
501.003	83.12
501.22	87.12
501.437	94.12
501.654	98.12
501.871	135.12
502.088	103.12
502.305	96.12
502.522	96.12
502.739	107.12
502.956	109.12
503.172	88.12
503.389	105.12
503.606	152.12
503.823	132.12
504.04	106.12
504.256	110.12
504.473	75.12
504.69	83.12
504.907	91.12
505.123	82.12
505.34	83.12
505.557	86.12
505.773	104.12
505.99	75.12
506.207	108.12
506.423	82.12
506.64	85.12
506.856	102.12
507.073	87.12
507.289	99.12
507.506	118.12
507.722	155.12
507.939	147.12
508.155	115.12
508.372	106.12
508.588	84.12
508.805	87.12
509.021	109.12
509.238	111.12
509.454	107.12
509.67	104.12
509.887	113.12
510.103	147.12
510.319	285.12
510.536	1127.12
510.752	3954.12
510.968	998.12
511.184	207.12
511.401	132.12
511.617	123.12
511.833	126.12
512.049	111.12
