Data from Circ_1997_H10_HRD10591_00026.txt Node
Date: Wed Jan 03 11:29:32 EST 2024
User: Yrep
Spectrometer: HR+D1059
Trigger mode: 1
Integration Time (sec): 1.000000E-1
Scans to average: 1
Electric dark correction enabled: true
Nonlinearity correction enabled: false
Boxcar width: 0
XAxis mode: Wavelengths
Number of Pixels in Spectrum: 2048
>>>>>Begin Spectral Data<<<<<
223.165	-11.81
223.4	-11.81
223.635	-11.81
223.869	-20.81
224.104	-30.81
224.338	-18.81
224.573	-14.81
224.808	-10.81
225.042	-18.81
225.277	-0.81
225.511	5.19
225.746	1.19
225.98	9.19
226.215	17.19
226.449	12.19
226.683	18.19
226.918	23.19
227.152	41.19
227.387	46.19
227.621	29.19
227.856	42.19
228.09	29.19
228.324	51.19
228.559	57.19
228.793	58.19
229.027	49.19
229.262	62.19
229.496	63.19
229.73	85.19
229.964	92.19
230.199	75.19
230.433	71.19
230.667	83.19
230.901	95.19
231.136	88.19
231.37	78.19
231.604	79.19
231.838	80.19
232.072	73.19
232.306	83.19
232.541	76.19
232.775	69.19
233.009	64.19
233.243	75.19
233.477	82.19
233.711	77.19
233.945	71.19
234.179	93.19
234.413	83.19
234.647	84.19
234.881	69.19
235.115	92.19
235.349	88.19
235.583	72.19
235.817	85.19
236.051	78.19
236.285	55.19
236.519	71.19
236.753	75.19
236.987	75.19
237.221	91.19
237.455	66.19
237.689	81.19
237.922	84.19
238.156	71.19
238.39	69.19
238.624	84.19
238.858	87.19
239.091	81.19
239.325	83.19
239.559	83.19
239.793	66.19
240.027	83.19
240.26	87.19
240.494	64.19
240.728	81.19
240.961	75.19
241.195	87.19
241.429	68.19
241.662	65.19
241.896	77.19
242.13	72.19
242.363	88.19
242.597	77.19
242.83	82.19
243.064	68.19
243.298	77.19
243.531	68.19
243.765	81.19
243.998	87.19
244.232	82.19
244.465	80.19
244.699	86.19
244.932	85.19
245.166	72.19
245.399	74.19
245.633	74.19
245.866	70.19
246.099	79.19
246.333	79.19
246.566	65.19
246.8	71.19
247.033	82.19
247.266	79.19
247.5	78.19
247.733	93.19
247.966	79.19
248.2	82.19
248.433	81.19
248.666	71.19
248.899	77.19
249.133	101.19
249.366	91.19
249.599	105.19
249.832	85.19
250.066	92.19
250.299	96.19
250.532	90.19
250.765	84.19
250.998	80.19
251.231	77.19
251.465	87.19
251.698	93.19
251.931	84.19
252.164	83.19
252.397	83.19
252.63	89.19
252.863	67.19
253.096	72.19
253.329	79.19
253.562	90.19
253.795	76.19
254.028	71.19
254.261	81.19
254.494	86.19
254.727	69.19
254.96	78.19
255.193	92.19
255.426	80.19
255.659	92.19
255.892	94.19
256.124	85.19
256.357	86.19
256.59	77.19
256.823	80.19
257.056	82.19
257.289	90.19
257.521	86.19
257.754	80.19
257.987	73.19
258.22	83.19
258.452	89.19
258.685	98.19
258.918	78.19
259.151	77.19
259.383	77.19
259.616	84.19
259.849	87.19
260.081	91.19
260.314	88.19
260.547	87.19
260.779	91.19
261.012	89.19
261.244	104.19
261.477	97.19
261.71	106.19
261.942	112.19
262.175	134.19
262.407	91.19
262.64	91.19
262.872	93.19
263.105	90.19
263.337	76.19
263.57	91.19
263.802	82.19
264.035	75.19
264.267	82.19
264.499	82.19
264.732	65.19
264.964	90.19
265.197	78.19
265.429	88.19
265.661	83.19
265.894	77.19
266.126	93.19
266.358	93.19
266.591	82.19
266.823	77.19
267.055	82.19
267.287	83.19
267.52	59.19
267.752	90.19
267.984	84.19
268.216	69.19
268.448	90.19
268.681	99.19
268.913	86.19
269.145	77.19
269.377	88.19
269.609	80.19
269.841	88.19
270.073	76.19
270.306	74.19
270.538	84.19
270.77	85.19
271.002	84.19
271.234	78.19
271.466	85.19
271.698	73.19
271.93	81.19
272.162	78.19
272.394	87.19
272.626	88.19
272.858	88.19
273.09	86.19
273.322	86.19
273.553	86.19
273.785	100.19
274.017	106.19
274.249	78.19
274.481	89.19
274.713	86.19
274.945	75.19
275.176	88.19
275.408	94.19
275.64	91.19
275.872	111.19
276.104	92.19
276.335	85.19
276.567	119.19
276.799	130.19
277.031	148.19
277.262	139.19
277.494	128.19
277.726	103.19
277.957	87.19
278.189	85.19
278.421	93.19
278.652	81.19
278.884	84.19
279.115	85.19
279.347	85.19
279.579	96.19
279.81	111.19
280.042	160.19
280.273	187.19
280.505	137.19
280.736	91.19
280.968	85.19
281.199	104.19
281.431	80.19
281.662	99.19
281.894	98.19
282.125	98.19
282.356	124.19
282.588	143.19
282.819	130.19
283.051	93.19
283.282	93.19
283.513	97.19
283.745	80.19
283.976	89.19
284.207	81.19
284.439	79.19
284.67	93.19
284.901	83.19
285.132	94.19
285.364	76.19
285.595	79.19
285.826	93.19
286.057	89.19
286.288	88.19
286.52	89.19
286.751	98.19
286.982	102.19
287.213	88.19
287.444	86.19
287.675	99.19
287.906	93.19
288.138	87.19
288.369	93.19
288.6	94.19
288.831	81.19
289.062	79.19
289.293	86.19
289.524	86.19
289.755	85.19
289.986	84.19
290.217	90.19
290.448	97.19
290.679	81.19
290.91	93.19
291.141	96.19
291.371	79.19
291.602	85.19
291.833	97.19
292.064	91.19
292.295	101.19
292.526	81.19
292.757	94.19
292.987	91.19
293.218	100.19
293.449	77.19
293.68	79.19
293.91	93.19
294.141	85.19
294.372	83.19
294.603	100.19
294.833	96.19
295.064	87.19
295.295	73.19
295.525	78.19
295.756	101.19
295.987	127.19
296.217	141.19
296.448	135.19
296.679	100.19
296.909	81.19
297.14	91.19
297.37	87.19
297.601	79.19
297.831	98.19
298.062	98.19
298.292	100.19
298.523	92.19
298.753	84.19
298.984	85.19
299.214	84.19
299.445	93.19
299.675	82.19
299.905	100.19
300.136	86.19
300.366	80.19
300.597	91.19
300.827	101.19
301.057	97.19
301.288	100.19
301.518	96.19
301.748	72.19
301.979	97.19
302.209	106.19
302.439	94.19
302.669	88.19
302.9	95.19
303.13	98.19
303.36	108.19
303.59	113.19
303.82	121.19
304.051	93.19
304.281	104.19
304.511	94.19
304.741	83.19
304.971	93.19
305.201	85.19
305.431	97.19
305.661	92.19
305.891	83.19
306.121	91.19
306.352	97.19
306.582	102.19
306.812	105.19
307.042	115.19
307.272	116.19
307.502	142.19
307.731	142.19
307.961	117.19
308.191	98.19
308.421	84.19
308.651	95.19
308.881	95.19
309.111	102.19
309.341	96.19
309.571	103.19
309.8	100.19
310.03	104.19
310.26	92.19
310.49	102.19
310.72	102.19
310.949	109.19
311.179	117.19
311.409	95.19
311.639	87.19
311.868	100.19
312.098	95.19
312.328	87.19
312.557	117.19
312.787	111.19
313.017	99.19
313.246	91.19
313.476	89.19
313.706	74.19
313.935	93.19
314.165	92.19
314.394	105.19
314.624	108.19
314.853	97.19
315.083	109.19
315.312	105.19
315.542	99.19
315.771	84.19
316.001	79.19
316.23	88.19
316.46	100.19
316.689	85.19
316.919	100.19
317.148	91.19
317.377	109.19
317.607	98.19
317.836	89.19
318.065	82.19
318.295	97.19
318.524	97.19
318.753	105.19
318.983	110.19
319.212	95.19
319.441	122.19
319.67	106.19
319.9	104.19
320.129	89.19
320.358	115.19
320.587	93.19
320.816	113.19
321.046	107.19
321.275	113.19
321.504	98.19
321.733	117.19
321.962	94.19
322.191	109.19
322.42	109.19
322.649	128.19
322.878	129.19
323.108	140.19
323.337	141.19
323.566	163.19
323.795	191.19
324.024	285.19
324.253	577.19
324.482	1254.19
324.71	2717.19
324.939	3712.19
325.168	1255.19
325.397	334.19
325.626	173.19
325.855	152.19
326.084	148.19
326.313	160.19
326.542	188.19
326.77	315.19
326.999	661.19
327.228	1513.19
327.457	2807.19
327.686	2204.19
327.914	609.19
328.143	440.19
328.372	502.19
328.6	271.19
328.829	171.19
329.058	168.19
329.287	179.19
329.515	177.19
329.744	216.19
329.972	372.19
330.201	697.19
330.43	1045.19
330.658	484.19
330.887	224.19
331.115	153.19
331.344	127.19
331.572	123.19
331.801	126.19
332.03	120.19
332.258	112.19
332.486	108.19
332.715	103.19
332.943	111.19
333.172	102.19
333.4	112.19
333.629	151.19
333.857	189.19
334.085	321.19
334.314	711.19
334.542	1317.19
334.771	1218.19
334.999	340.19
335.227	171.19
335.455	118.19
335.684	109.19
335.912	106.19
336.14	115.19
336.369	112.19
336.597	96.19
336.825	106.19
337.053	99.19
337.281	103.19
337.51	104.19
337.738	106.19
337.966	107.19
338.194	104.19
338.422	84.19
338.65	99.19
338.878	99.19
339.106	96.19
339.334	99.19
339.562	95.19
339.79	91.19
340.018	89.19
340.246	95.19
340.474	84.19
340.702	100.19
340.93	89.19
341.158	88.19
341.386	103.19
341.614	76.19
341.842	93.19
342.07	83.19
342.298	101.19
342.526	95.19
342.754	94.19
342.981	100.19
343.209	99.19
343.437	99.19
343.665	88.19
343.893	85.19
344.12	99.19
344.348	80.19
344.576	86.19
344.804	92.19
345.031	95.19
345.259	112.19
345.487	96.19
345.714	99.19
345.942	100.19
346.17	105.19
346.397	105.19
346.625	91.19
346.853	92.19
347.08	86.19
347.308	87.19
347.535	96.19
347.763	104.19
347.99	86.19
348.218	99.19
348.445	117.19
348.673	109.19
348.9	95.19
349.128	87.19
349.355	84.19
349.583	105.19
349.81	88.19
350.037	92.19
350.265	92.19
350.492	85.19
350.72	95.19
350.947	86.19
351.174	109.19
351.402	120.19
351.629	114.19
351.856	104.19
352.083	114.19
352.311	112.19
352.538	110.19
352.765	113.19
352.992	129.19
353.22	108.19
353.447	99.19
353.674	106.19
353.901	97.19
354.128	108.19
354.355	112.19
354.583	106.19
354.81	95.19
355.037	96.19
355.264	103.19
355.491	98.19
355.718	80.19
355.945	87.19
356.172	101.19
356.399	94.19
356.626	103.19
356.853	104.19
357.08	92.19
357.307	89.19
357.534	89.19
357.761	98.19
357.988	95.19
358.215	90.19
358.441	107.19
358.668	96.19
358.895	90.19
359.122	107.19
359.349	84.19
359.576	83.19
359.802	101.19
360.029	127.19
360.256	114.19
360.483	97.19
360.709	93.19
360.936	75.19
361.163	90.19
361.39	95.19
361.616	95.19
361.843	112.19
362.07	105.19
362.296	102.19
362.523	94.19
362.749	86.19
362.976	82.19
363.203	91.19
363.429	82.19
363.656	105.19
363.882	85.19
364.109	99.19
364.335	92.19
364.562	101.19
364.788	91.19
365.015	109.19
365.241	92.19
365.468	107.19
365.694	130.19
365.92	99.19
366.147	93.19
366.373	96.19
366.599	93.19
366.826	95.19
367.052	104.19
367.278	77.19
367.505	97.19
367.731	102.19
367.957	102.19
368.184	94.19
368.41	113.19
368.636	119.19
368.862	131.19
369.089	114.19
369.315	98.19
369.541	99.19
369.767	96.19
369.993	104.19
370.219	90.19
370.445	90.19
370.672	88.19
370.898	80.19
371.124	79.19
371.35	93.19
371.576	77.19
371.802	77.19
372.028	82.19
372.254	87.19
372.48	84.19
372.706	86.19
372.932	77.19
373.158	73.19
373.384	93.19
373.61	89.19
373.835	83.19
374.061	79.19
374.287	82.19
374.513	98.19
374.739	96.19
374.965	81.19
375.191	87.19
375.416	81.19
375.642	89.19
375.868	90.19
376.094	98.19
376.319	81.19
376.545	96.19
376.771	103.19
376.997	82.19
377.222	85.19
377.448	91.19
377.674	85.19
377.899	88.19
378.125	88.19
378.35	86.19
378.576	91.19
378.802	87.19
379.027	91.19
379.253	90.19
379.478	103.19
379.704	98.19
379.929	109.19
380.155	101.19
380.38	102.19
380.606	89.19
380.831	101.19
381.057	97.19
381.282	83.19
381.507	81.19
381.733	97.19
381.958	105.19
382.184	105.19
382.409	93.19
382.634	106.19
382.86	93.19
383.085	95.19
383.31	93.19
383.535	90.19
383.761	90.19
383.986	111.19
384.211	111.19
384.436	94.19
384.662	95.19
384.887	109.19
385.112	91.19
385.337	118.19
385.562	97.19
385.787	102.19
386.013	101.19
386.238	120.19
386.463	92.19
386.688	95.19
386.913	103.19
387.138	103.19
387.363	96.19
387.588	109.19
387.813	96.19
388.038	90.19
388.263	129.19
388.488	125.19
388.713	100.19
388.938	98.19
389.163	103.19
389.387	97.19
389.612	97.19
389.837	83.19
390.062	97.19
390.287	89.19
390.512	94.19
390.736	92.19
390.961	90.19
391.186	86.19
391.411	90.19
391.636	86.19
391.86	83.19
392.085	93.19
392.31	66.19
392.534	101.19
392.759	86.19
392.984	91.19
393.208	89.19
393.433	88.19
393.658	103.19
393.882	105.19
394.107	94.19
394.331	96.19
394.556	84.19
394.78	82.19
395.005	108.19
395.229	90.19
395.454	94.19
395.678	98.19
395.903	101.19
396.127	106.19
396.352	92.19
396.576	90.19
396.801	90.19
397.025	94.19
397.249	87.19
397.474	77.19
397.698	96.19
397.922	95.19
398.147	94.19
398.371	79.19
398.595	73.19
398.82	79.19
399.044	84.19
399.268	86.19
399.492	89.19
399.717	87.19
399.941	100.19
400.165	111.19
400.389	101.19
400.613	67.19
400.837	88.19
401.062	90.19
401.286	110.19
401.51	103.19
401.734	95.19
401.958	99.19
402.182	133.19
402.406	193.19
402.63	131.19
402.854	99.19
403.078	94.19
403.302	95.19
403.526	87.19
403.75	93.19
403.974	93.19
404.198	86.19
404.422	93.19
404.645	99.19
404.869	98.19
405.093	121.19
405.317	139.19
405.541	133.19
405.765	114.19
405.988	130.19
406.212	201.19
406.436	254.19
406.66	176.19
406.883	121.19
407.107	106.19
407.331	108.19
407.555	90.19
407.778	110.19
408.002	86.19
408.226	101.19
408.449	81.19
408.673	87.19
408.896	97.19
409.12	102.19
409.344	91.19
409.567	88.19
409.791	91.19
410.014	102.19
410.238	83.19
410.461	98.19
410.685	99.19
410.908	98.19
411.132	107.19
411.355	97.19
411.578	97.19
411.802	82.19
412.025	109.19
412.249	98.19
412.472	104.19
412.695	136.19
412.919	114.19
413.142	96.19
413.365	82.19
413.589	86.19
413.812	76.19
414.035	86.19
414.258	96.19
414.482	88.19
414.705	89.19
414.928	97.19
415.151	93.19
415.374	103.19
415.597	93.19
415.821	90.19
416.044	87.19
416.267	89.19
416.49	88.19
416.713	92.19
416.936	92.19
417.159	80.19
417.382	103.19
417.605	99.19
417.828	114.19
418.051	98.19
418.274	99.19
418.497	80.19
418.72	81.19
418.943	96.19
419.166	91.19
419.389	93.19
419.611	101.19
419.834	91.19
420.057	90.19
420.28	98.19
420.503	72.19
420.726	88.19
420.948	100.19
421.171	111.19
421.394	98.19
421.617	95.19
421.839	84.19
422.062	93.19
422.285	99.19
422.507	116.19
422.73	109.19
422.953	100.19
423.175	90.19
423.398	85.19
423.621	93.19
423.843	88.19
424.066	87.19
424.288	99.19
424.511	96.19
424.733	102.19
424.956	115.19
425.178	105.19
425.401	111.19
425.623	102.19
425.846	107.19
426.068	82.19
426.291	96.19
426.513	93.19
426.735	94.19
426.958	99.19
427.18	112.19
427.402	179.19
427.625	235.19
427.847	234.19
428.069	230.19
428.292	126.19
428.514	87.19
428.736	88.19
428.958	80.19
429.181	89.19
429.403	96.19
429.625	93.19
429.847	112.19
430.069	116.19
430.292	90.19
430.514	82.19
430.736	92.19
430.958	93.19
431.18	89.19
431.402	89.19
431.624	93.19
431.846	92.19
432.068	87.19
432.29	98.19
432.512	99.19
432.734	85.19
432.956	105.19
433.178	119.19
433.4	118.19
433.622	80.19
433.844	97.19
434.066	83.19
434.287	88.19
434.509	90.19
434.731	95.19
434.953	103.19
435.175	96.19
435.397	89.19
435.618	94.19
435.84	108.19
436.062	154.19
436.284	145.19
436.505	117.19
436.727	105.19
436.949	85.19
437.17	87.19
437.392	89.19
437.614	107.19
437.835	107.19
438.057	133.19
438.278	130.19
438.5	108.19
438.721	144.19
438.943	105.19
439.165	99.19
439.386	79.19
439.608	92.19
439.829	99.19
440.05	140.19
440.272	193.19
440.493	107.19
440.715	89.19
440.936	92.19
441.158	89.19
441.379	89.19
441.6	92.19
441.822	117.19
442.043	97.19
442.264	121.19
442.486	96.19
442.707	97.19
442.928	127.19
443.149	160.19
443.371	156.19
443.592	128.19
443.813	138.19
444.034	122.19
444.255	100.19
444.476	94.19
444.698	94.19
444.919	92.19
445.14	130.19
445.361	130.19
445.582	145.19
445.803	186.19
446.024	174.19
446.245	168.19
446.466	133.19
446.687	105.19
446.908	91.19
447.129	88.19
447.35	89.19
447.571	85.19
447.792	88.19
448.013	109.19
448.234	124.19
448.455	102.19
448.675	142.19
448.896	131.19
449.117	107.19
449.338	128.19
449.559	158.19
449.779	156.19
450	96.19
450.221	99.19
450.442	96.19
450.662	102.19
450.883	112.19
451.104	131.19
451.324	99.19
451.545	98.19
451.766	89.19
451.986	88.19
452.207	83.19
452.428	104.19
452.648	95.19
452.869	128.19
453.089	124.19
453.31	117.19
453.53	101.19
453.751	112.19
453.971	112.19
454.192	117.19
454.412	84.19
454.633	91.19
454.853	86.19
455.073	90.19
455.294	97.19
455.514	100.19
455.734	94.19
455.955	91.19
456.175	104.19
456.395	91.19
456.616	74.19
456.836	86.19
457.056	88.19
457.276	75.19
457.497	81.19
457.717	84.19
457.937	104.19
458.157	88.19
458.377	98.19
458.598	111.19
458.818	175.19
459.038	185.19
459.258	139.19
459.478	81.19
459.698	105.19
459.918	91.19
460.138	88.19
460.358	89.19
460.578	91.19
460.798	96.19
461.018	81.19
461.238	87.19
461.458	96.19
461.678	98.19
461.898	81.19
462.118	103.19
462.338	75.19
462.558	94.19
462.777	93.19
462.997	85.19
463.217	106.19
463.437	89.19
463.657	78.19
463.876	72.19
464.096	93.19
464.316	95.19
464.536	91.19
464.755	103.19
464.975	106.19
465.195	214.19
465.414	186.19
465.634	101.19
465.854	90.19
466.073	88.19
466.293	96.19
466.512	99.19
466.732	90.19
466.951	91.19
467.171	89.19
467.391	114.19
467.61	127.19
467.829	161.19
468.049	438.19
468.268	609.19
468.488	175.19
468.707	111.19
468.927	97.19
469.146	89.19
469.365	82.19
469.585	87.19
469.804	110.19
470.023	104.19
470.243	111.19
470.462	98.19
470.681	138.19
470.901	96.19
471.12	93.19
471.339	100.19
471.558	117.19
471.777	151.19
471.997	243.19
472.216	857.19
472.435	1884.19
472.654	451.19
472.873	138.19
473.092	106.19
473.311	101.19
473.53	111.19
473.749	87.19
473.968	95.19
474.187	114.19
474.406	110.19
474.625	98.19
474.844	83.19
475.063	95.19
475.282	81.19
475.501	92.19
475.72	93.19
475.939	88.19
476.158	76.19
476.377	91.19
476.596	91.19
476.814	117.19
477.033	97.19
477.252	97.19
477.471	91.19
477.69	108.19
477.908	79.19
478.127	109.19
478.346	91.19
478.564	93.19
478.783	103.19
479.002	98.19
479.22	103.19
479.439	115.19
479.658	114.19
479.876	107.19
480.095	114.19
480.313	120.19
480.532	135.19
480.751	241.19
480.969	796.19
481.188	3304.19
481.406	1846.19
481.624	293.19
481.843	131.19
482.061	97.19
482.28	105.19
482.498	98.19
482.717	100.19
482.935	94.19
483.153	79.19
483.372	95.19
483.59	93.19
483.808	81.19
484.027	88.19
484.245	100.19
484.463	92.19
484.681	97.19
484.9	97.19
485.118	106.19
485.336	95.19
485.554	91.19
485.772	98.19
485.99	95.19
486.209	95.19
486.427	91.19
486.645	98.19
486.863	117.19
487.081	101.19
487.299	89.19
487.517	104.19
487.735	98.19
487.953	92.19
488.171	95.19
488.389	101.19
488.607	97.19
488.825	95.19
489.043	88.19
489.261	102.19
489.479	95.19
489.696	81.19
489.914	93.19
490.132	91.19
490.35	102.19
490.568	91.19
490.786	94.19
491.003	89.19
491.221	93.19
491.439	86.19
491.657	100.19
491.874	94.19
492.092	98.19
492.31	74.19
492.527	92.19
492.745	88.19
492.963	99.19
493.18	96.19
493.398	108.19
493.615	111.19
493.833	111.19
494.05	81.19
494.268	79.19
494.485	87.19
494.703	84.19
494.92	94.19
495.138	79.19
495.355	86.19
495.573	97.19
495.79	79.19
496.008	92.19
496.225	94.19
496.442	92.19
496.66	87.19
496.877	80.19
497.094	91.19
497.312	75.19
497.529	99.19
497.746	101.19
497.963	101.19
498.181	100.19
498.398	103.19
498.615	104.19
498.832	118.19
499.049	96.19
499.267	107.19
499.484	91.19
499.701	88.19
499.918	92.19
500.135	99.19
500.352	94.19
500.569	79.19
500.786	97.19
501.003	99.19
501.22	64.19
501.437	97.19
501.654	91.19
501.871	111.19
502.088	108.19
502.305	99.19
502.522	92.19
502.739	86.19
502.956	99.19
503.172	109.19
503.389	116.19
503.606	106.19
503.823	104.19
504.04	89.19
504.256	97.19
504.473	94.19
504.69	96.19
504.907	96.19
505.123	92.19
505.34	87.19
505.557	88.19
505.773	92.19
505.99	85.19
506.207	94.19
506.423	95.19
506.64	96.19
506.856	81.19
507.073	101.19
507.289	91.19
507.506	113.19
507.722	117.19
507.939	136.19
508.155	104.19
508.372	95.19
508.588	90.19
508.805	105.19
509.021	107.19
509.238	105.19
509.454	102.19
509.67	105.19
509.887	99.19
510.103	148.19
510.319	222.19
510.536	837.19
510.752	2837.19
510.968	778.19
511.184	185.19
511.401	130.19
511.617	105.19
511.833	103.19
512.049	99.19
512.265	98.19
512.481	83.19
512.698	87.19
512.914	89.19
513.13	88.19
513.346	88.19
513.562	99.19
513.778	93.19
