Data from Circ_1997_H10_HRD10591_00020.txt Node
Date: Wed Jan 03 11:29:31 EST 2024
User: Yrep
Spectrometer: HR+D1059
Trigger mode: 1
Integration Time (sec): 1.000000E-1
Scans to average: 1
Electric dark correction enabled: true
Nonlinearity correction enabled: false
Boxcar width: 0
XAxis mode: Wavelengths
Number of Pixels in Spectrum: 2048
>>>>>Begin Spectral Data<<<<<
223.165	-23.38
223.4	-23.38
223.635	-23.38
223.869	-29.38
224.104	-20.38
224.338	-28.38
224.573	-13.38
224.808	-25.38
225.042	6.62
225.277	1.62
225.511	-4.38
225.746	18.62
225.98	5.62
226.215	15.62
226.449	19.62
226.683	21.62
226.918	28.62
227.152	26.62
227.387	32.62
227.621	36.62
227.856	33.62
228.09	53.62
228.324	54.62
228.559	65.62
228.793	70.62
229.027	62.62
229.262	71.62
229.496	94.62
229.73	101.62
229.964	103.62
230.199	64.62
230.433	75.62
230.667	87.62
230.901	86.62
231.136	78.62
231.37	71.62
231.604	69.62
231.838	80.62
232.072	71.62
232.306	91.62
232.541	89.62
232.775	84.62
233.009	91.62
233.243	95.62
233.477	78.62
233.711	89.62
233.945	76.62
234.179	85.62
234.413	92.62
234.647	62.62
234.881	86.62
235.115	79.62
235.349	81.62
235.583	87.62
235.817	72.62
236.051	72.62
236.285	66.62
236.519	84.62
236.753	77.62
236.987	76.62
237.221	97.62
237.455	97.62
237.689	81.62
237.922	76.62
238.156	81.62
238.39	85.62
238.624	80.62
238.858	77.62
239.091	71.62
239.325	70.62
239.559	72.62
239.793	86.62
240.027	86.62
240.26	73.62
240.494	77.62
240.728	81.62
240.961	74.62
241.195	79.62
241.429	79.62
241.662	74.62
241.896	70.62
242.13	75.62
242.363	74.62
242.597	80.62
242.83	82.62
243.064	75.62
243.298	58.62
243.531	81.62
243.765	73.62
243.998	88.62
244.232	93.62
244.465	81.62
244.699	82.62
244.932	94.62
245.166	83.62
245.399	85.62
245.633	74.62
245.866	80.62
246.099	72.62
246.333	76.62
246.566	80.62
246.8	66.62
247.033	91.62
247.266	69.62
247.5	82.62
247.733	77.62
247.966	77.62
248.2	89.62
248.433	88.62
248.666	83.62
248.899	100.62
249.133	79.62
249.366	102.62
249.599	109.62
249.832	89.62
250.066	92.62
250.299	62.62
250.532	86.62
250.765	85.62
250.998	91.62
251.231	82.62
251.465	89.62
251.698	82.62
251.931	79.62
252.164	97.62
252.397	76.62
252.63	75.62
252.863	85.62
253.096	86.62
253.329	97.62
253.562	86.62
253.795	82.62
254.028	85.62
254.261	84.62
254.494	77.62
254.727	78.62
254.96	89.62
255.193	93.62
255.426	98.62
255.659	89.62
255.892	81.62
256.124	94.62
256.357	86.62
256.59	82.62
256.823	81.62
257.056	82.62
257.289	86.62
257.521	93.62
257.754	81.62
257.987	80.62
258.22	77.62
258.452	93.62
258.685	104.62
258.918	85.62
259.151	95.62
259.383	86.62
259.616	89.62
259.849	85.62
260.081	83.62
260.314	78.62
260.547	82.62
260.779	84.62
261.012	90.62
261.244	88.62
261.477	89.62
261.71	90.62
261.942	127.62
262.175	143.62
262.407	92.62
262.64	80.62
262.872	71.62
263.105	83.62
263.337	103.62
263.57	81.62
263.802	91.62
264.035	89.62
264.267	76.62
264.499	81.62
264.732	89.62
264.964	78.62
265.197	78.62
265.429	81.62
265.661	80.62
265.894	87.62
266.126	73.62
266.358	79.62
266.591	87.62
266.823	73.62
267.055	87.62
267.287	88.62
267.52	74.62
267.752	98.62
267.984	94.62
268.216	81.62
268.448	87.62
268.681	77.62
268.913	89.62
269.145	98.62
269.377	78.62
269.609	91.62
269.841	83.62
270.073	85.62
270.306	85.62
270.538	93.62
270.77	88.62
271.002	73.62
271.234	89.62
271.466	90.62
271.698	79.62
271.93	90.62
272.162	94.62
272.394	104.62
272.626	83.62
272.858	85.62
273.09	91.62
273.322	86.62
273.553	81.62
273.785	94.62
274.017	94.62
274.249	85.62
274.481	81.62
274.713	98.62
274.945	90.62
275.176	90.62
275.408	94.62
275.64	98.62
275.872	103.62
276.104	109.62
276.335	101.62
276.567	113.62
276.799	137.62
277.031	154.62
277.262	150.62
277.494	114.62
277.726	91.62
277.957	91.62
278.189	81.62
278.421	98.62
278.652	64.62
278.884	65.62
279.115	101.62
279.347	106.62
279.579	88.62
279.81	130.62
280.042	165.62
280.273	185.62
280.505	138.62
280.736	87.62
280.968	100.62
281.199	101.62
281.431	88.62
281.662	89.62
281.894	78.62
282.125	100.62
282.356	125.62
282.588	156.62
282.819	120.62
283.051	98.62
283.282	93.62
283.513	93.62
283.745	89.62
283.976	93.62
284.207	81.62
284.439	83.62
284.67	106.62
284.901	77.62
285.132	98.62
285.364	98.62
285.595	96.62
285.826	74.62
286.057	102.62
286.288	79.62
286.52	77.62
286.751	93.62
286.982	84.62
287.213	79.62
287.444	70.62
287.675	105.62
287.906	92.62
288.138	98.62
288.369	95.62
288.6	98.62
288.831	104.62
289.062	98.62
289.293	90.62
289.524	86.62
289.755	105.62
289.986	69.62
290.217	86.62
290.448	96.62
290.679	85.62
290.91	94.62
291.141	90.62
291.371	97.62
291.602	99.62
291.833	96.62
292.064	72.62
292.295	98.62
292.526	94.62
292.757	82.62
292.987	89.62
293.218	86.62
293.449	87.62
293.68	81.62
293.91	92.62
294.141	104.62
294.372	79.62
294.603	90.62
294.833	98.62
295.064	91.62
295.295	101.62
295.525	98.62
295.756	99.62
295.987	123.62
296.217	151.62
296.448	132.62
296.679	103.62
296.909	67.62
297.14	97.62
297.37	87.62
297.601	96.62
297.831	91.62
298.062	87.62
298.292	87.62
298.523	88.62
298.753	96.62
298.984	93.62
299.214	92.62
299.445	79.62
299.675	95.62
299.905	103.62
300.136	105.62
300.366	99.62
300.597	80.62
300.827	92.62
301.057	99.62
301.288	109.62
301.518	106.62
301.748	106.62
301.979	105.62
302.209	116.62
302.439	87.62
302.669	77.62
302.9	87.62
303.13	100.62
303.36	88.62
303.59	121.62
303.82	134.62
304.051	111.62
304.281	91.62
304.511	87.62
304.741	104.62
304.971	100.62
305.201	90.62
305.431	82.62
305.661	79.62
305.891	88.62
306.121	87.62
306.352	121.62
306.582	114.62
306.812	100.62
307.042	111.62
307.272	135.62
307.502	165.62
307.731	133.62
307.961	114.62
308.191	103.62
308.421	95.62
308.651	95.62
308.881	100.62
309.111	104.62
309.341	94.62
309.571	103.62
309.8	103.62
310.03	110.62
310.26	105.62
310.49	84.62
310.72	120.62
310.949	110.62
311.179	103.62
311.409	105.62
311.639	103.62
311.868	109.62
312.098	107.62
312.328	93.62
312.557	107.62
312.787	121.62
313.017	96.62
313.246	89.62
313.476	93.62
313.706	98.62
313.935	106.62
314.165	117.62
314.394	113.62
314.624	105.62
314.853	100.62
315.083	100.62
315.312	102.62
315.542	100.62
315.771	89.62
316.001	90.62
316.23	105.62
316.46	81.62
316.689	98.62
316.919	88.62
317.148	98.62
317.377	111.62
317.607	89.62
317.836	107.62
318.065	95.62
318.295	102.62
318.524	103.62
318.753	98.62
318.983	97.62
319.212	109.62
319.441	118.62
319.67	122.62
319.9	96.62
320.129	99.62
320.358	93.62
320.587	100.62
320.816	109.62
321.046	99.62
321.275	119.62
321.504	110.62
321.733	98.62
321.962	105.62
322.191	117.62
322.42	115.62
322.649	118.62
322.878	148.62
323.108	130.62
323.337	155.62
323.566	163.62
323.795	203.62
324.024	276.62
324.253	598.62
324.482	1319.62
324.71	2885.62
324.939	3878.62
325.168	1301.62
325.397	343.62
325.626	187.62
325.855	156.62
326.084	147.62
326.313	159.62
326.542	192.62
326.77	316.62
326.999	701.62
327.228	1550.62
327.457	2952.62
327.686	2248.62
327.914	618.62
328.143	464.62
328.372	540.62
328.6	309.62
328.829	162.62
329.058	167.62
329.287	179.62
329.515	165.62
329.744	234.62
329.972	397.62
330.201	781.62
330.43	1126.62
330.658	525.62
330.887	263.62
331.115	182.62
331.344	107.62
331.572	107.62
331.801	115.62
332.03	119.62
332.258	92.62
332.486	101.62
332.715	99.62
332.943	109.62
333.172	108.62
333.4	139.62
333.629	143.62
333.857	210.62
334.085	369.62
334.314	719.62
334.542	1446.62
334.771	1340.62
334.999	352.62
335.227	162.62
335.455	127.62
335.684	126.62
335.912	116.62
336.14	106.62
336.369	120.62
336.597	116.62
336.825	103.62
337.053	90.62
337.281	117.62
337.51	91.62
337.738	109.62
337.966	98.62
338.194	83.62
338.422	106.62
338.65	98.62
338.878	90.62
339.106	104.62
339.334	103.62
339.562	94.62
339.79	98.62
340.018	85.62
340.246	109.62
340.474	97.62
340.702	109.62
340.93	92.62
341.158	104.62
341.386	98.62
341.614	107.62
341.842	94.62
342.07	105.62
342.298	85.62
342.526	94.62
342.754	84.62
342.981	89.62
343.209	86.62
343.437	94.62
343.665	87.62
343.893	105.62
344.12	90.62
344.348	95.62
344.576	94.62
344.804	98.62
345.031	105.62
345.259	109.62
345.487	114.62
345.714	115.62
345.942	89.62
346.17	100.62
346.397	95.62
346.625	99.62
346.853	96.62
347.08	100.62
347.308	99.62
347.535	102.62
347.763	104.62
347.99	106.62
348.218	106.62
348.445	119.62
348.673	104.62
348.9	96.62
349.128	75.62
349.355	97.62
349.583	94.62
349.81	89.62
350.037	85.62
350.265	109.62
350.492	104.62
350.72	102.62
350.947	106.62
351.174	126.62
351.402	113.62
351.629	104.62
351.856	110.62
352.083	98.62
352.311	110.62
352.538	123.62
352.765	118.62
352.992	111.62
353.22	109.62
353.447	113.62
353.674	102.62
353.901	111.62
354.128	107.62
354.355	106.62
354.583	94.62
354.81	89.62
355.037	92.62
355.264	79.62
355.491	86.62
355.718	90.62
355.945	108.62
356.172	96.62
356.399	87.62
356.626	93.62
356.853	75.62
357.08	88.62
357.307	104.62
357.534	86.62
357.761	96.62
357.988	93.62
358.215	88.62
358.441	105.62
358.668	101.62
358.895	96.62
359.122	89.62
359.349	115.62
359.576	99.62
359.802	110.62
360.029	134.62
360.256	117.62
360.483	103.62
360.709	99.62
360.936	96.62
361.163	89.62
361.39	98.62
361.616	108.62
361.843	103.62
362.07	98.62
362.296	102.62
362.523	101.62
362.749	112.62
362.976	82.62
363.203	99.62
363.429	83.62
363.656	100.62
363.882	98.62
364.109	105.62
364.335	85.62
364.562	99.62
364.788	101.62
365.015	110.62
365.241	105.62
365.468	114.62
365.694	124.62
365.92	102.62
366.147	93.62
366.373	94.62
366.599	95.62
366.826	95.62
367.052	84.62
367.278	94.62
367.505	107.62
367.731	90.62
367.957	89.62
368.184	108.62
368.41	117.62
368.636	125.62
368.862	111.62
369.089	125.62
369.315	116.62
369.541	115.62
369.767	99.62
369.993	95.62
370.219	97.62
370.445	90.62
370.672	79.62
370.898	95.62
371.124	89.62
371.35	90.62
371.576	101.62
371.802	103.62
372.028	94.62
372.254	81.62
372.48	96.62
372.706	90.62
372.932	87.62
373.158	89.62
373.384	90.62
373.61	90.62
373.835	86.62
374.061	94.62
374.287	88.62
374.513	90.62
374.739	97.62
374.965	98.62
375.191	96.62
375.416	92.62
375.642	85.62
375.868	89.62
376.094	88.62
376.319	105.62
376.545	108.62
376.771	90.62
376.997	82.62
377.222	99.62
377.448	96.62
377.674	85.62
377.899	90.62
378.125	96.62
378.35	104.62
378.576	78.62
378.802	99.62
379.027	98.62
379.253	95.62
379.478	94.62
379.704	94.62
379.929	94.62
380.155	90.62
380.38	99.62
380.606	103.62
380.831	91.62
381.057	101.62
381.282	93.62
381.507	92.62
381.733	83.62
381.958	98.62
382.184	93.62
382.409	113.62
382.634	97.62
382.86	97.62
383.085	94.62
383.31	101.62
383.535	116.62
383.761	112.62
383.986	105.62
384.211	93.62
384.436	98.62
384.662	99.62
384.887	100.62
385.112	105.62
385.337	111.62
385.562	108.62
385.787	106.62
386.013	112.62
386.238	115.62
386.463	112.62
386.688	105.62
386.913	113.62
387.138	112.62
387.363	101.62
387.588	97.62
387.813	103.62
388.038	109.62
388.263	96.62
388.488	109.62
388.713	97.62
388.938	99.62
389.163	103.62
389.387	94.62
389.612	95.62
389.837	87.62
390.062	98.62
390.287	103.62
390.512	103.62
390.736	87.62
390.961	91.62
391.186	104.62
391.411	93.62
391.636	88.62
391.86	93.62
392.085	90.62
392.31	73.62
392.534	88.62
392.759	91.62
392.984	89.62
393.208	101.62
393.433	98.62
393.658	88.62
393.882	103.62
394.107	94.62
394.331	97.62
394.556	92.62
394.78	80.62
395.005	83.62
395.229	90.62
395.454	96.62
395.678	93.62
395.903	86.62
396.127	94.62
396.352	91.62
396.576	86.62
396.801	92.62
397.025	103.62
397.249	89.62
397.474	90.62
397.698	98.62
397.922	86.62
398.147	97.62
398.371	84.62
398.595	91.62
398.82	101.62
399.044	97.62
399.268	86.62
399.492	95.62
399.717	94.62
399.941	93.62
400.165	85.62
400.389	107.62
400.613	91.62
400.837	96.62
401.062	94.62
401.286	116.62
401.51	94.62
401.734	103.62
401.958	108.62
402.182	126.62
402.406	191.62
402.63	131.62
402.854	108.62
403.078	107.62
403.302	79.62
403.526	77.62
403.75	87.62
403.974	98.62
404.198	91.62
404.422	92.62
404.645	77.62
404.869	100.62
405.093	122.62
405.317	139.62
405.541	140.62
405.765	104.62
405.988	146.62
406.212	195.62
406.436	290.62
406.66	189.62
406.883	118.62
407.107	91.62
407.331	111.62
407.555	107.62
407.778	97.62
408.002	94.62
408.226	101.62
408.449	92.62
408.673	88.62
408.896	100.62
409.12	105.62
409.344	109.62
409.567	81.62
409.791	93.62
410.014	89.62
410.238	94.62
410.461	93.62
410.685	97.62
410.908	102.62
411.132	112.62
411.355	98.62
411.578	111.62
411.802	82.62
412.025	94.62
412.249	104.62
412.472	118.62
412.695	130.62
412.919	106.62
413.142	88.62
413.365	88.62
413.589	83.62
413.812	90.62
414.035	98.62
414.258	89.62
414.482	79.62
414.705	98.62
414.928	91.62
415.151	92.62
415.374	85.62
415.597	85.62
415.821	79.62
416.044	92.62
416.267	84.62
416.49	99.62
416.713	88.62
416.936	85.62
417.159	97.62
417.382	94.62
417.605	94.62
417.828	115.62
418.051	103.62
418.274	85.62
418.497	81.62
418.72	73.62
418.943	80.62
419.166	89.62
419.389	82.62
419.611	101.62
419.834	96.62
420.057	91.62
420.28	85.62
420.503	95.62
420.726	96.62
420.948	83.62
421.171	110.62
421.394	91.62
421.617	95.62
421.839	96.62
422.062	94.62
422.285	93.62
422.507	98.62
422.73	118.62
422.953	101.62
423.175	97.62
423.398	99.62
423.621	90.62
423.843	90.62
424.066	85.62
424.288	99.62
424.511	99.62
424.733	106.62
424.956	126.62
425.178	103.62
425.401	101.62
425.623	111.62
425.846	108.62
426.068	95.62
426.291	91.62
426.513	99.62
426.735	88.62
426.958	111.62
427.18	112.62
427.402	185.62
427.625	274.62
427.847	252.62
428.069	233.62
428.292	130.62
428.514	103.62
428.736	98.62
428.958	87.62
429.181	85.62
429.403	85.62
429.625	88.62
429.847	96.62
430.069	107.62
430.292	92.62
430.514	91.62
430.736	82.62
430.958	97.62
431.18	100.62
431.402	85.62
431.624	73.62
431.846	96.62
432.068	96.62
432.29	83.62
432.512	88.62
432.734	86.62
432.956	95.62
433.178	117.62
433.4	114.62
433.622	77.62
433.844	89.62
434.066	100.62
434.287	90.62
434.509	103.62
434.731	85.62
434.953	89.62
435.175	90.62
435.397	90.62
435.618	110.62
435.84	109.62
436.062	157.62
436.284	129.62
436.505	116.62
436.727	111.62
436.949	89.62
437.17	91.62
437.392	89.62
437.614	102.62
437.835	112.62
438.057	142.62
438.278	135.62
438.5	119.62
438.721	158.62
438.943	118.62
439.165	89.62
439.386	88.62
439.608	102.62
439.829	103.62
440.05	172.62
440.272	201.62
440.493	129.62
440.715	103.62
440.936	90.62
441.158	92.62
441.379	88.62
441.6	80.62
441.822	107.62
442.043	98.62
442.264	133.62
442.486	125.62
442.707	105.62
442.928	115.62
443.149	171.62
443.371	156.62
443.592	126.62
443.813	136.62
444.034	139.62
444.255	107.62
444.476	89.62
444.698	98.62
444.919	90.62
445.14	130.62
445.361	142.62
445.582	153.62
445.803	185.62
446.024	192.62
446.245	193.62
446.466	136.62
446.687	106.62
446.908	81.62
447.129	87.62
447.35	107.62
447.571	107.62
447.792	98.62
448.013	110.62
448.234	114.62
448.455	124.62
448.675	130.62
448.896	140.62
449.117	119.62
449.338	113.62
449.559	166.62
449.779	180.62
450	112.62
450.221	98.62
450.442	96.62
450.662	104.62
450.883	130.62
451.104	120.62
451.324	109.62
451.545	98.62
451.766	103.62
451.986	108.62
452.207	86.62
452.428	87.62
452.648	90.62
452.869	123.62
453.089	138.62
453.31	137.62
453.53	107.62
453.751	90.62
453.971	132.62
454.192	125.62
454.412	109.62
454.633	93.62
454.853	97.62
455.073	89.62
455.294	90.62
455.514	116.62
455.734	95.62
455.955	91.62
456.175	78.62
456.395	77.62
456.616	84.62
456.836	84.62
457.056	75.62
457.276	86.62
457.497	76.62
457.717	88.62
457.937	79.62
458.157	86.62
458.377	86.62
458.598	138.62
458.818	207.62
459.038	218.62
459.258	143.62
459.478	91.62
459.698	85.62
459.918	86.62
460.138	91.62
460.358	81.62
460.578	89.62
460.798	106.62
461.018	91.62
461.238	85.62
461.458	78.62
461.678	81.62
461.898	80.62
462.118	95.62
462.338	90.62
462.558	80.62
462.777	85.62
462.997	96.62
463.217	98.62
463.437	93.62
463.657	95.62
463.876	92.62
464.096	81.62
464.316	85.62
464.536	100.62
464.755	97.62
464.975	130.62
465.195	224.62
465.414	217.62
465.634	107.62
465.854	85.62
466.073	80.62
466.293	76.62
466.512	77.62
466.732	94.62
466.951	86.62
467.171	109.62
467.391	96.62
467.61	132.62
467.829	179.62
468.049	442.62
468.268	624.62
468.488	180.62
468.707	112.62
468.927	100.62
469.146	82.62
469.365	98.62
469.585	95.62
469.804	98.62
470.023	95.62
470.243	101.62
470.462	126.62
470.681	127.62
470.901	111.62
471.12	87.62
471.339	104.62
471.558	105.62
471.777	154.62
471.997	269.62
472.216	883.62
472.435	1976.62
472.654	466.62
472.873	153.62
473.092	122.62
473.311	87.62
473.53	90.62
473.749	87.62
473.968	103.62
474.187	122.62
474.406	111.62
474.625	89.62
474.844	95.62
475.063	79.62
475.282	92.62
475.501	101.62
475.72	102.62
475.939	84.62
476.158	100.62
476.377	71.62
476.596	82.62
476.814	115.62
477.033	113.62
477.252	85.62
477.471	80.62
477.69	91.62
477.908	107.62
478.127	97.62
478.346	84.62
478.564	91.62
478.783	111.62
479.002	96.62
479.22	89.62
479.439	126.62
479.658	122.62
479.876	113.62
480.095	105.62
480.313	133.62
480.532	151.62
480.751	262.62
480.969	805.62
481.188	3414.62
481.406	1975.62
481.624	298.62
481.843	114.62
482.061	105.62
482.28	111.62
482.498	99.62
482.717	91.62
482.935	92.62
483.153	77.62
483.372	96.62
483.59	97.62
483.808	86.62
484.027	88.62
484.245	106.62
484.463	98.62
484.681	89.62
484.9	101.62
485.118	98.62
485.336	91.62
485.554	95.62
485.772	103.62
485.99	111.62
486.209	98.62
486.427	105.62
486.645	112.62
486.863	118.62
487.081	104.62
487.299	93.62
487.517	90.62
487.735	95.62
487.953	95.62
488.171	102.62
488.389	112.62
488.607	109.62
488.825	93.62
489.043	90.62
489.261	97.62
489.479	100.62
489.696	91.62
489.914	93.62
490.132	93.62
490.35	98.62
490.568	98.62
490.786	93.62
491.003	89.62
491.221	97.62
491.439	94.62
491.657	99.62
491.874	93.62
492.092	89.62
492.31	95.62
492.527	87.62
492.745	94.62
492.963	90.62
493.18	94.62
493.398	84.62
493.615	99.62
493.833	85.62
494.05	97.62
494.268	85.62
494.485	83.62
494.703	96.62
494.92	72.62
495.138	88.62
495.355	97.62
495.573	94.62
495.79	88.62
496.008	97.62
496.225	85.62
496.442	88.62
496.66	95.62
496.877	79.62
497.094	97.62
497.312	92.62
497.529	94.62
497.746	94.62
497.963	95.62
498.181	94.62
498.398	75.62
498.615	110.62
498.832	110.62
499.049	85.62
499.267	107.62
499.484	102.62
499.701	90.62
499.918	85.62
500.135	89.62
500.352	73.62
500.569	100.62
500.786	105.62
501.003	94.62
501.22	94.62
501.437	104.62
501.654	101.62
501.871	124.62
502.088	97.62
502.305	99.62
502.522	98.62
502.739	106.62
502.956	87.62
503.172	91.62
503.389	110.62
503.606	117.62
503.823	96.62
504.04	91.62
504.256	81.62
504.473	92.62
504.69	93.62
504.907	88.62
505.123	81.62
505.34	90.62
505.557	86.62
505.773	81.62
505.99	92.62
506.207	90.62
506.423	100.62
506.64	93.62
506.856	93.62
507.073	82.62
507.289	89.62
507.506	101.62
507.722	134.62
507.939	116.62
508.155	99.62
508.372	83.62
508.588	104.62
508.805	102.62
509.021	105.62
509.238	99.62
509.454	98.62
509.67	103.62
509.887	105.62
510.103	139.62
510.319	254.62
510.536	895.62
510.752	3050.62
510.968	810.62
511.184	174.62
511.401	111.62
511.617	105.62
511.833	111.62
512.049	96.62
512.265	93.62
512.481	103.62
512.698	98.62
512.914	93.62
