Data from Circ_1997_H10_HRD10591_00030.txt Node
Date: Wed Jan 03 11:29:33 EST 2024
User: Yrep
Spectrometer: HR+D1059
Trigger mode: 1
Integration Time (sec): 1.000000E-1
Scans to average: 1
Electric dark correction enabled: true
Nonlinearity correction enabled: false
Boxcar width: 0
XAxis mode: Wavelengths
Number of Pixels in Spectrum: 2048
>>>>>Begin Spectral Data<<<<<
223.165	-14.62
223.4	-14.62
223.635	-14.62
223.869	-18.62
224.104	-26.62
224.338	-20.62
224.573	-17.62
224.808	-1.62
225.042	-9.62
225.277	-13.62
225.511	-2.62
225.746	5.38
225.98	11.38
226.215	21.38
226.449	5.38
226.683	18.38
226.918	29.38
227.152	34.38
227.387	35.38
227.621	42.38
227.856	52.38
228.09	36.38
228.324	46.38
228.559	62.38
228.793	66.38
229.027	63.38
229.262	77.38
229.496	79.38
229.73	84.38
229.964	90.38
230.199	74.38
230.433	86.38
230.667	76.38
230.901	76.38
231.136	66.38
231.37	79.38
231.604	61.38
231.838	90.38
232.072	74.38
232.306	88.38
232.541	77.38
232.775	81.38
233.009	81.38
233.243	73.38
233.477	72.38
233.711	70.38
233.945	86.38
234.179	79.38
234.413	84.38
234.647	81.38
234.881	84.38
235.115	78.38
235.349	77.38
235.583	88.38
235.817	74.38
236.051	70.38
236.285	81.38
236.519	83.38
236.753	69.38
236.987	81.38
237.221	80.38
237.455	92.38
237.689	70.38
237.922	76.38
238.156	80.38
238.39	73.38
238.624	69.38
238.858	82.38
239.091	70.38
239.325	79.38
239.559	87.38
239.793	71.38
240.027	86.38
240.26	66.38
240.494	92.38
240.728	77.38
240.961	71.38
241.195	76.38
241.429	77.38
241.662	81.38
241.896	90.38
242.13	76.38
242.363	84.38
242.597	78.38
242.83	71.38
243.064	63.38
243.298	72.38
243.531	77.38
243.765	64.38
243.998	74.38
244.232	77.38
244.465	77.38
244.699	78.38
244.932	77.38
245.166	65.38
245.399	81.38
245.633	71.38
245.866	84.38
246.099	77.38
246.333	85.38
246.566	86.38
246.8	61.38
247.033	91.38
247.266	78.38
247.5	80.38
247.733	62.38
247.966	61.38
248.2	73.38
248.433	88.38
248.666	72.38
248.899	85.38
249.133	99.38
249.366	100.38
249.599	108.38
249.832	89.38
250.066	89.38
250.299	87.38
250.532	89.38
250.765	81.38
250.998	96.38
251.231	75.38
251.465	99.38
251.698	74.38
251.931	97.38
252.164	76.38
252.397	80.38
252.63	72.38
252.863	72.38
253.096	90.38
253.329	93.38
253.562	81.38
253.795	82.38
254.028	90.38
254.261	78.38
254.494	84.38
254.727	86.38
254.96	89.38
255.193	79.38
255.426	82.38
255.659	99.38
255.892	86.38
256.124	89.38
256.357	81.38
256.59	78.38
256.823	85.38
257.056	84.38
257.289	77.38
257.521	86.38
257.754	91.38
257.987	76.38
258.22	84.38
258.452	87.38
258.685	92.38
258.918	97.38
259.151	80.38
259.383	89.38
259.616	81.38
259.849	74.38
260.081	92.38
260.314	76.38
260.547	87.38
260.779	84.38
261.012	79.38
261.244	102.38
261.477	87.38
261.71	103.38
261.942	114.38
262.175	117.38
262.407	80.38
262.64	81.38
262.872	77.38
263.105	89.38
263.337	83.38
263.57	92.38
263.802	84.38
264.035	84.38
264.267	78.38
264.499	80.38
264.732	82.38
264.964	88.38
265.197	83.38
265.429	74.38
265.661	84.38
265.894	81.38
266.126	81.38
266.358	78.38
266.591	76.38
266.823	82.38
267.055	94.38
267.287	95.38
267.52	93.38
267.752	94.38
267.984	78.38
268.216	97.38
268.448	96.38
268.681	97.38
268.913	95.38
269.145	82.38
269.377	92.38
269.609	81.38
269.841	81.38
270.073	96.38
270.306	78.38
270.538	94.38
270.77	102.38
271.002	80.38
271.234	85.38
271.466	80.38
271.698	86.38
271.93	80.38
272.162	79.38
272.394	94.38
272.626	79.38
272.858	88.38
273.09	78.38
273.322	94.38
273.553	78.38
273.785	97.38
274.017	89.38
274.249	83.38
274.481	82.38
274.713	96.38
274.945	92.38
275.176	83.38
275.408	103.38
275.64	101.38
275.872	106.38
276.104	96.38
276.335	79.38
276.567	114.38
276.799	124.38
277.031	114.38
277.262	128.38
277.494	111.38
277.726	80.38
277.957	90.38
278.189	83.38
278.421	74.38
278.652	86.38
278.884	81.38
279.115	88.38
279.347	93.38
279.579	76.38
279.81	103.38
280.042	135.38
280.273	168.38
280.505	125.38
280.736	85.38
280.968	103.38
281.199	81.38
281.431	77.38
281.662	96.38
281.894	73.38
282.125	96.38
282.356	125.38
282.588	147.38
282.819	116.38
283.051	86.38
283.282	92.38
283.513	86.38
283.745	90.38
283.976	100.38
284.207	85.38
284.439	87.38
284.67	84.38
284.901	77.38
285.132	95.38
285.364	90.38
285.595	93.38
285.826	82.38
286.057	89.38
286.288	88.38
286.52	86.38
286.751	81.38
286.982	84.38
287.213	76.38
287.444	79.38
287.675	85.38
287.906	93.38
288.138	82.38
288.369	106.38
288.6	104.38
288.831	91.38
289.062	83.38
289.293	77.38
289.524	76.38
289.755	93.38
289.986	93.38
290.217	73.38
290.448	80.38
290.679	85.38
290.91	101.38
291.141	78.38
291.371	91.38
291.602	101.38
291.833	87.38
292.064	89.38
292.295	86.38
292.526	85.38
292.757	75.38
292.987	98.38
293.218	86.38
293.449	88.38
293.68	95.38
293.91	92.38
294.141	83.38
294.372	82.38
294.603	84.38
294.833	100.38
295.064	84.38
295.295	97.38
295.525	112.38
295.756	89.38
295.987	112.38
296.217	134.38
296.448	118.38
296.679	99.38
296.909	91.38
297.14	88.38
297.37	94.38
297.601	94.38
297.831	91.38
298.062	101.38
298.292	89.38
298.523	94.38
298.753	85.38
298.984	86.38
299.214	84.38
299.445	88.38
299.675	86.38
299.905	88.38
300.136	100.38
300.366	87.38
300.597	79.38
300.827	93.38
301.057	94.38
301.288	92.38
301.518	93.38
301.748	96.38
301.979	103.38
302.209	100.38
302.439	100.38
302.669	90.38
302.9	84.38
303.13	92.38
303.36	92.38
303.59	106.38
303.82	124.38
304.051	111.38
304.281	96.38
304.511	87.38
304.741	96.38
304.971	81.38
305.201	84.38
305.431	92.38
305.661	89.38
305.891	93.38
306.121	96.38
306.352	104.38
306.582	98.38
306.812	100.38
307.042	125.38
307.272	131.38
307.502	129.38
307.731	136.38
307.961	120.38
308.191	109.38
308.421	82.38
308.651	87.38
308.881	86.38
309.111	86.38
309.341	88.38
309.571	77.38
309.8	93.38
310.03	96.38
310.26	100.38
310.49	92.38
310.72	101.38
310.949	109.38
311.179	100.38
311.409	87.38
311.639	100.38
311.868	98.38
312.098	98.38
312.328	98.38
312.557	109.38
312.787	106.38
313.017	87.38
313.246	98.38
313.476	87.38
313.706	88.38
313.935	84.38
314.165	99.38
314.394	86.38
314.624	92.38
314.853	101.38
315.083	90.38
315.312	85.38
315.542	95.38
315.771	103.38
316.001	101.38
316.23	87.38
316.46	100.38
316.689	87.38
316.919	83.38
317.148	85.38
317.377	92.38
317.607	104.38
317.836	101.38
318.065	80.38
318.295	102.38
318.524	94.38
318.753	87.38
318.983	95.38
319.212	114.38
319.441	110.38
319.67	102.38
319.9	77.38
320.129	85.38
320.358	90.38
320.587	103.38
320.816	121.38
321.046	117.38
321.275	106.38
321.504	104.38
321.733	102.38
321.962	108.38
322.191	107.38
322.42	108.38
322.649	125.38
322.878	106.38
323.108	116.38
323.337	123.38
323.566	129.38
323.795	177.38
324.024	261.38
324.253	491.38
324.482	1062.38
324.71	2333.38
324.939	3071.38
325.168	1056.38
325.397	292.38
325.626	173.38
325.855	136.38
326.084	140.38
326.313	150.38
326.542	169.38
326.77	284.38
326.999	580.38
327.228	1277.38
327.457	2337.38
327.686	1860.38
327.914	540.38
328.143	369.38
328.372	426.38
328.6	254.38
328.829	162.38
329.058	134.38
329.287	157.38
329.515	147.38
329.744	202.38
329.972	329.38
330.201	608.38
330.43	831.38
330.658	390.38
330.887	214.38
331.115	141.38
331.344	105.38
331.572	95.38
331.801	127.38
332.03	108.38
332.258	93.38
332.486	86.38
332.715	100.38
332.943	112.38
333.172	104.38
333.4	115.38
333.629	124.38
333.857	156.38
334.085	300.38
334.314	562.38
334.542	1093.38
334.771	988.38
334.999	285.38
335.227	159.38
335.455	130.38
335.684	104.38
335.912	104.38
336.14	97.38
336.369	96.38
336.597	102.38
336.825	98.38
337.053	104.38
337.281	102.38
337.51	92.38
337.738	93.38
337.966	92.38
338.194	94.38
338.422	100.38
338.65	93.38
338.878	83.38
339.106	87.38
339.334	90.38
339.562	85.38
339.79	107.38
340.018	89.38
340.246	83.38
340.474	94.38
340.702	83.38
340.93	92.38
341.158	105.38
341.386	93.38
341.614	103.38
341.842	91.38
342.07	91.38
342.298	101.38
342.526	92.38
342.754	94.38
342.981	103.38
343.209	83.38
343.437	97.38
343.665	92.38
343.893	81.38
344.12	93.38
344.348	91.38
344.576	90.38
344.804	100.38
345.031	104.38
345.259	100.38
345.487	93.38
345.714	96.38
345.942	106.38
346.17	100.38
346.397	93.38
346.625	97.38
346.853	90.38
347.08	100.38
347.308	102.38
347.535	103.38
347.763	110.38
347.99	101.38
348.218	104.38
348.445	112.38
348.673	104.38
348.9	105.38
349.128	93.38
349.355	89.38
349.583	92.38
349.81	100.38
350.037	100.38
350.265	81.38
350.492	87.38
350.72	99.38
350.947	109.38
351.174	88.38
351.402	99.38
351.629	100.38
351.856	91.38
352.083	120.38
352.311	109.38
352.538	100.38
352.765	108.38
352.992	114.38
353.22	97.38
353.447	107.38
353.674	108.38
353.901	92.38
354.128	94.38
354.355	101.38
354.583	91.38
354.81	94.38
355.037	84.38
355.264	104.38
355.491	94.38
355.718	98.38
355.945	86.38
356.172	92.38
356.399	109.38
356.626	89.38
356.853	91.38
357.08	96.38
357.307	93.38
357.534	96.38
357.761	97.38
357.988	94.38
358.215	93.38
358.441	81.38
358.668	94.38
358.895	83.38
359.122	86.38
359.349	86.38
359.576	92.38
359.802	107.38
360.029	111.38
360.256	112.38
360.483	109.38
360.709	82.38
360.936	96.38
361.163	101.38
361.39	101.38
361.616	76.38
361.843	93.38
362.07	85.38
362.296	91.38
362.523	93.38
362.749	84.38
362.976	79.38
363.203	95.38
363.429	90.38
363.656	87.38
363.882	92.38
364.109	99.38
364.335	95.38
364.562	104.38
364.788	89.38
365.015	89.38
365.241	105.38
365.468	100.38
365.694	115.38
365.92	93.38
366.147	78.38
366.373	82.38
366.599	90.38
366.826	96.38
367.052	76.38
367.278	83.38
367.505	75.38
367.731	87.38
367.957	97.38
368.184	72.38
368.41	97.38
368.636	96.38
368.862	115.38
369.089	109.38
369.315	92.38
369.541	103.38
369.767	92.38
369.993	88.38
370.219	94.38
370.445	88.38
370.672	92.38
370.898	77.38
371.124	96.38
371.35	77.38
371.576	89.38
371.802	84.38
372.028	79.38
372.254	104.38
372.48	82.38
372.706	85.38
372.932	86.38
373.158	94.38
373.384	91.38
373.61	85.38
373.835	98.38
374.061	92.38
374.287	87.38
374.513	76.38
374.739	78.38
374.965	92.38
375.191	78.38
375.416	90.38
375.642	84.38
375.868	78.38
376.094	92.38
376.319	86.38
376.545	72.38
376.771	72.38
376.997	92.38
377.222	81.38
377.448	91.38
377.674	91.38
377.899	74.38
378.125	85.38
378.35	84.38
378.576	90.38
378.802	87.38
379.027	88.38
379.253	93.38
379.478	98.38
379.704	88.38
379.929	98.38
380.155	91.38
380.38	111.38
380.606	94.38
380.831	90.38
381.057	107.38
381.282	88.38
381.507	89.38
381.733	87.38
381.958	90.38
382.184	75.38
382.409	92.38
382.634	98.38
382.86	89.38
383.085	104.38
383.31	96.38
383.535	96.38
383.761	101.38
383.986	96.38
384.211	89.38
384.436	84.38
384.662	105.38
384.887	101.38
385.112	111.38
385.337	98.38
385.562	101.38
385.787	102.38
386.013	116.38
386.238	104.38
386.463	85.38
386.688	120.38
386.913	98.38
387.138	109.38
387.363	91.38
387.588	99.38
387.813	111.38
388.038	100.38
388.263	106.38
388.488	112.38
388.713	90.38
388.938	97.38
389.163	102.38
389.387	90.38
389.612	98.38
389.837	86.38
390.062	82.38
390.287	85.38
390.512	84.38
390.736	87.38
390.961	86.38
391.186	106.38
391.411	90.38
391.636	85.38
391.86	77.38
392.085	73.38
392.31	79.38
392.534	84.38
392.759	81.38
392.984	87.38
393.208	87.38
393.433	95.38
393.658	102.38
393.882	77.38
394.107	89.38
394.331	84.38
394.556	66.38
394.78	87.38
395.005	88.38
395.229	85.38
395.454	85.38
395.678	78.38
395.903	87.38
396.127	90.38
396.352	96.38
396.576	77.38
396.801	86.38
397.025	83.38
397.249	69.38
397.474	78.38
397.698	90.38
397.922	86.38
398.147	86.38
398.371	79.38
398.595	97.38
398.82	97.38
399.044	77.38
399.268	75.38
399.492	81.38
399.717	80.38
399.941	84.38
400.165	92.38
400.389	82.38
400.613	90.38
400.837	94.38
401.062	97.38
401.286	74.38
401.51	82.38
401.734	93.38
401.958	90.38
402.182	137.38
402.406	153.38
402.63	123.38
402.854	106.38
403.078	96.38
403.302	101.38
403.526	85.38
403.75	81.38
403.974	82.38
404.198	90.38
404.422	88.38
404.645	86.38
404.869	88.38
405.093	106.38
405.317	117.38
405.541	124.38
405.765	104.38
405.988	107.38
406.212	163.38
406.436	218.38
406.66	162.38
406.883	95.38
407.107	96.38
407.331	88.38
407.555	103.38
407.778	105.38
408.002	90.38
408.226	72.38
408.449	84.38
408.673	110.38
408.896	87.38
409.12	108.38
409.344	95.38
409.567	93.38
409.791	81.38
410.014	92.38
410.238	84.38
410.461	89.38
410.685	91.38
410.908	101.38
411.132	101.38
411.355	109.38
411.578	96.38
411.802	89.38
412.025	92.38
412.249	96.38
412.472	95.38
412.695	124.38
412.919	98.38
413.142	90.38
413.365	109.38
413.589	70.38
413.812	72.38
414.035	88.38
414.258	89.38
414.482	85.38
414.705	84.38
414.928	68.38
415.151	85.38
415.374	81.38
415.597	92.38
415.821	87.38
416.044	88.38
416.267	73.38
416.49	81.38
416.713	84.38
416.936	89.38
417.159	87.38
417.382	89.38
417.605	110.38
417.828	95.38
418.051	91.38
418.274	81.38
418.497	79.38
418.72	81.38
418.943	85.38
419.166	91.38
419.389	81.38
419.611	78.38
419.834	89.38
420.057	84.38
420.28	80.38
420.503	81.38
420.726	88.38
420.948	87.38
421.171	94.38
421.394	85.38
421.617	97.38
421.839	84.38
422.062	76.38
422.285	98.38
422.507	102.38
422.73	111.38
422.953	82.38
423.175	93.38
423.398	82.38
423.621	87.38
423.843	86.38
424.066	95.38
424.288	94.38
424.511	87.38
424.733	108.38
424.956	105.38
425.178	103.38
425.401	98.38
425.623	99.38
425.846	87.38
426.068	94.38
426.291	70.38
426.513	94.38
426.735	96.38
426.958	94.38
427.18	119.38
427.402	158.38
427.625	201.38
427.847	207.38
428.069	201.38
428.292	113.38
428.514	96.38
428.736	106.38
428.958	92.38
429.181	94.38
429.403	69.38
429.625	86.38
429.847	98.38
430.069	103.38
430.292	97.38
430.514	76.38
430.736	88.38
430.958	83.38
431.18	84.38
431.402	83.38
431.624	78.38
431.846	84.38
432.068	85.38
432.29	81.38
432.512	80.38
432.734	75.38
432.956	93.38
433.178	91.38
433.4	105.38
433.622	91.38
433.844	86.38
434.066	98.38
434.287	93.38
434.509	94.38
434.731	79.38
434.953	80.38
435.175	90.38
435.397	95.38
435.618	79.38
435.84	108.38
436.062	139.38
436.284	125.38
436.505	108.38
436.727	100.38
436.949	94.38
437.17	89.38
437.392	87.38
437.614	91.38
437.835	97.38
438.057	125.38
438.278	110.38
438.5	111.38
438.721	111.38
438.943	100.38
439.165	95.38
439.386	85.38
439.608	105.38
439.829	112.38
440.05	148.38
440.272	161.38
440.493	110.38
440.715	68.38
440.936	82.38
441.158	93.38
441.379	81.38
441.6	100.38
441.822	102.38
442.043	87.38
442.264	102.38
442.486	105.38
442.707	93.38
442.928	110.38
443.149	150.38
443.371	148.38
443.592	115.38
443.813	121.38
444.034	107.38
444.255	96.38
444.476	97.38
444.698	82.38
444.919	63.38
445.14	127.38
445.361	128.38
445.582	109.38
445.803	151.38
446.024	143.38
446.245	144.38
446.466	116.38
446.687	88.38
446.908	82.38
447.129	89.38
447.35	78.38
447.571	84.38
447.792	85.38
448.013	97.38
448.234	106.38
448.455	102.38
448.675	111.38
448.896	138.38
449.117	98.38
449.338	113.38
449.559	152.38
449.779	148.38
450	93.38
450.221	82.38
450.442	87.38
450.662	88.38
450.883	96.38
451.104	115.38
451.324	97.38
451.545	63.38
451.766	87.38
451.986	88.38
452.207	77.38
452.428	81.38
452.648	87.38
452.869	105.38
453.089	114.38
453.31	120.38
453.53	93.38
453.751	90.38
453.971	103.38
454.192	103.38
454.412	92.38
454.633	80.38
454.853	88.38
455.073	78.38
455.294	79.38
455.514	88.38
455.734	79.38
455.955	84.38
456.175	88.38
456.395	80.38
456.616	93.38
456.836	84.38
457.056	95.38
457.276	74.38
457.497	83.38
457.717	94.38
457.937	88.38
458.157	86.38
458.377	82.38
458.598	97.38
458.818	146.38
459.038	180.38
459.258	125.38
459.478	90.38
459.698	85.38
459.918	82.38
460.138	92.38
460.358	79.38
460.578	92.38
460.798	86.38
461.018	79.38
461.238	100.38
461.458	74.38
461.678	87.38
461.898	89.38
462.118	95.38
462.338	78.38
462.558	76.38
462.777	90.38
462.997	86.38
463.217	105.38
463.437	89.38
463.657	83.38
463.876	89.38
464.096	97.38
464.316	104.38
464.536	93.38
464.755	96.38
464.975	96.38
465.195	189.38
465.414	170.38
465.634	112.38
465.854	86.38
466.073	89.38
466.293	88.38
466.512	90.38
466.732	86.38
466.951	96.38
467.171	96.38
467.391	109.38
467.61	129.38
467.829	149.38
468.049	348.38
468.268	502.38
468.488	152.38
468.707	90.38
468.927	94.38
469.146	96.38
469.365	91.38
469.585	101.38
469.804	97.38
470.023	111.38
470.243	112.38
470.462	106.38
470.681	109.38
470.901	96.38
471.12	98.38
471.339	102.38
471.558	95.38
471.777	127.38
471.997	220.38
472.216	692.38
472.435	1532.38
472.654	368.38
472.873	138.38
473.092	96.38
473.311	86.38
473.53	93.38
473.749	87.38
473.968	95.38
474.187	106.38
474.406	95.38
474.625	92.38
474.844	88.38
475.063	72.38
475.282	85.38
475.501	83.38
475.72	96.38
475.939	76.38
476.158	82.38
476.377	92.38
476.596	88.38
476.814	92.38
477.033	89.38
477.252	96.38
477.471	71.38
477.69	94.38
477.908	92.38
478.127	104.38
478.346	84.38
478.564	92.38
478.783	100.38
479.002	91.38
479.22	100.38
479.439	112.38
479.658	110.38
479.876	103.38
480.095	99.38
480.313	113.38
480.532	141.38
480.751	197.38
480.969	670.38
481.188	2668.38
481.406	1486.38
481.624	243.38
481.843	105.38
482.061	94.38
482.28	86.38
482.498	94.38
482.717	85.38
482.935	82.38
483.153	88.38
483.372	87.38
483.59	78.38
483.808	88.38
484.027	94.38
484.245	106.38
484.463	85.38
484.681	89.38
484.9	80.38
485.118	89.38
485.336	88.38
485.554	109.38
485.772	98.38
485.99	96.38
486.209	102.38
486.427	111.38
486.645	106.38
486.863	124.38
487.081	102.38
487.299	91.38
487.517	86.38
487.735	93.38
487.953	85.38
488.171	102.38
488.389	98.38
488.607	94.38
488.825	80.38
489.043	76.38
489.261	89.38
489.479	83.38
489.696	95.38
489.914	77.38
490.132	82.38
490.35	92.38
490.568	90.38
490.786	86.38
491.003	94.38
491.221	79.38
491.439	105.38
491.657	87.38
491.874	80.38
492.092	94.38
492.31	97.38
492.527	81.38
492.745	84.38
492.963	97.38
493.18	89.38
493.398	88.38
493.615	98.38
493.833	90.38
494.05	94.38
494.268	78.38
494.485	83.38
494.703	73.38
494.92	91.38
495.138	92.38
495.355	82.38
495.573	76.38
495.79	86.38
496.008	77.38
496.225	100.38
496.442	91.38
496.66	85.38
496.877	93.38
497.094	90.38
497.312	107.38
497.529	101.38
497.746	88.38
497.963	86.38
498.181	106.38
498.398	80.38
498.615	107.38
498.832	108.38
499.049	78.38
499.267	96.38
499.484	104.38
499.701	84.38
499.918	90.38
500.135	96.38
500.352	88.38
500.569	95.38
500.786	95.38
501.003	88.38
501.22	84.38
501.437	92.38
501.654	94.38
501.871	107.38
502.088	91.38
502.305	85.38
502.522	100.38
502.739	88.38
502.956	83.38
503.172	89.38
503.389	104.38
503.606	108.38
503.823	106.38
504.04	96.38
504.256	96.38
504.473	90.38
504.69	95.38
504.907	85.38
505.123	95.38
505.34	96.38
505.557	88.38
505.773	88.38
505.99	76.38
506.207	98.38
506.423	92.38
506.64	101.38
506.856	76.38
507.073	100.38
507.289	103.38
507.506	98.38
507.722	110.38
507.939	101.38
508.155	90.38
508.372	105.38
508.588	95.38
508.805	99.38
509.021	98.38
509.238	113.38
509.454	105.38
509.67	118.38
509.887	105.38
510.103	126.38
510.319	219.38
510.536	725.38
510.752	2368.38
510.968	654.38
511.184	147.38
511.401	107.38
511.617	100.38
511.833	95.38
512.049	102.38
512.265	100.38
512.481	105.38
512.698	104.38
512.914	90.38
513.13	88.38
513.346	82.38
513.562	94.38
513.778	93.38
513.994	115.38
514.21	122.38
514.426	120.38
514.642	139.38
