Data from Circ_1997_H10_HRD10591_00093.txt Node
Date: Wed Jan 03 11:29:46 EST 2024
User: Yrep
Spectrometer: HR+D1059
Trigger mode: 1
Integration Time (sec): 1.000000E-1
Scans to average: 1
Electric dark correction enabled: true
Nonlinearity correction enabled: false
Boxcar width: 0
XAxis mode: Wavelengths
Number of Pixels in Spectrum: 2048
>>>>>Begin Spectral Data<<<<<
223.165	-17.81
223.4	-17.81
223.635	-17.81
223.869	-19.81
224.104	-31.81
224.338	-17.81
224.573	-0.81
224.808	-10.81
225.042	7.19
225.277	0.19
225.511	-10.81
225.746	6.19
225.98	4.19
226.215	17.19
226.449	19.19
226.683	5.19
226.918	26.19
227.152	24.19
227.387	33.19
227.621	51.19
227.856	42.19
228.09	53.19
228.324	35.19
228.559	43.19
228.793	58.19
229.027	57.19
229.262	71.19
229.496	77.19
229.73	85.19
229.964	88.19
230.199	64.19
230.433	65.19
230.667	87.19
230.901	83.19
231.136	79.19
231.37	86.19
231.604	69.19
231.838	82.19
232.072	65.19
232.306	78.19
232.541	69.19
232.775	62.19
233.009	69.19
233.243	79.19
233.477	80.19
233.711	69.19
233.945	69.19
234.179	81.19
234.413	82.19
234.647	77.19
234.881	92.19
235.115	89.19
235.349	69.19
235.583	71.19
235.817	55.19
236.051	64.19
236.285	91.19
236.519	79.19
236.753	78.19
236.987	81.19
237.221	77.19
237.455	91.19
237.689	70.19
237.922	83.19
238.156	64.19
238.39	60.19
238.624	73.19
238.858	79.19
239.091	71.19
239.325	79.19
239.559	90.19
239.793	83.19
240.027	80.19
240.26	80.19
240.494	81.19
240.728	70.19
240.961	57.19
241.195	91.19
241.429	81.19
241.662	74.19
241.896	83.19
242.13	73.19
242.363	70.19
242.597	83.19
242.83	74.19
243.064	68.19
243.298	69.19
243.531	64.19
243.765	67.19
243.998	85.19
244.232	83.19
244.465	92.19
244.699	76.19
244.932	67.19
245.166	75.19
245.399	83.19
245.633	81.19
245.866	88.19
246.099	91.19
246.333	77.19
246.566	77.19
246.8	69.19
247.033	57.19
247.266	75.19
247.5	82.19
247.733	88.19
247.966	70.19
248.2	79.19
248.433	73.19
248.666	81.19
248.899	84.19
249.133	86.19
249.366	100.19
249.599	99.19
249.832	79.19
250.066	82.19
250.299	76.19
250.532	76.19
250.765	94.19
250.998	79.19
251.231	76.19
251.465	81.19
251.698	73.19
251.931	85.19
252.164	82.19
252.397	78.19
252.63	70.19
252.863	79.19
253.096	88.19
253.329	82.19
253.562	78.19
253.795	84.19
254.028	83.19
254.261	92.19
254.494	75.19
254.727	85.19
254.96	82.19
255.193	84.19
255.426	60.19
255.659	96.19
255.892	87.19
256.124	93.19
256.357	70.19
256.59	93.19
256.823	73.19
257.056	80.19
257.289	83.19
257.521	85.19
257.754	92.19
257.987	81.19
258.22	93.19
258.452	88.19
258.685	91.19
258.918	93.19
259.151	86.19
259.383	71.19
259.616	84.19
259.849	75.19
260.081	85.19
260.314	78.19
260.547	73.19
260.779	102.19
261.012	108.19
261.244	99.19
261.477	104.19
261.71	110.19
261.942	125.19
262.175	131.19
262.407	101.19
262.64	87.19
262.872	88.19
263.105	78.19
263.337	84.19
263.57	68.19
263.802	82.19
264.035	95.19
264.267	78.19
264.499	78.19
264.732	104.19
264.964	76.19
265.197	83.19
265.429	71.19
265.661	78.19
265.894	81.19
266.126	92.19
266.358	81.19
266.591	93.19
266.823	73.19
267.055	78.19
267.287	87.19
267.52	90.19
267.752	77.19
267.984	66.19
268.216	72.19
268.448	92.19
268.681	84.19
268.913	69.19
269.145	84.19
269.377	88.19
269.609	84.19
269.841	94.19
270.073	78.19
270.306	78.19
270.538	81.19
270.77	87.19
271.002	78.19
271.234	83.19
271.466	79.19
271.698	65.19
271.93	77.19
272.162	94.19
272.394	80.19
272.626	95.19
272.858	81.19
273.09	90.19
273.322	93.19
273.553	91.19
273.785	82.19
274.017	83.19
274.249	76.19
274.481	71.19
274.713	92.19
274.945	90.19
275.176	81.19
275.408	101.19
275.64	115.19
275.872	127.19
276.104	113.19
276.335	87.19
276.567	105.19
276.799	130.19
277.031	164.19
277.262	212.19
277.494	145.19
277.726	113.19
277.957	83.19
278.189	84.19
278.421	81.19
278.652	84.19
278.884	79.19
279.115	96.19
279.347	89.19
279.579	87.19
279.81	117.19
280.042	208.19
280.273	281.19
280.505	191.19
280.736	104.19
280.968	83.19
281.199	87.19
281.431	82.19
281.662	90.19
281.894	86.19
282.125	97.19
282.356	113.19
282.588	142.19
282.819	130.19
283.051	103.19
283.282	95.19
283.513	92.19
283.745	72.19
283.976	81.19
284.207	96.19
284.439	85.19
284.67	93.19
284.901	87.19
285.132	87.19
285.364	80.19
285.595	86.19
285.826	73.19
286.057	77.19
286.288	69.19
286.52	68.19
286.751	84.19
286.982	76.19
287.213	81.19
287.444	85.19
287.675	81.19
287.906	93.19
288.138	84.19
288.369	95.19
288.6	104.19
288.831	99.19
289.062	92.19
289.293	88.19
289.524	88.19
289.755	79.19
289.986	73.19
290.217	88.19
290.448	87.19
290.679	87.19
290.91	78.19
291.141	80.19
291.371	78.19
291.602	85.19
291.833	71.19
292.064	96.19
292.295	79.19
292.526	70.19
292.757	83.19
292.987	97.19
293.218	88.19
293.449	85.19
293.68	87.19
293.91	83.19
294.141	80.19
294.372	71.19
294.603	83.19
294.833	89.19
295.064	77.19
295.295	91.19
295.525	98.19
295.756	99.19
295.987	106.19
296.217	152.19
296.448	127.19
296.679	94.19
296.909	96.19
297.14	85.19
297.37	84.19
297.601	87.19
297.831	85.19
298.062	88.19
298.292	75.19
298.523	98.19
298.753	85.19
298.984	95.19
299.214	90.19
299.445	97.19
299.675	96.19
299.905	94.19
300.136	77.19
300.366	86.19
300.597	80.19
300.827	89.19
301.057	103.19
301.288	90.19
301.518	89.19
301.748	91.19
301.979	107.19
302.209	91.19
302.439	91.19
302.669	79.19
302.9	100.19
303.13	99.19
303.36	95.19
303.59	125.19
303.82	123.19
304.051	88.19
304.281	87.19
304.511	86.19
304.741	90.19
304.971	75.19
305.201	84.19
305.431	86.19
305.661	79.19
305.891	88.19
306.121	89.19
306.352	104.19
306.582	105.19
306.812	103.19
307.042	113.19
307.272	151.19
307.502	190.19
307.731	158.19
307.961	118.19
308.191	88.19
308.421	87.19
308.651	79.19
308.881	87.19
309.111	99.19
309.341	110.19
309.571	96.19
309.8	101.19
310.03	79.19
310.26	102.19
310.49	91.19
310.72	96.19
310.949	112.19
311.179	90.19
311.409	103.19
311.639	94.19
311.868	93.19
312.098	95.19
312.328	113.19
312.557	99.19
312.787	115.19
313.017	103.19
313.246	97.19
313.476	89.19
313.706	85.19
313.935	100.19
314.165	106.19
314.394	104.19
314.624	81.19
314.853	86.19
315.083	106.19
315.312	89.19
315.542	96.19
315.771	98.19
316.001	77.19
316.23	94.19
316.46	79.19
316.689	89.19
316.919	85.19
317.148	107.19
317.377	90.19
317.607	107.19
317.836	105.19
318.065	87.19
318.295	93.19
318.524	85.19
318.753	88.19
318.983	92.19
319.212	101.19
319.441	114.19
319.67	119.19
319.9	116.19
320.129	104.19
320.358	95.19
320.587	108.19
320.816	99.19
321.046	110.19
321.275	105.19
321.504	94.19
321.733	104.19
321.962	87.19
322.191	107.19
322.42	104.19
322.649	112.19
322.878	106.19
323.108	131.19
323.337	138.19
323.566	155.19
323.795	165.19
324.024	265.19
324.253	558.19
324.482	1264.19
324.71	2661.19
324.939	3581.19
325.168	1191.19
325.397	332.19
325.626	181.19
325.855	158.19
326.084	146.19
326.313	154.19
326.542	196.19
326.77	295.19
326.999	653.19
327.228	1415.19
327.457	2717.19
327.686	2134.19
327.914	643.19
328.143	585.19
328.372	711.19
328.6	386.19
328.829	181.19
329.058	201.19
329.287	186.19
329.515	180.19
329.744	267.19
329.972	538.19
330.201	1124.19
330.43	1600.19
330.658	675.19
330.887	289.19
331.115	173.19
331.344	111.19
331.572	127.19
331.801	123.19
332.03	124.19
332.258	109.19
332.486	103.19
332.715	103.19
332.943	117.19
333.172	123.19
333.4	156.19
333.629	157.19
333.857	234.19
334.085	495.19
334.314	1058.19
334.542	2033.19
334.771	1867.19
334.999	465.19
335.227	176.19
335.455	123.19
335.684	110.19
335.912	99.19
336.14	120.19
336.369	105.19
336.597	102.19
336.825	109.19
337.053	97.19
337.281	93.19
337.51	93.19
337.738	85.19
337.966	104.19
338.194	108.19
338.422	93.19
338.65	89.19
338.878	97.19
339.106	93.19
339.334	87.19
339.562	88.19
339.79	87.19
340.018	92.19
340.246	105.19
340.474	94.19
340.702	96.19
340.93	79.19
341.158	92.19
341.386	90.19
341.614	110.19
341.842	109.19
342.07	95.19
342.298	103.19
342.526	93.19
342.754	89.19
342.981	79.19
343.209	94.19
343.437	92.19
343.665	92.19
343.893	76.19
344.12	97.19
344.348	92.19
344.576	83.19
344.804	91.19
345.031	115.19
345.259	99.19
345.487	89.19
345.714	84.19
345.942	71.19
346.17	84.19
346.397	96.19
346.625	97.19
346.853	102.19
347.08	89.19
347.308	96.19
347.535	100.19
347.763	120.19
347.99	100.19
348.218	109.19
348.445	111.19
348.673	103.19
348.9	107.19
349.128	84.19
349.355	99.19
349.583	80.19
349.81	88.19
350.037	91.19
350.265	103.19
350.492	108.19
350.72	88.19
350.947	104.19
351.174	97.19
351.402	113.19
351.629	102.19
351.856	102.19
352.083	103.19
352.311	120.19
352.538	121.19
352.765	109.19
352.992	119.19
353.22	117.19
353.447	105.19
353.674	118.19
353.901	92.19
354.128	93.19
354.355	89.19
354.583	97.19
354.81	95.19
355.037	79.19
355.264	76.19
355.491	78.19
355.718	86.19
355.945	93.19
356.172	90.19
356.399	95.19
356.626	96.19
356.853	81.19
357.08	90.19
357.307	85.19
357.534	82.19
357.761	81.19
357.988	109.19
358.215	94.19
358.441	100.19
358.668	87.19
358.895	88.19
359.122	84.19
359.349	82.19
359.576	103.19
359.802	106.19
360.029	128.19
360.256	137.19
360.483	96.19
360.709	88.19
360.936	96.19
361.163	94.19
361.39	92.19
361.616	102.19
361.843	87.19
362.07	99.19
362.296	108.19
362.523	102.19
362.749	102.19
362.976	107.19
363.203	84.19
363.429	83.19
363.656	97.19
363.882	78.19
364.109	83.19
364.335	100.19
364.562	91.19
364.788	84.19
365.015	105.19
365.241	104.19
365.468	116.19
365.694	107.19
365.92	101.19
366.147	86.19
366.373	90.19
366.599	91.19
366.826	92.19
367.052	89.19
367.278	80.19
367.505	80.19
367.731	95.19
367.957	93.19
368.184	99.19
368.41	96.19
368.636	117.19
368.862	112.19
369.089	111.19
369.315	93.19
369.541	89.19
369.767	92.19
369.993	91.19
370.219	90.19
370.445	93.19
370.672	92.19
370.898	96.19
371.124	84.19
371.35	77.19
371.576	78.19
371.802	84.19
372.028	88.19
372.254	87.19
372.48	80.19
372.706	95.19
372.932	78.19
373.158	80.19
373.384	96.19
373.61	93.19
373.835	99.19
374.061	72.19
374.287	83.19
374.513	84.19
374.739	96.19
374.965	86.19
375.191	80.19
375.416	81.19
375.642	78.19
375.868	89.19
376.094	91.19
376.319	84.19
376.545	82.19
376.771	85.19
376.997	99.19
377.222	79.19
377.448	89.19
377.674	91.19
377.899	91.19
378.125	82.19
378.35	81.19
378.576	83.19
378.802	86.19
379.027	96.19
379.253	95.19
379.478	75.19
379.704	81.19
379.929	91.19
380.155	82.19
380.38	100.19
380.606	89.19
380.831	85.19
381.057	102.19
381.282	87.19
381.507	103.19
381.733	99.19
381.958	87.19
382.184	99.19
382.409	92.19
382.634	105.19
382.86	74.19
383.085	85.19
383.31	100.19
383.535	112.19
383.761	91.19
383.986	83.19
384.211	106.19
384.436	100.19
384.662	96.19
384.887	92.19
385.112	103.19
385.337	99.19
385.562	85.19
385.787	105.19
386.013	107.19
386.238	107.19
386.463	104.19
386.688	109.19
386.913	96.19
387.138	102.19
387.363	85.19
387.588	97.19
387.813	82.19
388.038	98.19
388.263	97.19
388.488	111.19
388.713	84.19
388.938	100.19
389.163	109.19
389.387	88.19
389.612	84.19
389.837	80.19
390.062	97.19
390.287	90.19
390.512	86.19
390.736	92.19
390.961	79.19
391.186	92.19
391.411	92.19
391.636	91.19
391.86	73.19
392.085	91.19
392.31	70.19
392.534	79.19
392.759	84.19
392.984	94.19
393.208	103.19
393.433	84.19
393.658	86.19
393.882	92.19
394.107	88.19
394.331	93.19
394.556	74.19
394.78	80.19
395.005	75.19
395.229	89.19
395.454	79.19
395.678	99.19
395.903	86.19
396.127	79.19
396.352	84.19
396.576	89.19
396.801	88.19
397.025	84.19
397.249	87.19
397.474	101.19
397.698	100.19
397.922	90.19
398.147	85.19
398.371	103.19
398.595	85.19
398.82	87.19
399.044	79.19
399.268	87.19
399.492	83.19
399.717	97.19
399.941	97.19
400.165	96.19
400.389	102.19
400.613	84.19
400.837	75.19
401.062	83.19
401.286	89.19
401.51	90.19
401.734	93.19
401.958	107.19
402.182	121.19
402.406	191.19
402.63	134.19
402.854	101.19
403.078	82.19
403.302	81.19
403.526	85.19
403.75	83.19
403.974	93.19
404.198	92.19
404.422	91.19
404.645	99.19
404.869	99.19
405.093	119.19
405.317	159.19
405.541	150.19
405.765	112.19
405.988	135.19
406.212	200.19
406.436	272.19
406.66	187.19
406.883	128.19
407.107	96.19
407.331	103.19
407.555	116.19
407.778	100.19
408.002	97.19
408.226	87.19
408.449	93.19
408.673	97.19
408.896	83.19
409.12	98.19
409.344	97.19
409.567	92.19
409.791	84.19
410.014	69.19
410.238	101.19
410.461	94.19
410.685	93.19
410.908	98.19
411.132	99.19
411.355	95.19
411.578	108.19
411.802	84.19
412.025	92.19
412.249	106.19
412.472	119.19
412.695	147.19
412.919	117.19
413.142	87.19
413.365	91.19
413.589	75.19
413.812	89.19
414.035	92.19
414.258	84.19
414.482	92.19
414.705	88.19
414.928	91.19
415.151	98.19
415.374	93.19
415.597	83.19
415.821	97.19
416.044	85.19
416.267	93.19
416.49	92.19
416.713	90.19
416.936	91.19
417.159	85.19
417.382	95.19
417.605	91.19
417.828	108.19
418.051	97.19
418.274	88.19
418.497	103.19
418.72	73.19
418.943	84.19
419.166	77.19
419.389	80.19
419.611	86.19
419.834	82.19
420.057	99.19
420.28	95.19
420.503	86.19
420.726	101.19
420.948	96.19
421.171	96.19
421.394	95.19
421.617	87.19
421.839	73.19
422.062	96.19
422.285	87.19
422.507	101.19
422.73	105.19
422.953	85.19
423.175	82.19
423.398	92.19
423.621	78.19
423.843	75.19
424.066	79.19
424.288	88.19
424.511	90.19
424.733	99.19
424.956	116.19
425.178	103.19
425.401	122.19
425.623	109.19
425.846	106.19
426.068	97.19
426.291	81.19
426.513	93.19
426.735	76.19
426.958	102.19
427.18	128.19
427.402	185.19
427.625	281.19
427.847	254.19
428.069	265.19
428.292	134.19
428.514	105.19
428.736	93.19
428.958	93.19
429.181	97.19
429.403	95.19
429.625	109.19
429.847	100.19
430.069	114.19
430.292	93.19
430.514	89.19
430.736	74.19
430.958	108.19
431.18	90.19
431.402	86.19
431.624	83.19
431.846	89.19
432.068	82.19
432.29	76.19
432.512	90.19
432.734	82.19
432.956	85.19
433.178	93.19
433.4	97.19
433.622	97.19
433.844	88.19
434.066	105.19
434.287	88.19
434.509	89.19
434.731	82.19
434.953	99.19
435.175	89.19
435.397	96.19
435.618	100.19
435.84	122.19
436.062	144.19
436.284	127.19
436.505	113.19
436.727	115.19
436.949	95.19
437.17	83.19
437.392	98.19
437.614	97.19
437.835	104.19
438.057	142.19
438.278	123.19
438.5	116.19
438.721	139.19
438.943	103.19
439.165	89.19
439.386	99.19
439.608	86.19
439.829	120.19
440.05	153.19
440.272	209.19
440.493	108.19
440.715	103.19
440.936	87.19
441.158	99.19
441.379	92.19
441.6	104.19
441.822	92.19
442.043	102.19
442.264	135.19
442.486	108.19
442.707	109.19
442.928	121.19
443.149	178.19
443.371	176.19
443.592	135.19
443.813	128.19
444.034	109.19
444.255	92.19
444.476	86.19
444.698	89.19
444.919	86.19
445.14	136.19
445.361	134.19
445.582	148.19
445.803	188.19
446.024	175.19
446.245	185.19
446.466	149.19
446.687	94.19
446.908	88.19
447.129	88.19
447.35	88.19
447.571	110.19
447.792	100.19
448.013	99.19
448.234	101.19
448.455	107.19
448.675	132.19
448.896	142.19
449.117	112.19
449.338	133.19
449.559	160.19
449.779	182.19
450	94.19
450.221	95.19
450.442	94.19
450.662	97.19
450.883	122.19
451.104	135.19
451.324	90.19
451.545	95.19
451.766	91.19
451.986	86.19
452.207	86.19
452.428	91.19
452.648	112.19
452.869	141.19
453.089	125.19
453.31	124.19
453.53	101.19
453.751	99.19
453.971	100.19
454.192	120.19
454.412	111.19
454.633	83.19
454.853	85.19
455.073	89.19
455.294	102.19
455.514	116.19
455.734	101.19
455.955	73.19
456.175	95.19
456.395	80.19
456.616	88.19
456.836	73.19
457.056	77.19
457.276	92.19
457.497	87.19
457.717	69.19
457.937	103.19
458.157	87.19
458.377	83.19
458.598	125.19
458.818	203.19
459.038	220.19
459.258	142.19
459.478	88.19
459.698	84.19
459.918	81.19
460.138	94.19
460.358	88.19
460.578	85.19
460.798	80.19
461.018	87.19
461.238	86.19
461.458	89.19
461.678	89.19
461.898	76.19
462.118	94.19
462.338	106.19
462.558	77.19
462.777	100.19
462.997	105.19
463.217	114.19
463.437	80.19
463.657	96.19
463.876	89.19
464.096	95.19
464.316	101.19
464.536	101.19
464.755	109.19
464.975	114.19
465.195	217.19
465.414	224.19
465.634	97.19
465.854	76.19
466.073	91.19
466.293	84.19
466.512	83.19
466.732	87.19
466.951	88.19
467.171	107.19
467.391	120.19
467.61	166.19
467.829	221.19
468.049	607.19
468.268	902.19
468.488	239.19
468.707	113.19
468.927	86.19
469.146	82.19
469.365	101.19
469.585	104.19
469.804	109.19
470.023	112.19
470.243	105.19
470.462	111.19
470.681	137.19
470.901	101.19
471.12	104.19
471.339	108.19
471.558	134.19
471.777	170.19
471.997	316.19
472.216	1240.19
472.435	2880.19
472.654	646.19
472.873	183.19
473.092	102.19
473.311	96.19
473.53	93.19
473.749	85.19
473.968	123.19
474.187	130.19
474.406	99.19
474.625	92.19
474.844	87.19
475.063	72.19
475.282	94.19
475.501	97.19
475.72	94.19
475.939	85.19
476.158	89.19
476.377	94.19
476.596	85.19
476.814	96.19
477.033	96.19
477.252	91.19
477.471	92.19
477.69	91.19
477.908	99.19
478.127	99.19
478.346	88.19
478.564	96.19
478.783	109.19
479.002	115.19
479.22	116.19
479.439	125.19
479.658	129.19
479.876	125.19
480.095	116.19
480.313	129.19
480.532	175.19
480.751	314.19
480.969	1170.19
481.188	4929.19
481.406	2710.19
481.624	373.19
481.843	141.19
482.061	106.19
482.28	105.19
482.498	102.19
482.717	97.19
482.935	90.19
483.153	87.19
483.372	103.19
483.59	95.19
483.808	95.19
484.027	84.19
484.245	101.19
484.463	99.19
484.681	106.19
484.9	114.19
485.118	82.19
485.336	85.19
485.554	103.19
485.772	100.19
485.99	107.19
486.209	106.19
486.427	105.19
486.645	106.19
486.863	131.19
487.081	103.19
487.299	83.19
487.517	88.19
487.735	98.19
487.953	91.19
488.171	93.19
488.389	97.19
488.607	105.19
488.825	86.19
489.043	80.19
489.261	82.19
489.479	93.19
489.696	84.19
489.914	87.19
490.132	75.19
490.35	92.19
490.568	83.19
490.786	93.19
491.003	95.19
491.221	82.19
491.439	98.19
491.657	87.19
491.874	81.19
492.092	83.19
492.31	88.19
492.527	99.19
492.745	107.19
492.963	97.19
493.18	91.19
493.398	104.19
493.615	97.19
493.833	109.19
494.05	85.19
494.268	91.19
494.485	94.19
494.703	93.19
494.92	91.19
495.138	85.19
495.355	82.19
495.573	104.19
495.79	75.19
496.008	85.19
496.225	86.19
496.442	85.19
496.66	93.19
496.877	85.19
497.094	90.19
497.312	95.19
497.529	84.19
497.746	86.19
497.963	85.19
498.181	89.19
498.398	91.19
498.615	115.19
498.832	107.19
499.049	83.19
499.267	92.19
499.484	97.19
499.701	101.19
499.918	101.19
500.135	89.19
500.352	79.19
500.569	77.19
500.786	107.19
501.003	77.19
501.22	79.19
501.437	79.19
501.654	96.19
501.871	127.19
502.088	99.19
502.305	87.19
502.522	76.19
502.739	98.19
502.956	76.19
503.172	88.19
503.389	108.19
503.606	131.19
503.823	97.19
504.04	88.19
504.256	97.19
504.473	81.19
504.69	93.19
504.907	101.19
505.123	88.19
505.34	76.19
505.557	87.19
505.773	92.19
505.99	94.19
506.207	92.19
506.423	87.19
506.64	71.19
506.856	85.19
507.073	94.19
507.289	96.19
507.506	109.19
507.722	124.19
507.939	125.19
508.155	93.19
508.372	92.19
508.588	91.19
508.805	101.19
509.021	86.19
509.238	89.19
509.454	97.19
509.67	99.19
509.887	115.19
510.103	142.19
510.319	232.19
510.536	825.19
510.752	2784.19
510.968	749.19
511.184	153.19
511.401	121.19
511.617	133.19
511.833	103.19
512.049	84.19
512.265	94.19
512.481	87.19
512.698	89.19
512.914	89.19
513.13	96.19
513.346	98.19
513.562	100.19
513.778	96.19
513.994	104.19
