Data from Circ_1997_H10_HRD10591_00087.txt Node
Date: Wed Jan 03 11:29:45 EST 2024
User: Yrep
Spectrometer: HR+D1059
Trigger mode: 1
Integration Time (sec): 1.000000E-1
Scans to average: 1
Electric dark correction enabled: true
Nonlinearity correction enabled: false
Boxcar width: 0
XAxis mode: Wavelengths
Number of Pixels in Spectrum: 2048
>>>>>Begin Spectral Data<<<<<
223.165	-28.31
223.4	-28.31
223.635	-28.31
223.869	-18.31
224.104	-17.31
224.338	-8.31
224.573	-5.31
224.808	-12.31
225.042	-11.31
225.277	2.69
225.511	-7.31
225.746	6.69
225.98	4.69
226.215	7.69
226.449	9.69
226.683	15.69
226.918	23.69
227.152	37.69
227.387	27.69
227.621	40.69
227.856	44.69
228.09	50.69
228.324	50.69
228.559	47.69
228.793	61.69
229.027	66.69
229.262	56.69
229.496	77.69
229.73	81.69
229.964	108.69
230.199	81.69
230.433	92.69
230.667	77.69
230.901	85.69
231.136	86.69
231.37	80.69
231.604	80.69
231.838	68.69
232.072	78.69
232.306	83.69
232.541	68.69
232.775	100.69
233.009	71.69
233.243	77.69
233.477	72.69
233.711	86.69
233.945	87.69
234.179	83.69
234.413	77.69
234.647	77.69
234.881	82.69
235.115	91.69
235.349	77.69
235.583	76.69
235.817	77.69
236.051	81.69
236.285	89.69
236.519	78.69
236.753	96.69
236.987	86.69
237.221	77.69
237.455	92.69
237.689	83.69
237.922	62.69
238.156	75.69
238.39	61.69
238.624	74.69
238.858	90.69
239.091	74.69
239.325	72.69
239.559	77.69
239.793	91.69
240.027	78.69
240.26	87.69
240.494	85.69
240.728	77.69
240.961	89.69
241.195	79.69
241.429	80.69
241.662	64.69
241.896	81.69
242.13	77.69
242.363	80.69
242.597	103.69
242.83	70.69
243.064	85.69
243.298	88.69
243.531	97.69
243.765	91.69
243.998	87.69
244.232	87.69
244.465	82.69
244.699	113.69
244.932	81.69
245.166	90.69
245.399	85.69
245.633	92.69
245.866	67.69
246.099	64.69
246.333	80.69
246.566	83.69
246.8	77.69
247.033	80.69
247.266	74.69
247.5	67.69
247.733	81.69
247.966	86.69
248.2	69.69
248.433	87.69
248.666	81.69
248.899	77.69
249.133	98.69
249.366	117.69
249.599	118.69
249.832	86.69
250.066	95.69
250.299	69.69
250.532	93.69
250.765	73.69
250.998	79.69
251.231	76.69
251.465	89.69
251.698	82.69
251.931	96.69
252.164	86.69
252.397	84.69
252.63	79.69
252.863	81.69
253.096	75.69
253.329	69.69
253.562	78.69
253.795	80.69
254.028	75.69
254.261	74.69
254.494	77.69
254.727	81.69
254.96	83.69
255.193	85.69
255.426	90.69
255.659	93.69
255.892	90.69
256.124	92.69
256.357	90.69
256.59	81.69
256.823	81.69
257.056	80.69
257.289	80.69
257.521	81.69
257.754	84.69
257.987	82.69
258.22	87.69
258.452	102.69
258.685	97.69
258.918	77.69
259.151	88.69
259.383	87.69
259.616	84.69
259.849	85.69
260.081	82.69
260.314	81.69
260.547	79.69
260.779	98.69
261.012	114.69
261.244	113.69
261.477	95.69
261.71	105.69
261.942	132.69
262.175	139.69
262.407	90.69
262.64	77.69
262.872	107.69
263.105	80.69
263.337	101.69
263.57	86.69
263.802	94.69
264.035	77.69
264.267	81.69
264.499	57.69
264.732	93.69
264.964	94.69
265.197	89.69
265.429	85.69
265.661	92.69
265.894	74.69
266.126	89.69
266.358	89.69
266.591	93.69
266.823	95.69
267.055	86.69
267.287	91.69
267.52	79.69
267.752	88.69
267.984	82.69
268.216	85.69
268.448	90.69
268.681	80.69
268.913	86.69
269.145	73.69
269.377	81.69
269.609	73.69
269.841	89.69
270.073	86.69
270.306	75.69
270.538	89.69
270.77	95.69
271.002	87.69
271.234	98.69
271.466	92.69
271.698	92.69
271.93	82.69
272.162	93.69
272.394	94.69
272.626	103.69
272.858	92.69
273.09	86.69
273.322	92.69
273.553	87.69
273.785	97.69
274.017	86.69
274.249	90.69
274.481	85.69
274.713	80.69
274.945	89.69
275.176	103.69
275.408	101.69
275.64	112.69
275.872	120.69
276.104	101.69
276.335	94.69
276.567	125.69
276.799	167.69
277.031	189.69
277.262	199.69
277.494	169.69
277.726	94.69
277.957	107.69
278.189	92.69
278.421	93.69
278.652	88.69
278.884	87.69
279.115	93.69
279.347	97.69
279.579	118.69
279.81	157.69
280.042	203.69
280.273	283.69
280.505	191.69
280.736	99.69
280.968	107.69
281.199	106.69
281.431	92.69
281.662	93.69
281.894	99.69
282.125	101.69
282.356	135.69
282.588	162.69
282.819	120.69
283.051	98.69
283.282	85.69
283.513	91.69
283.745	93.69
283.976	86.69
284.207	76.69
284.439	85.69
284.67	98.69
284.901	81.69
285.132	97.69
285.364	94.69
285.595	89.69
285.826	91.69
286.057	92.69
286.288	82.69
286.52	83.69
286.751	91.69
286.982	88.69
287.213	80.69
287.444	83.69
287.675	91.69
287.906	90.69
288.138	89.69
288.369	92.69
288.6	83.69
288.831	82.69
289.062	88.69
289.293	90.69
289.524	86.69
289.755	96.69
289.986	96.69
290.217	78.69
290.448	94.69
290.679	83.69
290.91	87.69
291.141	93.69
291.371	106.69
291.602	85.69
291.833	75.69
292.064	94.69
292.295	88.69
292.526	86.69
292.757	102.69
292.987	102.69
293.218	102.69
293.449	86.69
293.68	87.69
293.91	81.69
294.141	90.69
294.372	82.69
294.603	103.69
294.833	103.69
295.064	73.69
295.295	94.69
295.525	83.69
295.756	105.69
295.987	115.69
296.217	181.69
296.448	159.69
296.679	98.69
296.909	97.69
297.14	83.69
297.37	91.69
297.601	82.69
297.831	104.69
298.062	98.69
298.292	86.69
298.523	81.69
298.753	77.69
298.984	100.69
299.214	100.69
299.445	106.69
299.675	106.69
299.905	112.69
300.136	95.69
300.366	77.69
300.597	90.69
300.827	111.69
301.057	112.69
301.288	111.69
301.518	98.69
301.748	108.69
301.979	120.69
302.209	115.69
302.439	96.69
302.669	110.69
302.9	103.69
303.13	92.69
303.36	112.69
303.59	134.69
303.82	150.69
304.051	100.69
304.281	94.69
304.511	95.69
304.741	92.69
304.971	91.69
305.201	92.69
305.431	92.69
305.661	98.69
305.891	98.69
306.121	103.69
306.352	110.69
306.582	115.69
306.812	94.69
307.042	121.69
307.272	169.69
307.502	173.69
307.731	186.69
307.961	141.69
308.191	109.69
308.421	98.69
308.651	97.69
308.881	90.69
309.111	97.69
309.341	112.69
309.571	106.69
309.8	98.69
310.03	105.69
310.26	117.69
310.49	99.69
310.72	109.69
310.949	123.69
311.179	109.69
311.409	106.69
311.639	106.69
311.868	118.69
312.098	97.69
312.328	110.69
312.557	124.69
312.787	137.69
313.017	115.69
313.246	92.69
313.476	102.69
313.706	93.69
313.935	106.69
314.165	103.69
314.394	110.69
314.624	113.69
314.853	107.69
315.083	99.69
315.312	101.69
315.542	95.69
315.771	90.69
316.001	82.69
316.23	80.69
316.46	80.69
316.689	79.69
316.919	93.69
317.148	102.69
317.377	101.69
317.607	80.69
317.836	91.69
318.065	88.69
318.295	100.69
318.524	79.69
318.753	107.69
318.983	117.69
319.212	92.69
319.441	118.69
319.67	99.69
319.9	93.69
320.129	96.69
320.358	108.69
320.587	96.69
320.816	103.69
321.046	111.69
321.275	76.69
321.504	96.69
321.733	104.69
321.962	96.69
322.191	108.69
322.42	121.69
322.649	127.69
322.878	114.69
323.108	148.69
323.337	151.69
323.566	176.69
323.795	199.69
324.024	279.69
324.253	533.69
324.482	1169.69
324.71	2421.69
324.939	3158.69
325.168	1164.69
325.397	330.69
325.626	185.69
325.855	157.69
326.084	159.69
326.313	161.69
326.542	202.69
326.77	298.69
326.999	590.69
327.228	1243.69
327.457	2350.69
327.686	1867.69
327.914	632.69
328.143	610.69
328.372	767.69
328.6	405.69
328.829	215.69
329.058	216.69
329.287	209.69
329.515	191.69
329.744	285.69
329.972	586.69
330.201	1192.69
330.43	1689.69
330.658	710.69
330.887	321.69
331.115	206.69
331.344	134.69
331.572	137.69
331.801	131.69
332.03	136.69
332.258	129.69
332.486	99.69
332.715	103.69
332.943	112.69
333.172	133.69
333.4	130.69
333.629	181.69
333.857	253.69
334.085	512.69
334.314	1102.69
334.542	2154.69
334.771	1944.69
334.999	498.69
335.227	192.69
335.455	135.69
335.684	117.69
335.912	109.69
336.14	119.69
336.369	114.69
336.597	121.69
336.825	110.69
337.053	93.69
337.281	101.69
337.51	100.69
337.738	102.69
337.966	104.69
338.194	115.69
338.422	98.69
338.65	96.69
338.878	96.69
339.106	90.69
339.334	101.69
339.562	81.69
339.79	92.69
340.018	93.69
340.246	81.69
340.474	107.69
340.702	88.69
340.93	105.69
341.158	106.69
341.386	107.69
341.614	111.69
341.842	98.69
342.07	105.69
342.298	94.69
342.526	97.69
342.754	88.69
342.981	87.69
343.209	100.69
343.437	93.69
343.665	93.69
343.893	100.69
344.12	94.69
344.348	96.69
344.576	87.69
344.804	83.69
345.031	108.69
345.259	105.69
345.487	86.69
345.714	98.69
345.942	91.69
346.17	93.69
346.397	88.69
346.625	110.69
346.853	78.69
347.08	98.69
347.308	105.69
347.535	103.69
347.763	103.69
347.99	107.69
348.218	110.69
348.445	124.69
348.673	111.69
348.9	106.69
349.128	89.69
349.355	87.69
349.583	106.69
349.81	98.69
350.037	101.69
350.265	91.69
350.492	90.69
350.72	97.69
350.947	99.69
351.174	115.69
351.402	135.69
351.629	119.69
351.856	110.69
352.083	111.69
352.311	125.69
352.538	120.69
352.765	111.69
352.992	135.69
353.22	115.69
353.447	109.69
353.674	111.69
353.901	98.69
354.128	108.69
354.355	98.69
354.583	107.69
354.81	109.69
355.037	94.69
355.264	111.69
355.491	94.69
355.718	92.69
355.945	99.69
356.172	96.69
356.399	101.69
356.626	99.69
356.853	105.69
357.08	93.69
357.307	94.69
357.534	89.69
357.761	85.69
357.988	96.69
358.215	96.69
358.441	87.69
358.668	85.69
358.895	93.69
359.122	102.69
359.349	77.69
359.576	91.69
359.802	121.69
360.029	152.69
360.256	163.69
360.483	107.69
360.709	89.69
360.936	105.69
361.163	98.69
361.39	114.69
361.616	116.69
361.843	105.69
362.07	113.69
362.296	120.69
362.523	102.69
362.749	110.69
362.976	98.69
363.203	85.69
363.429	105.69
363.656	99.69
363.882	94.69
364.109	104.69
364.335	107.69
364.562	93.69
364.788	96.69
365.015	91.69
365.241	110.69
365.468	117.69
365.694	131.69
365.92	126.69
366.147	98.69
366.373	97.69
366.599	93.69
366.826	93.69
367.052	79.69
367.278	93.69
367.505	108.69
367.731	110.69
367.957	95.69
368.184	93.69
368.41	122.69
368.636	144.69
368.862	134.69
369.089	129.69
369.315	103.69
369.541	94.69
369.767	99.69
369.993	96.69
370.219	107.69
370.445	90.69
370.672	83.69
370.898	81.69
371.124	99.69
371.35	87.69
371.576	89.69
371.802	103.69
372.028	93.69
372.254	94.69
372.48	94.69
372.706	90.69
372.932	83.69
373.158	86.69
373.384	93.69
373.61	105.69
373.835	94.69
374.061	93.69
374.287	102.69
374.513	98.69
374.739	93.69
374.965	78.69
375.191	82.69
375.416	93.69
375.642	113.69
375.868	95.69
376.094	93.69
376.319	91.69
376.545	97.69
376.771	90.69
376.997	97.69
377.222	86.69
377.448	104.69
377.674	93.69
377.899	107.69
378.125	91.69
378.35	100.69
378.576	89.69
378.802	93.69
379.027	103.69
379.253	106.69
379.478	85.69
379.704	85.69
379.929	80.69
380.155	101.69
380.38	85.69
380.606	100.69
380.831	87.69
381.057	99.69
381.282	105.69
381.507	97.69
381.733	83.69
381.958	96.69
382.184	89.69
382.409	92.69
382.634	102.69
382.86	85.69
383.085	101.69
383.31	83.69
383.535	82.69
383.761	94.69
383.986	91.69
384.211	91.69
384.436	96.69
384.662	102.69
384.887	93.69
385.112	77.69
385.337	99.69
385.562	100.69
385.787	101.69
386.013	109.69
386.238	119.69
386.463	105.69
386.688	101.69
386.913	98.69
387.138	85.69
387.363	90.69
387.588	85.69
387.813	103.69
388.038	105.69
388.263	107.69
388.488	111.69
388.713	89.69
388.938	90.69
389.163	92.69
389.387	83.69
389.612	71.69
389.837	77.69
390.062	82.69
390.287	90.69
390.512	86.69
390.736	97.69
390.961	100.69
391.186	106.69
391.411	93.69
391.636	90.69
391.86	99.69
392.085	89.69
392.31	91.69
392.534	94.69
392.759	75.69
392.984	97.69
393.208	99.69
393.433	93.69
393.658	87.69
393.882	83.69
394.107	77.69
394.331	89.69
394.556	73.69
394.78	99.69
395.005	88.69
395.229	91.69
395.454	97.69
395.678	99.69
395.903	95.69
396.127	97.69
396.352	94.69
396.576	73.69
396.801	94.69
397.025	85.69
397.249	88.69
397.474	84.69
397.698	82.69
397.922	96.69
398.147	89.69
398.371	91.69
398.595	96.69
398.82	71.69
399.044	108.69
399.268	89.69
399.492	81.69
399.717	90.69
399.941	90.69
400.165	96.69
400.389	104.69
400.613	91.69
400.837	99.69
401.062	88.69
401.286	107.69
401.51	101.69
401.734	100.69
401.958	112.69
402.182	141.69
402.406	199.69
402.63	146.69
402.854	107.69
403.078	110.69
403.302	103.69
403.526	86.69
403.75	94.69
403.974	80.69
404.198	87.69
404.422	90.69
404.645	104.69
404.869	107.69
405.093	136.69
405.317	152.69
405.541	154.69
405.765	119.69
405.988	141.69
406.212	240.69
406.436	321.69
406.66	205.69
406.883	127.69
407.107	107.69
407.331	103.69
407.555	121.69
407.778	113.69
408.002	88.69
408.226	96.69
408.449	105.69
408.673	85.69
408.896	96.69
409.12	107.69
409.344	91.69
409.567	94.69
409.791	94.69
410.014	101.69
410.238	93.69
410.461	87.69
410.685	95.69
410.908	91.69
411.132	106.69
411.355	102.69
411.578	94.69
411.802	104.69
412.025	101.69
412.249	102.69
412.472	136.69
412.695	167.69
412.919	117.69
413.142	87.69
413.365	96.69
413.589	90.69
413.812	104.69
414.035	104.69
414.258	81.69
414.482	74.69
414.705	90.69
414.928	93.69
415.151	99.69
415.374	87.69
415.597	103.69
415.821	83.69
416.044	95.69
416.267	87.69
416.49	88.69
416.713	84.69
416.936	110.69
417.159	96.69
417.382	108.69
417.605	107.69
417.828	114.69
418.051	97.69
418.274	88.69
418.497	75.69
418.72	88.69
418.943	91.69
419.166	91.69
419.389	93.69
419.611	103.69
419.834	93.69
420.057	91.69
420.28	79.69
420.503	94.69
420.726	89.69
420.948	101.69
421.171	85.69
421.394	87.69
421.617	96.69
421.839	87.69
422.062	92.69
422.285	97.69
422.507	104.69
422.73	117.69
422.953	87.69
423.175	85.69
423.398	88.69
423.621	96.69
423.843	101.69
424.066	79.69
424.288	101.69
424.511	83.69
424.733	100.69
424.956	129.69
425.178	114.69
425.401	99.69
425.623	97.69
425.846	96.69
426.068	107.69
426.291	99.69
426.513	96.69
426.735	88.69
426.958	106.69
427.18	133.69
427.402	188.69
427.625	277.69
427.847	265.69
428.069	249.69
428.292	123.69
428.514	101.69
428.736	83.69
428.958	83.69
429.181	93.69
429.403	98.69
429.625	90.69
429.847	92.69
430.069	112.69
430.292	88.69
430.514	105.69
430.736	80.69
430.958	90.69
431.18	84.69
431.402	80.69
431.624	95.69
431.846	92.69
432.068	87.69
432.29	88.69
432.512	75.69
432.734	98.69
432.956	107.69
433.178	102.69
433.4	94.69
433.622	93.69
433.844	97.69
434.066	91.69
434.287	91.69
434.509	95.69
434.731	75.69
434.953	95.69
435.175	102.69
435.397	93.69
435.618	98.69
435.84	122.69
436.062	154.69
436.284	117.69
436.505	107.69
436.727	110.69
436.949	94.69
437.17	89.69
437.392	90.69
437.614	102.69
437.835	134.69
438.057	162.69
438.278	154.69
438.5	115.69
438.721	140.69
438.943	113.69
439.165	92.69
439.386	79.69
439.608	98.69
439.829	122.69
440.05	168.69
440.272	195.69
440.493	126.69
440.715	89.69
440.936	76.69
441.158	82.69
441.379	91.69
441.6	97.69
441.822	98.69
442.043	114.69
442.264	126.69
442.486	128.69
442.707	100.69
442.928	120.69
443.149	188.69
443.371	181.69
443.592	138.69
443.813	144.69
444.034	126.69
444.255	108.69
444.476	99.69
444.698	84.69
444.919	78.69
445.14	145.69
445.361	150.69
445.582	154.69
445.803	209.69
446.024	195.69
446.245	180.69
446.466	130.69
446.687	102.69
446.908	96.69
447.129	95.69
447.35	95.69
447.571	105.69
447.792	107.69
448.013	110.69
448.234	114.69
448.455	117.69
448.675	130.69
448.896	155.69
449.117	118.69
449.338	120.69
449.559	163.69
449.779	182.69
450	93.69
450.221	103.69
450.442	92.69
450.662	106.69
450.883	139.69
451.104	139.69
451.324	110.69
451.545	82.69
451.766	82.69
451.986	86.69
452.207	94.69
452.428	109.69
452.648	103.69
452.869	112.69
453.089	133.69
453.31	143.69
453.53	103.69
453.751	106.69
453.971	128.69
454.192	129.69
454.412	92.69
454.633	91.69
454.853	85.69
455.073	88.69
455.294	117.69
455.514	133.69
455.734	102.69
455.955	103.69
456.175	81.69
456.395	75.69
456.616	86.69
456.836	88.69
457.056	90.69
457.276	90.69
457.497	79.69
457.717	91.69
457.937	94.69
458.157	96.69
458.377	98.69
458.598	131.69
458.818	216.69
459.038	238.69
459.258	152.69
459.478	95.69
459.698	91.69
459.918	79.69
460.138	105.69
460.358	95.69
460.578	79.69
460.798	106.69
461.018	107.69
461.238	90.69
461.458	90.69
461.678	83.69
461.898	102.69
462.118	99.69
462.338	86.69
462.558	87.69
462.777	96.69
462.997	100.69
463.217	103.69
463.437	97.69
463.657	82.69
463.876	80.69
464.096	95.69
464.316	96.69
464.536	94.69
464.755	99.69
464.975	134.69
465.195	244.69
465.414	241.69
465.634	105.69
465.854	90.69
466.073	89.69
466.293	87.69
466.512	97.69
466.732	93.69
466.951	104.69
467.171	110.69
467.391	134.69
467.61	159.69
467.829	231.69
468.049	654.69
468.268	1003.69
468.488	249.69
468.707	122.69
468.927	93.69
469.146	87.69
469.365	102.69
469.585	89.69
469.804	82.69
470.023	119.69
470.243	111.69
470.462	116.69
470.681	128.69
470.901	110.69
471.12	100.69
471.339	115.69
471.558	128.69
471.777	176.69
471.997	346.69
472.216	1280.69
472.435	2959.69
472.654	678.69
472.873	184.69
473.092	121.69
473.311	98.69
473.53	91.69
473.749	94.69
473.968	93.69
474.187	145.69
474.406	118.69
474.625	103.69
474.844	87.69
475.063	104.69
475.282	87.69
475.501	96.69
475.72	94.69
475.939	99.69
476.158	91.69
476.377	95.69
476.596	94.69
476.814	102.69
477.033	110.69
477.252	102.69
477.471	97.69
477.69	103.69
477.908	105.69
478.127	97.69
478.346	84.69
478.564	95.69
478.783	111.69
479.002	96.69
479.22	124.69
479.439	120.69
479.658	137.69
479.876	124.69
480.095	128.69
480.313	146.69
480.532	165.69
480.751	320.69
480.969	1221.69
481.188	5183.69
481.406	2896.69
481.624	401.69
481.843	156.69
482.061	122.69
482.28	93.69
482.498	106.69
482.717	109.69
482.935	108.69
483.153	76.69
483.372	92.69
483.59	90.69
483.808	105.69
484.027	93.69
484.245	106.69
484.463	89.69
484.681	119.69
484.9	105.69
485.118	100.69
485.336	92.69
485.554	99.69
485.772	101.69
485.99	101.69
486.209	110.69
486.427	120.69
486.645	118.69
486.863	118.69
487.081	102.69
487.299	101.69
487.517	89.69
487.735	89.69
487.953	102.69
488.171	102.69
488.389	94.69
488.607	109.69
488.825	98.69
489.043	79.69
489.261	102.69
489.479	86.69
489.696	87.69
489.914	94.69
490.132	95.69
490.35	98.69
490.568	85.69
490.786	97.69
491.003	95.69
491.221	80.69
491.439	83.69
491.657	94.69
491.874	102.69
492.092	98.69
492.31	97.69
492.527	95.69
492.745	105.69
492.963	83.69
493.18	96.69
493.398	89.69
493.615	99.69
493.833	99.69
494.05	87.69
494.268	95.69
494.485	80.69
494.703	87.69
494.92	86.69
495.138	92.69
495.355	102.69
495.573	88.69
495.79	103.69
496.008	91.69
496.225	78.69
496.442	98.69
496.66	93.69
496.877	102.69
497.094	95.69
497.312	88.69
497.529	85.69
497.746	101.69
497.963	97.69
498.181	103.69
498.398	90.69
498.615	116.69
498.832	113.69
499.049	87.69
499.267	99.69
499.484	77.69
499.701	91.69
499.918	88.69
500.135	96.69
500.352	81.69
500.569	104.69
500.786	98.69
501.003	85.69
501.22	97.69
501.437	103.69
501.654	102.69
501.871	143.69
502.088	98.69
502.305	97.69
502.522	95.69
502.739	91.69
502.956	94.69
503.172	107.69
503.389	111.69
503.606	129.69
503.823	98.69
504.04	107.69
504.256	77.69
504.473	91.69
504.69	82.69
504.907	104.69
505.123	91.69
505.34	94.69
505.557	86.69
505.773	96.69
505.99	77.69
506.207	82.69
506.423	96.69
506.64	97.69
506.856	95.69
507.073	89.69
507.289	95.69
507.506	102.69
507.722	127.69
507.939	135.69
508.155	107.69
508.372	82.69
508.588	111.69
508.805	100.69
509.021	119.69
509.238	103.69
509.454	98.69
509.67	98.69
509.887	124.69
510.103	124.69
510.319	259.69
510.536	917.69
510.752	3280.69
510.968	865.69
511.184	173.69
511.401	128.69
511.617	117.69
511.833	113.69
512.049	99.69
512.265	80.69
512.481	102.69
