Data from Circ_1997_H10_HRD10591_00059.txt Node
Date: Wed Jan 03 11:29:39 EST 2024
User: Yrep
Spectrometer: HR+D1059
Trigger mode: 1
Integration Time (sec): 1.000000E-1
Scans to average: 1
Electric dark correction enabled: true
Nonlinearity correction enabled: false
Boxcar width: 0
XAxis mode: Wavelengths
Number of Pixels in Spectrum: 2048
>>>>>Begin Spectral Data<<<<<
223.165	-7.38
223.4	-7.38
223.635	-7.38
223.869	-20.38
224.104	-22.38
224.338	-0.38
224.573	-15.38
224.808	-13.38
225.042	-3.38
225.277	-6.38
225.511	-10.38
225.746	1.62
225.98	1.62
226.215	-10.38
226.449	26.62
226.683	14.62
226.918	30.62
227.152	34.62
227.387	43.62
227.621	32.62
227.856	48.62
228.09	45.62
228.324	32.62
228.559	51.62
228.793	49.62
229.027	61.62
229.262	77.62
229.496	74.62
229.73	91.62
229.964	78.62
230.199	62.62
230.433	69.62
230.667	69.62
230.901	83.62
231.136	73.62
231.37	82.62
231.604	77.62
231.838	73.62
232.072	81.62
232.306	77.62
232.541	79.62
232.775	89.62
233.009	76.62
233.243	95.62
233.477	85.62
233.711	82.62
233.945	77.62
234.179	73.62
234.413	91.62
234.647	67.62
234.881	82.62
235.115	82.62
235.349	64.62
235.583	71.62
235.817	73.62
236.051	76.62
236.285	66.62
236.519	77.62
236.753	81.62
236.987	99.62
237.221	87.62
237.455	80.62
237.689	63.62
237.922	79.62
238.156	84.62
238.39	84.62
238.624	80.62
238.858	82.62
239.091	70.62
239.325	74.62
239.559	80.62
239.793	83.62
240.027	78.62
240.26	75.62
240.494	81.62
240.728	89.62
240.961	75.62
241.195	87.62
241.429	89.62
241.662	80.62
241.896	76.62
242.13	70.62
242.363	80.62
242.597	70.62
242.83	73.62
243.064	74.62
243.298	80.62
243.531	97.62
243.765	86.62
243.998	87.62
244.232	85.62
244.465	69.62
244.699	82.62
244.932	62.62
245.166	69.62
245.399	79.62
245.633	69.62
245.866	71.62
246.099	81.62
246.333	67.62
246.566	105.62
246.8	73.62
247.033	81.62
247.266	90.62
247.5	78.62
247.733	91.62
247.966	91.62
248.2	85.62
248.433	73.62
248.666	79.62
248.899	76.62
249.133	85.62
249.366	102.62
249.599	108.62
249.832	88.62
250.066	90.62
250.299	87.62
250.532	69.62
250.765	73.62
250.998	81.62
251.231	74.62
251.465	80.62
251.698	80.62
251.931	87.62
252.164	83.62
252.397	84.62
252.63	93.62
252.863	80.62
253.096	91.62
253.329	88.62
253.562	74.62
253.795	87.62
254.028	85.62
254.261	77.62
254.494	82.62
254.727	85.62
254.96	69.62
255.193	85.62
255.426	71.62
255.659	97.62
255.892	82.62
256.124	88.62
256.357	98.62
256.59	81.62
256.823	84.62
257.056	69.62
257.289	82.62
257.521	87.62
257.754	88.62
257.987	73.62
258.22	92.62
258.452	93.62
258.685	80.62
258.918	98.62
259.151	82.62
259.383	91.62
259.616	86.62
259.849	84.62
260.081	78.62
260.314	82.62
260.547	90.62
260.779	90.62
261.012	93.62
261.244	105.62
261.477	89.62
261.71	105.62
261.942	98.62
262.175	130.62
262.407	99.62
262.64	90.62
262.872	90.62
263.105	65.62
263.337	85.62
263.57	74.62
263.802	80.62
264.035	71.62
264.267	73.62
264.499	76.62
264.732	70.62
264.964	67.62
265.197	90.62
265.429	79.62
265.661	83.62
265.894	73.62
266.126	95.62
266.358	82.62
266.591	86.62
266.823	80.62
267.055	81.62
267.287	94.62
267.52	86.62
267.752	86.62
267.984	93.62
268.216	71.62
268.448	92.62
268.681	82.62
268.913	93.62
269.145	99.62
269.377	95.62
269.609	99.62
269.841	94.62
270.073	95.62
270.306	85.62
270.538	90.62
270.77	66.62
271.002	85.62
271.234	85.62
271.466	103.62
271.698	96.62
271.93	99.62
272.162	99.62
272.394	85.62
272.626	74.62
272.858	88.62
273.09	77.62
273.322	101.62
273.553	97.62
273.785	81.62
274.017	78.62
274.249	92.62
274.481	84.62
274.713	74.62
274.945	99.62
275.176	96.62
275.408	90.62
275.64	111.62
275.872	101.62
276.104	116.62
276.335	87.62
276.567	110.62
276.799	141.62
277.031	154.62
277.262	173.62
277.494	152.62
277.726	109.62
277.957	94.62
278.189	90.62
278.421	88.62
278.652	81.62
278.884	97.62
279.115	88.62
279.347	81.62
279.579	90.62
279.81	105.62
280.042	183.62
280.273	230.62
280.505	165.62
280.736	104.62
280.968	84.62
281.199	90.62
281.431	93.62
281.662	78.62
281.894	90.62
282.125	106.62
282.356	139.62
282.588	177.62
282.819	129.62
283.051	97.62
283.282	85.62
283.513	95.62
283.745	93.62
283.976	94.62
284.207	80.62
284.439	95.62
284.67	92.62
284.901	93.62
285.132	90.62
285.364	81.62
285.595	87.62
285.826	89.62
286.057	93.62
286.288	76.62
286.52	78.62
286.751	88.62
286.982	78.62
287.213	77.62
287.444	97.62
287.675	86.62
287.906	75.62
288.138	87.62
288.369	94.62
288.6	89.62
288.831	91.62
289.062	83.62
289.293	85.62
289.524	88.62
289.755	77.62
289.986	92.62
290.217	81.62
290.448	75.62
290.679	97.62
290.91	94.62
291.141	80.62
291.371	86.62
291.602	83.62
291.833	74.62
292.064	80.62
292.295	74.62
292.526	105.62
292.757	87.62
292.987	96.62
293.218	93.62
293.449	92.62
293.68	93.62
293.91	87.62
294.141	101.62
294.372	81.62
294.603	97.62
294.833	88.62
295.064	97.62
295.295	96.62
295.525	99.62
295.756	114.62
295.987	130.62
296.217	162.62
296.448	141.62
296.679	108.62
296.909	96.62
297.14	76.62
297.37	85.62
297.601	79.62
297.831	80.62
298.062	90.62
298.292	87.62
298.523	83.62
298.753	92.62
298.984	82.62
299.214	94.62
299.445	94.62
299.675	96.62
299.905	108.62
300.136	92.62
300.366	97.62
300.597	84.62
300.827	114.62
301.057	105.62
301.288	103.62
301.518	91.62
301.748	108.62
301.979	107.62
302.209	89.62
302.439	97.62
302.669	92.62
302.9	92.62
303.13	95.62
303.36	107.62
303.59	123.62
303.82	113.62
304.051	106.62
304.281	94.62
304.511	97.62
304.741	95.62
304.971	74.62
305.201	94.62
305.431	90.62
305.661	86.62
305.891	99.62
306.121	97.62
306.352	104.62
306.582	103.62
306.812	101.62
307.042	139.62
307.272	155.62
307.502	166.62
307.731	171.62
307.961	132.62
308.191	87.62
308.421	105.62
308.651	99.62
308.881	104.62
309.111	84.62
309.341	90.62
309.571	104.62
309.8	99.62
310.03	93.62
310.26	97.62
310.49	87.62
310.72	105.62
310.949	103.62
311.179	94.62
311.409	90.62
311.639	99.62
311.868	97.62
312.098	112.62
312.328	109.62
312.557	104.62
312.787	117.62
313.017	106.62
313.246	103.62
313.476	94.62
313.706	85.62
313.935	84.62
314.165	119.62
314.394	103.62
314.624	92.62
314.853	99.62
315.083	93.62
315.312	94.62
315.542	110.62
315.771	97.62
316.001	103.62
316.23	96.62
316.46	94.62
316.689	111.62
316.919	93.62
317.148	90.62
317.377	98.62
317.607	97.62
317.836	79.62
318.065	83.62
318.295	97.62
318.524	91.62
318.753	89.62
318.983	96.62
319.212	104.62
319.441	107.62
319.67	118.62
319.9	99.62
320.129	94.62
320.358	90.62
320.587	107.62
320.816	102.62
321.046	102.62
321.275	109.62
321.504	99.62
321.733	91.62
321.962	110.62
322.191	110.62
322.42	105.62
322.649	134.62
322.878	119.62
323.108	112.62
323.337	135.62
323.566	147.62
323.795	195.62
324.024	263.62
324.253	507.62
324.482	1117.62
324.71	2379.62
324.939	3223.62
325.168	1135.62
325.397	305.62
325.626	178.62
325.855	152.62
326.084	147.62
326.313	157.62
326.542	184.62
326.77	296.62
326.999	591.62
327.228	1289.62
327.457	2443.62
327.686	1925.62
327.914	594.62
328.143	513.62
328.372	609.62
328.6	344.62
328.829	183.62
329.058	181.62
329.287	190.62
329.515	183.62
329.744	239.62
329.972	461.62
330.201	968.62
330.43	1323.62
330.658	578.62
330.887	278.62
331.115	171.62
331.344	114.62
331.572	111.62
331.801	108.62
332.03	108.62
332.258	109.62
332.486	99.62
332.715	107.62
332.943	110.62
333.172	109.62
333.4	131.62
333.629	153.62
333.857	224.62
334.085	419.62
334.314	876.62
334.542	1719.62
334.771	1629.62
334.999	430.62
335.227	163.62
335.455	117.62
335.684	108.62
335.912	109.62
336.14	90.62
336.369	91.62
336.597	107.62
336.825	97.62
337.053	91.62
337.281	99.62
337.51	98.62
337.738	109.62
337.966	97.62
338.194	93.62
338.422	115.62
338.65	113.62
338.878	100.62
339.106	91.62
339.334	99.62
339.562	87.62
339.79	86.62
340.018	89.62
340.246	88.62
340.474	106.62
340.702	97.62
340.93	101.62
341.158	96.62
341.386	91.62
341.614	98.62
341.842	86.62
342.07	98.62
342.298	95.62
342.526	90.62
342.754	88.62
342.981	90.62
343.209	97.62
343.437	111.62
343.665	91.62
343.893	94.62
344.12	85.62
344.348	93.62
344.576	98.62
344.804	91.62
345.031	106.62
345.259	101.62
345.487	81.62
345.714	109.62
345.942	89.62
346.17	92.62
346.397	95.62
346.625	103.62
346.853	98.62
347.08	95.62
347.308	90.62
347.535	81.62
347.763	110.62
347.99	103.62
348.218	105.62
348.445	117.62
348.673	105.62
348.9	96.62
349.128	104.62
349.355	75.62
349.583	74.62
349.81	95.62
350.037	97.62
350.265	115.62
350.492	102.62
350.72	97.62
350.947	97.62
351.174	118.62
351.402	110.62
351.629	108.62
351.856	111.62
352.083	108.62
352.311	105.62
352.538	108.62
352.765	117.62
352.992	122.62
353.22	98.62
353.447	102.62
353.674	97.62
353.901	103.62
354.128	91.62
354.355	89.62
354.583	88.62
354.81	92.62
355.037	89.62
355.264	100.62
355.491	96.62
355.718	86.62
355.945	90.62
356.172	89.62
356.399	92.62
356.626	94.62
356.853	89.62
357.08	77.62
357.307	96.62
357.534	79.62
357.761	87.62
357.988	97.62
358.215	91.62
358.441	84.62
358.668	93.62
358.895	86.62
359.122	89.62
359.349	80.62
359.576	98.62
359.802	100.62
360.029	121.62
360.256	122.62
360.483	102.62
360.709	95.62
360.936	87.62
361.163	92.62
361.39	92.62
361.616	104.62
361.843	97.62
362.07	98.62
362.296	102.62
362.523	98.62
362.749	90.62
362.976	91.62
363.203	84.62
363.429	92.62
363.656	101.62
363.882	94.62
364.109	94.62
364.335	98.62
364.562	89.62
364.788	111.62
365.015	97.62
365.241	101.62
365.468	129.62
365.694	105.62
365.92	87.62
366.147	86.62
366.373	85.62
366.599	99.62
366.826	95.62
367.052	83.62
367.278	88.62
367.505	93.62
367.731	101.62
367.957	95.62
368.184	90.62
368.41	102.62
368.636	113.62
368.862	130.62
369.089	127.62
369.315	107.62
369.541	98.62
369.767	94.62
369.993	98.62
370.219	93.62
370.445	75.62
370.672	96.62
370.898	86.62
371.124	87.62
371.35	70.62
371.576	87.62
371.802	93.62
372.028	93.62
372.254	78.62
372.48	80.62
372.706	70.62
372.932	90.62
373.158	96.62
373.384	83.62
373.61	88.62
373.835	78.62
374.061	99.62
374.287	109.62
374.513	90.62
374.739	85.62
374.965	80.62
375.191	86.62
375.416	89.62
375.642	90.62
375.868	87.62
376.094	93.62
376.319	85.62
376.545	85.62
376.771	83.62
376.997	75.62
377.222	99.62
377.448	98.62
377.674	100.62
377.899	92.62
378.125	100.62
378.35	92.62
378.576	96.62
378.802	86.62
379.027	90.62
379.253	97.62
379.478	77.62
379.704	101.62
379.929	95.62
380.155	96.62
380.38	98.62
380.606	96.62
380.831	113.62
381.057	82.62
381.282	98.62
381.507	83.62
381.733	94.62
381.958	93.62
382.184	103.62
382.409	105.62
382.634	99.62
382.86	96.62
383.085	108.62
383.31	98.62
383.535	103.62
383.761	94.62
383.986	93.62
384.211	98.62
384.436	105.62
384.662	103.62
384.887	91.62
385.112	92.62
385.337	93.62
385.562	102.62
385.787	110.62
386.013	101.62
386.238	104.62
386.463	99.62
386.688	111.62
386.913	101.62
387.138	87.62
387.363	96.62
387.588	101.62
387.813	103.62
388.038	106.62
388.263	114.62
388.488	103.62
388.713	98.62
388.938	94.62
389.163	80.62
389.387	97.62
389.612	104.62
389.837	85.62
390.062	97.62
390.287	82.62
390.512	100.62
390.736	91.62
390.961	79.62
391.186	93.62
391.411	91.62
391.636	96.62
391.86	96.62
392.085	93.62
392.31	88.62
392.534	85.62
392.759	97.62
392.984	80.62
393.208	79.62
393.433	91.62
393.658	97.62
393.882	73.62
394.107	86.62
394.331	90.62
394.556	79.62
394.78	86.62
395.005	73.62
395.229	85.62
395.454	105.62
395.678	96.62
395.903	81.62
396.127	92.62
396.352	85.62
396.576	79.62
396.801	70.62
397.025	83.62
397.249	95.62
397.474	90.62
397.698	95.62
397.922	89.62
398.147	96.62
398.371	89.62
398.595	75.62
398.82	80.62
399.044	76.62
399.268	86.62
399.492	90.62
399.717	93.62
399.941	101.62
400.165	88.62
400.389	89.62
400.613	85.62
400.837	82.62
401.062	99.62
401.286	84.62
401.51	111.62
401.734	104.62
401.958	102.62
402.182	138.62
402.406	182.62
402.63	141.62
402.854	95.62
403.078	103.62
403.302	86.62
403.526	91.62
403.75	98.62
403.974	88.62
404.198	80.62
404.422	91.62
404.645	98.62
404.869	103.62
405.093	110.62
405.317	153.62
405.541	144.62
405.765	122.62
405.988	139.62
406.212	200.62
406.436	279.62
406.66	205.62
406.883	118.62
407.107	94.62
407.331	98.62
407.555	96.62
407.778	111.62
408.002	97.62
408.226	83.62
408.449	76.62
408.673	94.62
408.896	94.62
409.12	117.62
409.344	81.62
409.567	84.62
409.791	78.62
410.014	93.62
410.238	81.62
410.461	91.62
410.685	86.62
410.908	96.62
411.132	106.62
411.355	105.62
411.578	91.62
411.802	105.62
412.025	92.62
412.249	88.62
412.472	109.62
412.695	139.62
412.919	97.62
413.142	103.62
413.365	100.62
413.589	94.62
413.812	76.62
414.035	82.62
414.258	97.62
414.482	86.62
414.705	99.62
414.928	95.62
415.151	106.62
415.374	95.62
415.597	93.62
415.821	72.62
416.044	90.62
416.267	95.62
416.49	102.62
416.713	90.62
416.936	96.62
417.159	108.62
417.382	91.62
417.605	99.62
417.828	108.62
418.051	95.62
418.274	101.62
418.497	74.62
418.72	94.62
418.943	77.62
419.166	82.62
419.389	86.62
419.611	82.62
419.834	81.62
420.057	81.62
420.28	90.62
420.503	89.62
420.726	92.62
420.948	84.62
421.171	110.62
421.394	110.62
421.617	102.62
421.839	96.62
422.062	74.62
422.285	97.62
422.507	97.62
422.73	127.62
422.953	95.62
423.175	82.62
423.398	93.62
423.621	92.62
423.843	77.62
424.066	86.62
424.288	89.62
424.511	98.62
424.733	108.62
424.956	117.62
425.178	101.62
425.401	114.62
425.623	112.62
425.846	102.62
426.068	95.62
426.291	76.62
426.513	104.62
426.735	95.62
426.958	98.62
427.18	127.62
427.402	168.62
427.625	232.62
427.847	249.62
428.069	219.62
428.292	124.62
428.514	105.62
428.736	91.62
428.958	92.62
429.181	95.62
429.403	86.62
429.625	88.62
429.847	88.62
430.069	98.62
430.292	88.62
430.514	98.62
430.736	99.62
430.958	80.62
431.18	91.62
431.402	81.62
431.624	93.62
431.846	89.62
432.068	87.62
432.29	87.62
432.512	101.62
432.734	105.62
432.956	89.62
433.178	99.62
433.4	108.62
433.622	80.62
433.844	85.62
434.066	97.62
434.287	95.62
434.509	109.62
434.731	88.62
434.953	93.62
435.175	94.62
435.397	108.62
435.618	95.62
435.84	113.62
436.062	145.62
436.284	133.62
436.505	88.62
436.727	111.62
436.949	92.62
437.17	83.62
437.392	93.62
437.614	106.62
437.835	120.62
438.057	149.62
438.278	130.62
438.5	108.62
438.721	151.62
438.943	117.62
439.165	93.62
439.386	99.62
439.608	87.62
439.829	97.62
440.05	147.62
440.272	202.62
440.493	113.62
440.715	96.62
440.936	91.62
441.158	93.62
441.379	82.62
441.6	98.62
441.822	78.62
442.043	96.62
442.264	112.62
442.486	103.62
442.707	96.62
442.928	108.62
443.149	172.62
443.371	167.62
443.592	125.62
443.813	137.62
444.034	112.62
444.255	110.62
444.476	84.62
444.698	90.62
444.919	93.62
445.14	126.62
445.361	134.62
445.582	126.62
445.803	171.62
446.024	163.62
446.245	160.62
446.466	142.62
446.687	96.62
446.908	83.62
447.129	94.62
447.35	87.62
447.571	96.62
447.792	99.62
448.013	97.62
448.234	127.62
448.455	99.62
448.675	133.62
448.896	127.62
449.117	113.62
449.338	96.62
449.559	149.62
449.779	151.62
450	95.62
450.221	105.62
450.442	109.62
450.662	100.62
450.883	115.62
451.104	134.62
451.324	116.62
451.545	99.62
451.766	92.62
451.986	88.62
452.207	106.62
452.428	100.62
452.648	119.62
452.869	125.62
453.089	117.62
453.31	135.62
453.53	109.62
453.751	105.62
453.971	109.62
454.192	118.62
454.412	101.62
454.633	91.62
454.853	83.62
455.073	82.62
455.294	93.62
455.514	100.62
455.734	91.62
455.955	81.62
456.175	90.62
456.395	82.62
456.616	93.62
456.836	87.62
457.056	89.62
457.276	87.62
457.497	91.62
457.717	86.62
457.937	93.62
458.157	69.62
458.377	105.62
458.598	120.62
458.818	190.62
459.038	214.62
459.258	143.62
459.478	90.62
459.698	94.62
459.918	100.62
460.138	91.62
460.358	81.62
460.578	89.62
460.798	87.62
461.018	99.62
461.238	80.62
461.458	93.62
461.678	89.62
461.898	82.62
462.118	95.62
462.338	75.62
462.558	83.62
462.777	80.62
462.997	103.62
463.217	111.62
463.437	93.62
463.657	92.62
463.876	81.62
464.096	92.62
464.316	103.62
464.536	104.62
464.755	93.62
464.975	140.62
465.195	199.62
465.414	218.62
465.634	91.62
465.854	89.62
466.073	93.62
466.293	104.62
466.512	73.62
466.732	91.62
466.951	87.62
467.171	117.62
467.391	112.62
467.61	126.62
467.829	184.62
468.049	526.62
468.268	778.62
468.488	220.62
468.707	120.62
468.927	101.62
469.146	89.62
469.365	103.62
469.585	99.62
469.804	104.62
470.023	113.62
470.243	97.62
470.462	111.62
470.681	138.62
470.901	103.62
471.12	108.62
471.339	117.62
471.558	113.62
471.777	147.62
471.997	293.62
472.216	1071.62
472.435	2394.62
472.654	543.62
472.873	152.62
473.092	103.62
473.311	81.62
473.53	105.62
473.749	94.62
473.968	97.62
474.187	130.62
474.406	101.62
474.625	104.62
474.844	77.62
475.063	86.62
475.282	89.62
475.501	96.62
475.72	87.62
475.939	96.62
476.158	89.62
476.377	101.62
476.596	87.62
476.814	106.62
477.033	98.62
477.252	89.62
477.471	73.62
477.69	83.62
477.908	88.62
478.127	87.62
478.346	98.62
478.564	96.62
478.783	108.62
479.002	103.62
479.22	95.62
479.439	123.62
479.658	129.62
479.876	133.62
480.095	118.62
480.313	129.62
480.532	170.62
480.751	279.62
480.969	971.62
481.188	4236.62
481.406	2351.62
481.624	341.62
481.843	143.62
482.061	108.62
482.28	99.62
482.498	100.62
482.717	95.62
482.935	96.62
483.153	91.62
483.372	86.62
483.59	84.62
483.808	94.62
484.027	93.62
484.245	82.62
484.463	89.62
484.681	102.62
484.9	90.62
485.118	86.62
485.336	86.62
485.554	89.62
485.772	103.62
485.99	103.62
486.209	100.62
486.427	106.62
486.645	112.62
486.863	124.62
487.081	99.62
487.299	78.62
487.517	88.62
487.735	96.62
487.953	105.62
488.171	104.62
488.389	106.62
488.607	106.62
488.825	82.62
489.043	83.62
489.261	83.62
489.479	97.62
489.696	89.62
489.914	104.62
490.132	93.62
490.35	93.62
490.568	85.62
490.786	75.62
491.003	95.62
491.221	105.62
491.439	99.62
491.657	93.62
491.874	94.62
492.092	96.62
492.31	95.62
492.527	101.62
492.745	95.62
492.963	99.62
493.18	94.62
493.398	109.62
493.615	101.62
493.833	87.62
494.05	86.62
494.268	95.62
494.485	87.62
494.703	109.62
494.92	96.62
495.138	101.62
495.355	96.62
495.573	99.62
495.79	86.62
496.008	97.62
496.225	105.62
496.442	97.62
496.66	94.62
496.877	94.62
497.094	78.62
497.312	96.62
497.529	91.62
497.746	105.62
497.963	99.62
498.181	100.62
498.398	101.62
498.615	123.62
498.832	113.62
499.049	89.62
499.267	83.62
499.484	96.62
499.701	87.62
499.918	94.62
500.135	93.62
500.352	102.62
500.569	96.62
500.786	96.62
501.003	103.62
501.22	82.62
501.437	91.62
501.654	109.62
501.871	120.62
502.088	99.62
502.305	110.62
502.522	96.62
502.739	97.62
502.956	90.62
503.172	95.62
503.389	102.62
503.606	105.62
503.823	112.62
504.04	105.62
504.256	97.62
504.473	93.62
504.69	81.62
504.907	91.62
505.123	102.62
505.34	99.62
505.557	97.62
505.773	91.62
505.99	92.62
506.207	97.62
506.423	90.62
506.64	95.62
506.856	94.62
507.073	99.62
507.289	111.62
507.506	104.62
507.722	115.62
507.939	129.62
508.155	103.62
508.372	90.62
508.588	94.62
508.805	99.62
509.021	104.62
509.238	86.62
509.454	103.62
509.67	115.62
509.887	119.62
510.103	137.62
510.319	228.62
510.536	842.62
510.752	3025.62
510.968	796.62
511.184	180.62
511.401	123.62
511.617	94.62
511.833	96.62
512.049	106.62
512.265	102.62
512.481	101.62
512.698	93.62
512.914	101.62
513.13	102.62
513.346	96.62
513.562	100.62
513.778	103.62
