Data from Circ_1997_H10_HRD10591_00076.txt Node
Date: Wed Jan 03 11:29:42 EST 2024
User: Yrep
Spectrometer: HR+D1059
Trigger mode: 1
Integration Time (sec): 1.000000E-1
Scans to average: 1
Electric dark correction enabled: true
Nonlinearity correction enabled: false
Boxcar width: 0
XAxis mode: Wavelengths
Number of Pixels in Spectrum: 2048
>>>>>Begin Spectral Data<<<<<
223.165	-18.44
223.4	-18.44
223.635	-18.44
223.869	-20.44
224.104	-16.44
224.338	-26.44
224.573	-12.44
224.808	1.56
225.042	-7.44
225.277	-2.44
225.511	-10.44
225.746	6.56
225.98	3.56
226.215	6.56
226.449	5.56
226.683	20.56
226.918	18.56
227.152	51.56
227.387	39.56
227.621	19.56
227.856	41.56
228.09	54.56
228.324	34.56
228.559	50.56
228.793	66.56
229.027	60.56
229.262	77.56
229.496	72.56
229.73	120.56
229.964	95.56
230.199	79.56
230.433	76.56
230.667	78.56
230.901	87.56
231.136	63.56
231.37	83.56
231.604	83.56
231.838	73.56
232.072	70.56
232.306	80.56
232.541	85.56
232.775	88.56
233.009	80.56
233.243	65.56
233.477	77.56
233.711	85.56
233.945	76.56
234.179	72.56
234.413	70.56
234.647	75.56
234.881	88.56
235.115	73.56
235.349	67.56
235.583	80.56
235.817	79.56
236.051	80.56
236.285	79.56
236.519	87.56
236.753	82.56
236.987	84.56
237.221	93.56
237.455	84.56
237.689	78.56
237.922	74.56
238.156	78.56
238.39	77.56
238.624	78.56
238.858	67.56
239.091	82.56
239.325	80.56
239.559	96.56
239.793	82.56
240.027	76.56
240.26	82.56
240.494	85.56
240.728	74.56
240.961	61.56
241.195	74.56
241.429	68.56
241.662	73.56
241.896	79.56
242.13	73.56
242.363	83.56
242.597	86.56
242.83	87.56
243.064	91.56
243.298	77.56
243.531	71.56
243.765	72.56
243.998	67.56
244.232	94.56
244.465	96.56
244.699	71.56
244.932	93.56
245.166	80.56
245.399	68.56
245.633	65.56
245.866	85.56
246.099	74.56
246.333	81.56
246.566	78.56
246.8	80.56
247.033	82.56
247.266	80.56
247.5	72.56
247.733	68.56
247.966	84.56
248.2	72.56
248.433	66.56
248.666	74.56
248.899	90.56
249.133	99.56
249.366	125.56
249.599	108.56
249.832	93.56
250.066	88.56
250.299	102.56
250.532	97.56
250.765	91.56
250.998	83.56
251.231	83.56
251.465	70.56
251.698	80.56
251.931	87.56
252.164	83.56
252.397	76.56
252.63	82.56
252.863	76.56
253.096	91.56
253.329	90.56
253.562	78.56
253.795	80.56
254.028	66.56
254.261	84.56
254.494	93.56
254.727	80.56
254.96	87.56
255.193	92.56
255.426	94.56
255.659	95.56
255.892	100.56
256.124	111.56
256.357	90.56
256.59	94.56
256.823	77.56
257.056	94.56
257.289	99.56
257.521	90.56
257.754	90.56
257.987	78.56
258.22	87.56
258.452	109.56
258.685	111.56
258.918	91.56
259.151	82.56
259.383	88.56
259.616	87.56
259.849	91.56
260.081	100.56
260.314	90.56
260.547	110.56
260.779	111.56
261.012	129.56
261.244	129.56
261.477	122.56
261.71	117.56
261.942	166.56
262.175	197.56
262.407	99.56
262.64	89.56
262.872	79.56
263.105	84.56
263.337	95.56
263.57	77.56
263.802	88.56
264.035	94.56
264.267	83.56
264.499	85.56
264.732	85.56
264.964	80.56
265.197	79.56
265.429	90.56
265.661	93.56
265.894	79.56
266.126	89.56
266.358	79.56
266.591	87.56
266.823	94.56
267.055	95.56
267.287	76.56
267.52	85.56
267.752	73.56
267.984	77.56
268.216	78.56
268.448	95.56
268.681	85.56
268.913	88.56
269.145	85.56
269.377	77.56
269.609	90.56
269.841	84.56
270.073	92.56
270.306	88.56
270.538	87.56
270.77	87.56
271.002	83.56
271.234	79.56
271.466	104.56
271.698	98.56
271.93	95.56
272.162	89.56
272.394	87.56
272.626	101.56
272.858	91.56
273.09	93.56
273.322	100.56
273.553	81.56
273.785	76.56
274.017	88.56
274.249	77.56
274.481	83.56
274.713	101.56
274.945	99.56
275.176	109.56
275.408	121.56
275.64	147.56
275.872	157.56
276.104	121.56
276.335	116.56
276.567	136.56
276.799	186.56
277.031	254.56
277.262	286.56
277.494	214.56
277.726	118.56
277.957	91.56
278.189	107.56
278.421	100.56
278.652	102.56
278.884	102.56
279.115	103.56
279.347	89.56
279.579	127.56
279.81	180.56
280.042	295.56
280.273	439.56
280.505	287.56
280.736	138.56
280.968	99.56
281.199	99.56
281.431	94.56
281.662	91.56
281.894	107.56
282.125	114.56
282.356	156.56
282.588	235.56
282.819	163.56
283.051	105.56
283.282	72.56
283.513	77.56
283.745	84.56
283.976	78.56
284.207	79.56
284.439	93.56
284.67	100.56
284.901	80.56
285.132	83.56
285.364	84.56
285.595	87.56
285.826	89.56
286.057	91.56
286.288	98.56
286.52	83.56
286.751	93.56
286.982	79.56
287.213	95.56
287.444	101.56
287.675	94.56
287.906	96.56
288.138	100.56
288.369	107.56
288.6	96.56
288.831	96.56
289.062	101.56
289.293	95.56
289.524	91.56
289.755	88.56
289.986	80.56
290.217	100.56
290.448	95.56
290.679	76.56
290.91	83.56
291.141	87.56
291.371	96.56
291.602	97.56
291.833	84.56
292.064	95.56
292.295	92.56
292.526	85.56
292.757	69.56
292.987	86.56
293.218	89.56
293.449	90.56
293.68	91.56
293.91	78.56
294.141	100.56
294.372	94.56
294.603	84.56
294.833	90.56
295.064	86.56
295.295	96.56
295.525	109.56
295.756	115.56
295.987	162.56
296.217	204.56
296.448	171.56
296.679	95.56
296.909	79.56
297.14	92.56
297.37	93.56
297.601	87.56
297.831	95.56
298.062	103.56
298.292	100.56
298.523	88.56
298.753	103.56
298.984	86.56
299.214	87.56
299.445	88.56
299.675	104.56
299.905	96.56
300.136	101.56
300.366	107.56
300.597	103.56
300.827	105.56
301.057	116.56
301.288	133.56
301.518	94.56
301.748	90.56
301.979	112.56
302.209	113.56
302.439	93.56
302.669	105.56
302.9	90.56
303.13	116.56
303.36	130.56
303.59	158.56
303.82	198.56
304.051	110.56
304.281	94.56
304.511	102.56
304.741	93.56
304.971	109.56
305.201	91.56
305.431	95.56
305.661	97.56
305.891	103.56
306.121	96.56
306.352	125.56
306.582	133.56
306.812	123.56
307.042	162.56
307.272	212.56
307.502	261.56
307.731	226.56
307.961	150.56
308.191	90.56
308.421	90.56
308.651	100.56
308.881	90.56
309.111	99.56
309.341	126.56
309.571	114.56
309.8	106.56
310.03	127.56
310.26	115.56
310.49	100.56
310.72	118.56
310.949	148.56
311.179	137.56
311.409	100.56
311.639	108.56
311.868	96.56
312.098	107.56
312.328	122.56
312.557	129.56
312.787	151.56
313.017	118.56
313.246	99.56
313.476	94.56
313.706	104.56
313.935	104.56
314.165	118.56
314.394	124.56
314.624	118.56
314.853	117.56
315.083	107.56
315.312	101.56
315.542	94.56
315.771	93.56
316.001	85.56
316.23	88.56
316.46	93.56
316.689	104.56
316.919	95.56
317.148	110.56
317.377	87.56
317.607	111.56
317.836	103.56
318.065	93.56
318.295	101.56
318.524	95.56
318.753	101.56
318.983	96.56
319.212	111.56
319.441	128.56
319.67	129.56
319.9	104.56
320.129	82.56
320.358	103.56
320.587	96.56
320.816	120.56
321.046	119.56
321.275	117.56
321.504	106.56
321.733	114.56
321.962	114.56
322.191	117.56
322.42	143.56
322.649	160.56
322.878	140.56
323.108	158.56
323.337	178.56
323.566	207.56
323.795	239.56
324.024	326.56
324.253	715.56
324.482	1592.56
324.71	3389.56
324.939	4398.56
325.168	1502.56
325.397	395.56
325.626	194.56
325.855	175.56
326.084	171.56
326.313	193.56
326.542	236.56
326.77	357.56
326.999	752.56
327.228	1660.56
327.457	3088.56
327.686	2440.56
327.914	912.56
328.143	976.56
328.372	1253.56
328.6	634.56
328.829	292.56
329.058	286.56
329.287	300.56
329.515	278.56
329.744	433.56
329.972	916.56
330.201	2013.56
330.43	2889.56
330.658	1167.56
330.887	507.56
331.115	298.56
331.344	172.56
331.572	158.56
331.801	163.56
332.03	159.56
332.258	142.56
332.486	130.56
332.715	132.56
332.943	135.56
333.172	160.56
333.4	168.56
333.629	232.56
333.857	369.56
334.085	814.56
334.314	1890.56
334.542	3686.56
334.771	3274.56
334.999	753.56
335.227	266.56
335.455	162.56
335.684	146.56
335.912	141.56
336.14	117.56
336.369	124.56
336.597	140.56
336.825	116.56
337.053	97.56
337.281	109.56
337.51	99.56
337.738	99.56
337.966	115.56
338.194	123.56
338.422	122.56
338.65	107.56
338.878	91.56
339.106	83.56
339.334	99.56
339.562	104.56
339.79	107.56
340.018	100.56
340.246	110.56
340.474	130.56
340.702	100.56
340.93	102.56
341.158	96.56
341.386	105.56
341.614	112.56
341.842	126.56
342.07	98.56
342.298	97.56
342.526	96.56
342.754	84.56
342.981	82.56
343.209	90.56
343.437	91.56
343.665	88.56
343.893	84.56
344.12	90.56
344.348	101.56
344.576	78.56
344.804	115.56
345.031	130.56
345.259	128.56
345.487	122.56
345.714	106.56
345.942	99.56
346.17	99.56
346.397	93.56
346.625	105.56
346.853	91.56
347.08	104.56
347.308	104.56
347.535	132.56
347.763	142.56
347.99	119.56
348.218	118.56
348.445	126.56
348.673	125.56
348.9	104.56
349.128	101.56
349.355	103.56
349.583	99.56
349.81	87.56
350.037	97.56
350.265	107.56
350.492	97.56
350.72	101.56
350.947	111.56
351.174	137.56
351.402	145.56
351.629	132.56
351.856	126.56
352.083	130.56
352.311	144.56
352.538	152.56
352.765	131.56
352.992	143.56
353.22	135.56
353.447	114.56
353.674	107.56
353.901	100.56
354.128	98.56
354.355	90.56
354.583	106.56
354.81	95.56
355.037	90.56
355.264	103.56
355.491	100.56
355.718	93.56
355.945	86.56
356.172	90.56
356.399	99.56
356.626	88.56
356.853	90.56
357.08	96.56
357.307	86.56
357.534	95.56
357.761	97.56
357.988	95.56
358.215	95.56
358.441	90.56
358.668	87.56
358.895	93.56
359.122	87.56
359.349	95.56
359.576	116.56
359.802	154.56
360.029	195.56
360.256	182.56
360.483	154.56
360.709	125.56
360.936	106.56
361.163	110.56
361.39	116.56
361.616	121.56
361.843	115.56
362.07	114.56
362.296	132.56
362.523	118.56
362.749	108.56
362.976	103.56
363.203	89.56
363.429	114.56
363.656	107.56
363.882	90.56
364.109	94.56
364.335	90.56
364.562	98.56
364.788	92.56
365.015	105.56
365.241	113.56
365.468	128.56
365.694	132.56
365.92	118.56
366.147	105.56
366.373	100.56
366.599	102.56
366.826	94.56
367.052	90.56
367.278	85.56
367.505	82.56
367.731	100.56
367.957	102.56
368.184	103.56
368.41	103.56
368.636	137.56
368.862	160.56
369.089	155.56
369.315	106.56
369.541	110.56
369.767	105.56
369.993	105.56
370.219	102.56
370.445	98.56
370.672	101.56
370.898	101.56
371.124	92.56
371.35	83.56
371.576	80.56
371.802	108.56
372.028	95.56
372.254	89.56
372.48	77.56
372.706	81.56
372.932	76.56
373.158	90.56
373.384	74.56
373.61	102.56
373.835	103.56
374.061	91.56
374.287	115.56
374.513	86.56
374.739	89.56
374.965	108.56
375.191	90.56
375.416	84.56
375.642	95.56
375.868	96.56
376.094	96.56
376.319	73.56
376.545	96.56
376.771	97.56
376.997	91.56
377.222	104.56
377.448	91.56
377.674	85.56
377.899	82.56
378.125	91.56
378.35	73.56
378.576	83.56
378.802	80.56
379.027	78.56
379.253	79.56
379.478	87.56
379.704	80.56
379.929	106.56
380.155	100.56
380.38	97.56
380.606	104.56
380.831	96.56
381.057	88.56
381.282	89.56
381.507	90.56
381.733	88.56
381.958	90.56
382.184	88.56
382.409	101.56
382.634	112.56
382.86	90.56
383.085	82.56
383.31	94.56
383.535	99.56
383.761	95.56
383.986	105.56
384.211	91.56
384.436	108.56
384.662	85.56
384.887	83.56
385.112	96.56
385.337	96.56
385.562	82.56
385.787	95.56
386.013	116.56
386.238	116.56
386.463	103.56
386.688	111.56
386.913	94.56
387.138	100.56
387.363	94.56
387.588	98.56
387.813	90.56
388.038	112.56
388.263	103.56
388.488	87.56
388.713	96.56
388.938	92.56
389.163	76.56
389.387	95.56
389.612	82.56
389.837	99.56
390.062	96.56
390.287	87.56
390.512	104.56
390.736	91.56
390.961	92.56
391.186	78.56
391.411	81.56
391.636	84.56
391.86	80.56
392.085	78.56
392.31	93.56
392.534	92.56
392.759	86.56
392.984	77.56
393.208	83.56
393.433	87.56
393.658	74.56
393.882	88.56
394.107	84.56
394.331	94.56
394.556	86.56
394.78	92.56
395.005	106.56
395.229	86.56
395.454	72.56
395.678	73.56
395.903	95.56
396.127	91.56
396.352	95.56
396.576	89.56
396.801	99.56
397.025	79.56
397.249	71.56
397.474	105.56
397.698	88.56
397.922	82.56
398.147	83.56
398.371	89.56
398.595	94.56
398.82	78.56
399.044	85.56
399.268	88.56
399.492	79.56
399.717	93.56
399.941	93.56
400.165	99.56
400.389	95.56
400.613	92.56
400.837	87.56
401.062	83.56
401.286	99.56
401.51	99.56
401.734	112.56
401.958	120.56
402.182	194.56
402.406	283.56
402.63	178.56
402.854	121.56
403.078	104.56
403.302	80.56
403.526	85.56
403.75	82.56
403.974	94.56
404.198	84.56
404.422	95.56
404.645	94.56
404.869	123.56
405.093	146.56
405.317	181.56
405.541	195.56
405.765	149.56
405.988	165.56
406.212	294.56
406.436	453.56
406.66	294.56
406.883	171.56
407.107	125.56
407.331	106.56
407.555	127.56
407.778	119.56
408.002	89.56
408.226	103.56
408.449	93.56
408.673	88.56
408.896	96.56
409.12	103.56
409.344	86.56
409.567	94.56
409.791	89.56
410.014	83.56
410.238	91.56
410.461	81.56
410.685	93.56
410.908	94.56
411.132	102.56
411.355	119.56
411.578	96.56
411.802	83.56
412.025	105.56
412.249	106.56
412.472	127.56
412.695	165.56
412.919	145.56
413.142	103.56
413.365	96.56
413.589	75.56
413.812	101.56
414.035	87.56
414.258	100.56
414.482	91.56
414.705	75.56
414.928	91.56
415.151	100.56
415.374	95.56
415.597	91.56
415.821	87.56
416.044	95.56
416.267	124.56
416.49	86.56
416.713	89.56
416.936	98.56
417.159	110.56
417.382	118.56
417.605	106.56
417.828	119.56
418.051	98.56
418.274	87.56
418.497	87.56
418.72	68.56
418.943	94.56
419.166	83.56
419.389	87.56
419.611	91.56
419.834	108.56
420.057	112.56
420.28	101.56
420.503	90.56
420.726	98.56
420.948	111.56
421.171	118.56
421.394	110.56
421.617	107.56
421.839	92.56
422.062	88.56
422.285	110.56
422.507	116.56
422.73	119.56
422.953	94.56
423.175	104.56
423.398	100.56
423.621	90.56
423.843	92.56
424.066	92.56
424.288	95.56
424.511	99.56
424.733	115.56
424.956	142.56
425.178	131.56
425.401	127.56
425.623	124.56
425.846	109.56
426.068	106.56
426.291	93.56
426.513	99.56
426.735	102.56
426.958	109.56
427.18	151.56
427.402	251.56
427.625	376.56
427.847	378.56
428.069	325.56
428.292	166.56
428.514	104.56
428.736	89.56
428.958	93.56
429.181	94.56
429.403	86.56
429.625	94.56
429.847	103.56
430.069	135.56
430.292	106.56
430.514	96.56
430.736	81.56
430.958	79.56
431.18	87.56
431.402	86.56
431.624	81.56
431.846	92.56
432.068	97.56
432.29	84.56
432.512	99.56
432.734	98.56
432.956	92.56
433.178	113.56
433.4	121.56
433.622	100.56
433.844	103.56
434.066	93.56
434.287	95.56
434.509	92.56
434.731	96.56
434.953	91.56
435.175	95.56
435.397	94.56
435.618	82.56
435.84	135.56
436.062	169.56
436.284	157.56
436.505	134.56
436.727	100.56
436.949	107.56
437.17	92.56
437.392	82.56
437.614	117.56
437.835	159.56
438.057	211.56
438.278	160.56
438.5	135.56
438.721	166.56
438.943	130.56
439.165	88.56
439.386	99.56
439.608	92.56
439.829	134.56
440.05	202.56
440.272	262.56
440.493	136.56
440.715	104.56
440.936	102.56
441.158	100.56
441.379	95.56
441.6	107.56
441.822	106.56
442.043	119.56
442.264	139.56
442.486	111.56
442.707	122.56
442.928	158.56
443.149	228.56
443.371	250.56
443.592	173.56
443.813	151.56
444.034	143.56
444.255	106.56
444.476	103.56
444.698	104.56
444.919	103.56
445.14	146.56
445.361	160.56
445.582	188.56
445.803	265.56
446.024	247.56
446.245	236.56
446.466	139.56
446.687	103.56
446.908	104.56
447.129	102.56
447.35	115.56
447.571	105.56
447.792	95.56
448.013	124.56
448.234	139.56
448.455	134.56
448.675	161.56
448.896	161.56
449.117	136.56
449.338	125.56
449.559	180.56
449.779	183.56
450	114.56
450.221	101.56
450.442	105.56
450.662	112.56
450.883	163.56
451.104	174.56
451.324	131.56
451.545	94.56
451.766	87.56
451.986	86.56
452.207	90.56
452.428	114.56
452.648	125.56
452.869	159.56
453.089	178.56
453.31	165.56
453.53	104.56
453.751	106.56
453.971	142.56
454.192	187.56
454.412	104.56
454.633	99.56
454.853	93.56
455.073	84.56
455.294	123.56
455.514	134.56
455.734	108.56
455.955	89.56
456.175	78.56
456.395	82.56
456.616	79.56
456.836	90.56
457.056	97.56
457.276	102.56
457.497	90.56
457.717	89.56
457.937	107.56
458.157	91.56
458.377	124.56
458.598	159.56
458.818	303.56
459.038	340.56
459.258	203.56
459.478	107.56
459.698	95.56
459.918	100.56
460.138	88.56
460.358	82.56
460.578	95.56
460.798	110.56
461.018	97.56
461.238	79.56
461.458	89.56
461.678	99.56
461.898	94.56
462.118	76.56
462.338	84.56
462.558	98.56
462.777	92.56
462.997	110.56
463.217	138.56
463.437	122.56
463.657	106.56
463.876	97.56
464.096	115.56
464.316	106.56
464.536	121.56
464.755	114.56
464.975	157.56
465.195	344.56
465.414	339.56
465.634	111.56
465.854	97.56
466.073	92.56
466.293	94.56
466.512	96.56
466.732	102.56
466.951	111.56
467.171	102.56
467.391	134.56
467.61	202.56
467.829	331.56
468.049	1030.56
468.268	1552.56
468.488	347.56
468.707	129.56
468.927	105.56
469.146	91.56
469.365	102.56
469.585	111.56
469.804	125.56
470.023	126.56
470.243	138.56
470.462	152.56
470.681	171.56
470.901	115.56
471.12	111.56
471.339	116.56
471.558	165.56
471.777	208.56
471.997	499.56
472.216	2091.56
472.435	4808.56
472.654	1011.56
472.873	230.56
473.092	134.56
473.311	112.56
473.53	111.56
473.749	102.56
473.968	134.56
474.187	166.56
474.406	124.56
474.625	97.56
474.844	99.56
475.063	93.56
475.282	99.56
475.501	89.56
475.72	86.56
475.939	91.56
476.158	91.56
476.377	105.56
476.596	99.56
476.814	125.56
477.033	114.56
477.252	102.56
477.471	99.56
477.69	105.56
477.908	110.56
478.127	101.56
478.346	95.56
478.564	100.56
478.783	131.56
479.002	122.56
479.22	135.56
479.439	169.56
479.658	167.56
479.876	149.56
480.095	146.56
480.313	182.56
480.532	226.56
480.751	484.56
480.969	1844.56
481.188	8256.56
481.406	4554.56
481.624	583.56
481.843	196.56
482.061	159.56
482.28	105.56
482.498	102.56
482.717	111.56
482.935	95.56
483.153	92.56
483.372	109.56
483.59	95.56
483.808	77.56
484.027	105.56
484.245	90.56
484.463	110.56
484.681	103.56
484.9	106.56
485.118	101.56
485.336	102.56
485.554	106.56
485.772	106.56
485.99	108.56
486.209	113.56
486.427	119.56
486.645	134.56
486.863	147.56
487.081	109.56
487.299	102.56
487.517	95.56
487.735	92.56
487.953	90.56
488.171	90.56
488.389	105.56
488.607	107.56
488.825	100.56
489.043	84.56
489.261	89.56
489.479	100.56
489.696	97.56
489.914	77.56
490.132	78.56
490.35	103.56
490.568	88.56
490.786	87.56
491.003	103.56
491.221	105.56
491.439	107.56
491.657	92.56
491.874	96.56
492.092	96.56
492.31	95.56
492.527	107.56
492.745	106.56
492.963	111.56
493.18	93.56
493.398	101.56
493.615	88.56
493.833	101.56
494.05	83.56
494.268	98.56
494.485	91.56
494.703	85.56
494.92	87.56
495.138	84.56
495.355	98.56
495.573	103.56
495.79	93.56
496.008	76.56
496.225	105.56
496.442	87.56
496.66	94.56
496.877	87.56
497.094	93.56
497.312	72.56
497.529	105.56
497.746	98.56
497.963	102.56
498.181	104.56
498.398	105.56
498.615	156.56
498.832	148.56
499.049	97.56
499.267	98.56
499.484	91.56
499.701	90.56
499.918	101.56
500.135	97.56
500.352	114.56
500.569	114.56
500.786	108.56
501.003	101.56
501.22	89.56
501.437	96.56
501.654	107.56
501.871	152.56
502.088	128.56
502.305	85.56
502.522	94.56
502.739	103.56
502.956	98.56
503.172	107.56
503.389	111.56
503.606	154.56
503.823	122.56
504.04	101.56
504.256	101.56
504.473	95.56
504.69	87.56
504.907	93.56
505.123	72.56
505.34	94.56
505.557	95.56
505.773	101.56
505.99	87.56
506.207	99.56
506.423	87.56
506.64	82.56
506.856	88.56
507.073	95.56
507.289	103.56
507.506	110.56
507.722	165.56
507.939	178.56
508.155	131.56
508.372	82.56
508.588	94.56
508.805	85.56
509.021	103.56
509.238	103.56
509.454	108.56
509.67	103.56
509.887	131.56
510.103	152.56
510.319	296.56
510.536	1283.56
510.752	4718.56
510.968	1170.56
