Data from Circ_1997_H10_HRD10591_00078.txt Node
Date: Wed Jan 03 11:29:43 EST 2024
User: Yrep
Spectrometer: HR+D1059
Trigger mode: 1
Integration Time (sec): 1.000000E-1
Scans to average: 1
Electric dark correction enabled: true
Nonlinearity correction enabled: false
Boxcar width: 0
XAxis mode: Wavelengths
Number of Pixels in Spectrum: 2048
>>>>>Begin Spectral Data<<<<<
223.165	-20.19
223.4	-20.19
223.635	-20.19
223.869	-10.19
224.104	-11.19
224.338	-13.19
224.573	-23.19
224.808	-15.19
225.042	-20.19
225.277	-3.19
225.511	-8.19
225.746	-3.19
225.98	11.81
226.215	11.81
226.449	19.81
226.683	24.81
226.918	27.81
227.152	31.81
227.387	47.81
227.621	30.81
227.856	37.81
228.09	48.81
228.324	35.81
228.559	58.81
228.793	65.81
229.027	79.81
229.262	81.81
229.496	79.81
229.73	78.81
229.964	83.81
230.199	81.81
230.433	66.81
230.667	64.81
230.901	83.81
231.136	82.81
231.37	87.81
231.604	74.81
231.838	75.81
232.072	82.81
232.306	84.81
232.541	70.81
232.775	103.81
233.009	80.81
233.243	83.81
233.477	82.81
233.711	89.81
233.945	78.81
234.179	68.81
234.413	74.81
234.647	76.81
234.881	84.81
235.115	93.81
235.349	81.81
235.583	74.81
235.817	78.81
236.051	82.81
236.285	82.81
236.519	67.81
236.753	103.81
236.987	78.81
237.221	101.81
237.455	96.81
237.689	79.81
237.922	79.81
238.156	95.81
238.39	76.81
238.624	76.81
238.858	77.81
239.091	84.81
239.325	82.81
239.559	74.81
239.793	84.81
240.027	80.81
240.26	74.81
240.494	86.81
240.728	80.81
240.961	81.81
241.195	86.81
241.429	73.81
241.662	72.81
241.896	89.81
242.13	78.81
242.363	80.81
242.597	75.81
242.83	76.81
243.064	76.81
243.298	64.81
243.531	67.81
243.765	87.81
243.998	66.81
244.232	73.81
244.465	96.81
244.699	81.81
244.932	78.81
245.166	85.81
245.399	84.81
245.633	89.81
245.866	75.81
246.099	84.81
246.333	67.81
246.566	71.81
246.8	87.81
247.033	96.81
247.266	80.81
247.5	82.81
247.733	74.81
247.966	80.81
248.2	90.81
248.433	75.81
248.666	84.81
248.899	79.81
249.133	84.81
249.366	102.81
249.599	110.81
249.832	82.81
250.066	88.81
250.299	96.81
250.532	84.81
250.765	91.81
250.998	90.81
251.231	88.81
251.465	85.81
251.698	97.81
251.931	78.81
252.164	92.81
252.397	94.81
252.63	82.81
252.863	85.81
253.096	65.81
253.329	72.81
253.562	80.81
253.795	96.81
254.028	94.81
254.261	61.81
254.494	96.81
254.727	77.81
254.96	87.81
255.193	82.81
255.426	82.81
255.659	90.81
255.892	101.81
256.124	103.81
256.357	88.81
256.59	96.81
256.823	79.81
257.056	85.81
257.289	88.81
257.521	104.81
257.754	88.81
257.987	96.81
258.22	92.81
258.452	98.81
258.685	84.81
258.918	102.81
259.151	85.81
259.383	77.81
259.616	88.81
259.849	84.81
260.081	83.81
260.314	91.81
260.547	87.81
260.779	91.81
261.012	119.81
261.244	131.81
261.477	121.81
261.71	105.81
261.942	142.81
262.175	155.81
262.407	115.81
262.64	86.81
262.872	86.81
263.105	86.81
263.337	78.81
263.57	88.81
263.802	90.81
264.035	81.81
264.267	90.81
264.499	90.81
264.732	81.81
264.964	91.81
265.197	88.81
265.429	83.81
265.661	98.81
265.894	101.81
266.126	86.81
266.358	84.81
266.591	99.81
266.823	97.81
267.055	87.81
267.287	86.81
267.52	86.81
267.752	94.81
267.984	96.81
268.216	79.81
268.448	86.81
268.681	91.81
268.913	84.81
269.145	80.81
269.377	93.81
269.609	75.81
269.841	76.81
270.073	89.81
270.306	77.81
270.538	82.81
270.77	88.81
271.002	93.81
271.234	96.81
271.466	96.81
271.698	103.81
271.93	80.81
272.162	96.81
272.394	96.81
272.626	74.81
272.858	85.81
273.09	80.81
273.322	98.81
273.553	86.81
273.785	106.81
274.017	97.81
274.249	92.81
274.481	84.81
274.713	75.81
274.945	107.81
275.176	87.81
275.408	103.81
275.64	121.81
275.872	135.81
276.104	136.81
276.335	106.81
276.567	122.81
276.799	159.81
277.031	200.81
277.262	219.81
277.494	170.81
277.726	108.81
277.957	100.81
278.189	100.81
278.421	76.81
278.652	87.81
278.884	99.81
279.115	89.81
279.347	104.81
279.579	110.81
279.81	134.81
280.042	233.81
280.273	300.81
280.505	204.81
280.736	113.81
280.968	103.81
281.199	91.81
281.431	90.81
281.662	97.81
281.894	107.81
282.125	110.81
282.356	137.81
282.588	182.81
282.819	152.81
283.051	111.81
283.282	95.81
283.513	84.81
283.745	90.81
283.976	77.81
284.207	87.81
284.439	94.81
284.67	85.81
284.901	97.81
285.132	78.81
285.364	94.81
285.595	74.81
285.826	87.81
286.057	108.81
286.288	82.81
286.52	91.81
286.751	76.81
286.982	74.81
287.213	94.81
287.444	95.81
287.675	98.81
287.906	103.81
288.138	94.81
288.369	93.81
288.6	106.81
288.831	99.81
289.062	89.81
289.293	91.81
289.524	86.81
289.755	88.81
289.986	88.81
290.217	92.81
290.448	88.81
290.679	91.81
290.91	86.81
291.141	98.81
291.371	99.81
291.602	90.81
291.833	96.81
292.064	89.81
292.295	82.81
292.526	94.81
292.757	78.81
292.987	90.81
293.218	87.81
293.449	90.81
293.68	90.81
293.91	94.81
294.141	97.81
294.372	87.81
294.603	83.81
294.833	86.81
295.064	88.81
295.295	109.81
295.525	90.81
295.756	121.81
295.987	135.81
296.217	179.81
296.448	159.81
296.679	105.81
296.909	99.81
297.14	102.81
297.37	105.81
297.601	95.81
297.831	100.81
298.062	93.81
298.292	103.81
298.523	85.81
298.753	95.81
298.984	95.81
299.214	79.81
299.445	87.81
299.675	91.81
299.905	99.81
300.136	92.81
300.366	89.81
300.597	98.81
300.827	84.81
301.057	104.81
301.288	112.81
301.518	108.81
301.748	103.81
301.979	129.81
302.209	106.81
302.439	107.81
302.669	97.81
302.9	92.81
303.13	111.81
303.36	123.81
303.59	145.81
303.82	156.81
304.051	115.81
304.281	99.81
304.511	106.81
304.741	97.81
304.971	88.81
305.201	97.81
305.431	91.81
305.661	89.81
305.891	85.81
306.121	106.81
306.352	104.81
306.582	120.81
306.812	106.81
307.042	132.81
307.272	156.81
307.502	183.81
307.731	186.81
307.961	135.81
308.191	94.81
308.421	96.81
308.651	105.81
308.881	98.81
309.111	104.81
309.341	103.81
309.571	104.81
309.8	110.81
310.03	101.81
310.26	98.81
310.49	107.81
310.72	106.81
310.949	121.81
311.179	117.81
311.409	123.81
311.639	107.81
311.868	110.81
312.098	110.81
312.328	115.81
312.557	124.81
312.787	127.81
313.017	118.81
313.246	105.81
313.476	101.81
313.706	112.81
313.935	88.81
314.165	107.81
314.394	118.81
314.624	104.81
314.853	109.81
315.083	107.81
315.312	96.81
315.542	91.81
315.771	84.81
316.001	84.81
316.23	83.81
316.46	89.81
316.689	104.81
316.919	108.81
317.148	112.81
317.377	96.81
317.607	95.81
317.836	98.81
318.065	100.81
318.295	104.81
318.524	103.81
318.753	93.81
318.983	100.81
319.212	121.81
319.441	113.81
319.67	110.81
319.9	84.81
320.129	95.81
320.358	101.81
320.587	113.81
320.816	106.81
321.046	110.81
321.275	117.81
321.504	114.81
321.733	108.81
321.962	99.81
322.191	121.81
322.42	126.81
322.649	115.81
322.878	129.81
323.108	135.81
323.337	151.81
323.566	152.81
323.795	201.81
324.024	252.81
324.253	530.81
324.482	1105.81
324.71	2284.81
324.939	3045.81
325.168	1073.81
325.397	302.81
325.626	180.81
325.855	166.81
326.084	153.81
326.313	152.81
326.542	190.81
326.77	282.81
326.999	579.81
327.228	1148.81
327.457	2168.81
327.686	1717.81
327.914	636.81
328.143	637.81
328.372	789.81
328.6	410.81
328.829	213.81
329.058	212.81
329.287	204.81
329.515	218.81
329.744	311.81
329.972	612.81
330.201	1266.81
330.43	1807.81
330.658	767.81
330.887	331.81
331.115	206.81
331.344	132.81
331.572	138.81
331.801	123.81
332.03	129.81
332.258	107.81
332.486	115.81
332.715	121.81
332.943	113.81
333.172	145.81
333.4	129.81
333.629	179.81
333.857	275.81
334.085	562.81
334.314	1171.81
334.542	2314.81
334.771	2064.81
334.999	498.81
335.227	198.81
335.455	160.81
335.684	128.81
335.912	122.81
336.14	116.81
336.369	117.81
336.597	116.81
336.825	114.81
337.053	109.81
337.281	93.81
337.51	97.81
337.738	97.81
337.966	113.81
338.194	107.81
338.422	111.81
338.65	97.81
338.878	114.81
339.106	86.81
339.334	101.81
339.562	98.81
339.79	112.81
340.018	92.81
340.246	105.81
340.474	111.81
340.702	101.81
340.93	106.81
341.158	99.81
341.386	107.81
341.614	104.81
341.842	95.81
342.07	98.81
342.298	121.81
342.526	99.81
342.754	91.81
342.981	91.81
343.209	104.81
343.437	95.81
343.665	106.81
343.893	94.81
344.12	90.81
344.348	90.81
344.576	103.81
344.804	96.81
345.031	116.81
345.259	115.81
345.487	108.81
345.714	95.81
345.942	108.81
346.17	112.81
346.397	96.81
346.625	89.81
346.853	94.81
347.08	84.81
347.308	103.81
347.535	106.81
347.763	126.81
347.99	106.81
348.218	121.81
348.445	121.81
348.673	100.81
348.9	100.81
349.128	99.81
349.355	93.81
349.583	99.81
349.81	105.81
350.037	103.81
350.265	97.81
350.492	102.81
350.72	95.81
350.947	96.81
351.174	124.81
351.402	129.81
351.629	111.81
351.856	115.81
352.083	119.81
352.311	113.81
352.538	120.81
352.765	129.81
352.992	142.81
353.22	129.81
353.447	112.81
353.674	118.81
353.901	107.81
354.128	103.81
354.355	88.81
354.583	91.81
354.81	98.81
355.037	99.81
355.264	98.81
355.491	93.81
355.718	105.81
355.945	106.81
356.172	104.81
356.399	90.81
356.626	95.81
356.853	97.81
357.08	67.81
357.307	94.81
357.534	94.81
357.761	82.81
357.988	92.81
358.215	94.81
358.441	105.81
358.668	85.81
358.895	83.81
359.122	108.81
359.349	107.81
359.576	96.81
359.802	121.81
360.029	150.81
360.256	143.81
360.483	120.81
360.709	101.81
360.936	86.81
361.163	100.81
361.39	102.81
361.616	110.81
361.843	103.81
362.07	109.81
362.296	89.81
362.523	109.81
362.749	91.81
362.976	93.81
363.203	104.81
363.429	91.81
363.656	91.81
363.882	96.81
364.109	71.81
364.335	99.81
364.562	86.81
364.788	89.81
365.015	103.81
365.241	116.81
365.468	114.81
365.694	127.81
365.92	106.81
366.147	107.81
366.373	94.81
366.599	103.81
366.826	96.81
367.052	113.81
367.278	103.81
367.505	102.81
367.731	105.81
367.957	103.81
368.184	98.81
368.41	111.81
368.636	129.81
368.862	161.81
369.089	136.81
369.315	99.81
369.541	109.81
369.767	88.81
369.993	103.81
370.219	91.81
370.445	100.81
370.672	89.81
370.898	87.81
371.124	105.81
371.35	104.81
371.576	89.81
371.802	84.81
372.028	87.81
372.254	72.81
372.48	82.81
372.706	90.81
372.932	82.81
373.158	84.81
373.384	100.81
373.61	103.81
373.835	95.81
374.061	97.81
374.287	113.81
374.513	102.81
374.739	86.81
374.965	92.81
375.191	93.81
375.416	97.81
375.642	96.81
375.868	90.81
376.094	96.81
376.319	93.81
376.545	98.81
376.771	93.81
376.997	80.81
377.222	88.81
377.448	82.81
377.674	100.81
377.899	110.81
378.125	90.81
378.35	93.81
378.576	88.81
378.802	83.81
379.027	92.81
379.253	92.81
379.478	77.81
379.704	90.81
379.929	87.81
380.155	93.81
380.38	95.81
380.606	82.81
380.831	91.81
381.057	86.81
381.282	96.81
381.507	95.81
381.733	96.81
381.958	91.81
382.184	81.81
382.409	102.81
382.634	109.81
382.86	104.81
383.085	127.81
383.31	108.81
383.535	99.81
383.761	98.81
383.986	98.81
384.211	92.81
384.436	102.81
384.662	100.81
384.887	98.81
385.112	101.81
385.337	104.81
385.562	99.81
385.787	110.81
386.013	117.81
386.238	112.81
386.463	107.81
386.688	110.81
386.913	90.81
387.138	111.81
387.363	100.81
387.588	96.81
387.813	78.81
388.038	100.81
388.263	94.81
388.488	106.81
388.713	91.81
388.938	88.81
389.163	114.81
389.387	113.81
389.612	87.81
389.837	90.81
390.062	88.81
390.287	89.81
390.512	74.81
390.736	97.81
390.961	86.81
391.186	90.81
391.411	87.81
391.636	97.81
391.86	87.81
392.085	82.81
392.31	81.81
392.534	91.81
392.759	89.81
392.984	79.81
393.208	88.81
393.433	92.81
393.658	94.81
393.882	86.81
394.107	90.81
394.331	88.81
394.556	79.81
394.78	93.81
395.005	86.81
395.229	76.81
395.454	87.81
395.678	87.81
395.903	95.81
396.127	91.81
396.352	71.81
396.576	87.81
396.801	84.81
397.025	98.81
397.249	87.81
397.474	97.81
397.698	94.81
397.922	86.81
398.147	94.81
398.371	84.81
398.595	87.81
398.82	85.81
399.044	99.81
399.268	80.81
399.492	86.81
399.717	96.81
399.941	95.81
400.165	96.81
400.389	103.81
400.613	94.81
400.837	102.81
401.062	94.81
401.286	99.81
401.51	111.81
401.734	96.81
401.958	127.81
402.182	146.81
402.406	210.81
402.63	159.81
402.854	116.81
403.078	96.81
403.302	76.81
403.526	101.81
403.75	106.81
403.974	92.81
404.198	91.81
404.422	81.81
404.645	92.81
404.869	117.81
405.093	112.81
405.317	163.81
405.541	140.81
405.765	119.81
405.988	128.81
406.212	238.81
406.436	350.81
406.66	225.81
406.883	121.81
407.107	114.81
407.331	107.81
407.555	106.81
407.778	111.81
408.002	91.81
408.226	94.81
408.449	85.81
408.673	75.81
408.896	108.81
409.12	95.81
409.344	94.81
409.567	83.81
409.791	95.81
410.014	79.81
410.238	95.81
410.461	92.81
410.685	92.81
410.908	100.81
411.132	107.81
411.355	98.81
411.578	99.81
411.802	88.81
412.025	94.81
412.249	97.81
412.472	118.81
412.695	147.81
412.919	127.81
413.142	106.81
413.365	99.81
413.589	82.81
413.812	72.81
414.035	68.81
414.258	86.81
414.482	90.81
414.705	78.81
414.928	83.81
415.151	96.81
415.374	92.81
415.597	89.81
415.821	98.81
416.044	80.81
416.267	98.81
416.49	86.81
416.713	97.81
416.936	98.81
417.159	95.81
417.382	97.81
417.605	106.81
417.828	119.81
418.051	106.81
418.274	91.81
418.497	79.81
418.72	80.81
418.943	88.81
419.166	86.81
419.389	87.81
419.611	93.81
419.834	93.81
420.057	97.81
420.28	97.81
420.503	80.81
420.726	81.81
420.948	97.81
421.171	111.81
421.394	96.81
421.617	85.81
421.839	81.81
422.062	83.81
422.285	91.81
422.507	86.81
422.73	107.81
422.953	98.81
423.175	91.81
423.398	86.81
423.621	90.81
423.843	90.81
424.066	89.81
424.288	95.81
424.511	103.81
424.733	110.81
424.956	124.81
425.178	105.81
425.401	100.81
425.623	140.81
425.846	102.81
426.068	112.81
426.291	98.81
426.513	91.81
426.735	99.81
426.958	106.81
427.18	140.81
427.402	189.81
427.625	284.81
427.847	259.81
428.069	235.81
428.292	131.81
428.514	95.81
428.736	91.81
428.958	89.81
429.181	76.81
429.403	105.81
429.625	92.81
429.847	114.81
430.069	112.81
430.292	88.81
430.514	90.81
430.736	79.81
430.958	79.81
431.18	97.81
431.402	74.81
431.624	72.81
431.846	90.81
432.068	73.81
432.29	76.81
432.512	89.81
432.734	85.81
432.956	80.81
433.178	101.81
433.4	102.81
433.622	90.81
433.844	96.81
434.066	106.81
434.287	100.81
434.509	87.81
434.731	84.81
434.953	81.81
435.175	89.81
435.397	84.81
435.618	99.81
435.84	123.81
436.062	155.81
436.284	132.81
436.505	108.81
436.727	103.81
436.949	79.81
437.17	81.81
437.392	103.81
437.614	93.81
437.835	129.81
438.057	169.81
438.278	148.81
438.5	120.81
438.721	159.81
438.943	105.81
439.165	79.81
439.386	91.81
439.608	102.81
439.829	121.81
440.05	150.81
440.272	199.81
440.493	124.81
440.715	99.81
440.936	105.81
441.158	84.81
441.379	95.81
441.6	85.81
441.822	89.81
442.043	113.81
442.264	132.81
442.486	99.81
442.707	108.81
442.928	127.81
443.149	194.81
443.371	175.81
443.592	150.81
443.813	146.81
444.034	133.81
444.255	98.81
444.476	82.81
444.698	66.81
444.919	92.81
445.14	133.81
445.361	144.81
445.582	142.81
445.803	199.81
446.024	196.81
446.245	172.81
446.466	130.81
446.687	102.81
446.908	97.81
447.129	96.81
447.35	95.81
447.571	95.81
447.792	113.81
448.013	119.81
448.234	126.81
448.455	124.81
448.675	140.81
448.896	153.81
449.117	113.81
449.338	129.81
449.559	144.81
449.779	160.81
450	98.81
450.221	89.81
450.442	96.81
450.662	107.81
450.883	130.81
451.104	145.81
451.324	113.81
451.545	95.81
451.766	90.81
451.986	92.81
452.207	115.81
452.428	85.81
452.648	113.81
452.869	127.81
453.089	152.81
453.31	160.81
453.53	106.81
453.751	98.81
453.971	134.81
454.192	142.81
454.412	96.81
454.633	99.81
454.853	83.81
455.073	84.81
455.294	94.81
455.514	112.81
455.734	112.81
455.955	89.81
456.175	75.81
456.395	66.81
456.616	88.81
456.836	90.81
457.056	84.81
457.276	91.81
457.497	85.81
457.717	83.81
457.937	92.81
458.157	86.81
458.377	104.81
458.598	160.81
458.818	231.81
459.038	268.81
459.258	146.81
459.478	106.81
459.698	99.81
459.918	88.81
460.138	100.81
460.358	88.81
460.578	82.81
460.798	110.81
461.018	98.81
461.238	88.81
461.458	82.81
461.678	84.81
461.898	90.81
462.118	94.81
462.338	106.81
462.558	86.81
462.777	99.81
462.997	109.81
463.217	114.81
463.437	105.81
463.657	94.81
463.876	94.81
464.096	84.81
464.316	86.81
464.536	115.81
464.755	118.81
464.975	136.81
465.195	252.81
465.414	268.81
465.634	110.81
465.854	97.81
466.073	96.81
466.293	97.81
466.512	115.81
466.732	97.81
466.951	82.81
467.171	120.81
467.391	106.81
467.61	169.81
467.829	247.81
468.049	694.81
468.268	1032.81
468.488	250.81
468.707	124.81
468.927	119.81
469.146	103.81
469.365	99.81
469.585	91.81
469.804	113.81
470.023	100.81
470.243	106.81
470.462	135.81
470.681	153.81
470.901	110.81
471.12	107.81
471.339	118.81
471.558	124.81
471.777	172.81
471.997	346.81
472.216	1408.81
472.435	3191.81
472.654	716.81
472.873	199.81
473.092	113.81
473.311	100.81
473.53	106.81
473.749	104.81
473.968	108.81
474.187	139.81
474.406	116.81
474.625	84.81
474.844	85.81
475.063	94.81
475.282	105.81
475.501	84.81
475.72	86.81
475.939	88.81
476.158	99.81
476.377	97.81
476.596	91.81
476.814	99.81
477.033	114.81
477.252	95.81
477.471	94.81
477.69	99.81
477.908	84.81
478.127	87.81
478.346	102.81
478.564	113.81
478.783	97.81
479.002	106.81
479.22	107.81
479.439	118.81
479.658	140.81
479.876	125.81
480.095	140.81
480.313	153.81
480.532	179.81
480.751	334.81
480.969	1298.81
481.188	5523.81
481.406	2993.81
481.624	409.81
481.843	150.81
482.061	106.81
482.28	104.81
482.498	105.81
482.717	88.81
482.935	102.81
483.153	93.81
483.372	90.81
483.59	100.81
483.808	99.81
484.027	83.81
484.245	99.81
484.463	90.81
484.681	107.81
484.9	86.81
485.118	102.81
485.336	85.81
485.554	95.81
485.772	86.81
485.99	98.81
486.209	86.81
486.427	121.81
486.645	117.81
486.863	123.81
487.081	115.81
487.299	98.81
487.517	94.81
487.735	97.81
487.953	100.81
488.171	113.81
488.389	95.81
488.607	118.81
488.825	98.81
489.043	86.81
489.261	98.81
489.479	82.81
489.696	91.81
489.914	91.81
490.132	94.81
490.35	94.81
490.568	93.81
490.786	89.81
491.003	109.81
491.221	97.81
491.439	82.81
491.657	102.81
491.874	96.81
492.092	102.81
492.31	89.81
492.527	94.81
492.745	105.81
492.963	93.81
493.18	91.81
493.398	104.81
493.615	98.81
493.833	88.81
494.05	80.81
494.268	92.81
494.485	91.81
494.703	72.81
494.92	82.81
495.138	85.81
495.355	96.81
495.573	87.81
495.79	115.81
496.008	96.81
496.225	88.81
496.442	95.81
496.66	92.81
496.877	101.81
497.094	89.81
497.312	84.81
497.529	88.81
497.746	89.81
497.963	96.81
498.181	88.81
498.398	94.81
498.615	112.81
498.832	118.81
499.049	84.81
499.267	90.81
499.484	90.81
499.701	101.81
499.918	79.81
500.135	95.81
500.352	75.81
500.569	96.81
500.786	107.81
501.003	99.81
501.22	92.81
501.437	80.81
501.654	114.81
501.871	130.81
502.088	110.81
502.305	99.81
502.522	95.81
502.739	77.81
502.956	93.81
503.172	105.81
503.389	120.81
503.606	138.81
503.823	106.81
504.04	90.81
504.256	107.81
504.473	90.81
504.69	81.81
504.907	90.81
505.123	80.81
505.34	84.81
505.557	95.81
505.773	83.81
505.99	98.81
506.207	95.81
506.423	88.81
506.64	92.81
506.856	103.81
507.073	100.81
507.289	100.81
507.506	113.81
507.722	132.81
507.939	127.81
508.155	105.81
508.372	94.81
508.588	113.81
508.805	92.81
509.021	82.81
509.238	100.81
509.454	103.81
509.67	109.81
509.887	104.81
510.103	134.81
510.319	255.81
510.536	1015.81
510.752	3568.81
510.968	931.81
511.184	202.81
511.401	134.81
511.617	103.81
511.833	108.81
512.049	114.81
