Data from Circ_1997_H10_HRD10591_00012.txt Node
Date: Wed Jan 03 11:29:30 EST 2024
User: Yrep
Spectrometer: HR+D1059
Trigger mode: 1
Integration Time (sec): 1.000000E-1
Scans to average: 1
Electric dark correction enabled: true
Nonlinearity correction enabled: false
Boxcar width: 0
XAxis mode: Wavelengths
Number of Pixels in Spectrum: 2048
>>>>>Begin Spectral Data<<<<<
223.165	-22.94
223.4	-22.94
223.635	-22.94
223.869	-16.94
224.104	-28.94
224.338	-10.94
224.573	-24.94
224.808	-6.94
225.042	-3.94
225.277	0.06
225.511	-4.94
225.746	-10.94
225.98	6.06
226.215	28.06
226.449	21.06
226.683	18.06
226.918	22.06
227.152	36.06
227.387	28.06
227.621	24.06
227.856	44.06
228.09	44.06
228.324	41.06
228.559	47.06
228.793	48.06
229.027	57.06
229.262	60.06
229.496	81.06
229.73	94.06
229.964	84.06
230.199	80.06
230.433	68.06
230.667	71.06
230.901	86.06
231.136	79.06
231.37	74.06
231.604	88.06
231.838	87.06
232.072	76.06
232.306	90.06
232.541	86.06
232.775	87.06
233.009	80.06
233.243	84.06
233.477	88.06
233.711	74.06
233.945	74.06
234.179	86.06
234.413	60.06
234.647	68.06
234.881	63.06
235.115	88.06
235.349	84.06
235.583	74.06
235.817	92.06
236.051	84.06
236.285	84.06
236.519	71.06
236.753	80.06
236.987	73.06
237.221	97.06
237.455	81.06
237.689	76.06
237.922	69.06
238.156	81.06
238.39	69.06
238.624	70.06
238.858	76.06
239.091	76.06
239.325	89.06
239.559	82.06
239.793	82.06
240.027	80.06
240.26	80.06
240.494	72.06
240.728	78.06
240.961	90.06
241.195	85.06
241.429	83.06
241.662	84.06
241.896	74.06
242.13	88.06
242.363	72.06
242.597	75.06
242.83	84.06
243.064	74.06
243.298	85.06
243.531	83.06
243.765	70.06
243.998	95.06
244.232	80.06
244.465	79.06
244.699	81.06
244.932	81.06
245.166	80.06
245.399	82.06
245.633	76.06
245.866	65.06
246.099	88.06
246.333	80.06
246.566	75.06
246.8	68.06
247.033	82.06
247.266	68.06
247.5	85.06
247.733	85.06
247.966	90.06
248.2	79.06
248.433	73.06
248.666	83.06
248.899	73.06
249.133	92.06
249.366	88.06
249.599	90.06
249.832	89.06
250.066	76.06
250.299	76.06
250.532	87.06
250.765	81.06
250.998	85.06
251.231	88.06
251.465	82.06
251.698	85.06
251.931	74.06
252.164	88.06
252.397	90.06
252.63	70.06
252.863	91.06
253.096	85.06
253.329	78.06
253.562	76.06
253.795	80.06
254.028	86.06
254.261	100.06
254.494	87.06
254.727	92.06
254.96	80.06
255.193	81.06
255.426	81.06
255.659	84.06
255.892	84.06
256.124	108.06
256.357	94.06
256.59	94.06
256.823	89.06
257.056	90.06
257.289	74.06
257.521	88.06
257.754	70.06
257.987	81.06
258.22	86.06
258.452	85.06
258.685	81.06
258.918	89.06
259.151	80.06
259.383	84.06
259.616	78.06
259.849	88.06
260.081	74.06
260.314	81.06
260.547	80.06
260.779	79.06
261.012	104.06
261.244	87.06
261.477	74.06
261.71	94.06
261.942	111.06
262.175	109.06
262.407	88.06
262.64	72.06
262.872	100.06
263.105	72.06
263.337	72.06
263.57	89.06
263.802	86.06
264.035	90.06
264.267	94.06
264.499	96.06
264.732	88.06
264.964	91.06
265.197	95.06
265.429	86.06
265.661	88.06
265.894	88.06
266.126	84.06
266.358	90.06
266.591	85.06
266.823	69.06
267.055	88.06
267.287	91.06
267.52	87.06
267.752	91.06
267.984	88.06
268.216	82.06
268.448	90.06
268.681	82.06
268.913	77.06
269.145	77.06
269.377	90.06
269.609	85.06
269.841	87.06
270.073	87.06
270.306	95.06
270.538	85.06
270.77	66.06
271.002	78.06
271.234	70.06
271.466	83.06
271.698	89.06
271.93	84.06
272.162	89.06
272.394	98.06
272.626	95.06
272.858	80.06
273.09	65.06
273.322	79.06
273.553	83.06
273.785	86.06
274.017	88.06
274.249	80.06
274.481	81.06
274.713	81.06
274.945	80.06
275.176	79.06
275.408	102.06
275.64	95.06
275.872	116.06
276.104	101.06
276.335	91.06
276.567	105.06
276.799	121.06
277.031	121.06
277.262	132.06
277.494	104.06
277.726	93.06
277.957	94.06
278.189	81.06
278.421	95.06
278.652	92.06
278.884	81.06
279.115	96.06
279.347	93.06
279.579	87.06
279.81	100.06
280.042	135.06
280.273	170.06
280.505	128.06
280.736	104.06
280.968	72.06
281.199	87.06
281.431	85.06
281.662	98.06
281.894	92.06
282.125	116.06
282.356	109.06
282.588	155.06
282.819	110.06
283.051	106.06
283.282	82.06
283.513	95.06
283.745	89.06
283.976	67.06
284.207	76.06
284.439	91.06
284.67	92.06
284.901	77.06
285.132	74.06
285.364	79.06
285.595	74.06
285.826	77.06
286.057	98.06
286.288	90.06
286.52	85.06
286.751	69.06
286.982	93.06
287.213	87.06
287.444	87.06
287.675	93.06
287.906	87.06
288.138	82.06
288.369	108.06
288.6	78.06
288.831	84.06
289.062	93.06
289.293	89.06
289.524	77.06
289.755	90.06
289.986	86.06
290.217	85.06
290.448	101.06
290.679	95.06
290.91	84.06
291.141	90.06
291.371	86.06
291.602	79.06
291.833	78.06
292.064	80.06
292.295	94.06
292.526	89.06
292.757	81.06
292.987	76.06
293.218	91.06
293.449	86.06
293.68	93.06
293.91	97.06
294.141	85.06
294.372	87.06
294.603	94.06
294.833	86.06
295.064	69.06
295.295	82.06
295.525	86.06
295.756	84.06
295.987	123.06
296.217	146.06
296.448	129.06
296.679	89.06
296.909	104.06
297.14	101.06
297.37	74.06
297.601	91.06
297.831	93.06
298.062	89.06
298.292	97.06
298.523	90.06
298.753	80.06
298.984	82.06
299.214	64.06
299.445	77.06
299.675	74.06
299.905	94.06
300.136	98.06
300.366	83.06
300.597	89.06
300.827	81.06
301.057	97.06
301.288	98.06
301.518	85.06
301.748	89.06
301.979	94.06
302.209	96.06
302.439	97.06
302.669	95.06
302.9	86.06
303.13	93.06
303.36	109.06
303.59	117.06
303.82	120.06
304.051	92.06
304.281	84.06
304.511	98.06
304.741	77.06
304.971	85.06
305.201	84.06
305.431	97.06
305.661	96.06
305.891	105.06
306.121	96.06
306.352	106.06
306.582	111.06
306.812	104.06
307.042	96.06
307.272	112.06
307.502	144.06
307.731	144.06
307.961	114.06
308.191	89.06
308.421	90.06
308.651	85.06
308.881	93.06
309.111	95.06
309.341	109.06
309.571	102.06
309.8	104.06
310.03	97.06
310.26	100.06
310.49	83.06
310.72	78.06
310.949	102.06
311.179	102.06
311.409	85.06
311.639	96.06
311.868	100.06
312.098	103.06
312.328	96.06
312.557	102.06
312.787	109.06
313.017	113.06
313.246	90.06
313.476	93.06
313.706	102.06
313.935	95.06
314.165	108.06
314.394	106.06
314.624	98.06
314.853	96.06
315.083	85.06
315.312	96.06
315.542	74.06
315.771	91.06
316.001	92.06
316.23	72.06
316.46	95.06
316.689	106.06
316.919	91.06
317.148	103.06
317.377	93.06
317.607	97.06
317.836	88.06
318.065	107.06
318.295	98.06
318.524	79.06
318.753	72.06
318.983	83.06
319.212	85.06
319.441	111.06
319.67	111.06
319.9	95.06
320.129	96.06
320.358	106.06
320.587	88.06
320.816	99.06
321.046	102.06
321.275	101.06
321.504	103.06
321.733	101.06
321.962	101.06
322.191	108.06
322.42	124.06
322.649	112.06
322.878	99.06
323.108	109.06
323.337	134.06
323.566	134.06
323.795	187.06
324.024	244.06
324.253	511.06
324.482	1106.06
324.71	2375.06
324.939	3071.06
325.168	1058.06
325.397	305.06
325.626	185.06
325.855	136.06
326.084	158.06
326.313	150.06
326.542	186.06
326.77	276.06
326.999	594.06
327.228	1206.06
327.457	2384.06
327.686	1868.06
327.914	529.06
328.143	365.06
328.372	415.06
328.6	248.06
328.829	151.06
329.058	158.06
329.287	157.06
329.515	147.06
329.744	184.06
329.972	320.06
330.201	609.06
330.43	827.06
330.658	398.06
330.887	207.06
331.115	152.06
331.344	104.06
331.572	117.06
331.801	104.06
332.03	116.06
332.258	99.06
332.486	111.06
332.715	92.06
332.943	108.06
333.172	118.06
333.4	116.06
333.629	128.06
333.857	172.06
334.085	300.06
334.314	593.06
334.542	1107.06
334.771	986.06
334.999	286.06
335.227	148.06
335.455	110.06
335.684	102.06
335.912	93.06
336.14	96.06
336.369	100.06
336.597	116.06
336.825	116.06
337.053	86.06
337.281	89.06
337.51	92.06
337.738	91.06
337.966	93.06
338.194	109.06
338.422	91.06
338.65	92.06
338.878	104.06
339.106	96.06
339.334	97.06
339.562	86.06
339.79	97.06
340.018	93.06
340.246	88.06
340.474	95.06
340.702	96.06
340.93	82.06
341.158	89.06
341.386	92.06
341.614	93.06
341.842	93.06
342.07	88.06
342.298	90.06
342.526	78.06
342.754	79.06
342.981	88.06
343.209	100.06
343.437	109.06
343.665	74.06
343.893	95.06
344.12	89.06
344.348	89.06
344.576	95.06
344.804	87.06
345.031	87.06
345.259	93.06
345.487	91.06
345.714	72.06
345.942	92.06
346.17	78.06
346.397	91.06
346.625	87.06
346.853	93.06
347.08	88.06
347.308	79.06
347.535	80.06
347.763	107.06
347.99	93.06
348.218	94.06
348.445	98.06
348.673	96.06
348.9	96.06
349.128	104.06
349.355	79.06
349.583	92.06
349.81	99.06
350.037	92.06
350.265	102.06
350.492	105.06
350.72	94.06
350.947	100.06
351.174	97.06
351.402	114.06
351.629	99.06
351.856	101.06
352.083	108.06
352.311	111.06
352.538	126.06
352.765	108.06
352.992	110.06
353.22	108.06
353.447	105.06
353.674	101.06
353.901	97.06
354.128	95.06
354.355	93.06
354.583	99.06
354.81	89.06
355.037	98.06
355.264	82.06
355.491	88.06
355.718	82.06
355.945	102.06
356.172	94.06
356.399	67.06
356.626	92.06
356.853	86.06
357.08	100.06
357.307	102.06
357.534	97.06
357.761	88.06
357.988	95.06
358.215	104.06
358.441	96.06
358.668	93.06
358.895	95.06
359.122	79.06
359.349	91.06
359.576	91.06
359.802	107.06
360.029	134.06
360.256	123.06
360.483	102.06
360.709	95.06
360.936	98.06
361.163	87.06
361.39	97.06
361.616	100.06
361.843	81.06
362.07	93.06
362.296	101.06
362.523	94.06
362.749	85.06
362.976	105.06
363.203	74.06
363.429	97.06
363.656	97.06
363.882	86.06
364.109	94.06
364.335	97.06
364.562	95.06
364.788	99.06
365.015	97.06
365.241	102.06
365.468	100.06
365.694	103.06
365.92	93.06
366.147	95.06
366.373	101.06
366.599	76.06
366.826	89.06
367.052	95.06
367.278	84.06
367.505	100.06
367.731	98.06
367.957	72.06
368.184	107.06
368.41	90.06
368.636	90.06
368.862	110.06
369.089	105.06
369.315	92.06
369.541	76.06
369.767	104.06
369.993	85.06
370.219	102.06
370.445	91.06
370.672	85.06
370.898	84.06
371.124	86.06
371.35	82.06
371.576	97.06
371.802	85.06
372.028	79.06
372.254	94.06
372.48	92.06
372.706	85.06
372.932	66.06
373.158	87.06
373.384	81.06
373.61	96.06
373.835	108.06
374.061	85.06
374.287	86.06
374.513	92.06
374.739	92.06
374.965	89.06
375.191	87.06
375.416	95.06
375.642	95.06
375.868	104.06
376.094	95.06
376.319	91.06
376.545	96.06
376.771	81.06
376.997	80.06
377.222	73.06
377.448	82.06
377.674	93.06
377.899	107.06
378.125	89.06
378.35	85.06
378.576	92.06
378.802	101.06
379.027	76.06
379.253	86.06
379.478	84.06
379.704	85.06
379.929	85.06
380.155	103.06
380.38	81.06
380.606	92.06
380.831	91.06
381.057	103.06
381.282	84.06
381.507	91.06
381.733	85.06
381.958	89.06
382.184	106.06
382.409	77.06
382.634	94.06
382.86	89.06
383.085	106.06
383.31	105.06
383.535	94.06
383.761	88.06
383.986	83.06
384.211	86.06
384.436	93.06
384.662	109.06
384.887	107.06
385.112	102.06
385.337	81.06
385.562	101.06
385.787	110.06
386.013	124.06
386.238	130.06
386.463	100.06
386.688	96.06
386.913	113.06
387.138	110.06
387.363	111.06
387.588	96.06
387.813	109.06
388.038	105.06
388.263	127.06
388.488	116.06
388.713	89.06
388.938	92.06
389.163	97.06
389.387	100.06
389.612	106.06
389.837	93.06
390.062	86.06
390.287	87.06
390.512	90.06
390.736	91.06
390.961	97.06
391.186	102.06
391.411	91.06
391.636	88.06
391.86	86.06
392.085	80.06
392.31	73.06
392.534	81.06
392.759	92.06
392.984	93.06
393.208	81.06
393.433	91.06
393.658	92.06
393.882	82.06
394.107	95.06
394.331	82.06
394.556	71.06
394.78	81.06
395.005	81.06
395.229	93.06
395.454	93.06
395.678	92.06
395.903	79.06
396.127	90.06
396.352	82.06
396.576	94.06
396.801	83.06
397.025	95.06
397.249	69.06
397.474	97.06
397.698	86.06
397.922	97.06
398.147	94.06
398.371	78.06
398.595	86.06
398.82	74.06
399.044	86.06
399.268	85.06
399.492	86.06
399.717	104.06
399.941	97.06
400.165	92.06
400.389	99.06
400.613	79.06
400.837	85.06
401.062	74.06
401.286	82.06
401.51	88.06
401.734	94.06
401.958	108.06
402.182	127.06
402.406	169.06
402.63	127.06
402.854	89.06
403.078	83.06
403.302	80.06
403.526	93.06
403.75	81.06
403.974	86.06
404.198	72.06
404.422	66.06
404.645	86.06
404.869	82.06
405.093	120.06
405.317	121.06
405.541	134.06
405.765	124.06
405.988	109.06
406.212	190.06
406.436	231.06
406.66	158.06
406.883	103.06
407.107	107.06
407.331	118.06
407.555	93.06
407.778	106.06
408.002	103.06
408.226	93.06
408.449	81.06
408.673	88.06
408.896	87.06
409.12	105.06
409.344	101.06
409.567	90.06
409.791	94.06
410.014	73.06
410.238	97.06
410.461	74.06
410.685	85.06
410.908	107.06
411.132	104.06
411.355	101.06
411.578	92.06
411.802	84.06
412.025	99.06
412.249	96.06
412.472	109.06
412.695	120.06
412.919	112.06
413.142	99.06
413.365	103.06
413.589	90.06
413.812	94.06
414.035	97.06
414.258	95.06
414.482	107.06
414.705	89.06
414.928	96.06
415.151	101.06
415.374	101.06
415.597	102.06
415.821	100.06
416.044	104.06
416.267	95.06
416.49	93.06
416.713	86.06
416.936	105.06
417.159	88.06
417.382	89.06
417.605	80.06
417.828	88.06
418.051	96.06
418.274	84.06
418.497	90.06
418.72	93.06
418.943	89.06
419.166	89.06
419.389	93.06
419.611	83.06
419.834	103.06
420.057	98.06
420.28	85.06
420.503	103.06
420.726	82.06
420.948	103.06
421.171	101.06
421.394	108.06
421.617	91.06
421.839	80.06
422.062	81.06
422.285	93.06
422.507	90.06
422.73	107.06
422.953	92.06
423.175	97.06
423.398	84.06
423.621	94.06
423.843	93.06
424.066	83.06
424.288	90.06
424.511	102.06
424.733	92.06
424.956	119.06
425.178	102.06
425.401	113.06
425.623	102.06
425.846	90.06
426.068	87.06
426.291	97.06
426.513	93.06
426.735	105.06
426.958	106.06
427.18	144.06
427.402	174.06
427.625	230.06
427.847	191.06
428.069	207.06
428.292	117.06
428.514	107.06
428.736	83.06
428.958	87.06
429.181	96.06
429.403	90.06
429.625	80.06
429.847	83.06
430.069	110.06
430.292	87.06
430.514	107.06
430.736	82.06
430.958	90.06
431.18	98.06
431.402	81.06
431.624	92.06
431.846	87.06
432.068	94.06
432.29	89.06
432.512	95.06
432.734	89.06
432.956	98.06
433.178	96.06
433.4	96.06
433.622	93.06
433.844	86.06
434.066	98.06
434.287	79.06
434.509	79.06
434.731	93.06
434.953	73.06
435.175	82.06
435.397	89.06
435.618	88.06
435.84	112.06
436.062	153.06
436.284	122.06
436.505	111.06
436.727	112.06
436.949	88.06
437.17	84.06
437.392	104.06
437.614	97.06
437.835	92.06
438.057	131.06
438.278	118.06
438.5	107.06
438.721	148.06
438.943	132.06
439.165	79.06
439.386	94.06
439.608	90.06
439.829	106.06
440.05	148.06
440.272	176.06
440.493	119.06
440.715	108.06
440.936	88.06
441.158	86.06
441.379	96.06
441.6	93.06
441.822	114.06
442.043	88.06
442.264	104.06
442.486	111.06
442.707	96.06
442.928	118.06
443.149	141.06
443.371	146.06
443.592	114.06
443.813	119.06
444.034	117.06
444.255	99.06
444.476	92.06
444.698	96.06
444.919	91.06
445.14	135.06
445.361	127.06
445.582	129.06
445.803	180.06
446.024	180.06
446.245	166.06
446.466	125.06
446.687	91.06
446.908	92.06
447.129	87.06
447.35	88.06
447.571	85.06
447.792	99.06
448.013	97.06
448.234	109.06
448.455	100.06
448.675	149.06
448.896	127.06
449.117	114.06
449.338	105.06
449.559	188.06
449.779	174.06
450	106.06
450.221	94.06
450.442	90.06
450.662	111.06
450.883	107.06
451.104	121.06
451.324	87.06
451.545	80.06
451.766	80.06
451.986	88.06
452.207	95.06
452.428	99.06
452.648	96.06
452.869	100.06
453.089	116.06
453.31	118.06
453.53	96.06
453.751	89.06
453.971	110.06
454.192	123.06
454.412	111.06
454.633	79.06
454.853	85.06
455.073	94.06
455.294	93.06
455.514	101.06
455.734	74.06
455.955	93.06
456.175	91.06
456.395	94.06
456.616	99.06
456.836	83.06
457.056	72.06
457.276	83.06
457.497	78.06
457.717	82.06
457.937	104.06
458.157	94.06
458.377	88.06
458.598	116.06
458.818	170.06
459.038	184.06
459.258	150.06
459.478	90.06
459.698	86.06
459.918	89.06
460.138	98.06
460.358	82.06
460.578	88.06
460.798	94.06
461.018	94.06
461.238	91.06
461.458	92.06
461.678	88.06
461.898	95.06
462.118	96.06
462.338	79.06
462.558	90.06
462.777	86.06
462.997	100.06
463.217	91.06
463.437	89.06
463.657	79.06
463.876	88.06
464.096	88.06
464.316	97.06
464.536	107.06
464.755	96.06
464.975	116.06
465.195	197.06
465.414	183.06
465.634	100.06
465.854	96.06
466.073	87.06
466.293	87.06
466.512	92.06
466.732	87.06
466.951	94.06
467.171	105.06
467.391	100.06
467.61	119.06
467.829	151.06
468.049	342.06
468.268	484.06
468.488	159.06
468.707	86.06
468.927	87.06
469.146	93.06
469.365	99.06
469.585	79.06
469.804	95.06
470.023	101.06
470.243	92.06
470.462	97.06
470.681	115.06
470.901	95.06
471.12	103.06
471.339	101.06
471.558	105.06
471.777	118.06
471.997	198.06
472.216	654.06
472.435	1387.06
472.654	354.06
472.873	143.06
473.092	113.06
473.311	100.06
473.53	86.06
473.749	85.06
473.968	96.06
474.187	111.06
474.406	109.06
474.625	93.06
474.844	96.06
475.063	80.06
475.282	87.06
475.501	86.06
475.72	88.06
475.939	71.06
476.158	85.06
476.377	86.06
476.596	81.06
476.814	98.06
477.033	99.06
477.252	89.06
477.471	77.06
477.69	95.06
477.908	101.06
478.127	99.06
478.346	80.06
478.564	96.06
478.783	110.06
479.002	104.06
479.22	110.06
479.439	93.06
479.658	125.06
479.876	95.06
480.095	111.06
480.313	111.06
480.532	126.06
480.751	206.06
480.969	626.06
481.188	2492.06
481.406	1417.06
481.624	249.06
481.843	119.06
482.061	104.06
482.28	95.06
482.498	84.06
482.717	105.06
482.935	87.06
483.153	87.06
483.372	93.06
483.59	87.06
483.808	63.06
484.027	90.06
484.245	97.06
484.463	84.06
484.681	91.06
484.9	94.06
485.118	95.06
485.336	96.06
485.554	104.06
485.772	98.06
485.99	102.06
486.209	109.06
486.427	109.06
486.645	110.06
486.863	123.06
487.081	98.06
487.299	100.06
487.517	93.06
487.735	87.06
487.953	97.06
488.171	102.06
488.389	103.06
488.607	107.06
488.825	94.06
489.043	91.06
489.261	75.06
489.479	80.06
489.696	82.06
489.914	101.06
490.132	72.06
490.35	84.06
490.568	79.06
490.786	95.06
491.003	91.06
491.221	96.06
491.439	102.06
491.657	93.06
491.874	85.06
492.092	90.06
492.31	104.06
492.527	85.06
492.745	89.06
492.963	88.06
493.18	103.06
493.398	92.06
493.615	96.06
493.833	103.06
494.05	93.06
494.268	89.06
494.485	90.06
494.703	89.06
494.92	98.06
495.138	87.06
495.355	78.06
495.573	106.06
495.79	87.06
496.008	91.06
496.225	98.06
496.442	93.06
496.66	90.06
496.877	76.06
497.094	87.06
497.312	90.06
497.529	90.06
497.746	98.06
497.963	93.06
498.181	111.06
498.398	94.06
498.615	116.06
498.832	104.06
499.049	98.06
499.267	91.06
499.484	92.06
499.701	95.06
499.918	99.06
500.135	92.06
500.352	98.06
500.569	86.06
500.786	93.06
501.003	93.06
501.22	88.06
501.437	99.06
501.654	101.06
501.871	117.06
502.088	94.06
502.305	81.06
502.522	95.06
502.739	100.06
502.956	78.06
503.172	91.06
503.389	88.06
503.606	105.06
503.823	108.06
504.04	77.06
504.256	92.06
504.473	96.06
504.69	92.06
504.907	101.06
505.123	89.06
505.34	98.06
505.557	93.06
505.773	81.06
505.99	79.06
506.207	80.06
506.423	89.06
506.64	79.06
506.856	94.06
507.073	87.06
507.289	86.06
507.506	98.06
507.722	129.06
507.939	117.06
508.155	98.06
508.372	87.06
508.588	88.06
508.805	93.06
509.021	110.06
509.238	88.06
509.454	95.06
509.67	87.06
509.887	119.06
510.103	135.06
510.319	206.06
510.536	750.06
510.752	2436.06
510.968	680.06
511.184	158.06
511.401	108.06
511.617	113.06
511.833	94.06
512.049	96.06
512.265	93.06
512.481	94.06
512.698	86.06
512.914	88.06
513.13	95.06
513.346	86.06
513.562	96.06
513.778	105.06
513.994	89.06
514.21	105.06
514.426	132.06
