Data from Circ_1997_H10_HRD10591_00073.txt Node
Date: Wed Jan 03 11:29:42 EST 2024
User: Yrep
Spectrometer: HR+D1059
Trigger mode: 1
Integration Time (sec): 1.000000E-1
Scans to average: 1
Electric dark correction enabled: true
Nonlinearity correction enabled: false
Boxcar width: 0
XAxis mode: Wavelengths
Number of Pixels in Spectrum: 2048
>>>>>Begin Spectral Data<<<<<
223.165	-6.75
223.4	-6.75
223.635	-6.75
223.869	-21.75
224.104	-22.75
224.338	-17.75
224.573	-21.75
224.808	-6.75
225.042	-0.75
225.277	-14.75
225.511	3.25
225.746	6.25
225.98	9.25
226.215	6.25
226.449	12.25
226.683	21.25
226.918	20.25
227.152	34.25
227.387	43.25
227.621	37.25
227.856	40.25
228.09	52.25
228.324	54.25
228.559	59.25
228.793	55.25
229.027	51.25
229.262	68.25
229.496	89.25
229.73	87.25
229.964	98.25
230.199	77.25
230.433	60.25
230.667	75.25
230.901	65.25
231.136	79.25
231.37	77.25
231.604	92.25
231.838	85.25
232.072	81.25
232.306	84.25
232.541	69.25
232.775	82.25
233.009	78.25
233.243	83.25
233.477	95.25
233.711	95.25
233.945	80.25
234.179	78.25
234.413	83.25
234.647	74.25
234.881	73.25
235.115	82.25
235.349	84.25
235.583	89.25
235.817	95.25
236.051	87.25
236.285	81.25
236.519	79.25
236.753	80.25
236.987	82.25
237.221	90.25
237.455	93.25
237.689	57.25
237.922	78.25
238.156	81.25
238.39	80.25
238.624	89.25
238.858	94.25
239.091	82.25
239.325	78.25
239.559	73.25
239.793	83.25
240.027	90.25
240.26	75.25
240.494	84.25
240.728	87.25
240.961	83.25
241.195	88.25
241.429	83.25
241.662	77.25
241.896	75.25
242.13	77.25
242.363	79.25
242.597	86.25
242.83	81.25
243.064	85.25
243.298	77.25
243.531	81.25
243.765	89.25
243.998	96.25
244.232	86.25
244.465	95.25
244.699	83.25
244.932	81.25
245.166	89.25
245.399	91.25
245.633	77.25
245.866	89.25
246.099	76.25
246.333	77.25
246.566	85.25
246.8	86.25
247.033	68.25
247.266	77.25
247.5	74.25
247.733	85.25
247.966	85.25
248.2	84.25
248.433	77.25
248.666	81.25
248.899	93.25
249.133	79.25
249.366	105.25
249.599	104.25
249.832	92.25
250.066	89.25
250.299	80.25
250.532	81.25
250.765	91.25
250.998	77.25
251.231	79.25
251.465	90.25
251.698	94.25
251.931	88.25
252.164	96.25
252.397	79.25
252.63	99.25
252.863	92.25
253.096	83.25
253.329	83.25
253.562	83.25
253.795	94.25
254.028	79.25
254.261	92.25
254.494	79.25
254.727	82.25
254.96	85.25
255.193	79.25
255.426	73.25
255.659	92.25
255.892	95.25
256.124	99.25
256.357	83.25
256.59	100.25
256.823	89.25
257.056	84.25
257.289	87.25
257.521	76.25
257.754	86.25
257.987	85.25
258.22	109.25
258.452	106.25
258.685	90.25
258.918	87.25
259.151	87.25
259.383	96.25
259.616	73.25
259.849	80.25
260.081	85.25
260.314	75.25
260.547	99.25
260.779	93.25
261.012	107.25
261.244	103.25
261.477	89.25
261.71	104.25
261.942	124.25
262.175	143.25
262.407	99.25
262.64	78.25
262.872	87.25
263.105	82.25
263.337	92.25
263.57	106.25
263.802	84.25
264.035	89.25
264.267	84.25
264.499	89.25
264.732	86.25
264.964	86.25
265.197	69.25
265.429	88.25
265.661	84.25
265.894	90.25
266.126	85.25
266.358	96.25
266.591	94.25
266.823	72.25
267.055	94.25
267.287	75.25
267.52	81.25
267.752	92.25
267.984	97.25
268.216	75.25
268.448	91.25
268.681	80.25
268.913	83.25
269.145	97.25
269.377	88.25
269.609	60.25
269.841	95.25
270.073	109.25
270.306	98.25
270.538	86.25
270.77	83.25
271.002	85.25
271.234	100.25
271.466	91.25
271.698	96.25
271.93	96.25
272.162	82.25
272.394	92.25
272.626	79.25
272.858	94.25
273.09	88.25
273.322	91.25
273.553	87.25
273.785	84.25
274.017	76.25
274.249	96.25
274.481	97.25
274.713	80.25
274.945	83.25
275.176	83.25
275.408	85.25
275.64	110.25
275.872	127.25
276.104	117.25
276.335	101.25
276.567	118.25
276.799	138.25
277.031	177.25
277.262	177.25
277.494	147.25
277.726	104.25
277.957	89.25
278.189	108.25
278.421	99.25
278.652	98.25
278.884	90.25
279.115	91.25
279.347	86.25
279.579	105.25
279.81	150.25
280.042	188.25
280.273	272.25
280.505	184.25
280.736	109.25
280.968	103.25
281.199	93.25
281.431	84.25
281.662	97.25
281.894	100.25
282.125	104.25
282.356	143.25
282.588	167.25
282.819	124.25
283.051	87.25
283.282	78.25
283.513	75.25
283.745	91.25
283.976	102.25
284.207	92.25
284.439	88.25
284.67	96.25
284.901	91.25
285.132	102.25
285.364	87.25
285.595	84.25
285.826	82.25
286.057	93.25
286.288	92.25
286.52	87.25
286.751	94.25
286.982	92.25
287.213	94.25
287.444	83.25
287.675	97.25
287.906	88.25
288.138	87.25
288.369	98.25
288.6	95.25
288.831	90.25
289.062	86.25
289.293	88.25
289.524	85.25
289.755	95.25
289.986	83.25
290.217	92.25
290.448	87.25
290.679	104.25
290.91	80.25
291.141	86.25
291.371	92.25
291.602	87.25
291.833	100.25
292.064	87.25
292.295	90.25
292.526	95.25
292.757	87.25
292.987	103.25
293.218	87.25
293.449	85.25
293.68	95.25
293.91	97.25
294.141	98.25
294.372	82.25
294.603	79.25
294.833	80.25
295.064	97.25
295.295	87.25
295.525	77.25
295.756	102.25
295.987	113.25
296.217	157.25
296.448	133.25
296.679	99.25
296.909	99.25
297.14	89.25
297.37	97.25
297.601	83.25
297.831	91.25
298.062	91.25
298.292	97.25
298.523	83.25
298.753	89.25
298.984	83.25
299.214	97.25
299.445	92.25
299.675	97.25
299.905	105.25
300.136	73.25
300.366	92.25
300.597	98.25
300.827	116.25
301.057	93.25
301.288	115.25
301.518	88.25
301.748	106.25
301.979	100.25
302.209	103.25
302.439	95.25
302.669	79.25
302.9	106.25
303.13	101.25
303.36	111.25
303.59	137.25
303.82	143.25
304.051	106.25
304.281	98.25
304.511	100.25
304.741	101.25
304.971	83.25
305.201	110.25
305.431	82.25
305.661	107.25
305.891	89.25
306.121	97.25
306.352	107.25
306.582	103.25
306.812	94.25
307.042	140.25
307.272	167.25
307.502	188.25
307.731	172.25
307.961	130.25
308.191	94.25
308.421	96.25
308.651	109.25
308.881	103.25
309.111	101.25
309.341	103.25
309.571	95.25
309.8	109.25
310.03	107.25
310.26	105.25
310.49	89.25
310.72	107.25
310.949	105.25
311.179	111.25
311.409	94.25
311.639	94.25
311.868	103.25
312.098	99.25
312.328	114.25
312.557	105.25
312.787	124.25
313.017	110.25
313.246	92.25
313.476	90.25
313.706	95.25
313.935	102.25
314.165	114.25
314.394	110.25
314.624	100.25
314.853	105.25
315.083	99.25
315.312	99.25
315.542	93.25
315.771	92.25
316.001	107.25
316.23	81.25
316.46	87.25
316.689	97.25
316.919	91.25
317.148	109.25
317.377	107.25
317.607	101.25
317.836	92.25
318.065	98.25
318.295	93.25
318.524	90.25
318.753	106.25
318.983	101.25
319.212	104.25
319.441	105.25
319.67	106.25
319.9	103.25
320.129	101.25
320.358	96.25
320.587	91.25
320.816	113.25
321.046	103.25
321.275	104.25
321.504	99.25
321.733	110.25
321.962	118.25
322.191	104.25
322.42	121.25
322.649	132.25
322.878	117.25
323.108	133.25
323.337	143.25
323.566	159.25
323.795	185.25
324.024	266.25
324.253	564.25
324.482	1237.25
324.71	2680.25
324.939	3571.25
325.168	1209.25
325.397	317.25
325.626	181.25
325.855	160.25
326.084	138.25
326.313	160.25
326.542	184.25
326.77	310.25
326.999	661.25
327.228	1477.25
327.457	2761.25
327.686	2155.25
327.914	636.25
328.143	575.25
328.372	709.25
328.6	384.25
328.829	191.25
329.058	170.25
329.287	185.25
329.515	195.25
329.744	277.25
329.972	519.25
330.201	1116.25
330.43	1551.25
330.658	677.25
330.887	296.25
331.115	188.25
331.344	138.25
331.572	124.25
331.801	125.25
332.03	120.25
332.258	121.25
332.486	115.25
332.715	108.25
332.943	117.25
333.172	119.25
333.4	132.25
333.629	174.25
333.857	252.25
334.085	508.25
334.314	1063.25
334.542	2053.25
334.771	1843.25
334.999	472.25
335.227	180.25
335.455	126.25
335.684	109.25
335.912	110.25
336.14	110.25
336.369	118.25
336.597	108.25
336.825	109.25
337.053	111.25
337.281	101.25
337.51	93.25
337.738	98.25
337.966	108.25
338.194	102.25
338.422	103.25
338.65	105.25
338.878	98.25
339.106	80.25
339.334	90.25
339.562	93.25
339.79	93.25
340.018	95.25
340.246	92.25
340.474	89.25
340.702	87.25
340.93	87.25
341.158	100.25
341.386	112.25
341.614	107.25
341.842	107.25
342.07	101.25
342.298	100.25
342.526	107.25
342.754	81.25
342.981	86.25
343.209	100.25
343.437	103.25
343.665	91.25
343.893	97.25
344.12	120.25
344.348	107.25
344.576	105.25
344.804	95.25
345.031	117.25
345.259	109.25
345.487	99.25
345.714	108.25
345.942	103.25
346.17	95.25
346.397	91.25
346.625	89.25
346.853	109.25
347.08	84.25
347.308	96.25
347.535	100.25
347.763	114.25
347.99	97.25
348.218	97.25
348.445	127.25
348.673	103.25
348.9	109.25
349.128	100.25
349.355	94.25
349.583	91.25
349.81	102.25
350.037	89.25
350.265	117.25
350.492	109.25
350.72	95.25
350.947	110.25
351.174	110.25
351.402	115.25
351.629	105.25
351.856	114.25
352.083	116.25
352.311	109.25
352.538	123.25
352.765	125.25
352.992	114.25
353.22	115.25
353.447	100.25
353.674	98.25
353.901	98.25
354.128	92.25
354.355	107.25
354.583	102.25
354.81	125.25
355.037	108.25
355.264	102.25
355.491	101.25
355.718	96.25
355.945	90.25
356.172	97.25
356.399	99.25
356.626	111.25
356.853	97.25
357.08	96.25
357.307	95.25
357.534	99.25
357.761	89.25
357.988	85.25
358.215	82.25
358.441	92.25
358.668	90.25
358.895	97.25
359.122	88.25
359.349	95.25
359.576	90.25
359.802	109.25
360.029	127.25
360.256	124.25
360.483	111.25
360.709	91.25
360.936	94.25
361.163	98.25
361.39	89.25
361.616	97.25
361.843	105.25
362.07	109.25
362.296	91.25
362.523	99.25
362.749	105.25
362.976	96.25
363.203	89.25
363.429	105.25
363.656	99.25
363.882	88.25
364.109	89.25
364.335	108.25
364.562	90.25
364.788	104.25
365.015	88.25
365.241	107.25
365.468	107.25
365.694	110.25
365.92	92.25
366.147	110.25
366.373	99.25
366.599	95.25
366.826	92.25
367.052	95.25
367.278	94.25
367.505	94.25
367.731	98.25
367.957	94.25
368.184	96.25
368.41	92.25
368.636	110.25
368.862	127.25
369.089	117.25
369.315	72.25
369.541	101.25
369.767	104.25
369.993	86.25
370.219	90.25
370.445	95.25
370.672	79.25
370.898	85.25
371.124	102.25
371.35	97.25
371.576	85.25
371.802	91.25
372.028	88.25
372.254	100.25
372.48	92.25
372.706	95.25
372.932	91.25
373.158	93.25
373.384	94.25
373.61	94.25
373.835	97.25
374.061	84.25
374.287	95.25
374.513	91.25
374.739	83.25
374.965	98.25
375.191	85.25
375.416	87.25
375.642	82.25
375.868	75.25
376.094	91.25
376.319	86.25
376.545	96.25
376.771	88.25
376.997	99.25
377.222	109.25
377.448	98.25
377.674	91.25
377.899	81.25
378.125	100.25
378.35	99.25
378.576	101.25
378.802	84.25
379.027	91.25
379.253	83.25
379.478	90.25
379.704	95.25
379.929	103.25
380.155	102.25
380.38	88.25
380.606	101.25
380.831	101.25
381.057	107.25
381.282	98.25
381.507	83.25
381.733	85.25
381.958	83.25
382.184	96.25
382.409	82.25
382.634	107.25
382.86	80.25
383.085	95.25
383.31	92.25
383.535	106.25
383.761	92.25
383.986	92.25
384.211	94.25
384.436	89.25
384.662	98.25
384.887	78.25
385.112	114.25
385.337	95.25
385.562	92.25
385.787	105.25
386.013	109.25
386.238	116.25
386.463	97.25
386.688	106.25
386.913	94.25
387.138	95.25
387.363	102.25
387.588	78.25
387.813	85.25
388.038	78.25
388.263	98.25
388.488	105.25
388.713	97.25
388.938	82.25
389.163	82.25
389.387	94.25
389.612	100.25
389.837	79.25
390.062	77.25
390.287	88.25
390.512	81.25
390.736	85.25
390.961	97.25
391.186	91.25
391.411	100.25
391.636	91.25
391.86	82.25
392.085	99.25
392.31	104.25
392.534	97.25
392.759	88.25
392.984	87.25
393.208	91.25
393.433	91.25
393.658	89.25
393.882	92.25
394.107	95.25
394.331	92.25
394.556	84.25
394.78	92.25
395.005	91.25
395.229	83.25
395.454	78.25
395.678	97.25
395.903	93.25
396.127	99.25
396.352	96.25
396.576	89.25
396.801	85.25
397.025	91.25
397.249	104.25
397.474	83.25
397.698	83.25
397.922	91.25
398.147	84.25
398.371	89.25
398.595	92.25
398.82	78.25
399.044	77.25
399.268	97.25
399.492	81.25
399.717	88.25
399.941	98.25
400.165	107.25
400.389	96.25
400.613	97.25
400.837	94.25
401.062	82.25
401.286	91.25
401.51	90.25
401.734	100.25
401.958	99.25
402.182	138.25
402.406	176.25
402.63	136.25
402.854	100.25
403.078	88.25
403.302	90.25
403.526	79.25
403.75	78.25
403.974	89.25
404.198	91.25
404.422	108.25
404.645	88.25
404.869	98.25
405.093	132.25
405.317	152.25
405.541	153.25
405.765	115.25
405.988	135.25
406.212	213.25
406.436	277.25
406.66	186.25
406.883	107.25
407.107	110.25
407.331	116.25
407.555	115.25
407.778	116.25
408.002	106.25
408.226	97.25
408.449	88.25
408.673	96.25
408.896	102.25
409.12	98.25
409.344	87.25
409.567	107.25
409.791	93.25
410.014	89.25
410.238	100.25
410.461	71.25
410.685	100.25
410.908	103.25
411.132	107.25
411.355	122.25
411.578	90.25
411.802	88.25
412.025	98.25
412.249	96.25
412.472	113.25
412.695	148.25
412.919	107.25
413.142	95.25
413.365	96.25
413.589	102.25
413.812	98.25
414.035	97.25
414.258	99.25
414.482	95.25
414.705	88.25
414.928	96.25
415.151	101.25
415.374	98.25
415.597	94.25
415.821	87.25
416.044	85.25
416.267	85.25
416.49	79.25
416.713	85.25
416.936	95.25
417.159	93.25
417.382	98.25
417.605	108.25
417.828	114.25
418.051	119.25
418.274	83.25
418.497	91.25
418.72	86.25
418.943	95.25
419.166	72.25
419.389	84.25
419.611	107.25
419.834	91.25
420.057	88.25
420.28	95.25
420.503	75.25
420.726	98.25
420.948	106.25
421.171	110.25
421.394	95.25
421.617	82.25
421.839	82.25
422.062	90.25
422.285	98.25
422.507	108.25
422.73	113.25
422.953	101.25
423.175	99.25
423.398	100.25
423.621	91.25
423.843	91.25
424.066	98.25
424.288	81.25
424.511	97.25
424.733	102.25
424.956	125.25
425.178	112.25
425.401	115.25
425.623	103.25
425.846	95.25
426.068	105.25
426.291	101.25
426.513	89.25
426.735	96.25
426.958	114.25
427.18	131.25
427.402	194.25
427.625	275.25
427.847	270.25
428.069	254.25
428.292	147.25
428.514	106.25
428.736	95.25
428.958	85.25
429.181	89.25
429.403	88.25
429.625	104.25
429.847	93.25
430.069	114.25
430.292	101.25
430.514	89.25
430.736	98.25
430.958	86.25
431.18	82.25
431.402	93.25
431.624	81.25
431.846	99.25
432.068	79.25
432.29	83.25
432.512	98.25
432.734	89.25
432.956	105.25
433.178	99.25
433.4	116.25
433.622	99.25
433.844	80.25
434.066	91.25
434.287	110.25
434.509	89.25
434.731	77.25
434.953	87.25
435.175	106.25
435.397	103.25
435.618	86.25
435.84	114.25
436.062	160.25
436.284	139.25
436.505	123.25
436.727	126.25
436.949	93.25
437.17	93.25
437.392	93.25
437.614	97.25
437.835	125.25
438.057	138.25
438.278	115.25
438.5	127.25
438.721	164.25
438.943	115.25
439.165	106.25
439.386	87.25
439.608	96.25
439.829	112.25
440.05	178.25
440.272	192.25
440.493	127.25
440.715	101.25
440.936	106.25
441.158	87.25
441.379	94.25
441.6	96.25
441.822	100.25
442.043	102.25
442.264	123.25
442.486	121.25
442.707	109.25
442.928	127.25
443.149	169.25
443.371	190.25
443.592	132.25
443.813	135.25
444.034	132.25
444.255	98.25
444.476	77.25
444.698	97.25
444.919	96.25
445.14	140.25
445.361	140.25
445.582	143.25
445.803	194.25
446.024	208.25
446.245	187.25
446.466	135.25
446.687	108.25
446.908	93.25
447.129	106.25
447.35	91.25
447.571	92.25
447.792	101.25
448.013	116.25
448.234	121.25
448.455	103.25
448.675	137.25
448.896	157.25
449.117	105.25
449.338	118.25
449.559	163.25
449.779	185.25
450	107.25
450.221	93.25
450.442	94.25
450.662	103.25
450.883	125.25
451.104	129.25
451.324	109.25
451.545	101.25
451.766	81.25
451.986	80.25
452.207	97.25
452.428	105.25
452.648	105.25
452.869	126.25
453.089	128.25
453.31	140.25
453.53	105.25
453.751	107.25
453.971	131.25
454.192	125.25
454.412	105.25
454.633	88.25
454.853	101.25
455.073	86.25
455.294	96.25
455.514	103.25
455.734	112.25
455.955	99.25
456.175	97.25
456.395	85.25
456.616	96.25
456.836	86.25
457.056	94.25
457.276	84.25
457.497	96.25
457.717	89.25
457.937	89.25
458.157	109.25
458.377	95.25
458.598	111.25
458.818	185.25
459.038	204.25
459.258	138.25
459.478	100.25
459.698	83.25
459.918	94.25
460.138	93.25
460.358	77.25
460.578	87.25
460.798	96.25
461.018	85.25
461.238	93.25
461.458	81.25
461.678	92.25
461.898	89.25
462.118	96.25
462.338	91.25
462.558	98.25
462.777	84.25
462.997	92.25
463.217	107.25
463.437	90.25
463.657	93.25
463.876	107.25
464.096	84.25
464.316	105.25
464.536	95.25
464.755	100.25
464.975	116.25
465.195	217.25
465.414	207.25
465.634	109.25
465.854	95.25
466.073	104.25
466.293	87.25
466.512	103.25
466.732	86.25
466.951	95.25
467.171	102.25
467.391	110.25
467.61	150.25
467.829	222.25
468.049	603.25
468.268	882.25
468.488	219.25
468.707	109.25
468.927	99.25
469.146	102.25
469.365	114.25
469.585	90.25
469.804	101.25
470.023	98.25
470.243	109.25
470.462	104.25
470.681	137.25
470.901	100.25
471.12	108.25
471.339	100.25
471.558	118.25
471.777	157.25
471.997	311.25
472.216	1216.25
472.435	2701.25
472.654	624.25
472.873	175.25
473.092	113.25
473.311	89.25
473.53	103.25
473.749	100.25
473.968	95.25
474.187	125.25
474.406	110.25
474.625	81.25
474.844	93.25
475.063	94.25
475.282	80.25
475.501	85.25
475.72	91.25
475.939	85.25
476.158	90.25
476.377	72.25
476.596	92.25
476.814	93.25
477.033	98.25
477.252	91.25
477.471	105.25
477.69	103.25
477.908	91.25
478.127	85.25
478.346	93.25
478.564	96.25
478.783	117.25
479.002	107.25
479.22	122.25
479.439	119.25
479.658	122.25
479.876	113.25
480.095	114.25
480.313	144.25
480.532	184.25
480.751	308.25
480.969	1139.25
481.188	4781.25
481.406	2670.25
481.624	380.25
481.843	135.25
482.061	105.25
482.28	94.25
482.498	92.25
482.717	95.25
482.935	87.25
483.153	102.25
483.372	92.25
483.59	93.25
483.808	88.25
484.027	97.25
484.245	93.25
484.463	109.25
484.681	112.25
484.9	105.25
485.118	100.25
485.336	104.25
485.554	109.25
485.772	99.25
485.99	100.25
486.209	105.25
486.427	95.25
486.645	116.25
486.863	114.25
487.081	101.25
487.299	106.25
487.517	98.25
487.735	106.25
487.953	106.25
488.171	91.25
488.389	91.25
488.607	115.25
488.825	99.25
489.043	94.25
489.261	77.25
489.479	101.25
489.696	99.25
489.914	84.25
490.132	81.25
490.35	105.25
490.568	89.25
490.786	95.25
491.003	97.25
491.221	95.25
491.439	102.25
491.657	83.25
491.874	103.25
492.092	99.25
492.31	90.25
492.527	96.25
492.745	102.25
492.963	107.25
493.18	88.25
493.398	97.25
493.615	99.25
493.833	90.25
494.05	87.25
494.268	85.25
494.485	76.25
494.703	111.25
494.92	103.25
495.138	99.25
495.355	92.25
495.573	82.25
495.79	80.25
496.008	109.25
496.225	88.25
496.442	75.25
496.66	92.25
496.877	82.25
497.094	88.25
497.312	100.25
497.529	110.25
497.746	101.25
497.963	94.25
498.181	83.25
498.398	95.25
498.615	106.25
498.832	114.25
499.049	93.25
499.267	97.25
499.484	91.25
499.701	109.25
499.918	91.25
500.135	97.25
500.352	89.25
500.569	96.25
500.786	106.25
501.003	92.25
501.22	100.25
501.437	92.25
501.654	107.25
501.871	115.25
502.088	113.25
502.305	88.25
502.522	89.25
502.739	86.25
502.956	81.25
503.172	89.25
503.389	90.25
503.606	123.25
503.823	104.25
504.04	99.25
504.256	95.25
504.473	87.25
504.69	87.25
504.907	89.25
505.123	92.25
505.34	96.25
505.557	97.25
505.773	94.25
505.99	85.25
506.207	92.25
506.423	85.25
506.64	86.25
506.856	80.25
507.073	96.25
507.289	88.25
507.506	113.25
507.722	132.25
507.939	119.25
508.155	93.25
508.372	97.25
508.588	96.25
508.805	87.25
509.021	88.25
509.238	102.25
509.454	105.25
509.67	100.25
509.887	105.25
510.103	136.25
510.319	216.25
510.536	776.25
510.752	2620.25
510.968	698.25
511.184	171.25
511.401	132.25
511.617	110.25
511.833	122.25
512.049	99.25
512.265	103.25
512.481	90.25
512.698	94.25
