Data from Circ_1997_H10_HRD10591_00008.txt Node
Date: Wed Jan 03 11:29:29 EST 2024
User: Yrep
Spectrometer: HR+D1059
Trigger mode: 1
Integration Time (sec): 1.000000E-1
Scans to average: 1
Electric dark correction enabled: true
Nonlinearity correction enabled: false
Boxcar width: 0
XAxis mode: Wavelengths
Number of Pixels in Spectrum: 2048
>>>>>Begin Spectral Data<<<<<
223.165	-30.69
223.4	-30.69
223.635	-30.69
223.869	-25.69
224.104	-14.69
224.338	-14.69
224.573	-12.69
224.808	-0.69
225.042	-0.69
225.277	2.31
225.511	-1.69
225.746	3.31
225.98	4.31
226.215	9.31
226.449	10.31
226.683	20.31
226.918	27.31
227.152	24.31
227.387	42.31
227.621	31.31
227.856	48.31
228.09	54.31
228.324	43.31
228.559	42.31
228.793	78.31
229.027	61.31
229.262	68.31
229.496	93.31
229.73	98.31
229.964	89.31
230.199	85.31
230.433	77.31
230.667	94.31
230.901	74.31
231.136	89.31
231.37	72.31
231.604	80.31
231.838	84.31
232.072	80.31
232.306	97.31
232.541	96.31
232.775	85.31
233.009	80.31
233.243	94.31
233.477	82.31
233.711	84.31
233.945	95.31
234.179	88.31
234.413	84.31
234.647	82.31
234.881	78.31
235.115	75.31
235.349	80.31
235.583	74.31
235.817	90.31
236.051	80.31
236.285	80.31
236.519	67.31
236.753	76.31
236.987	88.31
237.221	103.31
237.455	89.31
237.689	83.31
237.922	99.31
238.156	80.31
238.39	76.31
238.624	85.31
238.858	83.31
239.091	90.31
239.325	93.31
239.559	92.31
239.793	78.31
240.027	83.31
240.26	84.31
240.494	73.31
240.728	78.31
240.961	67.31
241.195	65.31
241.429	75.31
241.662	85.31
241.896	85.31
242.13	91.31
242.363	85.31
242.597	89.31
242.83	78.31
243.064	82.31
243.298	92.31
243.531	87.31
243.765	91.31
243.998	84.31
244.232	76.31
244.465	96.31
244.699	89.31
244.932	77.31
245.166	69.31
245.399	75.31
245.633	82.31
245.866	83.31
246.099	89.31
246.333	83.31
246.566	76.31
246.8	72.31
247.033	76.31
247.266	94.31
247.5	88.31
247.733	73.31
247.966	102.31
248.2	95.31
248.433	84.31
248.666	82.31
248.899	79.31
249.133	106.31
249.366	112.31
249.599	104.31
249.832	92.31
250.066	93.31
250.299	81.31
250.532	98.31
250.765	97.31
250.998	93.31
251.231	85.31
251.465	98.31
251.698	92.31
251.931	86.31
252.164	90.31
252.397	76.31
252.63	72.31
252.863	83.31
253.096	80.31
253.329	84.31
253.562	74.31
253.795	85.31
254.028	79.31
254.261	71.31
254.494	89.31
254.727	82.31
254.96	85.31
255.193	75.31
255.426	69.31
255.659	85.31
255.892	85.31
256.124	106.31
256.357	85.31
256.59	98.31
256.823	82.31
257.056	97.31
257.289	84.31
257.521	79.31
257.754	81.31
257.987	101.31
258.22	87.31
258.452	98.31
258.685	93.31
258.918	82.31
259.151	94.31
259.383	95.31
259.616	89.31
259.849	90.31
260.081	89.31
260.314	84.31
260.547	88.31
260.779	98.31
261.012	92.31
261.244	92.31
261.477	118.31
261.71	100.31
261.942	127.31
262.175	131.31
262.407	109.31
262.64	94.31
262.872	92.31
263.105	78.31
263.337	95.31
263.57	73.31
263.802	82.31
264.035	80.31
264.267	83.31
264.499	85.31
264.732	94.31
264.964	90.31
265.197	87.31
265.429	87.31
265.661	91.31
265.894	84.31
266.126	80.31
266.358	87.31
266.591	84.31
266.823	66.31
267.055	81.31
267.287	84.31
267.52	70.31
267.752	91.31
267.984	82.31
268.216	86.31
268.448	79.31
268.681	98.31
268.913	74.31
269.145	98.31
269.377	91.31
269.609	94.31
269.841	96.31
270.073	91.31
270.306	89.31
270.538	91.31
270.77	88.31
271.002	86.31
271.234	100.31
271.466	91.31
271.698	90.31
271.93	102.31
272.162	108.31
272.394	92.31
272.626	95.31
272.858	89.31
273.09	91.31
273.322	77.31
273.553	113.31
273.785	99.31
274.017	87.31
274.249	86.31
274.481	86.31
274.713	91.31
274.945	81.31
275.176	91.31
275.408	84.31
275.64	108.31
275.872	116.31
276.104	104.31
276.335	97.31
276.567	116.31
276.799	139.31
277.031	164.31
277.262	161.31
277.494	124.31
277.726	90.31
277.957	94.31
278.189	94.31
278.421	104.31
278.652	98.31
278.884	107.31
279.115	96.31
279.347	92.31
279.579	95.31
279.81	110.31
280.042	166.31
280.273	213.31
280.505	166.31
280.736	106.31
280.968	108.31
281.199	92.31
281.431	89.31
281.662	91.31
281.894	92.31
282.125	108.31
282.356	137.31
282.588	173.31
282.819	132.31
283.051	97.31
283.282	86.31
283.513	94.31
283.745	92.31
283.976	95.31
284.207	94.31
284.439	97.31
284.67	82.31
284.901	100.31
285.132	82.31
285.364	92.31
285.595	89.31
285.826	76.31
286.057	97.31
286.288	94.31
286.52	101.31
286.751	83.31
286.982	79.31
287.213	87.31
287.444	82.31
287.675	84.31
287.906	87.31
288.138	94.31
288.369	108.31
288.6	95.31
288.831	94.31
289.062	89.31
289.293	79.31
289.524	81.31
289.755	100.31
289.986	92.31
290.217	90.31
290.448	93.31
290.679	82.31
290.91	96.31
291.141	78.31
291.371	89.31
291.602	80.31
291.833	102.31
292.064	88.31
292.295	101.31
292.526	96.31
292.757	86.31
292.987	102.31
293.218	96.31
293.449	108.31
293.68	94.31
293.91	92.31
294.141	94.31
294.372	79.31
294.603	99.31
294.833	88.31
295.064	86.31
295.295	88.31
295.525	87.31
295.756	113.31
295.987	120.31
296.217	160.31
296.448	152.31
296.679	97.31
296.909	86.31
297.14	112.31
297.37	100.31
297.601	87.31
297.831	94.31
298.062	96.31
298.292	85.31
298.523	89.31
298.753	91.31
298.984	90.31
299.214	93.31
299.445	99.31
299.675	93.31
299.905	101.31
300.136	77.31
300.366	81.31
300.597	93.31
300.827	98.31
301.057	109.31
301.288	111.31
301.518	107.31
301.748	100.31
301.979	115.31
302.209	97.31
302.439	94.31
302.669	96.31
302.9	107.31
303.13	93.31
303.36	83.31
303.59	133.31
303.82	136.31
304.051	106.31
304.281	103.31
304.511	86.31
304.741	111.31
304.971	94.31
305.201	98.31
305.431	88.31
305.661	95.31
305.891	93.31
306.121	99.31
306.352	107.31
306.582	109.31
306.812	108.31
307.042	113.31
307.272	136.31
307.502	173.31
307.731	158.31
307.961	124.31
308.191	96.31
308.421	86.31
308.651	94.31
308.881	105.31
309.111	88.31
309.341	102.31
309.571	103.31
309.8	112.31
310.03	105.31
310.26	101.31
310.49	97.31
310.72	115.31
310.949	118.31
311.179	102.31
311.409	109.31
311.639	89.31
311.868	107.31
312.098	110.31
312.328	106.31
312.557	117.31
312.787	115.31
313.017	123.31
313.246	95.31
313.476	91.31
313.706	86.31
313.935	106.31
314.165	123.31
314.394	112.31
314.624	118.31
314.853	119.31
315.083	98.31
315.312	97.31
315.542	81.31
315.771	89.31
316.001	80.31
316.23	93.31
316.46	86.31
316.689	92.31
316.919	83.31
317.148	87.31
317.377	92.31
317.607	96.31
317.836	101.31
318.065	92.31
318.295	98.31
318.524	103.31
318.753	93.31
318.983	94.31
319.212	120.31
319.441	124.31
319.67	111.31
319.9	116.31
320.129	108.31
320.358	101.31
320.587	113.31
320.816	113.31
321.046	99.31
321.275	102.31
321.504	104.31
321.733	113.31
321.962	111.31
322.191	108.31
322.42	129.31
322.649	117.31
322.878	111.31
323.108	126.31
323.337	144.31
323.566	170.31
323.795	212.31
324.024	271.31
324.253	562.31
324.482	1249.31
324.71	2732.31
324.939	3640.31
325.168	1213.31
325.397	333.31
325.626	185.31
325.855	176.31
326.084	137.31
326.313	161.31
326.542	192.31
326.77	310.31
326.999	686.31
327.228	1439.31
327.457	2720.31
327.686	2108.31
327.914	626.31
328.143	477.31
328.372	547.31
328.6	312.31
328.829	171.31
329.058	193.31
329.287	181.31
329.515	163.31
329.744	221.31
329.972	395.31
330.201	816.31
330.43	1136.31
330.658	556.31
330.887	279.31
331.115	181.31
331.344	114.31
331.572	113.31
331.801	104.31
332.03	144.31
332.258	117.31
332.486	132.31
332.715	108.31
332.943	124.31
333.172	125.31
333.4	121.31
333.629	164.31
333.857	206.31
334.085	401.31
334.314	744.31
334.542	1527.31
334.771	1370.31
334.999	374.31
335.227	161.31
335.455	118.31
335.684	101.31
335.912	109.31
336.14	117.31
336.369	107.31
336.597	99.31
336.825	120.31
337.053	97.31
337.281	101.31
337.51	92.31
337.738	90.31
337.966	109.31
338.194	108.31
338.422	125.31
338.65	97.31
338.878	98.31
339.106	99.31
339.334	90.31
339.562	98.31
339.79	110.31
340.018	105.31
340.246	107.31
340.474	109.31
340.702	102.31
340.93	110.31
341.158	92.31
341.386	106.31
341.614	101.31
341.842	95.31
342.07	93.31
342.298	104.31
342.526	84.31
342.754	101.31
342.981	102.31
343.209	90.31
343.437	92.31
343.665	97.31
343.893	93.31
344.12	97.31
344.348	89.31
344.576	89.31
344.804	114.31
345.031	114.31
345.259	102.31
345.487	95.31
345.714	101.31
345.942	102.31
346.17	107.31
346.397	98.31
346.625	94.31
346.853	112.31
347.08	92.31
347.308	96.31
347.535	120.31
347.763	126.31
347.99	109.31
348.218	110.31
348.445	116.31
348.673	122.31
348.9	113.31
349.128	106.31
349.355	75.31
349.583	83.31
349.81	95.31
350.037	117.31
350.265	100.31
350.492	92.31
350.72	93.31
350.947	109.31
351.174	125.31
351.402	122.31
351.629	107.31
351.856	104.31
352.083	100.31
352.311	116.31
352.538	122.31
352.765	131.31
352.992	112.31
353.22	117.31
353.447	108.31
353.674	93.31
353.901	115.31
354.128	94.31
354.355	106.31
354.583	91.31
354.81	86.31
355.037	114.31
355.264	98.31
355.491	98.31
355.718	98.31
355.945	103.31
356.172	82.31
356.399	104.31
356.626	94.31
356.853	105.31
357.08	103.31
357.307	94.31
357.534	94.31
357.761	100.31
357.988	93.31
358.215	104.31
358.441	96.31
358.668	101.31
358.895	105.31
359.122	95.31
359.349	83.31
359.576	94.31
359.802	108.31
360.029	153.31
360.256	126.31
360.483	131.31
360.709	104.31
360.936	103.31
361.163	101.31
361.39	113.31
361.616	103.31
361.843	93.31
362.07	109.31
362.296	97.31
362.523	105.31
362.749	99.31
362.976	91.31
363.203	97.31
363.429	93.31
363.656	93.31
363.882	88.31
364.109	83.31
364.335	104.31
364.562	112.31
364.788	110.31
365.015	109.31
365.241	108.31
365.468	117.31
365.694	111.31
365.92	104.31
366.147	123.31
366.373	99.31
366.599	92.31
366.826	104.31
367.052	93.31
367.278	80.31
367.505	96.31
367.731	106.31
367.957	108.31
368.184	99.31
368.41	113.31
368.636	130.31
368.862	131.31
369.089	121.31
369.315	102.31
369.541	102.31
369.767	88.31
369.993	93.31
370.219	116.31
370.445	98.31
370.672	109.31
370.898	72.31
371.124	89.31
371.35	90.31
371.576	100.31
371.802	82.31
372.028	86.31
372.254	100.31
372.48	90.31
372.706	93.31
372.932	94.31
373.158	95.31
373.384	95.31
373.61	106.31
373.835	105.31
374.061	99.31
374.287	88.31
374.513	107.31
374.739	80.31
374.965	91.31
375.191	85.31
375.416	96.31
375.642	98.31
375.868	88.31
376.094	78.31
376.319	83.31
376.545	86.31
376.771	100.31
376.997	82.31
377.222	92.31
377.448	106.31
377.674	80.31
377.899	91.31
378.125	102.31
378.35	95.31
378.576	95.31
378.802	96.31
379.027	99.31
379.253	90.31
379.478	99.31
379.704	82.31
379.929	98.31
380.155	106.31
380.38	91.31
380.606	102.31
380.831	97.31
381.057	84.31
381.282	90.31
381.507	90.31
381.733	110.31
381.958	115.31
382.184	105.31
382.409	106.31
382.634	109.31
382.86	92.31
383.085	102.31
383.31	98.31
383.535	110.31
383.761	114.31
383.986	103.31
384.211	96.31
384.436	100.31
384.662	102.31
384.887	110.31
385.112	99.31
385.337	106.31
385.562	116.31
385.787	104.31
386.013	119.31
386.238	138.31
386.463	112.31
386.688	122.31
386.913	119.31
387.138	121.31
387.363	114.31
387.588	113.31
387.813	106.31
388.038	107.31
388.263	114.31
388.488	111.31
388.713	97.31
388.938	100.31
389.163	101.31
389.387	108.31
389.612	94.31
389.837	88.31
390.062	100.31
390.287	96.31
390.512	88.31
390.736	92.31
390.961	95.31
391.186	102.31
391.411	95.31
391.636	85.31
391.86	92.31
392.085	86.31
392.31	86.31
392.534	92.31
392.759	107.31
392.984	98.31
393.208	90.31
393.433	102.31
393.658	105.31
393.882	80.31
394.107	92.31
394.331	96.31
394.556	84.31
394.78	106.31
395.005	91.31
395.229	107.31
395.454	86.31
395.678	95.31
395.903	89.31
396.127	99.31
396.352	105.31
396.576	88.31
396.801	116.31
397.025	86.31
397.249	93.31
397.474	94.31
397.698	81.31
397.922	100.31
398.147	84.31
398.371	85.31
398.595	87.31
398.82	70.31
399.044	82.31
399.268	90.31
399.492	99.31
399.717	85.31
399.941	102.31
400.165	102.31
400.389	115.31
400.613	105.31
400.837	81.31
401.062	92.31
401.286	92.31
401.51	98.31
401.734	97.31
401.958	108.31
402.182	164.31
402.406	193.31
402.63	147.31
402.854	112.31
403.078	85.31
403.302	109.31
403.526	92.31
403.75	90.31
403.974	97.31
404.198	95.31
404.422	102.31
404.645	94.31
404.869	100.31
405.093	114.31
405.317	129.31
405.541	140.31
405.765	136.31
405.988	133.31
406.212	218.31
406.436	305.31
406.66	222.31
406.883	130.31
407.107	114.31
407.331	121.31
407.555	126.31
407.778	106.31
408.002	108.31
408.226	93.31
408.449	92.31
408.673	96.31
408.896	101.31
409.12	109.31
409.344	100.31
409.567	97.31
409.791	84.31
410.014	88.31
410.238	85.31
410.461	88.31
410.685	94.31
410.908	114.31
411.132	111.31
411.355	100.31
411.578	113.31
411.802	92.31
412.025	94.31
412.249	93.31
412.472	106.31
412.695	150.31
412.919	114.31
413.142	88.31
413.365	80.31
413.589	95.31
413.812	88.31
414.035	97.31
414.258	88.31
414.482	83.31
414.705	99.31
414.928	96.31
415.151	111.31
415.374	104.31
415.597	105.31
415.821	98.31
416.044	88.31
416.267	97.31
416.49	95.31
416.713	94.31
416.936	89.31
417.159	105.31
417.382	109.31
417.605	98.31
417.828	102.31
418.051	99.31
418.274	82.31
418.497	104.31
418.72	89.31
418.943	103.31
419.166	110.31
419.389	81.31
419.611	108.31
419.834	101.31
420.057	100.31
420.28	92.31
420.503	88.31
420.726	105.31
420.948	98.31
421.171	105.31
421.394	106.31
421.617	84.31
421.839	77.31
422.062	75.31
422.285	110.31
422.507	106.31
422.73	115.31
422.953	108.31
423.175	107.31
423.398	85.31
423.621	92.31
423.843	94.31
424.066	87.31
424.288	93.31
424.511	101.31
424.733	106.31
424.956	126.31
425.178	123.31
425.401	123.31
425.623	122.31
425.846	93.31
426.068	110.31
426.291	114.31
426.513	99.31
426.735	97.31
426.958	102.31
427.18	121.31
427.402	191.31
427.625	272.31
427.847	259.31
428.069	238.31
428.292	139.31
428.514	106.31
428.736	86.31
428.958	88.31
429.181	94.31
429.403	98.31
429.625	92.31
429.847	116.31
430.069	123.31
430.292	109.31
430.514	76.31
430.736	96.31
430.958	98.31
431.18	85.31
431.402	93.31
431.624	78.31
431.846	92.31
432.068	79.31
432.29	95.31
432.512	95.31
432.734	90.31
432.956	93.31
433.178	130.31
433.4	121.31
433.622	91.31
433.844	89.31
434.066	108.31
434.287	98.31
434.509	112.31
434.731	106.31
434.953	88.31
435.175	68.31
435.397	91.31
435.618	90.31
435.84	112.31
436.062	156.31
436.284	141.31
436.505	109.31
436.727	120.31
436.949	88.31
437.17	98.31
437.392	97.31
437.614	109.31
437.835	143.31
438.057	167.31
438.278	150.31
438.5	126.31
438.721	147.31
438.943	132.31
439.165	102.31
439.386	98.31
439.608	92.31
439.829	110.31
440.05	181.31
440.272	212.31
440.493	127.31
440.715	86.31
440.936	88.31
441.158	108.31
441.379	93.31
441.6	114.31
441.822	113.31
442.043	101.31
442.264	149.31
442.486	125.31
442.707	116.31
442.928	144.31
443.149	191.31
443.371	168.31
443.592	141.31
443.813	141.31
444.034	129.31
444.255	100.31
444.476	115.31
444.698	87.31
444.919	90.31
445.14	122.31
445.361	146.31
445.582	145.31
445.803	209.31
446.024	207.31
446.245	200.31
446.466	150.31
446.687	110.31
446.908	94.31
447.129	100.31
447.35	100.31
447.571	84.31
447.792	97.31
448.013	108.31
448.234	116.31
448.455	112.31
448.675	160.31
448.896	130.31
449.117	116.31
449.338	126.31
449.559	174.31
449.779	185.31
450	116.31
450.221	117.31
450.442	102.31
450.662	92.31
450.883	126.31
451.104	159.31
451.324	124.31
451.545	83.31
451.766	93.31
451.986	92.31
452.207	96.31
452.428	99.31
452.648	104.31
452.869	127.31
453.089	149.31
453.31	135.31
453.53	105.31
453.751	122.31
453.971	123.31
454.192	144.31
454.412	92.31
454.633	92.31
454.853	91.31
455.073	83.31
455.294	89.31
455.514	124.31
455.734	102.31
455.955	94.31
456.175	95.31
456.395	86.31
456.616	92.31
456.836	94.31
457.056	83.31
457.276	88.31
457.497	86.31
457.717	84.31
457.937	83.31
458.157	86.31
458.377	106.31
458.598	125.31
458.818	217.31
459.038	230.31
459.258	157.31
459.478	108.31
459.698	85.31
459.918	100.31
460.138	87.31
460.358	94.31
460.578	96.31
460.798	87.31
461.018	95.31
461.238	84.31
461.458	102.31
461.678	75.31
461.898	82.31
462.118	89.31
462.338	92.31
462.558	96.31
462.777	94.31
462.997	88.31
463.217	99.31
463.437	103.31
463.657	92.31
463.876	93.31
464.096	92.31
464.316	100.31
464.536	101.31
464.755	122.31
464.975	127.31
465.195	238.31
465.414	241.31
465.634	117.31
465.854	88.31
466.073	100.31
466.293	95.31
466.512	90.31
466.732	95.31
466.951	93.31
467.171	101.31
467.391	110.31
467.61	141.31
467.829	174.31
468.049	442.31
468.268	612.31
468.488	186.31
468.707	116.31
468.927	98.31
469.146	102.31
469.365	93.31
469.585	98.31
469.804	116.31
470.023	107.31
470.243	93.31
470.462	112.31
470.681	141.31
470.901	100.31
471.12	104.31
471.339	98.31
471.558	115.31
471.777	143.31
471.997	253.31
472.216	860.31
472.435	1866.31
472.654	435.31
472.873	155.31
473.092	109.31
473.311	108.31
473.53	102.31
473.749	112.31
473.968	98.31
474.187	138.31
474.406	137.31
474.625	99.31
474.844	101.31
475.063	91.31
475.282	97.31
475.501	95.31
475.72	100.31
475.939	93.31
476.158	109.31
476.377	90.31
476.596	94.31
476.814	109.31
477.033	116.31
477.252	96.31
477.471	82.31
477.69	87.31
477.908	88.31
478.127	91.31
478.346	95.31
478.564	100.31
478.783	97.31
479.002	116.31
479.22	103.31
479.439	129.31
479.658	146.31
479.876	119.31
480.095	129.31
480.313	140.31
480.532	152.31
480.751	239.31
480.969	800.31
481.188	3356.31
481.406	1912.31
481.624	309.31
481.843	130.31
482.061	110.31
482.28	103.31
482.498	97.31
482.717	96.31
482.935	100.31
483.153	92.31
483.372	102.31
483.59	102.31
483.808	96.31
484.027	92.31
484.245	105.31
484.463	97.31
484.681	98.31
484.9	105.31
485.118	97.31
485.336	89.31
485.554	112.31
485.772	110.31
485.99	109.31
486.209	101.31
486.427	111.31
486.645	117.31
486.863	129.31
487.081	101.31
487.299	98.31
487.517	96.31
487.735	103.31
487.953	105.31
488.171	112.31
488.389	109.31
488.607	112.31
488.825	116.31
489.043	92.31
489.261	92.31
489.479	101.31
489.696	85.31
489.914	87.31
490.132	86.31
490.35	102.31
490.568	86.31
490.786	95.31
491.003	91.31
491.221	99.31
491.439	86.31
491.657	112.31
491.874	99.31
492.092	90.31
492.31	105.31
492.527	113.31
492.745	92.31
492.963	100.31
493.18	93.31
493.398	94.31
493.615	100.31
493.833	93.31
494.05	99.31
494.268	98.31
494.485	102.31
494.703	98.31
494.92	95.31
495.138	102.31
495.355	100.31
495.573	105.31
495.79	101.31
496.008	92.31
496.225	90.31
496.442	87.31
496.66	108.31
496.877	93.31
497.094	98.31
497.312	100.31
497.529	95.31
497.746	98.31
497.963	97.31
498.181	87.31
498.398	102.31
498.615	120.31
498.832	127.31
499.049	97.31
499.267	104.31
499.484	92.31
499.701	87.31
499.918	94.31
500.135	98.31
500.352	101.31
500.569	83.31
500.786	106.31
501.003	100.31
501.22	91.31
501.437	96.31
501.654	107.31
501.871	125.31
502.088	109.31
502.305	91.31
502.522	95.31
502.739	105.31
502.956	85.31
503.172	117.31
503.389	104.31
503.606	125.31
503.823	106.31
504.04	100.31
504.256	95.31
504.473	84.31
504.69	95.31
504.907	100.31
505.123	93.31
505.34	81.31
505.557	86.31
505.773	95.31
505.99	89.31
506.207	80.31
506.423	77.31
506.64	85.31
506.856	105.31
507.073	112.31
507.289	93.31
507.506	97.31
507.722	126.31
507.939	113.31
508.155	124.31
508.372	95.31
508.588	110.31
508.805	102.31
509.021	85.31
509.238	89.31
509.454	93.31
509.67	114.31
509.887	125.31
510.103	147.31
510.319	255.31
510.536	914.31
510.752	3110.31
510.968	864.31
511.184	185.31
511.401	138.31
511.617	94.31
