Data from Circ_1997_H10_HRD10591_00034.txt Node
Date: Wed Jan 03 11:29:34 EST 2024
User: Yrep
Spectrometer: HR+D1059
Trigger mode: 1
Integration Time (sec): 1.000000E-1
Scans to average: 1
Electric dark correction enabled: true
Nonlinearity correction enabled: false
Boxcar width: 0
XAxis mode: Wavelengths
Number of Pixels in Spectrum: 2048
>>>>>Begin Spectral Data<<<<<
223.165	-19.38
223.4	-19.38
223.635	-19.38
223.869	-24.38
224.104	-21.38
224.338	-9.38
224.573	-9.38
224.808	-18.38
225.042	-5.38
225.277	4.62
225.511	-3.38
225.746	3.62
225.98	9.62
226.215	14.62
226.449	10.62
226.683	11.62
226.918	21.62
227.152	34.62
227.387	35.62
227.621	26.62
227.856	56.62
228.09	31.62
228.324	56.62
228.559	58.62
228.793	55.62
229.027	63.62
229.262	75.62
229.496	87.62
229.73	107.62
229.964	109.62
230.199	78.62
230.433	80.62
230.667	89.62
230.901	81.62
231.136	87.62
231.37	91.62
231.604	80.62
231.838	86.62
232.072	76.62
232.306	71.62
232.541	75.62
232.775	86.62
233.009	80.62
233.243	81.62
233.477	94.62
233.711	74.62
233.945	81.62
234.179	89.62
234.413	76.62
234.647	67.62
234.881	79.62
235.115	83.62
235.349	79.62
235.583	78.62
235.817	83.62
236.051	76.62
236.285	71.62
236.519	76.62
236.753	76.62
236.987	63.62
237.221	83.62
237.455	96.62
237.689	67.62
237.922	78.62
238.156	75.62
238.39	61.62
238.624	77.62
238.858	78.62
239.091	82.62
239.325	76.62
239.559	73.62
239.793	87.62
240.027	95.62
240.26	84.62
240.494	91.62
240.728	81.62
240.961	70.62
241.195	73.62
241.429	92.62
241.662	84.62
241.896	72.62
242.13	82.62
242.363	74.62
242.597	77.62
242.83	78.62
243.064	89.62
243.298	77.62
243.531	71.62
243.765	68.62
243.998	76.62
244.232	90.62
244.465	84.62
244.699	76.62
244.932	86.62
245.166	76.62
245.399	73.62
245.633	75.62
245.866	79.62
246.099	80.62
246.333	91.62
246.566	90.62
246.8	74.62
247.033	84.62
247.266	68.62
247.5	81.62
247.733	102.62
247.966	70.62
248.2	85.62
248.433	71.62
248.666	78.62
248.899	77.62
249.133	94.62
249.366	103.62
249.599	111.62
249.832	100.62
250.066	82.62
250.299	77.62
250.532	91.62
250.765	84.62
250.998	86.62
251.231	74.62
251.465	75.62
251.698	90.62
251.931	81.62
252.164	100.62
252.397	90.62
252.63	70.62
252.863	80.62
253.096	80.62
253.329	73.62
253.562	78.62
253.795	82.62
254.028	85.62
254.261	91.62
254.494	84.62
254.727	100.62
254.96	93.62
255.193	83.62
255.426	79.62
255.659	92.62
255.892	102.62
256.124	102.62
256.357	97.62
256.59	87.62
256.823	74.62
257.056	89.62
257.289	87.62
257.521	91.62
257.754	89.62
257.987	81.62
258.22	89.62
258.452	93.62
258.685	96.62
258.918	91.62
259.151	96.62
259.383	85.62
259.616	84.62
259.849	87.62
260.081	97.62
260.314	80.62
260.547	89.62
260.779	100.62
261.012	86.62
261.244	87.62
261.477	97.62
261.71	111.62
261.942	122.62
262.175	148.62
262.407	106.62
262.64	89.62
262.872	88.62
263.105	83.62
263.337	90.62
263.57	78.62
263.802	93.62
264.035	88.62
264.267	72.62
264.499	88.62
264.732	84.62
264.964	83.62
265.197	79.62
265.429	71.62
265.661	86.62
265.894	87.62
266.126	93.62
266.358	81.62
266.591	78.62
266.823	102.62
267.055	80.62
267.287	79.62
267.52	86.62
267.752	81.62
267.984	89.62
268.216	80.62
268.448	95.62
268.681	95.62
268.913	79.62
269.145	89.62
269.377	90.62
269.609	80.62
269.841	85.62
270.073	89.62
270.306	85.62
270.538	94.62
270.77	80.62
271.002	89.62
271.234	84.62
271.466	95.62
271.698	94.62
271.93	98.62
272.162	94.62
272.394	90.62
272.626	91.62
272.858	94.62
273.09	80.62
273.322	100.62
273.553	82.62
273.785	86.62
274.017	88.62
274.249	100.62
274.481	77.62
274.713	88.62
274.945	94.62
275.176	82.62
275.408	99.62
275.64	108.62
275.872	114.62
276.104	95.62
276.335	112.62
276.567	120.62
276.799	148.62
277.031	154.62
277.262	168.62
277.494	148.62
277.726	97.62
277.957	84.62
278.189	94.62
278.421	86.62
278.652	91.62
278.884	102.62
279.115	78.62
279.347	90.62
279.579	95.62
279.81	115.62
280.042	191.62
280.273	210.62
280.505	163.62
280.736	100.62
280.968	100.62
281.199	92.62
281.431	90.62
281.662	100.62
281.894	90.62
282.125	108.62
282.356	117.62
282.588	161.62
282.819	120.62
283.051	77.62
283.282	94.62
283.513	105.62
283.745	95.62
283.976	79.62
284.207	79.62
284.439	101.62
284.67	90.62
284.901	81.62
285.132	78.62
285.364	86.62
285.595	84.62
285.826	87.62
286.057	94.62
286.288	86.62
286.52	90.62
286.751	87.62
286.982	92.62
287.213	88.62
287.444	79.62
287.675	105.62
287.906	82.62
288.138	107.62
288.369	92.62
288.6	102.62
288.831	106.62
289.062	82.62
289.293	88.62
289.524	80.62
289.755	90.62
289.986	92.62
290.217	90.62
290.448	72.62
290.679	94.62
290.91	90.62
291.141	83.62
291.371	88.62
291.602	79.62
291.833	85.62
292.064	92.62
292.295	84.62
292.526	92.62
292.757	98.62
292.987	86.62
293.218	96.62
293.449	84.62
293.68	87.62
293.91	99.62
294.141	102.62
294.372	83.62
294.603	96.62
294.833	93.62
295.064	103.62
295.295	100.62
295.525	105.62
295.756	108.62
295.987	127.62
296.217	153.62
296.448	139.62
296.679	105.62
296.909	97.62
297.14	91.62
297.37	79.62
297.601	82.62
297.831	94.62
298.062	91.62
298.292	88.62
298.523	91.62
298.753	93.62
298.984	78.62
299.214	67.62
299.445	94.62
299.675	91.62
299.905	99.62
300.136	95.62
300.366	83.62
300.597	95.62
300.827	93.62
301.057	104.62
301.288	109.62
301.518	99.62
301.748	88.62
301.979	104.62
302.209	100.62
302.439	95.62
302.669	80.62
302.9	95.62
303.13	96.62
303.36	115.62
303.59	127.62
303.82	125.62
304.051	118.62
304.281	97.62
304.511	114.62
304.741	83.62
304.971	93.62
305.201	92.62
305.431	98.62
305.661	111.62
305.891	108.62
306.121	104.62
306.352	112.62
306.582	106.62
306.812	106.62
307.042	106.62
307.272	150.62
307.502	154.62
307.731	163.62
307.961	134.62
308.191	86.62
308.421	103.62
308.651	90.62
308.881	96.62
309.111	93.62
309.341	115.62
309.571	104.62
309.8	97.62
310.03	102.62
310.26	91.62
310.49	104.62
310.72	111.62
310.949	106.62
311.179	90.62
311.409	87.62
311.639	98.62
311.868	86.62
312.098	118.62
312.328	89.62
312.557	111.62
312.787	114.62
313.017	122.62
313.246	99.62
313.476	92.62
313.706	98.62
313.935	101.62
314.165	106.62
314.394	104.62
314.624	113.62
314.853	107.62
315.083	89.62
315.312	108.62
315.542	92.62
315.771	101.62
316.001	107.62
316.23	95.62
316.46	92.62
316.689	91.62
316.919	98.62
317.148	86.62
317.377	99.62
317.607	104.62
317.836	95.62
318.065	91.62
318.295	82.62
318.524	101.62
318.753	95.62
318.983	110.62
319.212	105.62
319.441	110.62
319.67	113.62
319.9	102.62
320.129	105.62
320.358	100.62
320.587	100.62
320.816	96.62
321.046	110.62
321.275	108.62
321.504	96.62
321.733	100.62
321.962	107.62
322.191	110.62
322.42	119.62
322.649	112.62
322.878	125.62
323.108	126.62
323.337	154.62
323.566	161.62
323.795	176.62
324.024	275.62
324.253	590.62
324.482	1356.62
324.71	2846.62
324.939	3858.62
325.168	1320.62
325.397	342.62
325.626	185.62
325.855	148.62
326.084	153.62
326.313	158.62
326.542	200.62
326.77	322.62
326.999	691.62
327.228	1516.62
327.457	2873.62
327.686	2222.62
327.914	641.62
328.143	514.62
328.372	579.62
328.6	335.62
328.829	178.62
329.058	206.62
329.287	189.62
329.515	176.62
329.744	222.62
329.972	424.62
330.201	836.62
330.43	1219.62
330.658	566.62
330.887	281.62
331.115	180.62
331.344	135.62
331.572	111.62
331.801	112.62
332.03	116.62
332.258	101.62
332.486	96.62
332.715	111.62
332.943	107.62
333.172	104.62
333.4	128.62
333.629	148.62
333.857	198.62
334.085	404.62
334.314	801.62
334.542	1557.62
334.771	1471.62
334.999	386.62
335.227	148.62
335.455	122.62
335.684	108.62
335.912	121.62
336.14	114.62
336.369	113.62
336.597	116.62
336.825	107.62
337.053	98.62
337.281	98.62
337.51	90.62
337.738	99.62
337.966	104.62
338.194	105.62
338.422	110.62
338.65	104.62
338.878	109.62
339.106	108.62
339.334	100.62
339.562	88.62
339.79	95.62
340.018	93.62
340.246	98.62
340.474	103.62
340.702	106.62
340.93	99.62
341.158	105.62
341.386	81.62
341.614	93.62
341.842	102.62
342.07	104.62
342.298	93.62
342.526	90.62
342.754	84.62
342.981	78.62
343.209	80.62
343.437	105.62
343.665	81.62
343.893	84.62
344.12	101.62
344.348	92.62
344.576	99.62
344.804	97.62
345.031	111.62
345.259	95.62
345.487	96.62
345.714	109.62
345.942	82.62
346.17	91.62
346.397	93.62
346.625	106.62
346.853	102.62
347.08	85.62
347.308	95.62
347.535	98.62
347.763	110.62
347.99	109.62
348.218	111.62
348.445	122.62
348.673	99.62
348.9	104.62
349.128	99.62
349.355	88.62
349.583	97.62
349.81	97.62
350.037	101.62
350.265	100.62
350.492	83.62
350.72	94.62
350.947	116.62
351.174	125.62
351.402	130.62
351.629	109.62
351.856	122.62
352.083	123.62
352.311	98.62
352.538	121.62
352.765	122.62
352.992	130.62
353.22	124.62
353.447	114.62
353.674	108.62
353.901	104.62
354.128	102.62
354.355	114.62
354.583	96.62
354.81	99.62
355.037	99.62
355.264	103.62
355.491	96.62
355.718	94.62
355.945	93.62
356.172	96.62
356.399	90.62
356.626	99.62
356.853	103.62
357.08	94.62
357.307	96.62
357.534	100.62
357.761	95.62
357.988	104.62
358.215	94.62
358.441	92.62
358.668	96.62
358.895	88.62
359.122	80.62
359.349	79.62
359.576	95.62
359.802	127.62
360.029	127.62
360.256	135.62
360.483	105.62
360.709	90.62
360.936	92.62
361.163	108.62
361.39	103.62
361.616	109.62
361.843	100.62
362.07	102.62
362.296	99.62
362.523	104.62
362.749	108.62
362.976	86.62
363.203	83.62
363.429	86.62
363.656	81.62
363.882	95.62
364.109	92.62
364.335	90.62
364.562	86.62
364.788	88.62
365.015	98.62
365.241	97.62
365.468	126.62
365.694	106.62
365.92	108.62
366.147	93.62
366.373	91.62
366.599	87.62
366.826	100.62
367.052	92.62
367.278	94.62
367.505	101.62
367.731	95.62
367.957	93.62
368.184	93.62
368.41	104.62
368.636	118.62
368.862	148.62
369.089	113.62
369.315	112.62
369.541	110.62
369.767	104.62
369.993	89.62
370.219	93.62
370.445	99.62
370.672	80.62
370.898	81.62
371.124	100.62
371.35	89.62
371.576	102.62
371.802	93.62
372.028	93.62
372.254	86.62
372.48	96.62
372.706	88.62
372.932	79.62
373.158	91.62
373.384	91.62
373.61	83.62
373.835	90.62
374.061	96.62
374.287	94.62
374.513	112.62
374.739	99.62
374.965	90.62
375.191	83.62
375.416	88.62
375.642	97.62
375.868	82.62
376.094	93.62
376.319	93.62
376.545	102.62
376.771	90.62
376.997	103.62
377.222	103.62
377.448	95.62
377.674	96.62
377.899	84.62
378.125	84.62
378.35	79.62
378.576	80.62
378.802	98.62
379.027	79.62
379.253	86.62
379.478	100.62
379.704	101.62
379.929	93.62
380.155	89.62
380.38	98.62
380.606	95.62
380.831	95.62
381.057	81.62
381.282	74.62
381.507	83.62
381.733	98.62
381.958	96.62
382.184	94.62
382.409	102.62
382.634	105.62
382.86	94.62
383.085	104.62
383.31	102.62
383.535	115.62
383.761	119.62
383.986	102.62
384.211	103.62
384.436	95.62
384.662	83.62
384.887	101.62
385.112	91.62
385.337	92.62
385.562	109.62
385.787	95.62
386.013	113.62
386.238	119.62
386.463	107.62
386.688	102.62
386.913	100.62
387.138	96.62
387.363	104.62
387.588	98.62
387.813	99.62
388.038	89.62
388.263	110.62
388.488	104.62
388.713	98.62
388.938	95.62
389.163	99.62
389.387	105.62
389.612	86.62
389.837	84.62
390.062	90.62
390.287	98.62
390.512	97.62
390.736	71.62
390.961	101.62
391.186	94.62
391.411	94.62
391.636	90.62
391.86	92.62
392.085	90.62
392.31	90.62
392.534	98.62
392.759	89.62
392.984	92.62
393.208	87.62
393.433	104.62
393.658	103.62
393.882	78.62
394.107	86.62
394.331	88.62
394.556	90.62
394.78	87.62
395.005	90.62
395.229	90.62
395.454	84.62
395.678	91.62
395.903	92.62
396.127	92.62
396.352	92.62
396.576	94.62
396.801	90.62
397.025	93.62
397.249	99.62
397.474	87.62
397.698	81.62
397.922	96.62
398.147	78.62
398.371	79.62
398.595	80.62
398.82	71.62
399.044	90.62
399.268	95.62
399.492	99.62
399.717	93.62
399.941	97.62
400.165	95.62
400.389	97.62
400.613	92.62
400.837	85.62
401.062	99.62
401.286	92.62
401.51	96.62
401.734	98.62
401.958	96.62
402.182	120.62
402.406	190.62
402.63	144.62
402.854	92.62
403.078	81.62
403.302	83.62
403.526	91.62
403.75	103.62
403.974	94.62
404.198	72.62
404.422	83.62
404.645	96.62
404.869	109.62
405.093	141.62
405.317	148.62
405.541	130.62
405.765	110.62
405.988	123.62
406.212	220.62
406.436	313.62
406.66	206.62
406.883	128.62
407.107	105.62
407.331	107.62
407.555	115.62
407.778	107.62
408.002	103.62
408.226	97.62
408.449	95.62
408.673	95.62
408.896	88.62
409.12	100.62
409.344	97.62
409.567	87.62
409.791	88.62
410.014	96.62
410.238	95.62
410.461	84.62
410.685	93.62
410.908	102.62
411.132	111.62
411.355	103.62
411.578	105.62
411.802	67.62
412.025	91.62
412.249	108.62
412.472	113.62
412.695	134.62
412.919	127.62
413.142	98.62
413.365	100.62
413.589	95.62
413.812	92.62
414.035	95.62
414.258	93.62
414.482	93.62
414.705	91.62
414.928	92.62
415.151	99.62
415.374	97.62
415.597	99.62
415.821	92.62
416.044	87.62
416.267	94.62
416.49	91.62
416.713	94.62
416.936	84.62
417.159	83.62
417.382	92.62
417.605	98.62
417.828	104.62
418.051	102.62
418.274	95.62
418.497	92.62
418.72	89.62
418.943	84.62
419.166	84.62
419.389	91.62
419.611	100.62
419.834	95.62
420.057	102.62
420.28	87.62
420.503	91.62
420.726	98.62
420.948	103.62
421.171	102.62
421.394	99.62
421.617	94.62
421.839	81.62
422.062	96.62
422.285	90.62
422.507	116.62
422.73	122.62
422.953	107.62
423.175	83.62
423.398	100.62
423.621	96.62
423.843	82.62
424.066	85.62
424.288	104.62
424.511	93.62
424.733	110.62
424.956	114.62
425.178	125.62
425.401	119.62
425.623	120.62
425.846	99.62
426.068	91.62
426.291	91.62
426.513	86.62
426.735	98.62
426.958	112.62
427.18	115.62
427.402	189.62
427.625	274.62
427.847	246.62
428.069	248.62
428.292	137.62
428.514	107.62
428.736	73.62
428.958	83.62
429.181	78.62
429.403	80.62
429.625	87.62
429.847	102.62
430.069	125.62
430.292	95.62
430.514	91.62
430.736	78.62
430.958	86.62
431.18	97.62
431.402	83.62
431.624	98.62
431.846	89.62
432.068	78.62
432.29	88.62
432.512	75.62
432.734	86.62
432.956	98.62
433.178	105.62
433.4	112.62
433.622	100.62
433.844	94.62
434.066	93.62
434.287	92.62
434.509	81.62
434.731	83.62
434.953	98.62
435.175	90.62
435.397	78.62
435.618	93.62
435.84	117.62
436.062	154.62
436.284	150.62
436.505	125.62
436.727	118.62
436.949	103.62
437.17	87.62
437.392	91.62
437.614	99.62
437.835	127.62
438.057	162.62
438.278	156.62
438.5	131.62
438.721	171.62
438.943	128.62
439.165	100.62
439.386	87.62
439.608	85.62
439.829	120.62
440.05	164.62
440.272	207.62
440.493	112.62
440.715	82.62
440.936	90.62
441.158	98.62
441.379	100.62
441.6	101.62
441.822	118.62
442.043	91.62
442.264	125.62
442.486	112.62
442.707	113.62
442.928	130.62
443.149	168.62
443.371	167.62
443.592	139.62
443.813	144.62
444.034	128.62
444.255	86.62
444.476	86.62
444.698	103.62
444.919	100.62
445.14	138.62
445.361	148.62
445.582	156.62
445.803	214.62
446.024	204.62
446.245	194.62
446.466	137.62
446.687	110.62
446.908	96.62
447.129	102.62
447.35	98.62
447.571	97.62
447.792	103.62
448.013	109.62
448.234	126.62
448.455	118.62
448.675	154.62
448.896	147.62
449.117	116.62
449.338	118.62
449.559	169.62
449.779	168.62
450	94.62
450.221	92.62
450.442	95.62
450.662	101.62
450.883	125.62
451.104	138.62
451.324	111.62
451.545	99.62
451.766	86.62
451.986	91.62
452.207	104.62
452.428	108.62
452.648	105.62
452.869	134.62
453.089	130.62
453.31	135.62
453.53	96.62
453.751	109.62
453.971	107.62
454.192	121.62
454.412	97.62
454.633	81.62
454.853	88.62
455.073	75.62
455.294	95.62
455.514	115.62
455.734	106.62
455.955	90.62
456.175	91.62
456.395	88.62
456.616	82.62
456.836	88.62
457.056	79.62
457.276	81.62
457.497	92.62
457.717	92.62
457.937	90.62
458.157	86.62
458.377	97.62
458.598	127.62
458.818	194.62
459.038	243.62
459.258	138.62
459.478	97.62
459.698	104.62
459.918	84.62
460.138	77.62
460.358	92.62
460.578	81.62
460.798	99.62
461.018	86.62
461.238	81.62
461.458	95.62
461.678	89.62
461.898	84.62
462.118	95.62
462.338	79.62
462.558	89.62
462.777	70.62
462.997	99.62
463.217	92.62
463.437	111.62
463.657	70.62
463.876	97.62
464.096	98.62
464.316	96.62
464.536	100.62
464.755	104.62
464.975	108.62
465.195	219.62
465.414	230.62
465.634	97.62
465.854	92.62
466.073	88.62
466.293	93.62
466.512	92.62
466.732	81.62
466.951	92.62
467.171	90.62
467.391	111.62
467.61	136.62
467.829	176.62
468.049	467.62
468.268	699.62
468.488	206.62
468.707	110.62
468.927	79.62
469.146	84.62
469.365	84.62
469.585	97.62
469.804	110.62
470.023	110.62
470.243	107.62
470.462	101.62
470.681	138.62
470.901	111.62
471.12	99.62
471.339	117.62
471.558	119.62
471.777	155.62
471.997	274.62
472.216	970.62
472.435	2088.62
472.654	531.62
472.873	148.62
473.092	101.62
473.311	83.62
473.53	95.62
473.749	114.62
473.968	108.62
474.187	150.62
474.406	119.62
474.625	78.62
474.844	84.62
475.063	86.62
475.282	88.62
475.501	93.62
475.72	86.62
475.939	89.62
476.158	97.62
476.377	84.62
476.596	94.62
476.814	108.62
477.033	106.62
477.252	108.62
477.471	105.62
477.69	90.62
477.908	101.62
478.127	100.62
478.346	101.62
478.564	85.62
478.783	112.62
479.002	117.62
479.22	109.62
479.439	119.62
479.658	134.62
479.876	122.62
480.095	121.62
480.313	139.62
480.532	157.62
480.751	285.62
480.969	910.62
481.188	3800.62
481.406	2191.62
481.624	328.62
481.843	137.62
482.061	110.62
482.28	111.62
482.498	109.62
482.717	92.62
482.935	90.62
483.153	97.62
483.372	94.62
483.59	99.62
483.808	92.62
484.027	95.62
484.245	106.62
484.463	87.62
484.681	92.62
484.9	89.62
485.118	81.62
485.336	96.62
485.554	102.62
485.772	93.62
485.99	115.62
486.209	113.62
486.427	131.62
486.645	127.62
486.863	134.62
487.081	123.62
487.299	103.62
487.517	90.62
487.735	94.62
487.953	92.62
488.171	95.62
488.389	100.62
488.607	105.62
488.825	107.62
489.043	106.62
489.261	92.62
489.479	91.62
489.696	91.62
489.914	86.62
490.132	89.62
490.35	84.62
490.568	86.62
490.786	90.62
491.003	95.62
491.221	103.62
491.439	91.62
491.657	93.62
491.874	98.62
492.092	87.62
492.31	94.62
492.527	94.62
492.745	111.62
492.963	100.62
493.18	84.62
493.398	96.62
493.615	96.62
493.833	103.62
494.05	90.62
494.268	92.62
494.485	91.62
494.703	91.62
494.92	80.62
495.138	94.62
495.355	81.62
495.573	92.62
495.79	98.62
496.008	102.62
496.225	86.62
496.442	93.62
496.66	99.62
496.877	94.62
497.094	90.62
497.312	94.62
497.529	90.62
497.746	105.62
497.963	97.62
498.181	99.62
498.398	104.62
498.615	129.62
498.832	109.62
499.049	102.62
499.267	98.62
499.484	96.62
499.701	88.62
499.918	84.62
500.135	106.62
500.352	99.62
500.569	90.62
500.786	91.62
501.003	90.62
501.22	94.62
501.437	90.62
501.654	99.62
501.871	120.62
502.088	94.62
502.305	92.62
502.522	95.62
502.739	107.62
502.956	105.62
503.172	107.62
503.389	111.62
503.606	130.62
503.823	110.62
504.04	97.62
504.256	97.62
504.473	98.62
504.69	101.62
504.907	82.62
505.123	81.62
505.34	84.62
505.557	107.62
505.773	102.62
505.99	80.62
506.207	83.62
506.423	66.62
506.64	95.62
506.856	90.62
507.073	88.62
507.289	119.62
507.506	104.62
507.722	129.62
507.939	136.62
508.155	111.62
508.372	93.62
508.588	92.62
508.805	108.62
509.021	99.62
509.238	108.62
509.454	95.62
509.67	111.62
509.887	125.62
510.103	138.62
510.319	243.62
510.536	918.62
510.752	3178.62
510.968	850.62
511.184	185.62
511.401	129.62
511.617	99.62
511.833	126.62
512.049	102.62
512.265	102.62
512.481	88.62
512.698	103.62
