Data from Circ_1997_H10_HRD10591_00015.txt Node
Date: Wed Jan 03 11:29:30 EST 2024
User: Yrep
Spectrometer: HR+D1059
Trigger mode: 1
Integration Time (sec): 1.000000E-1
Scans to average: 1
Electric dark correction enabled: true
Nonlinearity correction enabled: false
Boxcar width: 0
XAxis mode: Wavelengths
Number of Pixels in Spectrum: 2048
>>>>>Begin Spectral Data<<<<<
223.165	-13.69
223.4	-13.69
223.635	-13.69
223.869	-4.69
224.104	-12.69
224.338	-27.69
224.573	-7.69
224.808	-5.69
225.042	0.31
225.277	-4.69
225.511	-11.69
225.746	-2.69
225.98	16.31
226.215	-8.69
226.449	5.31
226.683	26.31
226.918	24.31
227.152	27.31
227.387	49.31
227.621	38.31
227.856	54.31
228.09	41.31
228.324	56.31
228.559	67.31
228.793	67.31
229.027	69.31
229.262	70.31
229.496	90.31
229.73	112.31
229.964	85.31
230.199	81.31
230.433	64.31
230.667	84.31
230.901	88.31
231.136	83.31
231.37	95.31
231.604	79.31
231.838	75.31
232.072	64.31
232.306	84.31
232.541	81.31
232.775	68.31
233.009	76.31
233.243	80.31
233.477	69.31
233.711	90.31
233.945	96.31
234.179	88.31
234.413	94.31
234.647	80.31
234.881	76.31
235.115	84.31
235.349	80.31
235.583	92.31
235.817	74.31
236.051	97.31
236.285	68.31
236.519	72.31
236.753	93.31
236.987	92.31
237.221	94.31
237.455	96.31
237.689	79.31
237.922	78.31
238.156	78.31
238.39	77.31
238.624	78.31
238.858	78.31
239.091	73.31
239.325	83.31
239.559	84.31
239.793	90.31
240.027	90.31
240.26	77.31
240.494	86.31
240.728	78.31
240.961	80.31
241.195	76.31
241.429	77.31
241.662	88.31
241.896	74.31
242.13	94.31
242.363	72.31
242.597	64.31
242.83	81.31
243.064	88.31
243.298	65.31
243.531	80.31
243.765	88.31
243.998	77.31
244.232	92.31
244.465	92.31
244.699	70.31
244.932	80.31
245.166	77.31
245.399	90.31
245.633	88.31
245.866	83.31
246.099	76.31
246.333	85.31
246.566	80.31
246.8	84.31
247.033	93.31
247.266	78.31
247.5	99.31
247.733	85.31
247.966	91.31
248.2	97.31
248.433	82.31
248.666	92.31
248.899	93.31
249.133	80.31
249.366	99.31
249.599	110.31
249.832	79.31
250.066	76.31
250.299	87.31
250.532	104.31
250.765	85.31
250.998	72.31
251.231	86.31
251.465	78.31
251.698	82.31
251.931	85.31
252.164	90.31
252.397	92.31
252.63	92.31
252.863	84.31
253.096	85.31
253.329	83.31
253.562	99.31
253.795	82.31
254.028	99.31
254.261	87.31
254.494	80.31
254.727	89.31
254.96	89.31
255.193	79.31
255.426	84.31
255.659	79.31
255.892	84.31
256.124	102.31
256.357	81.31
256.59	101.31
256.823	85.31
257.056	97.31
257.289	83.31
257.521	87.31
257.754	85.31
257.987	94.31
258.22	103.31
258.452	86.31
258.685	83.31
258.918	85.31
259.151	91.31
259.383	94.31
259.616	95.31
259.849	80.31
260.081	87.31
260.314	76.31
260.547	85.31
260.779	100.31
261.012	91.31
261.244	94.31
261.477	100.31
261.71	93.31
261.942	127.31
262.175	120.31
262.407	96.31
262.64	82.31
262.872	91.31
263.105	92.31
263.337	81.31
263.57	87.31
263.802	89.31
264.035	93.31
264.267	76.31
264.499	86.31
264.732	87.31
264.964	78.31
265.197	93.31
265.429	94.31
265.661	85.31
265.894	91.31
266.126	84.31
266.358	101.31
266.591	83.31
266.823	93.31
267.055	69.31
267.287	95.31
267.52	104.31
267.752	91.31
267.984	92.31
268.216	92.31
268.448	104.31
268.681	92.31
268.913	68.31
269.145	88.31
269.377	91.31
269.609	96.31
269.841	92.31
270.073	86.31
270.306	83.31
270.538	88.31
270.77	84.31
271.002	82.31
271.234	88.31
271.466	83.31
271.698	98.31
271.93	79.31
272.162	91.31
272.394	77.31
272.626	98.31
272.858	86.31
273.09	84.31
273.322	92.31
273.553	86.31
273.785	80.31
274.017	94.31
274.249	96.31
274.481	80.31
274.713	78.31
274.945	85.31
275.176	92.31
275.408	92.31
275.64	97.31
275.872	100.31
276.104	93.31
276.335	103.31
276.567	100.31
276.799	127.31
277.031	132.31
277.262	137.31
277.494	133.31
277.726	90.31
277.957	98.31
278.189	89.31
278.421	93.31
278.652	85.31
278.884	90.31
279.115	89.31
279.347	95.31
279.579	98.31
279.81	120.31
280.042	137.31
280.273	172.31
280.505	122.31
280.736	108.31
280.968	101.31
281.199	98.31
281.431	76.31
281.662	77.31
281.894	108.31
282.125	110.31
282.356	130.31
282.588	157.31
282.819	112.31
283.051	101.31
283.282	81.31
283.513	100.31
283.745	88.31
283.976	94.31
284.207	85.31
284.439	85.31
284.67	96.31
284.901	86.31
285.132	93.31
285.364	100.31
285.595	102.31
285.826	102.31
286.057	93.31
286.288	95.31
286.52	78.31
286.751	78.31
286.982	96.31
287.213	82.31
287.444	82.31
287.675	94.31
287.906	92.31
288.138	94.31
288.369	97.31
288.6	84.31
288.831	97.31
289.062	102.31
289.293	98.31
289.524	80.31
289.755	88.31
289.986	89.31
290.217	90.31
290.448	82.31
290.679	83.31
290.91	96.31
291.141	88.31
291.371	84.31
291.602	92.31
291.833	83.31
292.064	90.31
292.295	95.31
292.526	88.31
292.757	100.31
292.987	105.31
293.218	95.31
293.449	82.31
293.68	96.31
293.91	88.31
294.141	102.31
294.372	87.31
294.603	88.31
294.833	104.31
295.064	98.31
295.295	99.31
295.525	89.31
295.756	101.31
295.987	122.31
296.217	145.31
296.448	131.31
296.679	106.31
296.909	96.31
297.14	87.31
297.37	104.31
297.601	90.31
297.831	89.31
298.062	89.31
298.292	95.31
298.523	86.31
298.753	93.31
298.984	95.31
299.214	82.31
299.445	99.31
299.675	83.31
299.905	87.31
300.136	91.31
300.366	106.31
300.597	100.31
300.827	93.31
301.057	83.31
301.288	105.31
301.518	76.31
301.748	89.31
301.979	103.31
302.209	99.31
302.439	102.31
302.669	100.31
302.9	91.31
303.13	102.31
303.36	108.31
303.59	116.31
303.82	120.31
304.051	104.31
304.281	96.31
304.511	77.31
304.741	87.31
304.971	92.31
305.201	95.31
305.431	103.31
305.661	102.31
305.891	88.31
306.121	95.31
306.352	90.31
306.582	109.31
306.812	105.31
307.042	113.31
307.272	133.31
307.502	126.31
307.731	127.31
307.961	121.31
308.191	102.31
308.421	85.31
308.651	99.31
308.881	111.31
309.111	97.31
309.341	96.31
309.571	109.31
309.8	89.31
310.03	94.31
310.26	114.31
310.49	91.31
310.72	111.31
310.949	116.31
311.179	100.31
311.409	96.31
311.639	101.31
311.868	112.31
312.098	107.31
312.328	90.31
312.557	111.31
312.787	109.31
313.017	96.31
313.246	100.31
313.476	99.31
313.706	98.31
313.935	93.31
314.165	102.31
314.394	111.31
314.624	98.31
314.853	114.31
315.083	95.31
315.312	85.31
315.542	98.31
315.771	88.31
316.001	101.31
316.23	85.31
316.46	99.31
316.689	98.31
316.919	87.31
317.148	111.31
317.377	91.31
317.607	96.31
317.836	106.31
318.065	98.31
318.295	92.31
318.524	94.31
318.753	89.31
318.983	97.31
319.212	108.31
319.441	115.31
319.67	102.31
319.9	101.31
320.129	88.31
320.358	104.31
320.587	101.31
320.816	96.31
321.046	114.31
321.275	114.31
321.504	102.31
321.733	98.31
321.962	112.31
322.191	123.31
322.42	103.31
322.649	118.31
322.878	113.31
323.108	136.31
323.337	137.31
323.566	124.31
323.795	182.31
324.024	234.31
324.253	507.31
324.482	1098.31
324.71	2356.31
324.939	3006.31
325.168	1054.31
325.397	296.31
325.626	172.31
325.855	158.31
326.084	153.31
326.313	152.31
326.542	177.31
326.77	287.31
326.999	584.31
327.228	1243.31
327.457	2359.31
327.686	1831.31
327.914	530.31
328.143	371.31
328.372	416.31
328.6	251.31
328.829	173.31
329.058	144.31
329.287	180.31
329.515	155.31
329.744	191.31
329.972	305.31
330.201	588.31
330.43	841.31
330.658	375.31
330.887	212.31
331.115	143.31
331.344	115.31
331.572	107.31
331.801	113.31
332.03	109.31
332.258	107.31
332.486	103.31
332.715	95.31
332.943	108.31
333.172	110.31
333.4	119.31
333.629	125.31
333.857	179.31
334.085	286.31
334.314	570.31
334.542	1050.31
334.771	968.31
334.999	289.31
335.227	136.31
335.455	128.31
335.684	101.31
335.912	106.31
336.14	96.31
336.369	104.31
336.597	105.31
336.825	100.31
337.053	98.31
337.281	108.31
337.51	88.31
337.738	103.31
337.966	94.31
338.194	98.31
338.422	91.31
338.65	102.31
338.878	109.31
339.106	81.31
339.334	77.31
339.562	84.31
339.79	91.31
340.018	107.31
340.246	85.31
340.474	95.31
340.702	110.31
340.93	110.31
341.158	86.31
341.386	94.31
341.614	104.31
341.842	95.31
342.07	94.31
342.298	88.31
342.526	88.31
342.754	99.31
342.981	89.31
343.209	81.31
343.437	100.31
343.665	97.31
343.893	98.31
344.12	102.31
344.348	99.31
344.576	92.31
344.804	99.31
345.031	104.31
345.259	101.31
345.487	96.31
345.714	99.31
345.942	93.31
346.17	92.31
346.397	100.31
346.625	109.31
346.853	88.31
347.08	87.31
347.308	89.31
347.535	110.31
347.763	110.31
347.99	105.31
348.218	107.31
348.445	104.31
348.673	102.31
348.9	86.31
349.128	97.31
349.355	86.31
349.583	97.31
349.81	99.31
350.037	103.31
350.265	108.31
350.492	119.31
350.72	118.31
350.947	91.31
351.174	123.31
351.402	114.31
351.629	108.31
351.856	116.31
352.083	98.31
352.311	106.31
352.538	102.31
352.765	111.31
352.992	115.31
353.22	110.31
353.447	106.31
353.674	102.31
353.901	89.31
354.128	108.31
354.355	84.31
354.583	92.31
354.81	89.31
355.037	86.31
355.264	95.31
355.491	81.31
355.718	82.31
355.945	96.31
356.172	100.31
356.399	104.31
356.626	103.31
356.853	105.31
357.08	97.31
357.307	95.31
357.534	88.31
357.761	80.31
357.988	94.31
358.215	99.31
358.441	92.31
358.668	92.31
358.895	113.31
359.122	88.31
359.349	98.31
359.576	97.31
359.802	103.31
360.029	108.31
360.256	107.31
360.483	103.31
360.709	78.31
360.936	101.31
361.163	97.31
361.39	100.31
361.616	103.31
361.843	98.31
362.07	100.31
362.296	95.31
362.523	93.31
362.749	107.31
362.976	90.31
363.203	100.31
363.429	102.31
363.656	99.31
363.882	91.31
364.109	87.31
364.335	86.31
364.562	101.31
364.788	91.31
365.015	93.31
365.241	108.31
365.468	100.31
365.694	122.31
365.92	102.31
366.147	97.31
366.373	99.31
366.599	92.31
366.826	87.31
367.052	92.31
367.278	80.31
367.505	96.31
367.731	105.31
367.957	88.31
368.184	98.31
368.41	116.31
368.636	109.31
368.862	125.31
369.089	111.31
369.315	104.31
369.541	90.31
369.767	87.31
369.993	102.31
370.219	95.31
370.445	95.31
370.672	108.31
370.898	83.31
371.124	90.31
371.35	89.31
371.576	89.31
371.802	82.31
372.028	81.31
372.254	96.31
372.48	87.31
372.706	93.31
372.932	79.31
373.158	87.31
373.384	98.31
373.61	93.31
373.835	108.31
374.061	86.31
374.287	108.31
374.513	98.31
374.739	95.31
374.965	91.31
375.191	92.31
375.416	77.31
375.642	85.31
375.868	105.31
376.094	85.31
376.319	103.31
376.545	95.31
376.771	85.31
376.997	95.31
377.222	77.31
377.448	92.31
377.674	95.31
377.899	81.31
378.125	95.31
378.35	95.31
378.576	109.31
378.802	93.31
379.027	83.31
379.253	100.31
379.478	96.31
379.704	95.31
379.929	79.31
380.155	98.31
380.38	90.31
380.606	92.31
380.831	102.31
381.057	100.31
381.282	89.31
381.507	96.31
381.733	95.31
381.958	83.31
382.184	100.31
382.409	92.31
382.634	102.31
382.86	85.31
383.085	89.31
383.31	107.31
383.535	103.31
383.761	100.31
383.986	101.31
384.211	96.31
384.436	100.31
384.662	95.31
384.887	110.31
385.112	120.31
385.337	106.31
385.562	105.31
385.787	107.31
386.013	121.31
386.238	137.31
386.463	113.31
386.688	117.31
386.913	106.31
387.138	99.31
387.363	111.31
387.588	110.31
387.813	96.31
388.038	92.31
388.263	100.31
388.488	106.31
388.713	99.31
388.938	95.31
389.163	94.31
389.387	92.31
389.612	92.31
389.837	93.31
390.062	93.31
390.287	99.31
390.512	88.31
390.736	93.31
390.961	90.31
391.186	101.31
391.411	86.31
391.636	106.31
391.86	93.31
392.085	92.31
392.31	80.31
392.534	88.31
392.759	76.31
392.984	99.31
393.208	87.31
393.433	89.31
393.658	94.31
393.882	83.31
394.107	90.31
394.331	88.31
394.556	84.31
394.78	98.31
395.005	85.31
395.229	77.31
395.454	83.31
395.678	80.31
395.903	77.31
396.127	105.31
396.352	87.31
396.576	96.31
396.801	101.31
397.025	100.31
397.249	88.31
397.474	93.31
397.698	80.31
397.922	93.31
398.147	81.31
398.371	72.31
398.595	76.31
398.82	89.31
399.044	86.31
399.268	95.31
399.492	92.31
399.717	80.31
399.941	92.31
400.165	106.31
400.389	99.31
400.613	100.31
400.837	87.31
401.062	81.31
401.286	93.31
401.51	89.31
401.734	92.31
401.958	101.31
402.182	105.31
402.406	161.31
402.63	128.31
402.854	111.31
403.078	94.31
403.302	89.31
403.526	89.31
403.75	108.31
403.974	91.31
404.198	79.31
404.422	82.31
404.645	84.31
404.869	100.31
405.093	121.31
405.317	141.31
405.541	150.31
405.765	116.31
405.988	118.31
406.212	162.31
406.436	218.31
406.66	154.31
406.883	116.31
407.107	102.31
407.331	92.31
407.555	102.31
407.778	102.31
408.002	100.31
408.226	96.31
408.449	91.31
408.673	93.31
408.896	97.31
409.12	101.31
409.344	102.31
409.567	102.31
409.791	93.31
410.014	85.31
410.238	104.31
410.461	89.31
410.685	86.31
410.908	104.31
411.132	105.31
411.355	103.31
411.578	92.31
411.802	100.31
412.025	83.31
412.249	101.31
412.472	111.31
412.695	150.31
412.919	120.31
413.142	106.31
413.365	95.31
413.589	93.31
413.812	86.31
414.035	89.31
414.258	97.31
414.482	93.31
414.705	96.31
414.928	102.31
415.151	100.31
415.374	95.31
415.597	101.31
415.821	95.31
416.044	94.31
416.267	87.31
416.49	88.31
416.713	80.31
416.936	80.31
417.159	99.31
417.382	98.31
417.605	93.31
417.828	105.31
418.051	104.31
418.274	84.31
418.497	92.31
418.72	98.31
418.943	99.31
419.166	80.31
419.389	91.31
419.611	85.31
419.834	92.31
420.057	92.31
420.28	92.31
420.503	93.31
420.726	90.31
420.948	91.31
421.171	102.31
421.394	108.31
421.617	99.31
421.839	106.31
422.062	88.31
422.285	94.31
422.507	97.31
422.73	110.31
422.953	95.31
423.175	88.31
423.398	84.31
423.621	98.31
423.843	97.31
424.066	73.31
424.288	99.31
424.511	94.31
424.733	115.31
424.956	136.31
425.178	108.31
425.401	106.31
425.623	117.31
425.846	92.31
426.068	103.31
426.291	100.31
426.513	107.31
426.735	86.31
426.958	103.31
427.18	108.31
427.402	172.31
427.625	218.31
427.847	197.31
428.069	200.31
428.292	128.31
428.514	90.31
428.736	88.31
428.958	97.31
429.181	95.31
429.403	95.31
429.625	90.31
429.847	100.31
430.069	113.31
430.292	98.31
430.514	93.31
430.736	91.31
430.958	89.31
431.18	78.31
431.402	96.31
431.624	93.31
431.846	96.31
432.068	84.31
432.29	89.31
432.512	116.31
432.734	77.31
432.956	96.31
433.178	105.31
433.4	91.31
433.622	76.31
433.844	96.31
434.066	95.31
434.287	74.31
434.509	83.31
434.731	87.31
434.953	107.31
435.175	76.31
435.397	82.31
435.618	98.31
435.84	112.31
436.062	149.31
436.284	130.31
436.505	98.31
436.727	99.31
436.949	100.31
437.17	90.31
437.392	87.31
437.614	92.31
437.835	101.31
438.057	124.31
438.278	119.31
438.5	121.31
438.721	137.31
438.943	124.31
439.165	82.31
439.386	93.31
439.608	110.31
439.829	112.31
440.05	146.31
440.272	170.31
440.493	105.31
440.715	99.31
440.936	81.31
441.158	73.31
441.379	90.31
441.6	96.31
441.822	92.31
442.043	94.31
442.264	122.31
442.486	118.31
442.707	98.31
442.928	119.31
443.149	163.31
443.371	165.31
443.592	127.31
443.813	136.31
444.034	111.31
444.255	101.31
444.476	92.31
444.698	90.31
444.919	97.31
445.14	126.31
445.361	138.31
445.582	120.31
445.803	169.31
446.024	170.31
446.245	170.31
446.466	139.31
446.687	99.31
446.908	94.31
447.129	98.31
447.35	70.31
447.571	93.31
447.792	104.31
448.013	99.31
448.234	122.31
448.455	101.31
448.675	129.31
448.896	131.31
449.117	102.31
449.338	108.31
449.559	156.31
449.779	139.31
450	103.31
450.221	94.31
450.442	82.31
450.662	102.31
450.883	101.31
451.104	120.31
451.324	115.31
451.545	103.31
451.766	94.31
451.986	100.31
452.207	87.31
452.428	93.31
452.648	110.31
452.869	124.31
453.089	118.31
453.31	125.31
453.53	88.31
453.751	107.31
453.971	100.31
454.192	121.31
454.412	98.31
454.633	93.31
454.853	98.31
455.073	88.31
455.294	85.31
455.514	118.31
455.734	108.31
455.955	93.31
456.175	94.31
456.395	90.31
456.616	94.31
456.836	88.31
457.056	84.31
457.276	94.31
457.497	85.31
457.717	98.31
457.937	91.31
458.157	88.31
458.377	93.31
458.598	128.31
458.818	159.31
459.038	188.31
459.258	137.31
459.478	97.31
459.698	85.31
459.918	77.31
460.138	92.31
460.358	80.31
460.578	89.31
460.798	102.31
461.018	87.31
461.238	95.31
461.458	84.31
461.678	102.31
461.898	76.31
462.118	99.31
462.338	85.31
462.558	90.31
462.777	94.31
462.997	93.31
463.217	107.31
463.437	98.31
463.657	86.31
463.876	95.31
464.096	81.31
464.316	105.31
464.536	94.31
464.755	102.31
464.975	117.31
465.195	193.31
465.414	182.31
465.634	104.31
465.854	94.31
466.073	97.31
466.293	93.31
466.512	78.31
466.732	91.31
466.951	86.31
467.171	96.31
467.391	99.31
467.61	130.31
467.829	157.31
468.049	325.31
468.268	458.31
468.488	163.31
468.707	102.31
468.927	93.31
469.146	82.31
469.365	93.31
469.585	97.31
469.804	89.31
470.023	95.31
470.243	100.31
470.462	113.31
470.681	118.31
470.901	98.31
471.12	84.31
471.339	84.31
471.558	95.31
471.777	135.31
471.997	201.31
472.216	655.31
472.435	1356.31
472.654	357.31
472.873	136.31
473.092	99.31
473.311	106.31
473.53	102.31
473.749	92.31
473.968	97.31
474.187	119.31
474.406	106.31
474.625	90.31
474.844	89.31
475.063	89.31
475.282	78.31
475.501	100.31
475.72	104.31
475.939	87.31
476.158	86.31
476.377	97.31
476.596	96.31
476.814	105.31
477.033	100.31
477.252	97.31
477.471	88.31
477.69	96.31
477.908	82.31
478.127	96.31
478.346	105.31
478.564	102.31
478.783	106.31
479.002	103.31
479.22	100.31
479.439	103.31
479.658	111.31
479.876	106.31
480.095	100.31
480.313	107.31
480.532	123.31
480.751	190.31
480.969	639.31
481.188	2494.31
481.406	1407.31
481.624	240.31
481.843	100.31
482.061	90.31
482.28	96.31
482.498	89.31
482.717	89.31
482.935	77.31
483.153	96.31
483.372	80.31
483.59	97.31
483.808	92.31
484.027	95.31
484.245	92.31
484.463	100.31
484.681	100.31
484.9	88.31
485.118	89.31
485.336	95.31
485.554	87.31
485.772	105.31
485.99	111.31
486.209	108.31
486.427	111.31
486.645	129.31
486.863	109.31
487.081	113.31
487.299	94.31
487.517	100.31
487.735	93.31
487.953	91.31
488.171	89.31
488.389	97.31
488.607	93.31
488.825	102.31
489.043	87.31
489.261	77.31
489.479	84.31
489.696	80.31
489.914	92.31
490.132	97.31
490.35	88.31
490.568	99.31
490.786	95.31
491.003	88.31
491.221	91.31
491.439	102.31
491.657	84.31
491.874	97.31
492.092	96.31
492.31	95.31
492.527	91.31
492.745	89.31
492.963	94.31
493.18	102.31
493.398	83.31
493.615	86.31
493.833	96.31
494.05	96.31
494.268	84.31
494.485	88.31
494.703	88.31
494.92	96.31
495.138	72.31
495.355	101.31
495.573	96.31
495.79	98.31
496.008	97.31
496.225	99.31
496.442	97.31
496.66	99.31
496.877	88.31
497.094	92.31
497.312	94.31
497.529	94.31
497.746	88.31
497.963	94.31
498.181	101.31
498.398	96.31
498.615	110.31
498.832	110.31
499.049	98.31
499.267	104.31
499.484	96.31
499.701	105.31
499.918	94.31
500.135	96.31
500.352	88.31
500.569	110.31
500.786	104.31
501.003	100.31
501.22	100.31
501.437	90.31
501.654	102.31
501.871	114.31
502.088	99.31
502.305	105.31
502.522	89.31
502.739	91.31
502.956	99.31
503.172	99.31
503.389	104.31
503.606	114.31
503.823	106.31
504.04	102.31
504.256	94.31
504.473	106.31
504.69	104.31
504.907	91.31
505.123	93.31
505.34	95.31
505.557	95.31
505.773	93.31
505.99	103.31
506.207	76.31
506.423	84.31
506.64	96.31
506.856	101.31
507.073	94.31
507.289	78.31
507.506	94.31
507.722	128.31
507.939	112.31
508.155	100.31
508.372	92.31
508.588	105.31
508.805	108.31
509.021	89.31
509.238	98.31
509.454	102.31
509.67	100.31
509.887	116.31
510.103	122.31
510.319	208.31
510.536	741.31
510.752	2448.31
510.968	668.31
511.184	156.31
511.401	100.31
511.617	102.31
511.833	108.31
512.049	109.31
512.265	94.31
512.481	100.31
512.698	95.31
512.914	98.31
513.13	98.31
