Data from Circ_1997_H10_HRD10591_00082.txt Node
Date: Wed Jan 03 11:29:44 EST 2024
User: Yrep
Spectrometer: HR+D1059
Trigger mode: 1
Integration Time (sec): 1.000000E-1
Scans to average: 1
Electric dark correction enabled: true
Nonlinearity correction enabled: false
Boxcar width: 0
XAxis mode: Wavelengths
Number of Pixels in Spectrum: 2048
>>>>>Begin Spectral Data<<<<<
223.165	-11.31
223.4	-11.31
223.635	-11.31
223.869	-19.31
224.104	-14.31
224.338	-9.31
224.573	-13.31
224.808	-20.31
225.042	-9.31
225.277	1.69
225.511	-12.31
225.746	-0.31
225.98	1.69
226.215	19.69
226.449	10.69
226.683	28.69
226.918	16.69
227.152	30.69
227.387	40.69
227.621	43.69
227.856	58.69
228.09	45.69
228.324	48.69
228.559	59.69
228.793	59.69
229.027	78.69
229.262	63.69
229.496	77.69
229.73	104.69
229.964	88.69
230.199	77.69
230.433	76.69
230.667	82.69
230.901	102.69
231.136	84.69
231.37	75.69
231.604	79.69
231.838	82.69
232.072	70.69
232.306	63.69
232.541	66.69
232.775	88.69
233.009	84.69
233.243	85.69
233.477	85.69
233.711	79.69
233.945	76.69
234.179	76.69
234.413	82.69
234.647	64.69
234.881	81.69
235.115	89.69
235.349	92.69
235.583	91.69
235.817	73.69
236.051	84.69
236.285	85.69
236.519	89.69
236.753	72.69
236.987	87.69
237.221	96.69
237.455	111.69
237.689	86.69
237.922	86.69
238.156	91.69
238.39	78.69
238.624	77.69
238.858	90.69
239.091	83.69
239.325	102.69
239.559	89.69
239.793	99.69
240.027	84.69
240.26	89.69
240.494	88.69
240.728	75.69
240.961	88.69
241.195	76.69
241.429	70.69
241.662	76.69
241.896	84.69
242.13	82.69
242.363	81.69
242.597	79.69
242.83	65.69
243.064	79.69
243.298	78.69
243.531	78.69
243.765	84.69
243.998	93.69
244.232	88.69
244.465	94.69
244.699	83.69
244.932	70.69
245.166	93.69
245.399	79.69
245.633	70.69
245.866	86.69
246.099	76.69
246.333	76.69
246.566	76.69
246.8	78.69
247.033	68.69
247.266	89.69
247.5	80.69
247.733	90.69
247.966	96.69
248.2	89.69
248.433	80.69
248.666	67.69
248.899	81.69
249.133	107.69
249.366	111.69
249.599	110.69
249.832	76.69
250.066	90.69
250.299	100.69
250.532	99.69
250.765	89.69
250.998	90.69
251.231	90.69
251.465	84.69
251.698	76.69
251.931	95.69
252.164	84.69
252.397	81.69
252.63	77.69
252.863	72.69
253.096	63.69
253.329	84.69
253.562	78.69
253.795	78.69
254.028	90.69
254.261	74.69
254.494	88.69
254.727	83.69
254.96	78.69
255.193	72.69
255.426	86.69
255.659	82.69
255.892	91.69
256.124	105.69
256.357	86.69
256.59	68.69
256.823	77.69
257.056	101.69
257.289	90.69
257.521	80.69
257.754	86.69
257.987	86.69
258.22	83.69
258.452	90.69
258.685	95.69
258.918	78.69
259.151	84.69
259.383	79.69
259.616	85.69
259.849	82.69
260.081	87.69
260.314	90.69
260.547	94.69
260.779	107.69
261.012	100.69
261.244	120.69
261.477	102.69
261.71	119.69
261.942	161.69
262.175	137.69
262.407	97.69
262.64	83.69
262.872	92.69
263.105	95.69
263.337	92.69
263.57	81.69
263.802	87.69
264.035	91.69
264.267	79.69
264.499	79.69
264.732	80.69
264.964	91.69
265.197	74.69
265.429	92.69
265.661	92.69
265.894	88.69
266.126	97.69
266.358	77.69
266.591	83.69
266.823	89.69
267.055	84.69
267.287	82.69
267.52	90.69
267.752	92.69
267.984	95.69
268.216	82.69
268.448	90.69
268.681	86.69
268.913	102.69
269.145	91.69
269.377	92.69
269.609	82.69
269.841	103.69
270.073	92.69
270.306	84.69
270.538	90.69
270.77	84.69
271.002	78.69
271.234	86.69
271.466	105.69
271.698	85.69
271.93	90.69
272.162	107.69
272.394	84.69
272.626	101.69
272.858	80.69
273.09	80.69
273.322	94.69
273.553	84.69
273.785	81.69
274.017	80.69
274.249	82.69
274.481	98.69
274.713	94.69
274.945	99.69
275.176	82.69
275.408	109.69
275.64	108.69
275.872	122.69
276.104	111.69
276.335	108.69
276.567	122.69
276.799	148.69
277.031	183.69
277.262	211.69
277.494	169.69
277.726	110.69
277.957	83.69
278.189	83.69
278.421	94.69
278.652	98.69
278.884	91.69
279.115	94.69
279.347	94.69
279.579	122.69
279.81	161.69
280.042	210.69
280.273	325.69
280.505	217.69
280.736	103.69
280.968	90.69
281.199	104.69
281.431	95.69
281.662	94.69
281.894	93.69
282.125	111.69
282.356	146.69
282.588	176.69
282.819	137.69
283.051	92.69
283.282	102.69
283.513	96.69
283.745	94.69
283.976	73.69
284.207	87.69
284.439	91.69
284.67	91.69
284.901	78.69
285.132	79.69
285.364	82.69
285.595	84.69
285.826	97.69
286.057	81.69
286.288	95.69
286.52	92.69
286.751	92.69
286.982	87.69
287.213	88.69
287.444	84.69
287.675	88.69
287.906	82.69
288.138	84.69
288.369	100.69
288.6	91.69
288.831	87.69
289.062	89.69
289.293	99.69
289.524	97.69
289.755	92.69
289.986	88.69
290.217	89.69
290.448	98.69
290.679	111.69
290.91	90.69
291.141	81.69
291.371	74.69
291.602	76.69
291.833	101.69
292.064	93.69
292.295	92.69
292.526	104.69
292.757	70.69
292.987	61.69
293.218	99.69
293.449	97.69
293.68	99.69
293.91	97.69
294.141	98.69
294.372	91.69
294.603	96.69
294.833	84.69
295.064	80.69
295.295	107.69
295.525	86.69
295.756	105.69
295.987	151.69
296.217	181.69
296.448	152.69
296.679	106.69
296.909	96.69
297.14	93.69
297.37	103.69
297.601	102.69
297.831	87.69
298.062	118.69
298.292	100.69
298.523	90.69
298.753	80.69
298.984	79.69
299.214	94.69
299.445	95.69
299.675	103.69
299.905	102.69
300.136	90.69
300.366	83.69
300.597	95.69
300.827	107.69
301.057	97.69
301.288	111.69
301.518	105.69
301.748	110.69
301.979	118.69
302.209	110.69
302.439	99.69
302.669	100.69
302.9	106.69
303.13	107.69
303.36	111.69
303.59	150.69
303.82	161.69
304.051	109.69
304.281	92.69
304.511	94.69
304.741	100.69
304.971	79.69
305.201	96.69
305.431	99.69
305.661	83.69
305.891	99.69
306.121	108.69
306.352	113.69
306.582	130.69
306.812	111.69
307.042	135.69
307.272	181.69
307.502	195.69
307.731	186.69
307.961	131.69
308.191	100.69
308.421	109.69
308.651	103.69
308.881	96.69
309.111	99.69
309.341	89.69
309.571	90.69
309.8	103.69
310.03	119.69
310.26	110.69
310.49	99.69
310.72	110.69
310.949	123.69
311.179	110.69
311.409	106.69
311.639	99.69
311.868	99.69
312.098	92.69
312.328	115.69
312.557	109.69
312.787	131.69
313.017	122.69
313.246	87.69
313.476	93.69
313.706	91.69
313.935	113.69
314.165	103.69
314.394	129.69
314.624	100.69
314.853	115.69
315.083	104.69
315.312	89.69
315.542	85.69
315.771	96.69
316.001	91.69
316.23	95.69
316.46	102.69
316.689	94.69
316.919	91.69
317.148	112.69
317.377	103.69
317.607	112.69
317.836	102.69
318.065	91.69
318.295	102.69
318.524	91.69
318.753	95.69
318.983	103.69
319.212	100.69
319.441	127.69
319.67	116.69
319.9	98.69
320.129	99.69
320.358	88.69
320.587	89.69
320.816	109.69
321.046	122.69
321.275	123.69
321.504	98.69
321.733	112.69
321.962	116.69
322.191	116.69
322.42	127.69
322.649	118.69
322.878	117.69
323.108	134.69
323.337	125.69
323.566	149.69
323.795	186.69
324.024	252.69
324.253	501.69
324.482	1126.69
324.71	2326.69
324.939	3106.69
325.168	1121.69
325.397	320.69
325.626	175.69
325.855	149.69
326.084	155.69
326.313	169.69
326.542	202.69
326.77	283.69
326.999	577.69
327.228	1192.69
327.457	2225.69
327.686	1795.69
327.914	654.69
328.143	668.69
328.372	839.69
328.6	450.69
328.829	208.69
329.058	208.69
329.287	225.69
329.515	201.69
329.744	310.69
329.972	596.69
330.201	1267.69
330.43	1868.69
330.658	800.69
330.887	337.69
331.115	199.69
331.344	153.69
331.572	129.69
331.801	129.69
332.03	131.69
332.258	134.69
332.486	126.69
332.715	118.69
332.943	127.69
333.172	134.69
333.4	125.69
333.629	191.69
333.857	280.69
334.085	550.69
334.314	1187.69
334.542	2371.69
334.771	2148.69
334.999	534.69
335.227	200.69
335.455	146.69
335.684	119.69
335.912	110.69
336.14	106.69
336.369	118.69
336.597	125.69
336.825	114.69
337.053	95.69
337.281	104.69
337.51	107.69
337.738	114.69
337.966	109.69
338.194	110.69
338.422	104.69
338.65	95.69
338.878	99.69
339.106	93.69
339.334	96.69
339.562	105.69
339.79	89.69
340.018	106.69
340.246	97.69
340.474	115.69
340.702	112.69
340.93	92.69
341.158	97.69
341.386	100.69
341.614	101.69
341.842	103.69
342.07	86.69
342.298	99.69
342.526	97.69
342.754	83.69
342.981	87.69
343.209	90.69
343.437	101.69
343.665	101.69
343.893	84.69
344.12	96.69
344.348	108.69
344.576	110.69
344.804	102.69
345.031	111.69
345.259	114.69
345.487	103.69
345.714	102.69
345.942	114.69
346.17	91.69
346.397	86.69
346.625	93.69
346.853	106.69
347.08	94.69
347.308	92.69
347.535	107.69
347.763	104.69
347.99	100.69
348.218	125.69
348.445	123.69
348.673	118.69
348.9	110.69
349.128	101.69
349.355	93.69
349.583	93.69
349.81	92.69
350.037	94.69
350.265	93.69
350.492	101.69
350.72	91.69
350.947	104.69
351.174	125.69
351.402	127.69
351.629	107.69
351.856	110.69
352.083	103.69
352.311	115.69
352.538	131.69
352.765	137.69
352.992	122.69
353.22	121.69
353.447	128.69
353.674	105.69
353.901	104.69
354.128	94.69
354.355	84.69
354.583	94.69
354.81	87.69
355.037	94.69
355.264	104.69
355.491	86.69
355.718	101.69
355.945	99.69
356.172	106.69
356.399	74.69
356.626	110.69
356.853	101.69
357.08	83.69
357.307	84.69
357.534	90.69
357.761	83.69
357.988	95.69
358.215	90.69
358.441	106.69
358.668	88.69
358.895	97.69
359.122	93.69
359.349	97.69
359.576	107.69
359.802	122.69
360.029	159.69
360.256	146.69
360.483	132.69
360.709	112.69
360.936	84.69
361.163	100.69
361.39	120.69
361.616	97.69
361.843	93.69
362.07	95.69
362.296	123.69
362.523	99.69
362.749	107.69
362.976	87.69
363.203	100.69
363.429	83.69
363.656	89.69
363.882	87.69
364.109	94.69
364.335	102.69
364.562	91.69
364.788	94.69
365.015	105.69
365.241	110.69
365.468	123.69
365.694	125.69
365.92	95.69
366.147	108.69
366.373	82.69
366.599	106.69
366.826	88.69
367.052	88.69
367.278	83.69
367.505	82.69
367.731	101.69
367.957	90.69
368.184	96.69
368.41	122.69
368.636	136.69
368.862	121.69
369.089	114.69
369.315	106.69
369.541	107.69
369.767	90.69
369.993	110.69
370.219	85.69
370.445	74.69
370.672	98.69
370.898	91.69
371.124	103.69
371.35	96.69
371.576	78.69
371.802	93.69
372.028	86.69
372.254	93.69
372.48	80.69
372.706	84.69
372.932	90.69
373.158	87.69
373.384	100.69
373.61	98.69
373.835	99.69
374.061	99.69
374.287	102.69
374.513	103.69
374.739	91.69
374.965	96.69
375.191	92.69
375.416	97.69
375.642	91.69
375.868	98.69
376.094	83.69
376.319	94.69
376.545	85.69
376.771	97.69
376.997	95.69
377.222	96.69
377.448	107.69
377.674	87.69
377.899	88.69
378.125	90.69
378.35	90.69
378.576	91.69
378.802	93.69
379.027	86.69
379.253	95.69
379.478	80.69
379.704	86.69
379.929	84.69
380.155	95.69
380.38	79.69
380.606	98.69
380.831	89.69
381.057	87.69
381.282	102.69
381.507	120.69
381.733	96.69
381.958	100.69
382.184	120.69
382.409	100.69
382.634	109.69
382.86	99.69
383.085	92.69
383.31	94.69
383.535	98.69
383.761	97.69
383.986	113.69
384.211	111.69
384.436	94.69
384.662	87.69
384.887	97.69
385.112	99.69
385.337	105.69
385.562	95.69
385.787	106.69
386.013	103.69
386.238	108.69
386.463	120.69
386.688	112.69
386.913	98.69
387.138	96.69
387.363	95.69
387.588	98.69
387.813	102.69
388.038	92.69
388.263	105.69
388.488	95.69
388.713	92.69
388.938	84.69
389.163	92.69
389.387	86.69
389.612	89.69
389.837	98.69
390.062	96.69
390.287	100.69
390.512	90.69
390.736	99.69
390.961	99.69
391.186	112.69
391.411	99.69
391.636	83.69
391.86	103.69
392.085	88.69
392.31	91.69
392.534	96.69
392.759	80.69
392.984	90.69
393.208	85.69
393.433	94.69
393.658	103.69
393.882	91.69
394.107	84.69
394.331	102.69
394.556	100.69
394.78	92.69
395.005	85.69
395.229	89.69
395.454	85.69
395.678	73.69
395.903	82.69
396.127	82.69
396.352	86.69
396.576	85.69
396.801	89.69
397.025	83.69
397.249	94.69
397.474	90.69
397.698	91.69
397.922	97.69
398.147	94.69
398.371	93.69
398.595	99.69
398.82	84.69
399.044	78.69
399.268	88.69
399.492	79.69
399.717	88.69
399.941	105.69
400.165	102.69
400.389	94.69
400.613	103.69
400.837	96.69
401.062	96.69
401.286	92.69
401.51	95.69
401.734	108.69
401.958	115.69
402.182	172.69
402.406	202.69
402.63	159.69
402.854	94.69
403.078	104.69
403.302	83.69
403.526	107.69
403.75	87.69
403.974	95.69
404.198	97.69
404.422	104.69
404.645	102.69
404.869	97.69
405.093	126.69
405.317	150.69
405.541	144.69
405.765	126.69
405.988	133.69
406.212	230.69
406.436	338.69
406.66	218.69
406.883	123.69
407.107	112.69
407.331	109.69
407.555	122.69
407.778	113.69
408.002	105.69
408.226	109.69
408.449	99.69
408.673	72.69
408.896	95.69
409.12	106.69
409.344	97.69
409.567	75.69
409.791	99.69
410.014	90.69
410.238	109.69
410.461	105.69
410.685	111.69
410.908	91.69
411.132	115.69
411.355	95.69
411.578	91.69
411.802	90.69
412.025	95.69
412.249	98.69
412.472	140.69
412.695	152.69
412.919	122.69
413.142	85.69
413.365	87.69
413.589	95.69
413.812	96.69
414.035	89.69
414.258	102.69
414.482	100.69
414.705	90.69
414.928	99.69
415.151	119.69
415.374	95.69
415.597	81.69
415.821	97.69
416.044	99.69
416.267	103.69
416.49	84.69
416.713	92.69
416.936	95.69
417.159	92.69
417.382	106.69
417.605	117.69
417.828	119.69
418.051	101.69
418.274	96.69
418.497	90.69
418.72	94.69
418.943	94.69
419.166	86.69
419.389	95.69
419.611	102.69
419.834	96.69
420.057	100.69
420.28	93.69
420.503	102.69
420.726	84.69
420.948	96.69
421.171	115.69
421.394	95.69
421.617	96.69
421.839	86.69
422.062	98.69
422.285	105.69
422.507	102.69
422.73	111.69
422.953	111.69
423.175	106.69
423.398	109.69
423.621	96.69
423.843	89.69
424.066	97.69
424.288	97.69
424.511	109.69
424.733	105.69
424.956	129.69
425.178	119.69
425.401	113.69
425.623	108.69
425.846	96.69
426.068	109.69
426.291	106.69
426.513	115.69
426.735	103.69
426.958	109.69
427.18	142.69
427.402	187.69
427.625	276.69
427.847	292.69
428.069	250.69
428.292	138.69
428.514	99.69
428.736	86.69
428.958	88.69
429.181	94.69
429.403	89.69
429.625	96.69
429.847	111.69
430.069	123.69
430.292	92.69
430.514	94.69
430.736	83.69
430.958	89.69
431.18	98.69
431.402	89.69
431.624	93.69
431.846	104.69
432.068	89.69
432.29	100.69
432.512	84.69
432.734	90.69
432.956	100.69
433.178	112.69
433.4	90.69
433.622	86.69
433.844	89.69
434.066	100.69
434.287	98.69
434.509	98.69
434.731	91.69
434.953	86.69
435.175	96.69
435.397	100.69
435.618	102.69
435.84	105.69
436.062	163.69
436.284	143.69
436.505	106.69
436.727	107.69
436.949	103.69
437.17	89.69
437.392	96.69
437.614	114.69
437.835	130.69
438.057	160.69
438.278	161.69
438.5	126.69
438.721	145.69
438.943	115.69
439.165	113.69
439.386	95.69
439.608	101.69
439.829	123.69
440.05	168.69
440.272	192.69
440.493	101.69
440.715	103.69
440.936	90.69
441.158	92.69
441.379	89.69
441.6	113.69
441.822	112.69
442.043	111.69
442.264	135.69
442.486	124.69
442.707	106.69
442.928	129.69
443.149	171.69
443.371	202.69
443.592	140.69
443.813	168.69
444.034	131.69
444.255	100.69
444.476	84.69
444.698	92.69
444.919	94.69
445.14	139.69
445.361	154.69
445.582	155.69
445.803	220.69
446.024	187.69
446.245	182.69
446.466	134.69
446.687	101.69
446.908	89.69
447.129	94.69
447.35	104.69
447.571	107.69
447.792	107.69
448.013	110.69
448.234	115.69
448.455	105.69
448.675	144.69
448.896	148.69
449.117	106.69
449.338	126.69
449.559	156.69
449.779	160.69
450	106.69
450.221	113.69
450.442	92.69
450.662	106.69
450.883	126.69
451.104	139.69
451.324	109.69
451.545	107.69
451.766	83.69
451.986	91.69
452.207	97.69
452.428	103.69
452.648	115.69
452.869	139.69
453.089	137.69
453.31	143.69
453.53	96.69
453.751	104.69
453.971	122.69
454.192	149.69
454.412	90.69
454.633	78.69
454.853	85.69
455.073	96.69
455.294	105.69
455.514	118.69
455.734	93.69
455.955	78.69
456.175	79.69
456.395	93.69
456.616	74.69
456.836	78.69
457.056	90.69
457.276	98.69
457.497	96.69
457.717	103.69
457.937	82.69
458.157	123.69
458.377	108.69
458.598	131.69
458.818	222.69
459.038	267.69
459.258	170.69
459.478	121.69
459.698	102.69
459.918	97.69
460.138	91.69
460.358	93.69
460.578	93.69
460.798	105.69
461.018	97.69
461.238	91.69
461.458	83.69
461.678	88.69
461.898	87.69
462.118	100.69
462.338	86.69
462.558	76.69
462.777	84.69
462.997	96.69
463.217	120.69
463.437	98.69
463.657	76.69
463.876	103.69
464.096	90.69
464.316	108.69
464.536	109.69
464.755	110.69
464.975	123.69
465.195	244.69
465.414	259.69
465.634	115.69
465.854	86.69
466.073	95.69
466.293	94.69
466.512	89.69
466.732	85.69
466.951	103.69
467.171	106.69
467.391	123.69
467.61	161.69
467.829	241.69
468.049	728.69
468.268	1056.69
468.488	246.69
468.707	127.69
468.927	88.69
469.146	106.69
469.365	95.69
469.585	103.69
469.804	122.69
470.023	119.69
470.243	113.69
470.462	124.69
470.681	160.69
470.901	113.69
471.12	104.69
471.339	122.69
471.558	134.69
471.777	176.69
471.997	363.69
472.216	1435.69
472.435	3244.69
472.654	721.69
472.873	183.69
473.092	121.69
473.311	103.69
473.53	94.69
473.749	97.69
473.968	115.69
474.187	142.69
474.406	120.69
474.625	107.69
474.844	97.69
475.063	96.69
475.282	104.69
475.501	80.69
475.72	82.69
475.939	91.69
476.158	82.69
476.377	73.69
476.596	107.69
476.814	118.69
477.033	110.69
477.252	85.69
477.471	88.69
477.69	98.69
477.908	103.69
478.127	96.69
478.346	90.69
478.564	103.69
478.783	103.69
479.002	111.69
479.22	113.69
479.439	143.69
479.658	156.69
479.876	130.69
480.095	136.69
480.313	151.69
480.532	208.69
480.751	354.69
480.969	1315.69
481.188	5752.69
481.406	3169.69
481.624	450.69
481.843	161.69
482.061	122.69
482.28	109.69
482.498	117.69
482.717	106.69
482.935	102.69
483.153	99.69
483.372	80.69
483.59	104.69
483.808	93.69
484.027	105.69
484.245	108.69
484.463	106.69
484.681	113.69
484.9	95.69
485.118	99.69
485.336	100.69
485.554	94.69
485.772	104.69
485.99	98.69
486.209	104.69
486.427	104.69
486.645	140.69
486.863	139.69
487.081	103.69
487.299	103.69
487.517	100.69
487.735	107.69
487.953	88.69
488.171	92.69
488.389	110.69
488.607	114.69
488.825	82.69
489.043	97.69
489.261	82.69
489.479	97.69
489.696	105.69
489.914	98.69
490.132	97.69
490.35	96.69
490.568	93.69
490.786	80.69
491.003	91.69
491.221	97.69
491.439	114.69
491.657	103.69
491.874	94.69
492.092	83.69
492.31	93.69
492.527	90.69
492.745	111.69
492.963	92.69
493.18	101.69
493.398	88.69
493.615	90.69
493.833	100.69
494.05	103.69
494.268	92.69
494.485	86.69
494.703	92.69
494.92	87.69
495.138	89.69
495.355	99.69
495.573	93.69
495.79	96.69
496.008	94.69
496.225	101.69
496.442	83.69
496.66	67.69
496.877	102.69
497.094	91.69
497.312	97.69
497.529	92.69
497.746	86.69
497.963	84.69
498.181	99.69
498.398	105.69
498.615	119.69
498.832	110.69
499.049	102.69
499.267	107.69
499.484	93.69
499.701	84.69
499.918	77.69
500.135	85.69
500.352	112.69
500.569	98.69
500.786	94.69
501.003	99.69
501.22	84.69
501.437	97.69
501.654	111.69
501.871	144.69
502.088	103.69
502.305	95.69
502.522	95.69
502.739	99.69
502.956	110.69
503.172	99.69
503.389	106.69
503.606	131.69
503.823	108.69
504.04	91.69
504.256	91.69
504.473	78.69
504.69	97.69
504.907	92.69
505.123	90.69
505.34	81.69
505.557	95.69
505.773	103.69
505.99	82.69
506.207	84.69
506.423	87.69
506.64	86.69
506.856	82.69
507.073	84.69
507.289	88.69
507.506	116.69
507.722	126.69
507.939	128.69
508.155	104.69
508.372	107.69
508.588	94.69
508.805	100.69
509.021	99.69
509.238	119.69
509.454	109.69
509.67	106.69
509.887	115.69
510.103	159.69
510.319	259.69
510.536	1007.69
510.752	3520.69
510.968	933.69
511.184	194.69
511.401	144.69
511.617	107.69
