Data from Circ_1997_H10_HRD10591_00055.txt Node
Date: Wed Jan 03 11:29:38 EST 2024
User: Yrep
Spectrometer: HR+D1059
Trigger mode: 1
Integration Time (sec): 1.000000E-1
Scans to average: 1
Electric dark correction enabled: true
Nonlinearity correction enabled: false
Boxcar width: 0
XAxis mode: Wavelengths
Number of Pixels in Spectrum: 2048
>>>>>Begin Spectral Data<<<<<
223.165	-13.75
223.4	-13.75
223.635	-13.75
223.869	-34.75
224.104	-21.75
224.338	-19.75
224.573	-14.75
224.808	3.25
225.042	-9.75
225.277	-15.75
225.511	-7.75
225.746	6.25
225.98	8.25
226.215	10.25
226.449	32.25
226.683	29.25
226.918	24.25
227.152	24.25
227.387	41.25
227.621	39.25
227.856	54.25
228.09	58.25
228.324	58.25
228.559	60.25
228.793	66.25
229.027	82.25
229.262	87.25
229.496	82.25
229.73	105.25
229.964	95.25
230.199	77.25
230.433	99.25
230.667	93.25
230.901	82.25
231.136	92.25
231.37	83.25
231.604	88.25
231.838	76.25
232.072	77.25
232.306	86.25
232.541	92.25
232.775	79.25
233.009	84.25
233.243	72.25
233.477	92.25
233.711	78.25
233.945	81.25
234.179	94.25
234.413	88.25
234.647	84.25
234.881	88.25
235.115	92.25
235.349	84.25
235.583	82.25
235.817	70.25
236.051	78.25
236.285	66.25
236.519	78.25
236.753	76.25
236.987	80.25
237.221	96.25
237.455	97.25
237.689	89.25
237.922	89.25
238.156	93.25
238.39	89.25
238.624	72.25
238.858	85.25
239.091	76.25
239.325	77.25
239.559	86.25
239.793	86.25
240.027	90.25
240.26	88.25
240.494	93.25
240.728	88.25
240.961	90.25
241.195	74.25
241.429	85.25
241.662	80.25
241.896	84.25
242.13	78.25
242.363	89.25
242.597	78.25
242.83	94.25
243.064	77.25
243.298	75.25
243.531	63.25
243.765	76.25
243.998	81.25
244.232	96.25
244.465	85.25
244.699	85.25
244.932	87.25
245.166	78.25
245.399	99.25
245.633	85.25
245.866	86.25
246.099	76.25
246.333	95.25
246.566	90.25
246.8	96.25
247.033	76.25
247.266	74.25
247.5	76.25
247.733	83.25
247.966	76.25
248.2	73.25
248.433	80.25
248.666	91.25
248.899	93.25
249.133	97.25
249.366	97.25
249.599	108.25
249.832	90.25
250.066	84.25
250.299	94.25
250.532	94.25
250.765	74.25
250.998	87.25
251.231	78.25
251.465	77.25
251.698	76.25
251.931	85.25
252.164	83.25
252.397	77.25
252.63	89.25
252.863	78.25
253.096	76.25
253.329	88.25
253.562	86.25
253.795	80.25
254.028	90.25
254.261	82.25
254.494	90.25
254.727	99.25
254.96	89.25
255.193	89.25
255.426	74.25
255.659	75.25
255.892	93.25
256.124	95.25
256.357	88.25
256.59	86.25
256.823	82.25
257.056	92.25
257.289	81.25
257.521	86.25
257.754	91.25
257.987	89.25
258.22	90.25
258.452	92.25
258.685	85.25
258.918	97.25
259.151	82.25
259.383	82.25
259.616	81.25
259.849	89.25
260.081	92.25
260.314	91.25
260.547	91.25
260.779	94.25
261.012	107.25
261.244	109.25
261.477	107.25
261.71	113.25
261.942	132.25
262.175	158.25
262.407	122.25
262.64	96.25
262.872	100.25
263.105	77.25
263.337	85.25
263.57	90.25
263.802	90.25
264.035	87.25
264.267	95.25
264.499	81.25
264.732	88.25
264.964	95.25
265.197	90.25
265.429	79.25
265.661	93.25
265.894	93.25
266.126	95.25
266.358	103.25
266.591	94.25
266.823	106.25
267.055	95.25
267.287	84.25
267.52	72.25
267.752	92.25
267.984	86.25
268.216	91.25
268.448	86.25
268.681	85.25
268.913	110.25
269.145	88.25
269.377	89.25
269.609	94.25
269.841	80.25
270.073	92.25
270.306	98.25
270.538	79.25
270.77	93.25
271.002	82.25
271.234	98.25
271.466	101.25
271.698	90.25
271.93	94.25
272.162	81.25
272.394	85.25
272.626	101.25
272.858	82.25
273.09	83.25
273.322	89.25
273.553	91.25
273.785	83.25
274.017	89.25
274.249	73.25
274.481	95.25
274.713	86.25
274.945	95.25
275.176	107.25
275.408	98.25
275.64	120.25
275.872	119.25
276.104	98.25
276.335	116.25
276.567	120.25
276.799	153.25
277.031	164.25
277.262	170.25
277.494	140.25
277.726	93.25
277.957	100.25
278.189	92.25
278.421	107.25
278.652	111.25
278.884	95.25
279.115	90.25
279.347	97.25
279.579	107.25
279.81	131.25
280.042	190.25
280.273	250.25
280.505	167.25
280.736	109.25
280.968	93.25
281.199	90.25
281.431	90.25
281.662	85.25
281.894	106.25
282.125	101.25
282.356	122.25
282.588	172.25
282.819	129.25
283.051	101.25
283.282	90.25
283.513	92.25
283.745	85.25
283.976	91.25
284.207	85.25
284.439	92.25
284.67	90.25
284.901	91.25
285.132	84.25
285.364	97.25
285.595	96.25
285.826	97.25
286.057	94.25
286.288	93.25
286.52	89.25
286.751	99.25
286.982	98.25
287.213	82.25
287.444	88.25
287.675	97.25
287.906	102.25
288.138	84.25
288.369	88.25
288.6	94.25
288.831	99.25
289.062	84.25
289.293	89.25
289.524	84.25
289.755	95.25
289.986	89.25
290.217	89.25
290.448	104.25
290.679	101.25
290.91	88.25
291.141	88.25
291.371	89.25
291.602	96.25
291.833	89.25
292.064	86.25
292.295	88.25
292.526	107.25
292.757	88.25
292.987	87.25
293.218	91.25
293.449	92.25
293.68	83.25
293.91	94.25
294.141	96.25
294.372	104.25
294.603	88.25
294.833	96.25
295.064	93.25
295.295	88.25
295.525	93.25
295.756	105.25
295.987	122.25
296.217	163.25
296.448	144.25
296.679	99.25
296.909	102.25
297.14	85.25
297.37	105.25
297.601	91.25
297.831	81.25
298.062	81.25
298.292	93.25
298.523	104.25
298.753	100.25
298.984	102.25
299.214	102.25
299.445	86.25
299.675	104.25
299.905	106.25
300.136	90.25
300.366	78.25
300.597	97.25
300.827	109.25
301.057	98.25
301.288	120.25
301.518	109.25
301.748	84.25
301.979	114.25
302.209	105.25
302.439	96.25
302.669	98.25
302.9	93.25
303.13	106.25
303.36	111.25
303.59	140.25
303.82	158.25
304.051	132.25
304.281	96.25
304.511	100.25
304.741	82.25
304.971	101.25
305.201	83.25
305.431	90.25
305.661	107.25
305.891	95.25
306.121	101.25
306.352	115.25
306.582	116.25
306.812	121.25
307.042	127.25
307.272	144.25
307.502	172.25
307.731	158.25
307.961	112.25
308.191	98.25
308.421	97.25
308.651	99.25
308.881	104.25
309.111	97.25
309.341	106.25
309.571	101.25
309.8	96.25
310.03	101.25
310.26	95.25
310.49	97.25
310.72	105.25
310.949	110.25
311.179	116.25
311.409	109.25
311.639	96.25
311.868	96.25
312.098	96.25
312.328	105.25
312.557	118.25
312.787	122.25
313.017	103.25
313.246	108.25
313.476	102.25
313.706	113.25
313.935	104.25
314.165	103.25
314.394	98.25
314.624	101.25
314.853	107.25
315.083	101.25
315.312	95.25
315.542	89.25
315.771	100.25
316.001	103.25
316.23	96.25
316.46	104.25
316.689	100.25
316.919	119.25
317.148	108.25
317.377	113.25
317.607	106.25
317.836	107.25
318.065	85.25
318.295	93.25
318.524	102.25
318.753	100.25
318.983	99.25
319.212	114.25
319.441	120.25
319.67	106.25
319.9	86.25
320.129	89.25
320.358	102.25
320.587	106.25
320.816	122.25
321.046	124.25
321.275	99.25
321.504	93.25
321.733	107.25
321.962	90.25
322.191	121.25
322.42	109.25
322.649	123.25
322.878	146.25
323.108	133.25
323.337	152.25
323.566	156.25
323.795	206.25
324.024	282.25
324.253	528.25
324.482	1174.25
324.71	2514.25
324.939	3328.25
325.168	1162.25
325.397	308.25
325.626	176.25
325.855	150.25
326.084	150.25
326.313	138.25
326.542	184.25
326.77	310.25
326.999	599.25
327.228	1283.25
327.457	2376.25
327.686	1906.25
327.914	614.25
328.143	561.25
328.372	698.25
328.6	373.25
328.829	200.25
329.058	184.25
329.287	204.25
329.515	205.25
329.744	259.25
329.972	523.25
330.201	1043.25
330.43	1535.25
330.658	641.25
330.887	308.25
331.115	193.25
331.344	127.25
331.572	116.25
331.801	120.25
332.03	134.25
332.258	113.25
332.486	118.25
332.715	101.25
332.943	114.25
333.172	129.25
333.4	129.25
333.629	173.25
333.857	236.25
334.085	469.25
334.314	1004.25
334.542	1920.25
334.771	1759.25
334.999	456.25
335.227	192.25
335.455	133.25
335.684	120.25
335.912	101.25
336.14	108.25
336.369	104.25
336.597	113.25
336.825	110.25
337.053	109.25
337.281	103.25
337.51	99.25
337.738	105.25
337.966	99.25
338.194	101.25
338.422	106.25
338.65	100.25
338.878	95.25
339.106	90.25
339.334	108.25
339.562	81.25
339.79	98.25
340.018	95.25
340.246	110.25
340.474	106.25
340.702	97.25
340.93	85.25
341.158	99.25
341.386	115.25
341.614	115.25
341.842	98.25
342.07	117.25
342.298	101.25
342.526	94.25
342.754	91.25
342.981	90.25
343.209	76.25
343.437	102.25
343.665	102.25
343.893	101.25
344.12	107.25
344.348	103.25
344.576	85.25
344.804	96.25
345.031	107.25
345.259	116.25
345.487	98.25
345.714	97.25
345.942	103.25
346.17	78.25
346.397	103.25
346.625	116.25
346.853	105.25
347.08	100.25
347.308	130.25
347.535	115.25
347.763	105.25
347.99	100.25
348.218	97.25
348.445	121.25
348.673	116.25
348.9	106.25
349.128	94.25
349.355	102.25
349.583	98.25
349.81	100.25
350.037	111.25
350.265	98.25
350.492	102.25
350.72	93.25
350.947	103.25
351.174	124.25
351.402	111.25
351.629	106.25
351.856	113.25
352.083	110.25
352.311	106.25
352.538	130.25
352.765	117.25
352.992	104.25
353.22	132.25
353.447	132.25
353.674	105.25
353.901	106.25
354.128	102.25
354.355	86.25
354.583	101.25
354.81	114.25
355.037	97.25
355.264	98.25
355.491	83.25
355.718	95.25
355.945	92.25
356.172	94.25
356.399	100.25
356.626	93.25
356.853	93.25
357.08	92.25
357.307	106.25
357.534	97.25
357.761	85.25
357.988	94.25
358.215	110.25
358.441	105.25
358.668	102.25
358.895	99.25
359.122	101.25
359.349	105.25
359.576	101.25
359.802	111.25
360.029	144.25
360.256	136.25
360.483	103.25
360.709	93.25
360.936	106.25
361.163	98.25
361.39	109.25
361.616	100.25
361.843	89.25
362.07	117.25
362.296	100.25
362.523	112.25
362.749	106.25
362.976	102.25
363.203	101.25
363.429	110.25
363.656	107.25
363.882	89.25
364.109	104.25
364.335	95.25
364.562	88.25
364.788	94.25
365.015	96.25
365.241	120.25
365.468	131.25
365.694	123.25
365.92	123.25
366.147	107.25
366.373	101.25
366.599	106.25
366.826	105.25
367.052	102.25
367.278	85.25
367.505	96.25
367.731	90.25
367.957	97.25
368.184	96.25
368.41	112.25
368.636	137.25
368.862	141.25
369.089	122.25
369.315	105.25
369.541	83.25
369.767	93.25
369.993	109.25
370.219	93.25
370.445	96.25
370.672	93.25
370.898	95.25
371.124	94.25
371.35	90.25
371.576	96.25
371.802	100.25
372.028	90.25
372.254	91.25
372.48	97.25
372.706	93.25
372.932	91.25
373.158	94.25
373.384	93.25
373.61	110.25
373.835	91.25
374.061	90.25
374.287	102.25
374.513	107.25
374.739	99.25
374.965	91.25
375.191	81.25
375.416	92.25
375.642	97.25
375.868	89.25
376.094	86.25
376.319	101.25
376.545	105.25
376.771	88.25
376.997	93.25
377.222	102.25
377.448	96.25
377.674	80.25
377.899	93.25
378.125	96.25
378.35	96.25
378.576	96.25
378.802	89.25
379.027	87.25
379.253	97.25
379.478	100.25
379.704	100.25
379.929	93.25
380.155	94.25
380.38	93.25
380.606	76.25
380.831	81.25
381.057	91.25
381.282	102.25
381.507	77.25
381.733	88.25
381.958	95.25
382.184	105.25
382.409	108.25
382.634	107.25
382.86	85.25
383.085	96.25
383.31	102.25
383.535	106.25
383.761	88.25
383.986	93.25
384.211	104.25
384.436	84.25
384.662	109.25
384.887	88.25
385.112	101.25
385.337	106.25
385.562	112.25
385.787	95.25
386.013	103.25
386.238	112.25
386.463	101.25
386.688	108.25
386.913	106.25
387.138	91.25
387.363	93.25
387.588	102.25
387.813	98.25
388.038	97.25
388.263	114.25
388.488	108.25
388.713	113.25
388.938	89.25
389.163	97.25
389.387	92.25
389.612	83.25
389.837	78.25
390.062	101.25
390.287	97.25
390.512	96.25
390.736	76.25
390.961	73.25
391.186	86.25
391.411	98.25
391.636	101.25
391.86	102.25
392.085	91.25
392.31	91.25
392.534	73.25
392.759	91.25
392.984	90.25
393.208	100.25
393.433	110.25
393.658	91.25
393.882	98.25
394.107	101.25
394.331	90.25
394.556	83.25
394.78	95.25
395.005	101.25
395.229	85.25
395.454	81.25
395.678	98.25
395.903	102.25
396.127	97.25
396.352	96.25
396.576	83.25
396.801	93.25
397.025	93.25
397.249	94.25
397.474	87.25
397.698	83.25
397.922	88.25
398.147	97.25
398.371	104.25
398.595	86.25
398.82	87.25
399.044	97.25
399.268	89.25
399.492	90.25
399.717	77.25
399.941	96.25
400.165	106.25
400.389	101.25
400.613	95.25
400.837	89.25
401.062	96.25
401.286	93.25
401.51	102.25
401.734	87.25
401.958	97.25
402.182	139.25
402.406	189.25
402.63	159.25
402.854	112.25
403.078	106.25
403.302	98.25
403.526	93.25
403.75	96.25
403.974	93.25
404.198	99.25
404.422	112.25
404.645	88.25
404.869	115.25
405.093	131.25
405.317	164.25
405.541	150.25
405.765	115.25
405.988	151.25
406.212	216.25
406.436	298.25
406.66	194.25
406.883	117.25
407.107	116.25
407.331	102.25
407.555	114.25
407.778	118.25
408.002	96.25
408.226	98.25
408.449	97.25
408.673	99.25
408.896	89.25
409.12	113.25
409.344	103.25
409.567	95.25
409.791	96.25
410.014	98.25
410.238	99.25
410.461	85.25
410.685	107.25
410.908	106.25
411.132	123.25
411.355	115.25
411.578	96.25
411.802	84.25
412.025	86.25
412.249	108.25
412.472	116.25
412.695	158.25
412.919	116.25
413.142	94.25
413.365	102.25
413.589	97.25
413.812	98.25
414.035	100.25
414.258	95.25
414.482	104.25
414.705	94.25
414.928	98.25
415.151	85.25
415.374	93.25
415.597	92.25
415.821	93.25
416.044	97.25
416.267	104.25
416.49	99.25
416.713	87.25
416.936	100.25
417.159	93.25
417.382	94.25
417.605	111.25
417.828	115.25
418.051	102.25
418.274	95.25
418.497	99.25
418.72	93.25
418.943	81.25
419.166	103.25
419.389	96.25
419.611	104.25
419.834	94.25
420.057	89.25
420.28	102.25
420.503	105.25
420.726	108.25
420.948	92.25
421.171	107.25
421.394	106.25
421.617	102.25
421.839	93.25
422.062	98.25
422.285	105.25
422.507	105.25
422.73	120.25
422.953	102.25
423.175	95.25
423.398	94.25
423.621	95.25
423.843	92.25
424.066	85.25
424.288	94.25
424.511	106.25
424.733	112.25
424.956	122.25
425.178	112.25
425.401	113.25
425.623	108.25
425.846	101.25
426.068	109.25
426.291	84.25
426.513	99.25
426.735	94.25
426.958	108.25
427.18	130.25
427.402	202.25
427.625	265.25
427.847	254.25
428.069	248.25
428.292	134.25
428.514	115.25
428.736	92.25
428.958	83.25
429.181	77.25
429.403	78.25
429.625	91.25
429.847	98.25
430.069	116.25
430.292	105.25
430.514	91.25
430.736	104.25
430.958	80.25
431.18	100.25
431.402	88.25
431.624	98.25
431.846	88.25
432.068	84.25
432.29	81.25
432.512	91.25
432.734	97.25
432.956	99.25
433.178	105.25
433.4	107.25
433.622	102.25
433.844	89.25
434.066	91.25
434.287	103.25
434.509	98.25
434.731	93.25
434.953	97.25
435.175	89.25
435.397	96.25
435.618	98.25
435.84	115.25
436.062	157.25
436.284	141.25
436.505	109.25
436.727	106.25
436.949	105.25
437.17	96.25
437.392	101.25
437.614	100.25
437.835	116.25
438.057	149.25
438.278	140.25
438.5	126.25
438.721	138.25
438.943	109.25
439.165	97.25
439.386	91.25
439.608	94.25
439.829	115.25
440.05	148.25
440.272	204.25
440.493	116.25
440.715	104.25
440.936	85.25
441.158	90.25
441.379	97.25
441.6	100.25
441.822	113.25
442.043	104.25
442.264	132.25
442.486	123.25
442.707	98.25
442.928	128.25
443.149	171.25
443.371	172.25
443.592	142.25
443.813	150.25
444.034	132.25
444.255	95.25
444.476	109.25
444.698	101.25
444.919	83.25
445.14	130.25
445.361	148.25
445.582	155.25
445.803	187.25
446.024	195.25
446.245	198.25
446.466	143.25
446.687	115.25
446.908	96.25
447.129	114.25
447.35	97.25
447.571	101.25
447.792	101.25
448.013	111.25
448.234	124.25
448.455	117.25
448.675	137.25
448.896	155.25
449.117	107.25
449.338	126.25
449.559	190.25
449.779	171.25
450	118.25
450.221	88.25
450.442	98.25
450.662	98.25
450.883	140.25
451.104	148.25
451.324	105.25
451.545	96.25
451.766	94.25
451.986	100.25
452.207	96.25
452.428	104.25
452.648	117.25
452.869	128.25
453.089	122.25
453.31	153.25
453.53	66.25
453.751	102.25
453.971	139.25
454.192	126.25
454.412	99.25
454.633	86.25
454.853	93.25
455.073	99.25
455.294	103.25
455.514	109.25
455.734	94.25
455.955	88.25
456.175	94.25
456.395	80.25
456.616	90.25
456.836	93.25
457.056	91.25
457.276	92.25
457.497	84.25
457.717	97.25
457.937	102.25
458.157	114.25
458.377	110.25
458.598	125.25
458.818	217.25
459.038	233.25
459.258	165.25
459.478	100.25
459.698	112.25
459.918	90.25
460.138	92.25
460.358	92.25
460.578	99.25
460.798	82.25
461.018	80.25
461.238	96.25
461.458	90.25
461.678	102.25
461.898	89.25
462.118	94.25
462.338	86.25
462.558	96.25
462.777	93.25
462.997	96.25
463.217	121.25
463.437	102.25
463.657	93.25
463.876	105.25
464.096	93.25
464.316	113.25
464.536	123.25
464.755	108.25
464.975	127.25
465.195	239.25
465.414	243.25
465.634	114.25
465.854	92.25
466.073	96.25
466.293	95.25
466.512	93.25
466.732	102.25
466.951	98.25
467.171	92.25
467.391	120.25
467.61	147.25
467.829	207.25
468.049	577.25
468.268	855.25
468.488	241.25
468.707	117.25
468.927	92.25
469.146	92.25
469.365	104.25
469.585	99.25
469.804	117.25
470.023	126.25
470.243	116.25
470.462	117.25
470.681	118.25
470.901	112.25
471.12	107.25
471.339	102.25
471.558	113.25
471.777	160.25
471.997	315.25
472.216	1180.25
472.435	2622.25
472.654	593.25
472.873	190.25
473.092	120.25
473.311	115.25
473.53	93.25
473.749	86.25
473.968	114.25
474.187	167.25
474.406	117.25
474.625	104.25
474.844	101.25
475.063	91.25
475.282	100.25
475.501	92.25
475.72	97.25
475.939	88.25
476.158	91.25
476.377	93.25
476.596	82.25
476.814	117.25
477.033	120.25
477.252	90.25
477.471	82.25
477.69	94.25
477.908	93.25
478.127	78.25
478.346	86.25
478.564	107.25
478.783	116.25
479.002	105.25
479.22	120.25
479.439	130.25
479.658	133.25
479.876	130.25
480.095	125.25
480.313	130.25
480.532	168.25
480.751	305.25
480.969	1090.25
481.188	4666.25
481.406	2604.25
481.624	381.25
481.843	152.25
482.061	102.25
482.28	95.25
482.498	104.25
482.717	86.25
482.935	84.25
483.153	94.25
483.372	105.25
483.59	92.25
483.808	95.25
484.027	90.25
484.245	89.25
484.463	96.25
484.681	95.25
484.9	102.25
485.118	88.25
485.336	124.25
485.554	111.25
485.772	111.25
485.99	120.25
486.209	97.25
486.427	106.25
486.645	119.25
486.863	143.25
487.081	109.25
487.299	98.25
487.517	95.25
487.735	95.25
487.953	96.25
488.171	96.25
488.389	94.25
488.607	89.25
488.825	84.25
489.043	102.25
489.261	101.25
489.479	81.25
489.696	86.25
489.914	89.25
490.132	80.25
490.35	86.25
490.568	87.25
490.786	100.25
491.003	82.25
491.221	97.25
491.439	101.25
491.657	102.25
491.874	91.25
492.092	87.25
492.31	101.25
492.527	98.25
492.745	105.25
492.963	104.25
493.18	98.25
493.398	108.25
493.615	85.25
493.833	99.25
494.05	94.25
494.268	91.25
494.485	93.25
494.703	95.25
494.92	86.25
495.138	90.25
495.355	92.25
495.573	89.25
495.79	95.25
496.008	89.25
496.225	94.25
496.442	106.25
496.66	122.25
496.877	95.25
497.094	74.25
497.312	93.25
497.529	96.25
497.746	100.25
497.963	80.25
498.181	86.25
498.398	81.25
498.615	122.25
498.832	106.25
499.049	98.25
499.267	93.25
499.484	87.25
499.701	92.25
499.918	91.25
500.135	93.25
500.352	105.25
500.569	85.25
500.786	116.25
501.003	93.25
501.22	95.25
501.437	92.25
501.654	109.25
501.871	126.25
502.088	85.25
502.305	94.25
502.522	101.25
502.739	90.25
502.956	98.25
503.172	101.25
503.389	116.25
503.606	128.25
503.823	120.25
504.04	96.25
504.256	81.25
504.473	94.25
504.69	79.25
504.907	102.25
505.123	96.25
505.34	94.25
505.557	102.25
505.773	100.25
505.99	91.25
506.207	85.25
506.423	101.25
506.64	99.25
506.856	95.25
507.073	104.25
507.289	108.25
507.506	114.25
507.722	140.25
507.939	137.25
508.155	100.25
508.372	118.25
508.588	102.25
508.805	122.25
509.021	124.25
509.238	97.25
509.454	111.25
509.67	102.25
509.887	123.25
510.103	158.25
510.319	241.25
510.536	944.25
510.752	3178.25
510.968	846.25
511.184	179.25
511.401	140.25
