Data from Circ_1997_H10_HRD10591_00040.txt Node
Date: Wed Jan 03 11:29:35 EST 2024
User: Yrep
Spectrometer: HR+D1059
Trigger mode: 1
Integration Time (sec): 1.000000E-1
Scans to average: 1
Electric dark correction enabled: true
Nonlinearity correction enabled: false
Boxcar width: 0
XAxis mode: Wavelengths
Number of Pixels in Spectrum: 2048
>>>>>Begin Spectral Data<<<<<
223.165	-11.19
223.4	-11.19
223.635	-11.19
223.869	-7.19
224.104	-10.19
224.338	-19.19
224.573	-16.19
224.808	-16.19
225.042	-18.19
225.277	-10.19
225.511	3.81
225.746	5.81
225.98	4.81
226.215	23.81
226.449	8.81
226.683	16.81
226.918	5.81
227.152	38.81
227.387	33.81
227.621	50.81
227.856	37.81
228.09	43.81
228.324	36.81
228.559	53.81
228.793	56.81
229.027	59.81
229.262	71.81
229.496	74.81
229.73	98.81
229.964	90.81
230.199	78.81
230.433	80.81
230.667	99.81
230.901	78.81
231.136	64.81
231.37	80.81
231.604	104.81
231.838	88.81
232.072	80.81
232.306	76.81
232.541	69.81
232.775	81.81
233.009	74.81
233.243	94.81
233.477	66.81
233.711	82.81
233.945	86.81
234.179	76.81
234.413	73.81
234.647	74.81
234.881	58.81
235.115	85.81
235.349	63.81
235.583	87.81
235.817	87.81
236.051	70.81
236.285	82.81
236.519	92.81
236.753	81.81
236.987	86.81
237.221	90.81
237.455	85.81
237.689	87.81
237.922	90.81
238.156	74.81
238.39	77.81
238.624	82.81
238.858	75.81
239.091	81.81
239.325	67.81
239.559	77.81
239.793	99.81
240.027	85.81
240.26	94.81
240.494	71.81
240.728	73.81
240.961	80.81
241.195	74.81
241.429	85.81
241.662	63.81
241.896	64.81
242.13	87.81
242.363	88.81
242.597	93.81
242.83	91.81
243.064	64.81
243.298	65.81
243.531	71.81
243.765	64.81
243.998	77.81
244.232	87.81
244.465	72.81
244.699	101.81
244.932	82.81
245.166	91.81
245.399	99.81
245.633	80.81
245.866	81.81
246.099	69.81
246.333	85.81
246.566	62.81
246.8	76.81
247.033	73.81
247.266	88.81
247.5	86.81
247.733	80.81
247.966	75.81
248.2	97.81
248.433	94.81
248.666	85.81
248.899	89.81
249.133	87.81
249.366	105.81
249.599	104.81
249.832	88.81
250.066	86.81
250.299	83.81
250.532	85.81
250.765	63.81
250.998	68.81
251.231	89.81
251.465	86.81
251.698	92.81
251.931	104.81
252.164	81.81
252.397	80.81
252.63	85.81
252.863	75.81
253.096	78.81
253.329	96.81
253.562	78.81
253.795	85.81
254.028	73.81
254.261	87.81
254.494	88.81
254.727	83.81
254.96	80.81
255.193	73.81
255.426	74.81
255.659	71.81
255.892	102.81
256.124	103.81
256.357	79.81
256.59	81.81
256.823	78.81
257.056	85.81
257.289	89.81
257.521	79.81
257.754	90.81
257.987	85.81
258.22	101.81
258.452	98.81
258.685	94.81
258.918	88.81
259.151	82.81
259.383	86.81
259.616	94.81
259.849	95.81
260.081	60.81
260.314	90.81
260.547	94.81
260.779	101.81
261.012	94.81
261.244	98.81
261.477	95.81
261.71	102.81
261.942	138.81
262.175	156.81
262.407	101.81
262.64	93.81
262.872	91.81
263.105	85.81
263.337	75.81
263.57	88.81
263.802	87.81
264.035	73.81
264.267	89.81
264.499	63.81
264.732	82.81
264.964	88.81
265.197	82.81
265.429	86.81
265.661	76.81
265.894	85.81
266.126	103.81
266.358	81.81
266.591	85.81
266.823	85.81
267.055	96.81
267.287	76.81
267.52	87.81
267.752	80.81
267.984	81.81
268.216	83.81
268.448	97.81
268.681	96.81
268.913	97.81
269.145	84.81
269.377	85.81
269.609	89.81
269.841	81.81
270.073	91.81
270.306	93.81
270.538	86.81
270.77	89.81
271.002	87.81
271.234	89.81
271.466	107.81
271.698	93.81
271.93	82.81
272.162	79.81
272.394	91.81
272.626	99.81
272.858	92.81
273.09	92.81
273.322	89.81
273.553	86.81
273.785	81.81
274.017	94.81
274.249	91.81
274.481	90.81
274.713	91.81
274.945	85.81
275.176	91.81
275.408	105.81
275.64	113.81
275.872	123.81
276.104	111.81
276.335	112.81
276.567	108.81
276.799	139.81
277.031	180.81
277.262	203.81
277.494	175.81
277.726	98.81
277.957	103.81
278.189	90.81
278.421	94.81
278.652	93.81
278.884	91.81
279.115	88.81
279.347	97.81
279.579	98.81
279.81	119.81
280.042	213.81
280.273	293.81
280.505	193.81
280.736	121.81
280.968	89.81
281.199	78.81
281.431	92.81
281.662	88.81
281.894	86.81
282.125	112.81
282.356	150.81
282.588	175.81
282.819	142.81
283.051	101.81
283.282	63.81
283.513	95.81
283.745	81.81
283.976	84.81
284.207	97.81
284.439	100.81
284.67	89.81
284.901	96.81
285.132	95.81
285.364	96.81
285.595	95.81
285.826	90.81
286.057	84.81
286.288	90.81
286.52	93.81
286.751	74.81
286.982	89.81
287.213	89.81
287.444	79.81
287.675	85.81
287.906	80.81
288.138	83.81
288.369	98.81
288.6	107.81
288.831	83.81
289.062	85.81
289.293	87.81
289.524	79.81
289.755	104.81
289.986	109.81
290.217	73.81
290.448	89.81
290.679	90.81
290.91	99.81
291.141	76.81
291.371	99.81
291.602	83.81
291.833	89.81
292.064	94.81
292.295	92.81
292.526	91.81
292.757	88.81
292.987	81.81
293.218	94.81
293.449	97.81
293.68	90.81
293.91	77.81
294.141	88.81
294.372	83.81
294.603	96.81
294.833	88.81
295.064	83.81
295.295	81.81
295.525	89.81
295.756	100.81
295.987	138.81
296.217	178.81
296.448	151.81
296.679	106.81
296.909	89.81
297.14	99.81
297.37	93.81
297.601	79.81
297.831	91.81
298.062	103.81
298.292	87.81
298.523	98.81
298.753	86.81
298.984	87.81
299.214	103.81
299.445	88.81
299.675	97.81
299.905	110.81
300.136	99.81
300.366	110.81
300.597	103.81
300.827	100.81
301.057	90.81
301.288	108.81
301.518	112.81
301.748	105.81
301.979	110.81
302.209	99.81
302.439	97.81
302.669	113.81
302.9	99.81
303.13	106.81
303.36	106.81
303.59	137.81
303.82	146.81
304.051	113.81
304.281	83.81
304.511	93.81
304.741	87.81
304.971	94.81
305.201	93.81
305.431	96.81
305.661	79.81
305.891	89.81
306.121	103.81
306.352	113.81
306.582	119.81
306.812	101.81
307.042	117.81
307.272	166.81
307.502	179.81
307.731	188.81
307.961	127.81
308.191	102.81
308.421	104.81
308.651	98.81
308.881	101.81
309.111	105.81
309.341	94.81
309.571	109.81
309.8	98.81
310.03	118.81
310.26	97.81
310.49	109.81
310.72	119.81
310.949	122.81
311.179	104.81
311.409	101.81
311.639	114.81
311.868	106.81
312.098	95.81
312.328	107.81
312.557	113.81
312.787	122.81
313.017	128.81
313.246	91.81
313.476	93.81
313.706	103.81
313.935	103.81
314.165	115.81
314.394	130.81
314.624	114.81
314.853	128.81
315.083	101.81
315.312	92.81
315.542	81.81
315.771	90.81
316.001	94.81
316.23	101.81
316.46	96.81
316.689	95.81
316.919	92.81
317.148	105.81
317.377	100.81
317.607	96.81
317.836	96.81
318.065	103.81
318.295	108.81
318.524	88.81
318.753	90.81
318.983	99.81
319.212	103.81
319.441	107.81
319.67	101.81
319.9	94.81
320.129	97.81
320.358	88.81
320.587	110.81
320.816	106.81
321.046	106.81
321.275	109.81
321.504	93.81
321.733	112.81
321.962	119.81
322.191	130.81
322.42	119.81
322.649	135.81
322.878	124.81
323.108	137.81
323.337	162.81
323.566	169.81
323.795	215.81
324.024	279.81
324.253	627.81
324.482	1390.81
324.71	2995.81
324.939	4090.81
325.168	1391.81
325.397	371.81
325.626	215.81
325.855	169.81
326.084	167.81
326.313	181.81
326.542	225.81
326.77	323.81
326.999	720.81
327.228	1510.81
327.457	2976.81
327.686	2331.81
327.914	689.81
328.143	613.81
328.372	757.81
328.6	424.81
328.829	222.81
329.058	214.81
329.287	213.81
329.515	182.81
329.744	274.81
329.972	522.81
330.201	1126.81
330.43	1695.81
330.658	733.81
330.887	320.81
331.115	207.81
331.344	119.81
331.572	114.81
331.801	129.81
332.03	126.81
332.258	122.81
332.486	105.81
332.715	113.81
332.943	130.81
333.172	117.81
333.4	144.81
333.629	191.81
333.857	249.81
334.085	489.81
334.314	1048.81
334.542	2142.81
334.771	1963.81
334.999	501.81
335.227	192.81
335.455	123.81
335.684	118.81
335.912	91.81
336.14	98.81
336.369	110.81
336.597	119.81
336.825	125.81
337.053	95.81
337.281	96.81
337.51	113.81
337.738	97.81
337.966	110.81
338.194	107.81
338.422	115.81
338.65	107.81
338.878	103.81
339.106	103.81
339.334	107.81
339.562	103.81
339.79	85.81
340.018	93.81
340.246	90.81
340.474	104.81
340.702	92.81
340.93	90.81
341.158	101.81
341.386	97.81
341.614	114.81
341.842	111.81
342.07	104.81
342.298	103.81
342.526	107.81
342.754	92.81
342.981	87.81
343.209	93.81
343.437	91.81
343.665	95.81
343.893	93.81
344.12	110.81
344.348	98.81
344.576	92.81
344.804	98.81
345.031	110.81
345.259	109.81
345.487	91.81
345.714	108.81
345.942	93.81
346.17	87.81
346.397	99.81
346.625	91.81
346.853	94.81
347.08	88.81
347.308	116.81
347.535	91.81
347.763	111.81
347.99	87.81
348.218	108.81
348.445	101.81
348.673	111.81
348.9	95.81
349.128	86.81
349.355	96.81
349.583	97.81
349.81	91.81
350.037	97.81
350.265	92.81
350.492	104.81
350.72	102.81
350.947	124.81
351.174	125.81
351.402	128.81
351.629	119.81
351.856	106.81
352.083	120.81
352.311	124.81
352.538	125.81
352.765	120.81
352.992	117.81
353.22	111.81
353.447	109.81
353.674	106.81
353.901	114.81
354.128	95.81
354.355	96.81
354.583	93.81
354.81	104.81
355.037	95.81
355.264	106.81
355.491	90.81
355.718	110.81
355.945	88.81
356.172	91.81
356.399	91.81
356.626	95.81
356.853	103.81
357.08	89.81
357.307	87.81
357.534	83.81
357.761	91.81
357.988	94.81
358.215	94.81
358.441	94.81
358.668	82.81
358.895	93.81
359.122	95.81
359.349	94.81
359.576	104.81
359.802	112.81
360.029	135.81
360.256	138.81
360.483	113.81
360.709	89.81
360.936	92.81
361.163	95.81
361.39	87.81
361.616	93.81
361.843	87.81
362.07	96.81
362.296	131.81
362.523	103.81
362.749	107.81
362.976	89.81
363.203	89.81
363.429	94.81
363.656	89.81
363.882	97.81
364.109	89.81
364.335	91.81
364.562	94.81
364.788	104.81
365.015	97.81
365.241	110.81
365.468	130.81
365.694	104.81
365.92	100.81
366.147	103.81
366.373	89.81
366.599	101.81
366.826	101.81
367.052	84.81
367.278	91.81
367.505	94.81
367.731	97.81
367.957	95.81
368.184	94.81
368.41	96.81
368.636	119.81
368.862	129.81
369.089	105.81
369.315	133.81
369.541	98.81
369.767	102.81
369.993	109.81
370.219	104.81
370.445	85.81
370.672	97.81
370.898	88.81
371.124	86.81
371.35	83.81
371.576	76.81
371.802	97.81
372.028	83.81
372.254	88.81
372.48	86.81
372.706	87.81
372.932	96.81
373.158	90.81
373.384	97.81
373.61	94.81
373.835	94.81
374.061	96.81
374.287	98.81
374.513	91.81
374.739	96.81
374.965	96.81
375.191	93.81
375.416	96.81
375.642	99.81
375.868	81.81
376.094	93.81
376.319	85.81
376.545	87.81
376.771	80.81
376.997	104.81
377.222	88.81
377.448	108.81
377.674	80.81
377.899	98.81
378.125	107.81
378.35	94.81
378.576	91.81
378.802	103.81
379.027	86.81
379.253	93.81
379.478	91.81
379.704	95.81
379.929	98.81
380.155	85.81
380.38	73.81
380.606	94.81
380.831	90.81
381.057	96.81
381.282	91.81
381.507	99.81
381.733	100.81
381.958	80.81
382.184	80.81
382.409	95.81
382.634	88.81
382.86	102.81
383.085	104.81
383.31	101.81
383.535	93.81
383.761	82.81
383.986	98.81
384.211	103.81
384.436	88.81
384.662	91.81
384.887	90.81
385.112	95.81
385.337	94.81
385.562	117.81
385.787	99.81
386.013	108.81
386.238	116.81
386.463	92.81
386.688	98.81
386.913	100.81
387.138	102.81
387.363	96.81
387.588	97.81
387.813	94.81
388.038	103.81
388.263	101.81
388.488	113.81
388.713	100.81
388.938	96.81
389.163	82.81
389.387	84.81
389.612	96.81
389.837	96.81
390.062	92.81
390.287	102.81
390.512	87.81
390.736	101.81
390.961	76.81
391.186	93.81
391.411	105.81
391.636	86.81
391.86	87.81
392.085	95.81
392.31	105.81
392.534	85.81
392.759	86.81
392.984	98.81
393.208	91.81
393.433	91.81
393.658	88.81
393.882	88.81
394.107	97.81
394.331	78.81
394.556	88.81
394.78	87.81
395.005	90.81
395.229	82.81
395.454	90.81
395.678	101.81
395.903	105.81
396.127	77.81
396.352	81.81
396.576	81.81
396.801	86.81
397.025	99.81
397.249	75.81
397.474	86.81
397.698	91.81
397.922	99.81
398.147	99.81
398.371	87.81
398.595	79.81
398.82	71.81
399.044	89.81
399.268	91.81
399.492	83.81
399.717	83.81
399.941	88.81
400.165	106.81
400.389	103.81
400.613	87.81
400.837	100.81
401.062	95.81
401.286	95.81
401.51	89.81
401.734	103.81
401.958	97.81
402.182	156.81
402.406	204.81
402.63	151.81
402.854	106.81
403.078	99.81
403.302	90.81
403.526	85.81
403.75	86.81
403.974	78.81
404.198	97.81
404.422	102.81
404.645	100.81
404.869	100.81
405.093	133.81
405.317	151.81
405.541	150.81
405.765	135.81
405.988	146.81
406.212	243.81
406.436	342.81
406.66	224.81
406.883	118.81
407.107	114.81
407.331	106.81
407.555	127.81
407.778	98.81
408.002	98.81
408.226	98.81
408.449	90.81
408.673	87.81
408.896	105.81
409.12	106.81
409.344	90.81
409.567	80.81
409.791	96.81
410.014	104.81
410.238	103.81
410.461	90.81
410.685	108.81
410.908	109.81
411.132	89.81
411.355	108.81
411.578	101.81
411.802	76.81
412.025	106.81
412.249	92.81
412.472	108.81
412.695	139.81
412.919	115.81
413.142	91.81
413.365	91.81
413.589	90.81
413.812	90.81
414.035	88.81
414.258	83.81
414.482	111.81
414.705	93.81
414.928	80.81
415.151	94.81
415.374	109.81
415.597	105.81
415.821	97.81
416.044	102.81
416.267	90.81
416.49	81.81
416.713	78.81
416.936	100.81
417.159	95.81
417.382	97.81
417.605	108.81
417.828	116.81
418.051	102.81
418.274	91.81
418.497	85.81
418.72	89.81
418.943	97.81
419.166	87.81
419.389	77.81
419.611	98.81
419.834	99.81
420.057	99.81
420.28	88.81
420.503	91.81
420.726	91.81
420.948	100.81
421.171	113.81
421.394	100.81
421.617	83.81
421.839	89.81
422.062	81.81
422.285	94.81
422.507	89.81
422.73	116.81
422.953	105.81
423.175	98.81
423.398	91.81
423.621	102.81
423.843	90.81
424.066	99.81
424.288	101.81
424.511	110.81
424.733	127.81
424.956	139.81
425.178	120.81
425.401	116.81
425.623	111.81
425.846	93.81
426.068	102.81
426.291	110.81
426.513	87.81
426.735	108.81
426.958	110.81
427.18	129.81
427.402	211.81
427.625	305.81
427.847	286.81
428.069	271.81
428.292	141.81
428.514	97.81
428.736	92.81
428.958	74.81
429.181	96.81
429.403	81.81
429.625	90.81
429.847	100.81
430.069	121.81
430.292	100.81
430.514	86.81
430.736	81.81
430.958	95.81
431.18	73.81
431.402	91.81
431.624	91.81
431.846	87.81
432.068	78.81
432.29	69.81
432.512	82.81
432.734	81.81
432.956	90.81
433.178	114.81
433.4	114.81
433.622	94.81
433.844	98.81
434.066	109.81
434.287	91.81
434.509	86.81
434.731	96.81
434.953	77.81
435.175	96.81
435.397	78.81
435.618	90.81
435.84	125.81
436.062	168.81
436.284	139.81
436.505	121.81
436.727	109.81
436.949	103.81
437.17	85.81
437.392	93.81
437.614	98.81
437.835	128.81
438.057	166.81
438.278	148.81
438.5	128.81
438.721	154.81
438.943	123.81
439.165	92.81
439.386	81.81
439.608	94.81
439.829	114.81
440.05	169.81
440.272	223.81
440.493	139.81
440.715	96.81
440.936	79.81
441.158	86.81
441.379	90.81
441.6	89.81
441.822	96.81
442.043	107.81
442.264	137.81
442.486	125.81
442.707	105.81
442.928	131.81
443.149	194.81
443.371	190.81
443.592	147.81
443.813	166.81
444.034	124.81
444.255	103.81
444.476	90.81
444.698	94.81
444.919	90.81
445.14	133.81
445.361	155.81
445.582	166.81
445.803	222.81
446.024	194.81
446.245	192.81
446.466	143.81
446.687	105.81
446.908	95.81
447.129	93.81
447.35	93.81
447.571	88.81
447.792	95.81
448.013	112.81
448.234	119.81
448.455	126.81
448.675	153.81
448.896	150.81
449.117	123.81
449.338	130.81
449.559	183.81
449.779	188.81
450	97.81
450.221	98.81
450.442	90.81
450.662	117.81
450.883	141.81
451.104	143.81
451.324	108.81
451.545	108.81
451.766	111.81
451.986	91.81
452.207	77.81
452.428	96.81
452.648	112.81
452.869	125.81
453.089	141.81
453.31	147.81
453.53	101.81
453.751	83.81
453.971	125.81
454.192	144.81
454.412	117.81
454.633	94.81
454.853	89.81
455.073	93.81
455.294	103.81
455.514	120.81
455.734	98.81
455.955	86.81
456.175	88.81
456.395	81.81
456.616	93.81
456.836	78.81
457.056	88.81
457.276	73.81
457.497	97.81
457.717	91.81
457.937	90.81
458.157	94.81
458.377	106.81
458.598	145.81
458.818	229.81
459.038	268.81
459.258	177.81
459.478	106.81
459.698	95.81
459.918	95.81
460.138	100.81
460.358	66.81
460.578	102.81
460.798	104.81
461.018	95.81
461.238	86.81
461.458	91.81
461.678	86.81
461.898	92.81
462.118	87.81
462.338	85.81
462.558	79.81
462.777	88.81
462.997	119.81
463.217	113.81
463.437	82.81
463.657	73.81
463.876	93.81
464.096	90.81
464.316	82.81
464.536	121.81
464.755	107.81
464.975	133.81
465.195	254.81
465.414	250.81
465.634	112.81
465.854	103.81
466.073	86.81
466.293	83.81
466.512	92.81
466.732	101.81
466.951	107.81
467.171	98.81
467.391	118.81
467.61	162.81
467.829	239.81
468.049	620.81
468.268	976.81
468.488	239.81
468.707	122.81
468.927	88.81
469.146	83.81
469.365	88.81
469.585	106.81
469.804	122.81
470.023	127.81
470.243	96.81
470.462	129.81
470.681	144.81
470.901	116.81
471.12	114.81
471.339	111.81
471.558	116.81
471.777	154.81
471.997	327.81
472.216	1232.81
472.435	2897.81
472.654	663.81
472.873	176.81
473.092	112.81
473.311	107.81
473.53	82.81
473.749	84.81
473.968	109.81
474.187	143.81
474.406	129.81
474.625	93.81
474.844	102.81
475.063	85.81
475.282	90.81
475.501	85.81
475.72	88.81
475.939	83.81
476.158	81.81
476.377	107.81
476.596	96.81
476.814	110.81
477.033	112.81
477.252	90.81
477.471	93.81
477.69	90.81
477.908	98.81
478.127	104.81
478.346	100.81
478.564	93.81
478.783	104.81
479.002	116.81
479.22	122.81
479.439	127.81
479.658	130.81
479.876	134.81
480.095	132.81
480.313	150.81
480.532	181.81
480.751	297.81
480.969	1122.81
481.188	5019.81
481.406	2891.81
481.624	405.81
481.843	159.81
482.061	118.81
482.28	109.81
482.498	83.81
482.717	93.81
482.935	81.81
483.153	102.81
483.372	93.81
483.59	91.81
483.808	81.81
484.027	89.81
484.245	106.81
484.463	117.81
484.681	104.81
484.9	96.81
485.118	102.81
485.336	93.81
485.554	107.81
485.772	103.81
485.99	97.81
486.209	99.81
486.427	100.81
486.645	119.81
486.863	137.81
487.081	105.81
487.299	104.81
487.517	106.81
487.735	92.81
487.953	106.81
488.171	99.81
488.389	104.81
488.607	105.81
488.825	102.81
489.043	97.81
489.261	78.81
489.479	92.81
489.696	93.81
489.914	99.81
490.132	93.81
490.35	88.81
490.568	91.81
490.786	94.81
491.003	96.81
491.221	93.81
491.439	97.81
491.657	90.81
491.874	116.81
492.092	87.81
492.31	109.81
492.527	98.81
492.745	93.81
492.963	101.81
493.18	95.81
493.398	95.81
493.615	87.81
493.833	86.81
494.05	105.81
494.268	100.81
494.485	97.81
494.703	87.81
494.92	92.81
495.138	82.81
495.355	91.81
495.573	97.81
495.79	96.81
496.008	112.81
496.225	95.81
496.442	83.81
496.66	98.81
496.877	99.81
497.094	85.81
497.312	89.81
497.529	87.81
497.746	100.81
497.963	99.81
498.181	100.81
498.398	108.81
498.615	133.81
498.832	119.81
499.049	98.81
499.267	86.81
499.484	84.81
499.701	86.81
499.918	105.81
500.135	101.81
500.352	98.81
500.569	113.81
500.786	101.81
501.003	93.81
501.22	101.81
501.437	99.81
501.654	117.81
501.871	135.81
502.088	101.81
502.305	99.81
502.522	92.81
502.739	107.81
502.956	94.81
503.172	95.81
503.389	110.81
503.606	122.81
503.823	98.81
504.04	96.81
504.256	105.81
504.473	99.81
504.69	96.81
504.907	93.81
505.123	97.81
505.34	98.81
505.557	83.81
505.773	93.81
505.99	111.81
506.207	96.81
506.423	94.81
506.64	92.81
506.856	93.81
507.073	99.81
507.289	97.81
507.506	102.81
507.722	137.81
507.939	146.81
508.155	99.81
508.372	96.81
508.588	99.81
508.805	85.81
509.021	105.81
509.238	125.81
509.454	117.81
509.67	91.81
509.887	112.81
510.103	113.81
510.319	268.81
510.536	983.81
510.752	3456.81
510.968	902.81
511.184	199.81
511.401	118.81
511.617	112.81
511.833	107.81
512.049	111.81
512.265	99.81
512.481	111.81
