Data from Circ_1997_H10_HRD10591_00067.txt Node
Date: Wed Jan 03 11:29:41 EST 2024
User: Yrep
Spectrometer: HR+D1059
Trigger mode: 1
Integration Time (sec): 1.000000E-1
Scans to average: 1
Electric dark correction enabled: true
Nonlinearity correction enabled: false
Boxcar width: 0
XAxis mode: Wavelengths
Number of Pixels in Spectrum: 2048
>>>>>Begin Spectral Data<<<<<
223.165	-15.75
223.4	-15.75
223.635	-15.75
223.869	-10.75
224.104	-15.75
224.338	-32.75
224.573	-16.75
224.808	-4.75
225.042	4.25
225.277	-13.75
225.511	-9.75
225.746	8.25
225.98	-2.75
226.215	16.25
226.449	21.25
226.683	11.25
226.918	20.25
227.152	41.25
227.387	43.25
227.621	27.25
227.856	41.25
228.09	63.25
228.324	51.25
228.559	50.25
228.793	55.25
229.027	60.25
229.262	79.25
229.496	73.25
229.73	91.25
229.964	92.25
230.199	80.25
230.433	78.25
230.667	76.25
230.901	86.25
231.136	69.25
231.37	75.25
231.604	85.25
231.838	85.25
232.072	87.25
232.306	67.25
232.541	78.25
232.775	69.25
233.009	80.25
233.243	81.25
233.477	70.25
233.711	75.25
233.945	81.25
234.179	79.25
234.413	70.25
234.647	77.25
234.881	80.25
235.115	74.25
235.349	85.25
235.583	80.25
235.817	71.25
236.051	77.25
236.285	84.25
236.519	71.25
236.753	75.25
236.987	93.25
237.221	88.25
237.455	91.25
237.689	77.25
237.922	77.25
238.156	69.25
238.39	72.25
238.624	74.25
238.858	83.25
239.091	85.25
239.325	95.25
239.559	86.25
239.793	81.25
240.027	88.25
240.26	70.25
240.494	83.25
240.728	71.25
240.961	64.25
241.195	79.25
241.429	82.25
241.662	92.25
241.896	80.25
242.13	74.25
242.363	78.25
242.597	60.25
242.83	94.25
243.064	82.25
243.298	80.25
243.531	81.25
243.765	87.25
243.998	98.25
244.232	89.25
244.465	80.25
244.699	85.25
244.932	81.25
245.166	74.25
245.399	82.25
245.633	75.25
245.866	62.25
246.099	80.25
246.333	77.25
246.566	72.25
246.8	87.25
247.033	97.25
247.266	73.25
247.5	73.25
247.733	69.25
247.966	75.25
248.2	75.25
248.433	84.25
248.666	100.25
248.899	73.25
249.133	102.25
249.366	105.25
249.599	88.25
249.832	87.25
250.066	62.25
250.299	88.25
250.532	97.25
250.765	75.25
250.998	81.25
251.231	90.25
251.465	83.25
251.698	99.25
251.931	87.25
252.164	74.25
252.397	82.25
252.63	84.25
252.863	80.25
253.096	80.25
253.329	81.25
253.562	88.25
253.795	81.25
254.028	93.25
254.261	92.25
254.494	68.25
254.727	84.25
254.96	83.25
255.193	79.25
255.426	89.25
255.659	77.25
255.892	105.25
256.124	97.25
256.357	95.25
256.59	85.25
256.823	69.25
257.056	87.25
257.289	98.25
257.521	90.25
257.754	88.25
257.987	75.25
258.22	90.25
258.452	99.25
258.685	98.25
258.918	89.25
259.151	95.25
259.383	77.25
259.616	78.25
259.849	88.25
260.081	87.25
260.314	94.25
260.547	101.25
260.779	94.25
261.012	107.25
261.244	124.25
261.477	113.25
261.71	117.25
261.942	155.25
262.175	146.25
262.407	91.25
262.64	92.25
262.872	92.25
263.105	102.25
263.337	93.25
263.57	87.25
263.802	100.25
264.035	75.25
264.267	90.25
264.499	95.25
264.732	78.25
264.964	86.25
265.197	78.25
265.429	92.25
265.661	96.25
265.894	71.25
266.126	79.25
266.358	67.25
266.591	87.25
266.823	100.25
267.055	83.25
267.287	84.25
267.52	85.25
267.752	84.25
267.984	75.25
268.216	85.25
268.448	84.25
268.681	76.25
268.913	88.25
269.145	85.25
269.377	80.25
269.609	87.25
269.841	73.25
270.073	77.25
270.306	86.25
270.538	82.25
270.77	88.25
271.002	77.25
271.234	89.25
271.466	95.25
271.698	94.25
271.93	90.25
272.162	94.25
272.394	102.25
272.626	86.25
272.858	93.25
273.09	78.25
273.322	81.25
273.553	81.25
273.785	68.25
274.017	83.25
274.249	72.25
274.481	94.25
274.713	85.25
274.945	96.25
275.176	78.25
275.408	108.25
275.64	117.25
275.872	135.25
276.104	113.25
276.335	101.25
276.567	120.25
276.799	171.25
277.031	197.25
277.262	233.25
277.494	166.25
277.726	102.25
277.957	94.25
278.189	99.25
278.421	81.25
278.652	87.25
278.884	101.25
279.115	85.25
279.347	97.25
279.579	109.25
279.81	147.25
280.042	238.25
280.273	312.25
280.505	215.25
280.736	117.25
280.968	104.25
281.199	102.25
281.431	94.25
281.662	88.25
281.894	91.25
282.125	104.25
282.356	153.25
282.588	205.25
282.819	126.25
283.051	108.25
283.282	104.25
283.513	89.25
283.745	91.25
283.976	75.25
284.207	86.25
284.439	77.25
284.67	89.25
284.901	81.25
285.132	86.25
285.364	77.25
285.595	85.25
285.826	87.25
286.057	91.25
286.288	88.25
286.52	89.25
286.751	94.25
286.982	100.25
287.213	89.25
287.444	105.25
287.675	83.25
287.906	87.25
288.138	103.25
288.369	100.25
288.6	103.25
288.831	80.25
289.062	87.25
289.293	78.25
289.524	91.25
289.755	85.25
289.986	102.25
290.217	78.25
290.448	90.25
290.679	94.25
290.91	102.25
291.141	90.25
291.371	94.25
291.602	109.25
291.833	100.25
292.064	95.25
292.295	85.25
292.526	88.25
292.757	87.25
292.987	95.25
293.218	87.25
293.449	84.25
293.68	96.25
293.91	94.25
294.141	104.25
294.372	90.25
294.603	93.25
294.833	82.25
295.064	96.25
295.295	90.25
295.525	99.25
295.756	112.25
295.987	136.25
296.217	174.25
296.448	152.25
296.679	90.25
296.909	79.25
297.14	77.25
297.37	108.25
297.601	93.25
297.831	89.25
298.062	82.25
298.292	98.25
298.523	96.25
298.753	103.25
298.984	86.25
299.214	92.25
299.445	115.25
299.675	94.25
299.905	100.25
300.136	107.25
300.366	88.25
300.597	92.25
300.827	101.25
301.057	102.25
301.288	132.25
301.518	113.25
301.748	111.25
301.979	108.25
302.209	104.25
302.439	97.25
302.669	95.25
302.9	99.25
303.13	106.25
303.36	108.25
303.59	153.25
303.82	162.25
304.051	108.25
304.281	97.25
304.511	91.25
304.741	74.25
304.971	88.25
305.201	91.25
305.431	86.25
305.661	86.25
305.891	102.25
306.121	115.25
306.352	111.25
306.582	127.25
306.812	111.25
307.042	133.25
307.272	179.25
307.502	190.25
307.731	192.25
307.961	137.25
308.191	106.25
308.421	93.25
308.651	104.25
308.881	96.25
309.111	89.25
309.341	90.25
309.571	110.25
309.8	104.25
310.03	113.25
310.26	104.25
310.49	108.25
310.72	94.25
310.949	125.25
311.179	118.25
311.409	94.25
311.639	94.25
311.868	111.25
312.098	109.25
312.328	104.25
312.557	137.25
312.787	132.25
313.017	133.25
313.246	112.25
313.476	84.25
313.706	81.25
313.935	110.25
314.165	117.25
314.394	137.25
314.624	125.25
314.853	116.25
315.083	93.25
315.312	96.25
315.542	88.25
315.771	94.25
316.001	90.25
316.23	96.25
316.46	102.25
316.689	92.25
316.919	105.25
317.148	110.25
317.377	104.25
317.607	118.25
317.836	100.25
318.065	87.25
318.295	99.25
318.524	88.25
318.753	92.25
318.983	93.25
319.212	112.25
319.441	110.25
319.67	119.25
319.9	110.25
320.129	91.25
320.358	102.25
320.587	104.25
320.816	115.25
321.046	110.25
321.275	121.25
321.504	111.25
321.733	100.25
321.962	116.25
322.191	117.25
322.42	106.25
322.649	151.25
322.878	118.25
323.108	141.25
323.337	167.25
323.566	173.25
323.795	205.25
324.024	281.25
324.253	580.25
324.482	1245.25
324.71	2568.25
324.939	3347.25
325.168	1193.25
325.397	335.25
325.626	175.25
325.855	144.25
326.084	162.25
326.313	169.25
326.542	177.25
326.77	307.25
326.999	596.25
327.228	1283.25
327.457	2391.25
327.686	1914.25
327.914	675.25
328.143	683.25
328.372	826.25
328.6	464.25
328.829	232.25
329.058	235.25
329.287	241.25
329.515	213.25
329.744	297.25
329.972	623.25
330.201	1310.25
330.43	1885.25
330.658	819.25
330.887	334.25
331.115	213.25
331.344	155.25
331.572	143.25
331.801	160.25
332.03	144.25
332.258	132.25
332.486	111.25
332.715	122.25
332.943	116.25
333.172	141.25
333.4	145.25
333.629	194.25
333.857	273.25
334.085	565.25
334.314	1206.25
334.542	2399.25
334.771	2197.25
334.999	541.25
335.227	217.25
335.455	148.25
335.684	108.25
335.912	111.25
336.14	110.25
336.369	116.25
336.597	121.25
336.825	104.25
337.053	97.25
337.281	104.25
337.51	94.25
337.738	112.25
337.966	114.25
338.194	112.25
338.422	107.25
338.65	105.25
338.878	119.25
339.106	107.25
339.334	96.25
339.562	92.25
339.79	93.25
340.018	96.25
340.246	110.25
340.474	115.25
340.702	115.25
340.93	101.25
341.158	95.25
341.386	109.25
341.614	103.25
341.842	103.25
342.07	100.25
342.298	101.25
342.526	80.25
342.754	89.25
342.981	100.25
343.209	92.25
343.437	102.25
343.665	84.25
343.893	88.25
344.12	101.25
344.348	91.25
344.576	102.25
344.804	102.25
345.031	111.25
345.259	117.25
345.487	104.25
345.714	113.25
345.942	95.25
346.17	96.25
346.397	89.25
346.625	110.25
346.853	99.25
347.08	110.25
347.308	115.25
347.535	110.25
347.763	119.25
347.99	100.25
348.218	104.25
348.445	123.25
348.673	112.25
348.9	96.25
349.128	101.25
349.355	91.25
349.583	85.25
349.81	109.25
350.037	114.25
350.265	102.25
350.492	102.25
350.72	97.25
350.947	104.25
351.174	150.25
351.402	129.25
351.629	116.25
351.856	124.25
352.083	119.25
352.311	129.25
352.538	150.25
352.765	128.25
352.992	122.25
353.22	135.25
353.447	113.25
353.674	106.25
353.901	80.25
354.128	102.25
354.355	97.25
354.583	104.25
354.81	96.25
355.037	104.25
355.264	90.25
355.491	86.25
355.718	90.25
355.945	100.25
356.172	98.25
356.399	94.25
356.626	102.25
356.853	93.25
357.08	100.25
357.307	105.25
357.534	88.25
357.761	108.25
357.988	99.25
358.215	94.25
358.441	87.25
358.668	91.25
358.895	74.25
359.122	88.25
359.349	89.25
359.576	102.25
359.802	139.25
360.029	148.25
360.256	160.25
360.483	112.25
360.709	87.25
360.936	94.25
361.163	122.25
361.39	111.25
361.616	105.25
361.843	111.25
362.07	107.25
362.296	104.25
362.523	111.25
362.749	95.25
362.976	87.25
363.203	93.25
363.429	103.25
363.656	102.25
363.882	87.25
364.109	102.25
364.335	101.25
364.562	94.25
364.788	96.25
365.015	104.25
365.241	105.25
365.468	116.25
365.694	117.25
365.92	111.25
366.147	89.25
366.373	92.25
366.599	96.25
366.826	89.25
367.052	106.25
367.278	89.25
367.505	95.25
367.731	86.25
367.957	106.25
368.184	97.25
368.41	109.25
368.636	125.25
368.862	150.25
369.089	123.25
369.315	107.25
369.541	104.25
369.767	99.25
369.993	94.25
370.219	99.25
370.445	74.25
370.672	67.25
370.898	81.25
371.124	82.25
371.35	94.25
371.576	93.25
371.802	92.25
372.028	90.25
372.254	81.25
372.48	95.25
372.706	82.25
372.932	83.25
373.158	94.25
373.384	86.25
373.61	105.25
373.835	78.25
374.061	88.25
374.287	82.25
374.513	87.25
374.739	87.25
374.965	103.25
375.191	94.25
375.416	79.25
375.642	79.25
375.868	92.25
376.094	96.25
376.319	88.25
376.545	92.25
376.771	85.25
376.997	81.25
377.222	84.25
377.448	102.25
377.674	72.25
377.899	76.25
378.125	87.25
378.35	82.25
378.576	73.25
378.802	89.25
379.027	95.25
379.253	96.25
379.478	94.25
379.704	88.25
379.929	88.25
380.155	113.25
380.38	101.25
380.606	103.25
380.831	79.25
381.057	91.25
381.282	89.25
381.507	87.25
381.733	99.25
381.958	102.25
382.184	102.25
382.409	93.25
382.634	103.25
382.86	103.25
383.085	108.25
383.31	94.25
383.535	108.25
383.761	87.25
383.986	89.25
384.211	93.25
384.436	94.25
384.662	79.25
384.887	86.25
385.112	96.25
385.337	106.25
385.562	102.25
385.787	101.25
386.013	126.25
386.238	117.25
386.463	109.25
386.688	116.25
386.913	92.25
387.138	91.25
387.363	91.25
387.588	92.25
387.813	111.25
388.038	89.25
388.263	102.25
388.488	92.25
388.713	77.25
388.938	96.25
389.163	84.25
389.387	94.25
389.612	92.25
389.837	99.25
390.062	76.25
390.287	93.25
390.512	75.25
390.736	92.25
390.961	94.25
391.186	77.25
391.411	99.25
391.636	95.25
391.86	108.25
392.085	89.25
392.31	81.25
392.534	86.25
392.759	82.25
392.984	91.25
393.208	96.25
393.433	90.25
393.658	96.25
393.882	79.25
394.107	81.25
394.331	80.25
394.556	79.25
394.78	96.25
395.005	91.25
395.229	80.25
395.454	91.25
395.678	85.25
395.903	90.25
396.127	89.25
396.352	92.25
396.576	93.25
396.801	92.25
397.025	86.25
397.249	87.25
397.474	93.25
397.698	87.25
397.922	87.25
398.147	91.25
398.371	81.25
398.595	85.25
398.82	83.25
399.044	87.25
399.268	84.25
399.492	95.25
399.717	85.25
399.941	101.25
400.165	84.25
400.389	84.25
400.613	92.25
400.837	98.25
401.062	83.25
401.286	91.25
401.51	95.25
401.734	108.25
401.958	109.25
402.182	157.25
402.406	215.25
402.63	160.25
402.854	114.25
403.078	98.25
403.302	97.25
403.526	81.25
403.75	89.25
403.974	88.25
404.198	86.25
404.422	105.25
404.645	96.25
404.869	101.25
405.093	125.25
405.317	152.25
405.541	138.25
405.765	104.25
405.988	147.25
406.212	242.25
406.436	392.25
406.66	251.25
406.883	123.25
407.107	118.25
407.331	127.25
407.555	114.25
407.778	122.25
408.002	92.25
408.226	103.25
408.449	87.25
408.673	112.25
408.896	108.25
409.12	104.25
409.344	79.25
409.567	89.25
409.791	82.25
410.014	95.25
410.238	87.25
410.461	100.25
410.685	103.25
410.908	101.25
411.132	109.25
411.355	104.25
411.578	89.25
411.802	82.25
412.025	93.25
412.249	103.25
412.472	118.25
412.695	132.25
412.919	108.25
413.142	99.25
413.365	79.25
413.589	87.25
413.812	77.25
414.035	85.25
414.258	92.25
414.482	95.25
414.705	83.25
414.928	101.25
415.151	91.25
415.374	96.25
415.597	106.25
415.821	87.25
416.044	104.25
416.267	79.25
416.49	83.25
416.713	87.25
416.936	99.25
417.159	99.25
417.382	103.25
417.605	112.25
417.828	125.25
418.051	91.25
418.274	73.25
418.497	84.25
418.72	80.25
418.943	75.25
419.166	94.25
419.389	93.25
419.611	92.25
419.834	90.25
420.057	103.25
420.28	105.25
420.503	101.25
420.726	86.25
420.948	93.25
421.171	96.25
421.394	96.25
421.617	96.25
421.839	93.25
422.062	76.25
422.285	107.25
422.507	97.25
422.73	132.25
422.953	108.25
423.175	80.25
423.398	91.25
423.621	84.25
423.843	95.25
424.066	80.25
424.288	92.25
424.511	111.25
424.733	110.25
424.956	132.25
425.178	117.25
425.401	111.25
425.623	113.25
425.846	100.25
426.068	108.25
426.291	92.25
426.513	109.25
426.735	99.25
426.958	114.25
427.18	126.25
427.402	196.25
427.625	289.25
427.847	288.25
428.069	243.25
428.292	127.25
428.514	102.25
428.736	97.25
428.958	98.25
429.181	74.25
429.403	81.25
429.625	84.25
429.847	102.25
430.069	134.25
430.292	101.25
430.514	97.25
430.736	99.25
430.958	92.25
431.18	93.25
431.402	77.25
431.624	96.25
431.846	85.25
432.068	93.25
432.29	89.25
432.512	92.25
432.734	82.25
432.956	96.25
433.178	106.25
433.4	92.25
433.622	99.25
433.844	96.25
434.066	89.25
434.287	91.25
434.509	76.25
434.731	89.25
434.953	97.25
435.175	98.25
435.397	99.25
435.618	93.25
435.84	137.25
436.062	154.25
436.284	135.25
436.505	103.25
436.727	116.25
436.949	100.25
437.17	92.25
437.392	91.25
437.614	112.25
437.835	131.25
438.057	175.25
438.278	148.25
438.5	116.25
438.721	146.25
438.943	95.25
439.165	79.25
439.386	100.25
439.608	94.25
439.829	112.25
440.05	169.25
440.272	217.25
440.493	114.25
440.715	102.25
440.936	83.25
441.158	80.25
441.379	90.25
441.6	96.25
441.822	113.25
442.043	108.25
442.264	122.25
442.486	122.25
442.707	110.25
442.928	127.25
443.149	192.25
443.371	199.25
443.592	154.25
443.813	145.25
444.034	127.25
444.255	102.25
444.476	88.25
444.698	99.25
444.919	97.25
445.14	119.25
445.361	155.25
445.582	171.25
445.803	216.25
446.024	225.25
446.245	187.25
446.466	150.25
446.687	98.25
446.908	96.25
447.129	97.25
447.35	94.25
447.571	101.25
447.792	100.25
448.013	108.25
448.234	145.25
448.455	126.25
448.675	136.25
448.896	150.25
449.117	116.25
449.338	133.25
449.559	161.25
449.779	173.25
450	86.25
450.221	85.25
450.442	94.25
450.662	126.25
450.883	134.25
451.104	169.25
451.324	116.25
451.545	92.25
451.766	81.25
451.986	92.25
452.207	106.25
452.428	96.25
452.648	111.25
452.869	137.25
453.089	140.25
453.31	147.25
453.53	109.25
453.751	105.25
453.971	144.25
454.192	161.25
454.412	83.25
454.633	81.25
454.853	86.25
455.073	109.25
455.294	107.25
455.514	115.25
455.734	96.25
455.955	95.25
456.175	95.25
456.395	76.25
456.616	87.25
456.836	91.25
457.056	86.25
457.276	80.25
457.497	97.25
457.717	84.25
457.937	85.25
458.157	88.25
458.377	115.25
458.598	137.25
458.818	236.25
459.038	288.25
459.258	171.25
459.478	94.25
459.698	87.25
459.918	98.25
460.138	90.25
460.358	86.25
460.578	92.25
460.798	86.25
461.018	94.25
461.238	78.25
461.458	85.25
461.678	84.25
461.898	97.25
462.118	82.25
462.338	83.25
462.558	92.25
462.777	97.25
462.997	101.25
463.217	117.25
463.437	112.25
463.657	91.25
463.876	89.25
464.096	97.25
464.316	85.25
464.536	102.25
464.755	117.25
464.975	118.25
465.195	283.25
465.414	289.25
465.634	120.25
465.854	97.25
466.073	84.25
466.293	96.25
466.512	95.25
466.732	100.25
466.951	102.25
467.171	100.25
467.391	120.25
467.61	160.25
467.829	257.25
468.049	691.25
468.268	1045.25
468.488	248.25
468.707	109.25
468.927	106.25
469.146	84.25
469.365	84.25
469.585	104.25
469.804	133.25
470.023	117.25
470.243	111.25
470.462	121.25
470.681	156.25
470.901	106.25
471.12	117.25
471.339	101.25
471.558	132.25
471.777	177.25
471.997	367.25
472.216	1419.25
472.435	3251.25
472.654	757.25
472.873	205.25
473.092	114.25
473.311	104.25
473.53	91.25
473.749	100.25
473.968	111.25
474.187	128.25
474.406	103.25
474.625	89.25
474.844	104.25
475.063	79.25
475.282	91.25
475.501	92.25
475.72	85.25
475.939	85.25
476.158	80.25
476.377	103.25
476.596	96.25
476.814	96.25
477.033	104.25
477.252	95.25
477.471	83.25
477.69	92.25
477.908	110.25
478.127	112.25
478.346	96.25
478.564	112.25
478.783	120.25
479.002	119.25
479.22	113.25
479.439	127.25
479.658	139.25
479.876	128.25
480.095	131.25
480.313	180.25
480.532	171.25
480.751	319.25
480.969	1285.25
481.188	5680.25
481.406	3095.25
481.624	417.25
481.843	155.25
482.061	123.25
482.28	110.25
482.498	97.25
482.717	97.25
482.935	83.25
483.153	97.25
483.372	97.25
483.59	91.25
483.808	97.25
484.027	103.25
484.245	89.25
484.463	87.25
484.681	88.25
484.9	90.25
485.118	86.25
485.336	94.25
485.554	108.25
485.772	97.25
485.99	102.25
486.209	105.25
486.427	111.25
486.645	126.25
486.863	123.25
487.081	112.25
487.299	96.25
487.517	89.25
487.735	106.25
487.953	97.25
488.171	95.25
488.389	104.25
488.607	109.25
488.825	97.25
489.043	97.25
489.261	85.25
489.479	103.25
489.696	101.25
489.914	81.25
490.132	98.25
490.35	91.25
490.568	85.25
490.786	95.25
491.003	94.25
491.221	96.25
491.439	101.25
491.657	102.25
491.874	79.25
492.092	85.25
492.31	98.25
492.527	95.25
492.745	105.25
492.963	101.25
493.18	88.25
493.398	101.25
493.615	84.25
493.833	95.25
494.05	81.25
494.268	96.25
494.485	82.25
494.703	96.25
494.92	90.25
495.138	93.25
495.355	93.25
495.573	91.25
495.79	81.25
496.008	97.25
496.225	83.25
496.442	93.25
496.66	104.25
496.877	91.25
497.094	80.25
497.312	101.25
497.529	81.25
497.746	93.25
497.963	87.25
498.181	95.25
498.398	106.25
498.615	135.25
498.832	117.25
499.049	97.25
499.267	104.25
499.484	93.25
499.701	91.25
499.918	96.25
500.135	90.25
500.352	102.25
500.569	98.25
500.786	110.25
501.003	105.25
501.22	92.25
501.437	96.25
501.654	110.25
501.871	127.25
502.088	104.25
502.305	88.25
502.522	103.25
502.739	93.25
502.956	112.25
503.172	95.25
503.389	120.25
503.606	124.25
503.823	104.25
504.04	94.25
504.256	95.25
504.473	84.25
504.69	89.25
504.907	106.25
505.123	102.25
505.34	96.25
505.557	86.25
505.773	85.25
505.99	99.25
506.207	89.25
506.423	97.25
506.64	94.25
506.856	101.25
507.073	98.25
507.289	87.25
507.506	100.25
507.722	146.25
507.939	128.25
508.155	97.25
508.372	105.25
508.588	79.25
508.805	101.25
509.021	89.25
509.238	105.25
509.454	109.25
509.67	115.25
509.887	107.25
510.103	160.25
510.319	256.25
510.536	1068.25
510.752	3807.25
510.968	999.25
511.184	198.25
511.401	124.25
511.617	103.25
511.833	122.25
