Data from Circ_1997_H10_HRD10591_00035.txt Node
Date: Wed Jan 03 11:29:34 EST 2024
User: Yrep
Spectrometer: HR+D1059
Trigger mode: 1
Integration Time (sec): 1.000000E-1
Scans to average: 1
Electric dark correction enabled: true
Nonlinearity correction enabled: false
Boxcar width: 0
XAxis mode: Wavelengths
Number of Pixels in Spectrum: 2048
>>>>>Begin Spectral Data<<<<<
223.165	-12.12
223.4	-12.12
223.635	-12.12
223.869	-15.12
224.104	-18.12
224.338	-13.12
224.573	-20.12
224.808	-14.12
225.042	1.88
225.277	-19.12
225.511	-3.12
225.746	10.88
225.98	11.88
226.215	7.88
226.449	12.88
226.683	12.88
226.918	19.88
227.152	36.88
227.387	37.88
227.621	46.88
227.856	50.88
228.09	48.88
228.324	54.88
228.559	60.88
228.793	68.88
229.027	59.88
229.262	66.88
229.496	81.88
229.73	96.88
229.964	87.88
230.199	75.88
230.433	76.88
230.667	66.88
230.901	84.88
231.136	79.88
231.37	80.88
231.604	76.88
231.838	75.88
232.072	75.88
232.306	79.88
232.541	79.88
232.775	80.88
233.009	86.88
233.243	84.88
233.477	74.88
233.711	84.88
233.945	82.88
234.179	79.88
234.413	67.88
234.647	75.88
234.881	88.88
235.115	66.88
235.349	82.88
235.583	72.88
235.817	80.88
236.051	83.88
236.285	68.88
236.519	80.88
236.753	76.88
236.987	72.88
237.221	90.88
237.455	94.88
237.689	74.88
237.922	83.88
238.156	75.88
238.39	74.88
238.624	84.88
238.858	76.88
239.091	83.88
239.325	86.88
239.559	92.88
239.793	75.88
240.027	76.88
240.26	83.88
240.494	67.88
240.728	66.88
240.961	77.88
241.195	80.88
241.429	83.88
241.662	80.88
241.896	83.88
242.13	85.88
242.363	90.88
242.597	77.88
242.83	67.88
243.064	82.88
243.298	85.88
243.531	89.88
243.765	79.88
243.998	95.88
244.232	83.88
244.465	92.88
244.699	79.88
244.932	86.88
245.166	81.88
245.399	76.88
245.633	87.88
245.866	83.88
246.099	82.88
246.333	83.88
246.566	74.88
246.8	76.88
247.033	77.88
247.266	73.88
247.5	82.88
247.733	71.88
247.966	79.88
248.2	85.88
248.433	82.88
248.666	77.88
248.899	85.88
249.133	82.88
249.366	114.88
249.599	99.88
249.832	98.88
250.066	85.88
250.299	90.88
250.532	79.88
250.765	78.88
250.998	81.88
251.231	82.88
251.465	91.88
251.698	94.88
251.931	98.88
252.164	78.88
252.397	82.88
252.63	82.88
252.863	75.88
253.096	94.88
253.329	82.88
253.562	93.88
253.795	78.88
254.028	88.88
254.261	108.88
254.494	84.88
254.727	77.88
254.96	67.88
255.193	73.88
255.426	79.88
255.659	66.88
255.892	94.88
256.124	94.88
256.357	85.88
256.59	76.88
256.823	89.88
257.056	81.88
257.289	90.88
257.521	84.88
257.754	90.88
257.987	80.88
258.22	82.88
258.452	87.88
258.685	96.88
258.918	73.88
259.151	74.88
259.383	99.88
259.616	76.88
259.849	82.88
260.081	83.88
260.314	95.88
260.547	96.88
260.779	97.88
261.012	93.88
261.244	95.88
261.477	103.88
261.71	109.88
261.942	131.88
262.175	138.88
262.407	99.88
262.64	84.88
262.872	76.88
263.105	90.88
263.337	90.88
263.57	78.88
263.802	87.88
264.035	80.88
264.267	83.88
264.499	83.88
264.732	75.88
264.964	90.88
265.197	79.88
265.429	79.88
265.661	92.88
265.894	82.88
266.126	61.88
266.358	93.88
266.591	91.88
266.823	90.88
267.055	87.88
267.287	100.88
267.52	92.88
267.752	83.88
267.984	83.88
268.216	88.88
268.448	85.88
268.681	84.88
268.913	83.88
269.145	66.88
269.377	72.88
269.609	85.88
269.841	90.88
270.073	84.88
270.306	93.88
270.538	95.88
270.77	91.88
271.002	91.88
271.234	83.88
271.466	86.88
271.698	94.88
271.93	83.88
272.162	96.88
272.394	106.88
272.626	96.88
272.858	98.88
273.09	96.88
273.322	83.88
273.553	90.88
273.785	92.88
274.017	84.88
274.249	91.88
274.481	100.88
274.713	92.88
274.945	90.88
275.176	94.88
275.408	93.88
275.64	95.88
275.872	100.88
276.104	99.88
276.335	94.88
276.567	108.88
276.799	124.88
277.031	161.88
277.262	160.88
277.494	115.88
277.726	100.88
277.957	82.88
278.189	92.88
278.421	81.88
278.652	97.88
278.884	90.88
279.115	91.88
279.347	93.88
279.579	99.88
279.81	125.88
280.042	158.88
280.273	201.88
280.505	153.88
280.736	108.88
280.968	91.88
281.199	94.88
281.431	99.88
281.662	97.88
281.894	87.88
282.125	97.88
282.356	128.88
282.588	157.88
282.819	116.88
283.051	84.88
283.282	74.88
283.513	101.88
283.745	94.88
283.976	85.88
284.207	92.88
284.439	85.88
284.67	92.88
284.901	92.88
285.132	84.88
285.364	93.88
285.595	82.88
285.826	78.88
286.057	79.88
286.288	91.88
286.52	88.88
286.751	85.88
286.982	104.88
287.213	83.88
287.444	79.88
287.675	94.88
287.906	90.88
288.138	88.88
288.369	111.88
288.6	89.88
288.831	77.88
289.062	82.88
289.293	92.88
289.524	88.88
289.755	84.88
289.986	80.88
290.217	97.88
290.448	105.88
290.679	98.88
290.91	98.88
291.141	87.88
291.371	91.88
291.602	78.88
291.833	80.88
292.064	89.88
292.295	90.88
292.526	99.88
292.757	86.88
292.987	96.88
293.218	78.88
293.449	81.88
293.68	87.88
293.91	93.88
294.141	86.88
294.372	84.88
294.603	81.88
294.833	102.88
295.064	89.88
295.295	87.88
295.525	101.88
295.756	107.88
295.987	126.88
296.217	166.88
296.448	130.88
296.679	95.88
296.909	102.88
297.14	93.88
297.37	96.88
297.601	94.88
297.831	77.88
298.062	97.88
298.292	94.88
298.523	94.88
298.753	96.88
298.984	98.88
299.214	103.88
299.445	101.88
299.675	97.88
299.905	116.88
300.136	94.88
300.366	94.88
300.597	88.88
300.827	88.88
301.057	104.88
301.288	116.88
301.518	83.88
301.748	91.88
301.979	96.88
302.209	87.88
302.439	100.88
302.669	102.88
302.9	101.88
303.13	111.88
303.36	101.88
303.59	108.88
303.82	129.88
304.051	106.88
304.281	91.88
304.511	104.88
304.741	96.88
304.971	100.88
305.201	104.88
305.431	91.88
305.661	86.88
305.891	86.88
306.121	104.88
306.352	114.88
306.582	114.88
306.812	102.88
307.042	114.88
307.272	141.88
307.502	158.88
307.731	152.88
307.961	123.88
308.191	93.88
308.421	97.88
308.651	92.88
308.881	100.88
309.111	121.88
309.341	98.88
309.571	102.88
309.8	95.88
310.03	99.88
310.26	102.88
310.49	110.88
310.72	110.88
310.949	118.88
311.179	117.88
311.409	101.88
311.639	109.88
311.868	90.88
312.098	97.88
312.328	105.88
312.557	112.88
312.787	123.88
313.017	111.88
313.246	99.88
313.476	83.88
313.706	92.88
313.935	102.88
314.165	94.88
314.394	122.88
314.624	95.88
314.853	105.88
315.083	95.88
315.312	89.88
315.542	78.88
315.771	104.88
316.001	90.88
316.23	91.88
316.46	91.88
316.689	87.88
316.919	88.88
317.148	102.88
317.377	100.88
317.607	98.88
317.836	104.88
318.065	86.88
318.295	108.88
318.524	93.88
318.753	90.88
318.983	82.88
319.212	105.88
319.441	111.88
319.67	110.88
319.9	97.88
320.129	92.88
320.358	100.88
320.587	95.88
320.816	107.88
321.046	106.88
321.275	97.88
321.504	97.88
321.733	115.88
321.962	116.88
322.191	99.88
322.42	120.88
322.649	116.88
322.878	123.88
323.108	136.88
323.337	155.88
323.566	151.88
323.795	194.88
324.024	266.88
324.253	526.88
324.482	1186.88
324.71	2568.88
324.939	3466.88
325.168	1192.88
325.397	333.88
325.626	188.88
325.855	152.88
326.084	139.88
326.313	171.88
326.542	191.88
326.77	297.88
326.999	670.88
327.228	1390.88
327.457	2625.88
327.686	2078.88
327.914	610.88
328.143	457.88
328.372	541.88
328.6	302.88
328.829	178.88
329.058	177.88
329.287	195.88
329.515	152.88
329.744	231.88
329.972	402.88
330.201	794.88
330.43	1103.88
330.658	494.88
330.887	264.88
331.115	168.88
331.344	136.88
331.572	112.88
331.801	133.88
332.03	126.88
332.258	116.88
332.486	115.88
332.715	119.88
332.943	103.88
333.172	106.88
333.4	147.88
333.629	133.88
333.857	194.88
334.085	368.88
334.314	776.88
334.542	1410.88
334.771	1296.88
334.999	347.88
335.227	152.88
335.455	121.88
335.684	100.88
335.912	106.88
336.14	129.88
336.369	120.88
336.597	108.88
336.825	99.88
337.053	88.88
337.281	108.88
337.51	115.88
337.738	106.88
337.966	97.88
338.194	113.88
338.422	105.88
338.65	96.88
338.878	102.88
339.106	84.88
339.334	94.88
339.562	90.88
339.79	87.88
340.018	105.88
340.246	91.88
340.474	110.88
340.702	103.88
340.93	85.88
341.158	89.88
341.386	111.88
341.614	102.88
341.842	96.88
342.07	95.88
342.298	106.88
342.526	103.88
342.754	104.88
342.981	99.88
343.209	104.88
343.437	80.88
343.665	85.88
343.893	79.88
344.12	81.88
344.348	95.88
344.576	91.88
344.804	106.88
345.031	96.88
345.259	108.88
345.487	85.88
345.714	102.88
345.942	91.88
346.17	91.88
346.397	93.88
346.625	104.88
346.853	92.88
347.08	84.88
347.308	96.88
347.535	86.88
347.763	108.88
347.99	114.88
348.218	91.88
348.445	125.88
348.673	104.88
348.9	100.88
349.128	100.88
349.355	90.88
349.583	89.88
349.81	86.88
350.037	107.88
350.265	108.88
350.492	101.88
350.72	101.88
350.947	97.88
351.174	117.88
351.402	102.88
351.629	105.88
351.856	106.88
352.083	113.88
352.311	105.88
352.538	117.88
352.765	108.88
352.992	126.88
353.22	122.88
353.447	116.88
353.674	108.88
353.901	106.88
354.128	104.88
354.355	100.88
354.583	89.88
354.81	94.88
355.037	105.88
355.264	104.88
355.491	84.88
355.718	96.88
355.945	91.88
356.172	108.88
356.399	97.88
356.626	94.88
356.853	83.88
357.08	93.88
357.307	88.88
357.534	96.88
357.761	86.88
357.988	95.88
358.215	109.88
358.441	104.88
358.668	91.88
358.895	97.88
359.122	91.88
359.349	103.88
359.576	100.88
359.802	103.88
360.029	128.88
360.256	123.88
360.483	108.88
360.709	112.88
360.936	110.88
361.163	97.88
361.39	83.88
361.616	89.88
361.843	87.88
362.07	105.88
362.296	121.88
362.523	93.88
362.749	84.88
362.976	107.88
363.203	93.88
363.429	92.88
363.656	91.88
363.882	90.88
364.109	102.88
364.335	93.88
364.562	110.88
364.788	100.88
365.015	97.88
365.241	105.88
365.468	118.88
365.694	113.88
365.92	108.88
366.147	103.88
366.373	87.88
366.599	80.88
366.826	92.88
367.052	91.88
367.278	103.88
367.505	98.88
367.731	97.88
367.957	96.88
368.184	97.88
368.41	105.88
368.636	108.88
368.862	136.88
369.089	121.88
369.315	103.88
369.541	90.88
369.767	102.88
369.993	97.88
370.219	111.88
370.445	101.88
370.672	96.88
370.898	94.88
371.124	89.88
371.35	84.88
371.576	86.88
371.802	96.88
372.028	85.88
372.254	82.88
372.48	91.88
372.706	84.88
372.932	81.88
373.158	88.88
373.384	90.88
373.61	94.88
373.835	97.88
374.061	101.88
374.287	100.88
374.513	98.88
374.739	87.88
374.965	90.88
375.191	76.88
375.416	82.88
375.642	81.88
375.868	87.88
376.094	97.88
376.319	102.88
376.545	96.88
376.771	93.88
376.997	104.88
377.222	89.88
377.448	92.88
377.674	93.88
377.899	94.88
378.125	78.88
378.35	90.88
378.576	89.88
378.802	88.88
379.027	85.88
379.253	92.88
379.478	90.88
379.704	88.88
379.929	91.88
380.155	90.88
380.38	105.88
380.606	93.88
380.831	93.88
381.057	90.88
381.282	92.88
381.507	79.88
381.733	104.88
381.958	94.88
382.184	98.88
382.409	86.88
382.634	108.88
382.86	97.88
383.085	92.88
383.31	103.88
383.535	102.88
383.761	93.88
383.986	98.88
384.211	88.88
384.436	94.88
384.662	115.88
384.887	91.88
385.112	107.88
385.337	90.88
385.562	109.88
385.787	106.88
386.013	114.88
386.238	115.88
386.463	114.88
386.688	105.88
386.913	90.88
387.138	97.88
387.363	94.88
387.588	108.88
387.813	87.88
388.038	107.88
388.263	105.88
388.488	116.88
388.713	103.88
388.938	92.88
389.163	105.88
389.387	93.88
389.612	94.88
389.837	85.88
390.062	91.88
390.287	95.88
390.512	92.88
390.736	83.88
390.961	88.88
391.186	94.88
391.411	105.88
391.636	83.88
391.86	80.88
392.085	91.88
392.31	81.88
392.534	88.88
392.759	92.88
392.984	83.88
393.208	100.88
393.433	95.88
393.658	99.88
393.882	86.88
394.107	79.88
394.331	84.88
394.556	74.88
394.78	78.88
395.005	78.88
395.229	88.88
395.454	100.88
395.678	76.88
395.903	86.88
396.127	89.88
396.352	92.88
396.576	84.88
396.801	95.88
397.025	95.88
397.249	83.88
397.474	98.88
397.698	87.88
397.922	90.88
398.147	88.88
398.371	84.88
398.595	90.88
398.82	82.88
399.044	90.88
399.268	82.88
399.492	108.88
399.717	98.88
399.941	94.88
400.165	93.88
400.389	98.88
400.613	89.88
400.837	88.88
401.062	96.88
401.286	98.88
401.51	99.88
401.734	88.88
401.958	105.88
402.182	156.88
402.406	188.88
402.63	152.88
402.854	94.88
403.078	107.88
403.302	92.88
403.526	90.88
403.75	91.88
403.974	90.88
404.198	99.88
404.422	104.88
404.645	104.88
404.869	99.88
405.093	115.88
405.317	128.88
405.541	136.88
405.765	121.88
405.988	131.88
406.212	201.88
406.436	291.88
406.66	196.88
406.883	120.88
407.107	118.88
407.331	103.88
407.555	115.88
407.778	97.88
408.002	84.88
408.226	91.88
408.449	86.88
408.673	86.88
408.896	94.88
409.12	105.88
409.344	94.88
409.567	82.88
409.791	104.88
410.014	91.88
410.238	83.88
410.461	75.88
410.685	93.88
410.908	112.88
411.132	115.88
411.355	109.88
411.578	115.88
411.802	87.88
412.025	96.88
412.249	98.88
412.472	117.88
412.695	152.88
412.919	120.88
413.142	79.88
413.365	84.88
413.589	94.88
413.812	98.88
414.035	108.88
414.258	100.88
414.482	101.88
414.705	98.88
414.928	78.88
415.151	104.88
415.374	87.88
415.597	100.88
415.821	96.88
416.044	91.88
416.267	89.88
416.49	77.88
416.713	81.88
416.936	94.88
417.159	105.88
417.382	95.88
417.605	98.88
417.828	108.88
418.051	98.88
418.274	89.88
418.497	82.88
418.72	80.88
418.943	83.88
419.166	84.88
419.389	88.88
419.611	90.88
419.834	94.88
420.057	90.88
420.28	96.88
420.503	92.88
420.726	88.88
420.948	102.88
421.171	106.88
421.394	94.88
421.617	90.88
421.839	91.88
422.062	88.88
422.285	92.88
422.507	104.88
422.73	110.88
422.953	103.88
423.175	83.88
423.398	90.88
423.621	98.88
423.843	92.88
424.066	78.88
424.288	87.88
424.511	95.88
424.733	103.88
424.956	112.88
425.178	112.88
425.401	126.88
425.623	105.88
425.846	88.88
426.068	79.88
426.291	115.88
426.513	95.88
426.735	100.88
426.958	113.88
427.18	119.88
427.402	182.88
427.625	260.88
427.847	234.88
428.069	244.88
428.292	126.88
428.514	100.88
428.736	94.88
428.958	94.88
429.181	98.88
429.403	81.88
429.625	100.88
429.847	87.88
430.069	110.88
430.292	95.88
430.514	79.88
430.736	100.88
430.958	83.88
431.18	82.88
431.402	91.88
431.624	82.88
431.846	76.88
432.068	84.88
432.29	93.88
432.512	87.88
432.734	95.88
432.956	88.88
433.178	115.88
433.4	100.88
433.622	87.88
433.844	78.88
434.066	96.88
434.287	83.88
434.509	83.88
434.731	85.88
434.953	96.88
435.175	102.88
435.397	100.88
435.618	94.88
435.84	118.88
436.062	165.88
436.284	140.88
436.505	113.88
436.727	108.88
436.949	96.88
437.17	87.88
437.392	94.88
437.614	90.88
437.835	108.88
438.057	152.88
438.278	138.88
438.5	117.88
438.721	148.88
438.943	125.88
439.165	95.88
439.386	94.88
439.608	111.88
439.829	102.88
440.05	147.88
440.272	180.88
440.493	112.88
440.715	95.88
440.936	84.88
441.158	100.88
441.379	99.88
441.6	95.88
441.822	116.88
442.043	95.88
442.264	134.88
442.486	119.88
442.707	102.88
442.928	106.88
443.149	164.88
443.371	163.88
443.592	138.88
443.813	123.88
444.034	114.88
444.255	102.88
444.476	83.88
444.698	82.88
444.919	97.88
445.14	135.88
445.361	138.88
445.582	139.88
445.803	194.88
446.024	186.88
446.245	200.88
446.466	139.88
446.687	93.88
446.908	90.88
447.129	88.88
447.35	79.88
447.571	91.88
447.792	99.88
448.013	108.88
448.234	124.88
448.455	124.88
448.675	138.88
448.896	158.88
449.117	112.88
449.338	108.88
449.559	165.88
449.779	169.88
450	97.88
450.221	92.88
450.442	90.88
450.662	91.88
450.883	118.88
451.104	131.88
451.324	78.88
451.545	93.88
451.766	81.88
451.986	92.88
452.207	99.88
452.428	108.88
452.648	96.88
452.869	126.88
453.089	114.88
453.31	118.88
453.53	100.88
453.751	89.88
453.971	121.88
454.192	130.88
454.412	95.88
454.633	83.88
454.853	91.88
455.073	104.88
455.294	95.88
455.514	110.88
455.734	100.88
455.955	91.88
456.175	89.88
456.395	95.88
456.616	83.88
456.836	86.88
457.056	88.88
457.276	81.88
457.497	94.88
457.717	89.88
457.937	84.88
458.157	86.88
458.377	108.88
458.598	120.88
458.818	210.88
459.038	212.88
459.258	126.88
459.478	97.88
459.698	83.88
459.918	88.88
460.138	85.88
460.358	98.88
460.578	82.88
460.798	86.88
461.018	86.88
461.238	88.88
461.458	85.88
461.678	99.88
461.898	94.88
462.118	92.88
462.338	92.88
462.558	86.88
462.777	95.88
462.997	93.88
463.217	110.88
463.437	90.88
463.657	87.88
463.876	84.88
464.096	92.88
464.316	100.88
464.536	103.88
464.755	110.88
464.975	126.88
465.195	216.88
465.414	195.88
465.634	104.88
465.854	97.88
466.073	97.88
466.293	78.88
466.512	90.88
466.732	87.88
466.951	79.88
467.171	109.88
467.391	109.88
467.61	124.88
467.829	170.88
468.049	461.88
468.268	613.88
468.488	176.88
468.707	90.88
468.927	77.88
469.146	88.88
469.365	85.88
469.585	97.88
469.804	110.88
470.023	119.88
470.243	108.88
470.462	104.88
470.681	131.88
470.901	107.88
471.12	100.88
471.339	104.88
471.558	120.88
471.777	144.88
471.997	262.88
472.216	875.88
472.435	1938.88
472.654	465.88
472.873	130.88
473.092	113.88
473.311	101.88
473.53	97.88
473.749	103.88
473.968	114.88
474.187	121.88
474.406	123.88
474.625	103.88
474.844	83.88
475.063	89.88
475.282	96.88
475.501	84.88
475.72	100.88
475.939	81.88
476.158	81.88
476.377	97.88
476.596	96.88
476.814	92.88
477.033	107.88
477.252	93.88
477.471	102.88
477.69	93.88
477.908	87.88
478.127	89.88
478.346	99.88
478.564	92.88
478.783	101.88
479.002	88.88
479.22	95.88
479.439	114.88
479.658	130.88
479.876	123.88
480.095	113.88
480.313	117.88
480.532	140.88
480.751	257.88
480.969	875.88
481.188	3517.88
481.406	1908.88
481.624	294.88
481.843	126.88
482.061	98.88
482.28	104.88
482.498	96.88
482.717	96.88
482.935	94.88
483.153	95.88
483.372	92.88
483.59	82.88
483.808	82.88
484.027	92.88
484.245	92.88
484.463	88.88
484.681	108.88
484.9	99.88
485.118	99.88
485.336	99.88
485.554	85.88
485.772	100.88
485.99	110.88
486.209	115.88
486.427	112.88
486.645	115.88
486.863	112.88
487.081	110.88
487.299	94.88
487.517	85.88
487.735	94.88
487.953	82.88
488.171	100.88
488.389	90.88
488.607	111.88
488.825	79.88
489.043	86.88
489.261	87.88
489.479	93.88
489.696	78.88
489.914	89.88
490.132	83.88
490.35	84.88
490.568	90.88
490.786	89.88
491.003	79.88
491.221	87.88
491.439	90.88
491.657	101.88
491.874	86.88
492.092	95.88
492.31	98.88
492.527	97.88
492.745	86.88
492.963	84.88
493.18	100.88
493.398	98.88
493.615	89.88
493.833	95.88
494.05	81.88
494.268	83.88
494.485	84.88
494.703	86.88
494.92	95.88
495.138	99.88
495.355	96.88
495.573	98.88
495.79	93.88
496.008	91.88
496.225	87.88
496.442	100.88
496.66	97.88
496.877	98.88
497.094	84.88
497.312	91.88
497.529	85.88
497.746	99.88
497.963	105.88
498.181	88.88
498.398	107.88
498.615	98.88
498.832	116.88
499.049	115.88
499.267	82.88
499.484	90.88
499.701	95.88
499.918	93.88
500.135	94.88
500.352	83.88
500.569	86.88
500.786	108.88
501.003	87.88
501.22	101.88
501.437	98.88
501.654	87.88
501.871	123.88
502.088	84.88
502.305	90.88
502.522	99.88
502.739	92.88
502.956	100.88
503.172	97.88
503.389	98.88
503.606	118.88
503.823	96.88
504.04	89.88
504.256	109.88
504.473	98.88
504.69	92.88
504.907	90.88
505.123	76.88
505.34	74.88
505.557	91.88
505.773	97.88
505.99	99.88
506.207	107.88
506.423	86.88
506.64	96.88
506.856	98.88
507.073	93.88
507.289	109.88
507.506	96.88
507.722	131.88
507.939	143.88
508.155	94.88
508.372	106.88
508.588	95.88
508.805	102.88
509.021	99.88
509.238	109.88
509.454	111.88
509.67	118.88
509.887	110.88
510.103	125.88
510.319	240.88
510.536	864.88
510.752	3024.88
510.968	802.88
511.184	172.88
511.401	116.88
511.617	115.88
511.833	114.88
512.049	104.88
512.265	95.88
512.481	102.88
512.698	83.88
512.914	96.88
513.13	98.88
