Data from Circ_1997_H10_HRD10591_00071.txt Node
Date: Wed Jan 03 11:29:41 EST 2024
User: Yrep
Spectrometer: HR+D1059
Trigger mode: 1
Integration Time (sec): 1.000000E-1
Scans to average: 1
Electric dark correction enabled: true
Nonlinearity correction enabled: false
Boxcar width: 0
XAxis mode: Wavelengths
Number of Pixels in Spectrum: 2048
>>>>>Begin Spectral Data<<<<<
223.165	-21.69
223.4	-21.69
223.635	-21.69
223.869	-10.69
224.104	-8.69
224.338	-17.69
224.573	-6.69
224.808	-4.69
225.042	-13.69
225.277	-8.69
225.511	9.31
225.746	1.31
225.98	15.31
226.215	9.31
226.449	-4.69
226.683	8.31
226.918	14.31
227.152	39.31
227.387	32.31
227.621	33.31
227.856	35.31
228.09	54.31
228.324	51.31
228.559	42.31
228.793	57.31
229.027	66.31
229.262	73.31
229.496	80.31
229.73	110.31
229.964	91.31
230.199	68.31
230.433	81.31
230.667	63.31
230.901	85.31
231.136	90.31
231.37	78.31
231.604	62.31
231.838	94.31
232.072	88.31
232.306	87.31
232.541	67.31
232.775	78.31
233.009	73.31
233.243	95.31
233.477	67.31
233.711	94.31
233.945	77.31
234.179	81.31
234.413	81.31
234.647	78.31
234.881	61.31
235.115	64.31
235.349	76.31
235.583	79.31
235.817	88.31
236.051	71.31
236.285	84.31
236.519	78.31
236.753	80.31
236.987	78.31
237.221	92.31
237.455	90.31
237.689	75.31
237.922	71.31
238.156	79.31
238.39	81.31
238.624	91.31
238.858	85.31
239.091	80.31
239.325	75.31
239.559	83.31
239.793	70.31
240.027	74.31
240.26	86.31
240.494	81.31
240.728	72.31
240.961	87.31
241.195	80.31
241.429	84.31
241.662	77.31
241.896	89.31
242.13	76.31
242.363	68.31
242.597	65.31
242.83	79.31
243.064	90.31
243.298	79.31
243.531	89.31
243.765	90.31
243.998	66.31
244.232	59.31
244.465	90.31
244.699	87.31
244.932	64.31
245.166	75.31
245.399	85.31
245.633	84.31
245.866	95.31
246.099	74.31
246.333	83.31
246.566	75.31
246.8	80.31
247.033	82.31
247.266	73.31
247.5	87.31
247.733	70.31
247.966	74.31
248.2	98.31
248.433	85.31
248.666	89.31
248.899	82.31
249.133	90.31
249.366	106.31
249.599	92.31
249.832	85.31
250.066	86.31
250.299	91.31
250.532	81.31
250.765	92.31
250.998	87.31
251.231	79.31
251.465	86.31
251.698	95.31
251.931	93.31
252.164	77.31
252.397	76.31
252.63	89.31
252.863	79.31
253.096	77.31
253.329	77.31
253.562	74.31
253.795	83.31
254.028	79.31
254.261	81.31
254.494	84.31
254.727	91.31
254.96	72.31
255.193	80.31
255.426	83.31
255.659	77.31
255.892	83.31
256.124	112.31
256.357	73.31
256.59	90.31
256.823	80.31
257.056	103.31
257.289	89.31
257.521	96.31
257.754	81.31
257.987	91.31
258.22	90.31
258.452	96.31
258.685	92.31
258.918	81.31
259.151	76.31
259.383	91.31
259.616	91.31
259.849	76.31
260.081	91.31
260.314	87.31
260.547	78.31
260.779	91.31
261.012	104.31
261.244	102.31
261.477	91.31
261.71	111.31
261.942	115.31
262.175	121.31
262.407	108.31
262.64	81.31
262.872	76.31
263.105	81.31
263.337	74.31
263.57	93.31
263.802	92.31
264.035	80.31
264.267	80.31
264.499	85.31
264.732	78.31
264.964	85.31
265.197	76.31
265.429	80.31
265.661	91.31
265.894	84.31
266.126	85.31
266.358	83.31
266.591	95.31
266.823	90.31
267.055	82.31
267.287	86.31
267.52	88.31
267.752	83.31
267.984	98.31
268.216	99.31
268.448	75.31
268.681	83.31
268.913	91.31
269.145	91.31
269.377	86.31
269.609	58.31
269.841	97.31
270.073	73.31
270.306	82.31
270.538	87.31
270.77	90.31
271.002	80.31
271.234	66.31
271.466	91.31
271.698	96.31
271.93	87.31
272.162	85.31
272.394	93.31
272.626	81.31
272.858	73.31
273.09	94.31
273.322	92.31
273.553	91.31
273.785	86.31
274.017	80.31
274.249	89.31
274.481	83.31
274.713	66.31
274.945	90.31
275.176	104.31
275.408	111.31
275.64	107.31
275.872	130.31
276.104	103.31
276.335	100.31
276.567	120.31
276.799	151.31
277.031	166.31
277.262	192.31
277.494	127.31
277.726	116.31
277.957	84.31
278.189	75.31
278.421	101.31
278.652	87.31
278.884	85.31
279.115	84.31
279.347	92.31
279.579	105.31
279.81	121.31
280.042	184.31
280.273	256.31
280.505	176.31
280.736	99.31
280.968	102.31
281.199	89.31
281.431	95.31
281.662	86.31
281.894	94.31
282.125	93.31
282.356	125.31
282.588	145.31
282.819	106.31
283.051	84.31
283.282	79.31
283.513	86.31
283.745	85.31
283.976	93.31
284.207	90.31
284.439	101.31
284.67	77.31
284.901	99.31
285.132	87.31
285.364	92.31
285.595	76.31
285.826	86.31
286.057	85.31
286.288	82.31
286.52	101.31
286.751	84.31
286.982	98.31
287.213	96.31
287.444	81.31
287.675	91.31
287.906	102.31
288.138	82.31
288.369	85.31
288.6	93.31
288.831	93.31
289.062	91.31
289.293	95.31
289.524	85.31
289.755	94.31
289.986	90.31
290.217	89.31
290.448	95.31
290.679	92.31
290.91	85.31
291.141	87.31
291.371	73.31
291.602	73.31
291.833	83.31
292.064	84.31
292.295	91.31
292.526	86.31
292.757	86.31
292.987	83.31
293.218	98.31
293.449	98.31
293.68	89.31
293.91	102.31
294.141	106.31
294.372	82.31
294.603	82.31
294.833	91.31
295.064	96.31
295.295	85.31
295.525	90.31
295.756	85.31
295.987	107.31
296.217	149.31
296.448	129.31
296.679	95.31
296.909	80.31
297.14	84.31
297.37	83.31
297.601	84.31
297.831	88.31
298.062	92.31
298.292	102.31
298.523	95.31
298.753	82.31
298.984	84.31
299.214	91.31
299.445	94.31
299.675	98.31
299.905	92.31
300.136	74.31
300.366	91.31
300.597	86.31
300.827	102.31
301.057	110.31
301.288	114.31
301.518	96.31
301.748	107.31
301.979	113.31
302.209	95.31
302.439	84.31
302.669	77.31
302.9	88.31
303.13	102.31
303.36	106.31
303.59	125.31
303.82	150.31
304.051	119.31
304.281	87.31
304.511	99.31
304.741	89.31
304.971	91.31
305.201	91.31
305.431	86.31
305.661	84.31
305.891	96.31
306.121	94.31
306.352	99.31
306.582	109.31
306.812	108.31
307.042	119.31
307.272	165.31
307.502	170.31
307.731	162.31
307.961	118.31
308.191	91.31
308.421	101.31
308.651	75.31
308.881	103.31
309.111	101.31
309.341	92.31
309.571	97.31
309.8	88.31
310.03	101.31
310.26	109.31
310.49	93.31
310.72	103.31
310.949	102.31
311.179	118.31
311.409	91.31
311.639	85.31
311.868	89.31
312.098	99.31
312.328	101.31
312.557	98.31
312.787	119.31
313.017	99.31
313.246	81.31
313.476	90.31
313.706	90.31
313.935	108.31
314.165	106.31
314.394	118.31
314.624	87.31
314.853	113.31
315.083	100.31
315.312	102.31
315.542	92.31
315.771	89.31
316.001	88.31
316.23	110.31
316.46	83.31
316.689	99.31
316.919	89.31
317.148	100.31
317.377	103.31
317.607	95.31
317.836	91.31
318.065	78.31
318.295	98.31
318.524	86.31
318.753	98.31
318.983	70.31
319.212	98.31
319.441	120.31
319.67	104.31
319.9	85.31
320.129	93.31
320.358	106.31
320.587	110.31
320.816	107.31
321.046	101.31
321.275	103.31
321.504	105.31
321.733	83.31
321.962	94.31
322.191	115.31
322.42	133.31
322.649	126.31
322.878	119.31
323.108	136.31
323.337	139.31
323.566	167.31
323.795	176.31
324.024	261.31
324.253	557.31
324.482	1269.31
324.71	2789.31
324.939	3645.31
325.168	1267.31
325.397	343.31
325.626	177.31
325.855	142.31
326.084	139.31
326.313	154.31
326.542	208.31
326.77	292.31
326.999	666.31
327.228	1498.31
327.457	2809.31
327.686	2173.31
327.914	667.31
328.143	560.31
328.372	697.31
328.6	379.31
328.829	194.31
329.058	180.31
329.287	197.31
329.515	172.31
329.744	265.31
329.972	518.31
330.201	1095.31
330.43	1535.31
330.658	653.31
330.887	287.31
331.115	177.31
331.344	102.31
331.572	126.31
331.801	131.31
332.03	104.31
332.258	117.31
332.486	103.31
332.715	115.31
332.943	121.31
333.172	136.31
333.4	139.31
333.629	161.31
333.857	238.31
334.085	459.31
334.314	1039.31
334.542	2000.31
334.771	1793.31
334.999	456.31
335.227	182.31
335.455	141.31
335.684	113.31
335.912	109.31
336.14	98.31
336.369	98.31
336.597	105.31
336.825	111.31
337.053	94.31
337.281	97.31
337.51	102.31
337.738	92.31
337.966	92.31
338.194	109.31
338.422	113.31
338.65	92.31
338.878	94.31
339.106	96.31
339.334	93.31
339.562	93.31
339.79	95.31
340.018	112.31
340.246	94.31
340.474	97.31
340.702	97.31
340.93	94.31
341.158	102.31
341.386	96.31
341.614	91.31
341.842	84.31
342.07	103.31
342.298	103.31
342.526	91.31
342.754	90.31
342.981	81.31
343.209	89.31
343.437	92.31
343.665	103.31
343.893	90.31
344.12	100.31
344.348	103.31
344.576	93.31
344.804	97.31
345.031	114.31
345.259	116.31
345.487	87.31
345.714	115.31
345.942	80.31
346.17	105.31
346.397	108.31
346.625	102.31
346.853	88.31
347.08	96.31
347.308	103.31
347.535	106.31
347.763	110.31
347.99	103.31
348.218	120.31
348.445	135.31
348.673	126.31
348.9	102.31
349.128	99.31
349.355	95.31
349.583	94.31
349.81	103.31
350.037	94.31
350.265	77.31
350.492	85.31
350.72	85.31
350.947	92.31
351.174	119.31
351.402	120.31
351.629	105.31
351.856	98.31
352.083	97.31
352.311	116.31
352.538	123.31
352.765	108.31
352.992	123.31
353.22	129.31
353.447	106.31
353.674	111.31
353.901	98.31
354.128	87.31
354.355	94.31
354.583	96.31
354.81	98.31
355.037	94.31
355.264	89.31
355.491	87.31
355.718	80.31
355.945	92.31
356.172	93.31
356.399	90.31
356.626	82.31
356.853	99.31
357.08	93.31
357.307	82.31
357.534	95.31
357.761	84.31
357.988	101.31
358.215	97.31
358.441	99.31
358.668	90.31
358.895	85.31
359.122	91.31
359.349	85.31
359.576	96.31
359.802	115.31
360.029	146.31
360.256	138.31
360.483	114.31
360.709	101.31
360.936	95.31
361.163	96.31
361.39	94.31
361.616	96.31
361.843	102.31
362.07	100.31
362.296	89.31
362.523	98.31
362.749	90.31
362.976	91.31
363.203	73.31
363.429	94.31
363.656	100.31
363.882	96.31
364.109	95.31
364.335	90.31
364.562	97.31
364.788	105.31
365.015	98.31
365.241	98.31
365.468	112.31
365.694	101.31
365.92	99.31
366.147	90.31
366.373	96.31
366.599	92.31
366.826	101.31
367.052	93.31
367.278	102.31
367.505	97.31
367.731	87.31
367.957	82.31
368.184	95.31
368.41	116.31
368.636	123.31
368.862	119.31
369.089	112.31
369.315	104.31
369.541	96.31
369.767	107.31
369.993	92.31
370.219	93.31
370.445	79.31
370.672	95.31
370.898	90.31
371.124	86.31
371.35	89.31
371.576	87.31
371.802	94.31
372.028	88.31
372.254	92.31
372.48	86.31
372.706	87.31
372.932	87.31
373.158	83.31
373.384	85.31
373.61	81.31
373.835	93.31
374.061	83.31
374.287	88.31
374.513	94.31
374.739	86.31
374.965	78.31
375.191	82.31
375.416	83.31
375.642	90.31
375.868	87.31
376.094	74.31
376.319	81.31
376.545	81.31
376.771	99.31
376.997	80.31
377.222	88.31
377.448	89.31
377.674	103.31
377.899	91.31
378.125	96.31
378.35	89.31
378.576	82.31
378.802	90.31
379.027	87.31
379.253	86.31
379.478	89.31
379.704	91.31
379.929	84.31
380.155	97.31
380.38	96.31
380.606	94.31
380.831	105.31
381.057	95.31
381.282	93.31
381.507	96.31
381.733	83.31
381.958	92.31
382.184	93.31
382.409	102.31
382.634	93.31
382.86	105.31
383.085	96.31
383.31	98.31
383.535	104.31
383.761	101.31
383.986	88.31
384.211	96.31
384.436	89.31
384.662	95.31
384.887	76.31
385.112	98.31
385.337	77.31
385.562	113.31
385.787	91.31
386.013	108.31
386.238	104.31
386.463	103.31
386.688	121.31
386.913	96.31
387.138	90.31
387.363	90.31
387.588	94.31
387.813	99.31
388.038	119.31
388.263	112.31
388.488	104.31
388.713	89.31
388.938	77.31
389.163	98.31
389.387	97.31
389.612	95.31
389.837	94.31
390.062	104.31
390.287	94.31
390.512	106.31
390.736	83.31
390.961	86.31
391.186	105.31
391.411	100.31
391.636	82.31
391.86	85.31
392.085	83.31
392.31	91.31
392.534	100.31
392.759	86.31
392.984	73.31
393.208	94.31
393.433	99.31
393.658	90.31
393.882	102.31
394.107	83.31
394.331	87.31
394.556	86.31
394.78	94.31
395.005	89.31
395.229	88.31
395.454	81.31
395.678	92.31
395.903	91.31
396.127	85.31
396.352	77.31
396.576	82.31
396.801	87.31
397.025	70.31
397.249	75.31
397.474	92.31
397.698	85.31
397.922	90.31
398.147	88.31
398.371	83.31
398.595	74.31
398.82	88.31
399.044	87.31
399.268	82.31
399.492	82.31
399.717	92.31
399.941	102.31
400.165	110.31
400.389	93.31
400.613	85.31
400.837	91.31
401.062	87.31
401.286	86.31
401.51	83.31
401.734	91.31
401.958	105.31
402.182	137.31
402.406	173.31
402.63	130.31
402.854	99.31
403.078	89.31
403.302	74.31
403.526	73.31
403.75	99.31
403.974	88.31
404.198	96.31
404.422	84.31
404.645	100.31
404.869	93.31
405.093	123.31
405.317	144.31
405.541	140.31
405.765	118.31
405.988	142.31
406.212	209.31
406.436	283.31
406.66	199.31
406.883	111.31
407.107	101.31
407.331	113.31
407.555	120.31
407.778	109.31
408.002	98.31
408.226	96.31
408.449	93.31
408.673	101.31
408.896	98.31
409.12	112.31
409.344	85.31
409.567	85.31
409.791	92.31
410.014	99.31
410.238	93.31
410.461	77.31
410.685	81.31
410.908	94.31
411.132	115.31
411.355	92.31
411.578	87.31
411.802	91.31
412.025	96.31
412.249	106.31
412.472	113.31
412.695	146.31
412.919	115.31
413.142	110.31
413.365	93.31
413.589	93.31
413.812	93.31
414.035	78.31
414.258	103.31
414.482	94.31
414.705	95.31
414.928	96.31
415.151	84.31
415.374	96.31
415.597	104.31
415.821	94.31
416.044	96.31
416.267	71.31
416.49	95.31
416.713	96.31
416.936	85.31
417.159	85.31
417.382	100.31
417.605	88.31
417.828	110.31
418.051	100.31
418.274	89.31
418.497	87.31
418.72	93.31
418.943	97.31
419.166	82.31
419.389	91.31
419.611	87.31
419.834	97.31
420.057	85.31
420.28	95.31
420.503	82.31
420.726	89.31
420.948	107.31
421.171	101.31
421.394	98.31
421.617	100.31
421.839	86.31
422.062	95.31
422.285	85.31
422.507	98.31
422.73	120.31
422.953	75.31
423.175	97.31
423.398	93.31
423.621	97.31
423.843	87.31
424.066	78.31
424.288	93.31
424.511	80.31
424.733	106.31
424.956	131.31
425.178	102.31
425.401	115.31
425.623	105.31
425.846	102.31
426.068	93.31
426.291	86.31
426.513	94.31
426.735	110.31
426.958	95.31
427.18	132.31
427.402	176.31
427.625	270.31
427.847	262.31
428.069	274.31
428.292	146.31
428.514	101.31
428.736	91.31
428.958	84.31
429.181	86.31
429.403	88.31
429.625	92.31
429.847	110.31
430.069	125.31
430.292	104.31
430.514	82.31
430.736	91.31
430.958	79.31
431.18	83.31
431.402	85.31
431.624	98.31
431.846	83.31
432.068	88.31
432.29	83.31
432.512	94.31
432.734	95.31
432.956	95.31
433.178	112.31
433.4	115.31
433.622	105.31
433.844	92.31
434.066	98.31
434.287	88.31
434.509	91.31
434.731	87.31
434.953	75.31
435.175	77.31
435.397	98.31
435.618	99.31
435.84	118.31
436.062	152.31
436.284	131.31
436.505	107.31
436.727	121.31
436.949	89.31
437.17	89.31
437.392	104.31
437.614	89.31
437.835	128.31
438.057	129.31
438.278	145.31
438.5	134.31
438.721	162.31
438.943	105.31
439.165	97.31
439.386	93.31
439.608	98.31
439.829	107.31
440.05	173.31
440.272	201.31
440.493	121.31
440.715	82.31
440.936	92.31
441.158	87.31
441.379	103.31
441.6	105.31
441.822	107.31
442.043	105.31
442.264	115.31
442.486	107.31
442.707	97.31
442.928	125.31
443.149	178.31
443.371	180.31
443.592	126.31
443.813	142.31
444.034	116.31
444.255	99.31
444.476	94.31
444.698	104.31
444.919	103.31
445.14	127.31
445.361	147.31
445.582	142.31
445.803	201.31
446.024	183.31
446.245	196.31
446.466	130.31
446.687	115.31
446.908	105.31
447.129	86.31
447.35	90.31
447.571	94.31
447.792	83.31
448.013	97.31
448.234	124.31
448.455	121.31
448.675	126.31
448.896	153.31
449.117	117.31
449.338	113.31
449.559	169.31
449.779	187.31
450	130.31
450.221	86.31
450.442	89.31
450.662	90.31
450.883	122.31
451.104	128.31
451.324	102.31
451.545	89.31
451.766	102.31
451.986	87.31
452.207	89.31
452.428	102.31
452.648	108.31
452.869	121.31
453.089	119.31
453.31	139.31
453.53	91.31
453.751	77.31
453.971	118.31
454.192	141.31
454.412	95.31
454.633	95.31
454.853	86.31
455.073	95.31
455.294	76.31
455.514	103.31
455.734	89.31
455.955	86.31
456.175	106.31
456.395	80.31
456.616	85.31
456.836	89.31
457.056	88.31
457.276	80.31
457.497	84.31
457.717	82.31
457.937	80.31
458.157	95.31
458.377	95.31
458.598	123.31
458.818	185.31
459.038	237.31
459.258	141.31
459.478	96.31
459.698	85.31
459.918	92.31
460.138	84.31
460.358	87.31
460.578	85.31
460.798	80.31
461.018	98.31
461.238	74.31
461.458	88.31
461.678	94.31
461.898	97.31
462.118	91.31
462.338	87.31
462.558	92.31
462.777	85.31
462.997	90.31
463.217	109.31
463.437	97.31
463.657	97.31
463.876	88.31
464.096	93.31
464.316	105.31
464.536	105.31
464.755	106.31
464.975	124.31
465.195	213.31
465.414	224.31
465.634	104.31
465.854	85.31
466.073	104.31
466.293	95.31
466.512	77.31
466.732	91.31
466.951	88.31
467.171	100.31
467.391	93.31
467.61	151.31
467.829	223.31
468.049	588.31
468.268	859.31
468.488	230.31
468.707	108.31
468.927	76.31
469.146	90.31
469.365	104.31
469.585	91.31
469.804	116.31
470.023	95.31
470.243	109.31
470.462	113.31
470.681	145.31
470.901	97.31
471.12	109.31
471.339	124.31
471.558	131.31
471.777	138.31
471.997	319.31
472.216	1203.31
472.435	2632.31
472.654	585.31
472.873	156.31
473.092	113.31
473.311	105.31
473.53	80.31
473.749	91.31
473.968	104.31
474.187	130.31
474.406	120.31
474.625	81.31
474.844	77.31
475.063	78.31
475.282	90.31
475.501	91.31
475.72	107.31
475.939	87.31
476.158	87.31
476.377	90.31
476.596	91.31
476.814	94.31
477.033	95.31
477.252	91.31
477.471	99.31
477.69	99.31
477.908	94.31
478.127	81.31
478.346	97.31
478.564	108.31
478.783	112.31
479.002	106.31
479.22	112.31
479.439	113.31
479.658	150.31
479.876	114.31
480.095	129.31
480.313	128.31
480.532	179.31
480.751	309.31
480.969	1130.31
481.188	4761.31
481.406	2654.31
481.624	378.31
481.843	140.31
482.061	106.31
482.28	98.31
482.498	95.31
482.717	96.31
482.935	100.31
483.153	89.31
483.372	93.31
483.59	95.31
483.808	94.31
484.027	94.31
484.245	93.31
484.463	104.31
484.681	102.31
484.9	85.31
485.118	91.31
485.336	83.31
485.554	108.31
485.772	101.31
485.99	98.31
486.209	109.31
486.427	108.31
486.645	126.31
486.863	118.31
487.081	93.31
487.299	94.31
487.517	94.31
487.735	80.31
487.953	102.31
488.171	89.31
488.389	94.31
488.607	94.31
488.825	93.31
489.043	99.31
489.261	93.31
489.479	95.31
489.696	89.31
489.914	88.31
490.132	100.31
490.35	95.31
490.568	81.31
490.786	102.31
491.003	98.31
491.221	90.31
491.439	102.31
491.657	93.31
491.874	97.31
492.092	88.31
492.31	122.31
492.527	86.31
492.745	102.31
492.963	108.31
493.18	105.31
493.398	94.31
493.615	97.31
493.833	89.31
494.05	81.31
494.268	94.31
494.485	85.31
494.703	83.31
494.92	96.31
495.138	94.31
495.355	89.31
495.573	90.31
495.79	102.31
496.008	100.31
496.225	96.31
496.442	97.31
496.66	94.31
496.877	91.31
497.094	92.31
497.312	90.31
497.529	87.31
497.746	88.31
497.963	99.31
498.181	108.31
498.398	95.31
498.615	121.31
498.832	116.31
499.049	88.31
499.267	85.31
499.484	92.31
499.701	98.31
499.918	82.31
500.135	87.31
500.352	90.31
500.569	111.31
500.786	99.31
501.003	88.31
501.22	91.31
501.437	108.31
501.654	98.31
501.871	125.31
502.088	89.31
502.305	102.31
502.522	72.31
502.739	89.31
502.956	80.31
503.172	96.31
503.389	101.31
503.606	134.31
503.823	95.31
504.04	106.31
504.256	98.31
504.473	81.31
504.69	80.31
504.907	85.31
505.123	90.31
505.34	99.31
505.557	96.31
505.773	86.31
505.99	100.31
506.207	101.31
506.423	98.31
506.64	98.31
506.856	97.31
507.073	96.31
507.289	91.31
507.506	102.31
507.722	130.31
507.939	126.31
508.155	98.31
508.372	85.31
508.588	106.31
508.805	97.31
509.021	97.31
509.238	94.31
509.454	95.31
509.67	111.31
509.887	99.31
510.103	140.31
510.319	229.31
510.536	826.31
510.752	2735.31
510.968	769.31
511.184	154.31
511.401	134.31
511.617	105.31
511.833	122.31
512.049	107.31
512.265	87.31
512.481	92.31
512.698	104.31
512.914	81.31
513.13	102.31
513.346	109.31
513.562	89.31
