Data from Circ_1997_H10_HRD10591_00096.txt Node
Date: Wed Jan 03 11:29:46 EST 2024
User: Yrep
Spectrometer: HR+D1059
Trigger mode: 1
Integration Time (sec): 1.000000E-1
Scans to average: 1
Electric dark correction enabled: true
Nonlinearity correction enabled: false
Boxcar width: 0
XAxis mode: Wavelengths
Number of Pixels in Spectrum: 2048
>>>>>Begin Spectral Data<<<<<
223.165	-16.5
223.4	-16.5
223.635	-16.5
223.869	-17.5
224.104	-12.5
224.338	-18.5
224.573	-8.5
224.808	-28.5
225.042	-2.5
225.277	-7.5
225.511	-6.5
225.746	6.5
225.98	19.5
226.215	6.5
226.449	14.5
226.683	11.5
226.918	28.5
227.152	31.5
227.387	44.5
227.621	42.5
227.856	48.5
228.09	55.5
228.324	35.5
228.559	55.5
228.793	56.5
229.027	65.5
229.262	70.5
229.496	90.5
229.73	91.5
229.964	98.5
230.199	72.5
230.433	72.5
230.667	79.5
230.901	90.5
231.136	74.5
231.37	76.5
231.604	72.5
231.838	96.5
232.072	76.5
232.306	92.5
232.541	88.5
232.775	82.5
233.009	90.5
233.243	79.5
233.477	82.5
233.711	91.5
233.945	67.5
234.179	72.5
234.413	92.5
234.647	91.5
234.881	87.5
235.115	88.5
235.349	83.5
235.583	92.5
235.817	71.5
236.051	75.5
236.285	62.5
236.519	89.5
236.753	72.5
236.987	91.5
237.221	79.5
237.455	100.5
237.689	78.5
237.922	79.5
238.156	80.5
238.39	80.5
238.624	83.5
238.858	66.5
239.091	83.5
239.325	88.5
239.559	94.5
239.793	80.5
240.027	88.5
240.26	90.5
240.494	79.5
240.728	83.5
240.961	83.5
241.195	91.5
241.429	82.5
241.662	80.5
241.896	83.5
242.13	75.5
242.363	75.5
242.597	58.5
242.83	78.5
243.064	70.5
243.298	82.5
243.531	88.5
243.765	68.5
243.998	74.5
244.232	82.5
244.465	86.5
244.699	88.5
244.932	65.5
245.166	75.5
245.399	76.5
245.633	78.5
245.866	93.5
246.099	92.5
246.333	79.5
246.566	74.5
246.8	78.5
247.033	85.5
247.266	66.5
247.5	75.5
247.733	82.5
247.966	86.5
248.2	87.5
248.433	91.5
248.666	81.5
248.899	93.5
249.133	95.5
249.366	106.5
249.599	105.5
249.832	79.5
250.066	92.5
250.299	93.5
250.532	82.5
250.765	81.5
250.998	80.5
251.231	80.5
251.465	71.5
251.698	81.5
251.931	73.5
252.164	86.5
252.397	70.5
252.63	94.5
252.863	84.5
253.096	70.5
253.329	90.5
253.562	73.5
253.795	87.5
254.028	88.5
254.261	83.5
254.494	86.5
254.727	78.5
254.96	76.5
255.193	86.5
255.426	86.5
255.659	99.5
255.892	113.5
256.124	118.5
256.357	90.5
256.59	91.5
256.823	65.5
257.056	102.5
257.289	95.5
257.521	94.5
257.754	95.5
257.987	89.5
258.22	96.5
258.452	102.5
258.685	103.5
258.918	83.5
259.151	90.5
259.383	97.5
259.616	89.5
259.849	102.5
260.081	106.5
260.314	87.5
260.547	88.5
260.779	106.5
261.012	98.5
261.244	114.5
261.477	110.5
261.71	109.5
261.942	150.5
262.175	157.5
262.407	104.5
262.64	106.5
262.872	84.5
263.105	87.5
263.337	91.5
263.57	87.5
263.802	93.5
264.035	81.5
264.267	82.5
264.499	80.5
264.732	80.5
264.964	102.5
265.197	83.5
265.429	79.5
265.661	78.5
265.894	82.5
266.126	83.5
266.358	91.5
266.591	82.5
266.823	83.5
267.055	87.5
267.287	78.5
267.52	85.5
267.752	79.5
267.984	96.5
268.216	75.5
268.448	97.5
268.681	103.5
268.913	88.5
269.145	80.5
269.377	91.5
269.609	79.5
269.841	94.5
270.073	66.5
270.306	97.5
270.538	100.5
270.77	94.5
271.002	88.5
271.234	95.5
271.466	100.5
271.698	88.5
271.93	78.5
272.162	95.5
272.394	91.5
272.626	76.5
272.858	80.5
273.09	90.5
273.322	91.5
273.553	87.5
273.785	89.5
274.017	106.5
274.249	86.5
274.481	90.5
274.713	89.5
274.945	98.5
275.176	84.5
275.408	127.5
275.64	124.5
275.872	139.5
276.104	137.5
276.335	109.5
276.567	135.5
276.799	165.5
277.031	216.5
277.262	246.5
277.494	178.5
277.726	112.5
277.957	97.5
278.189	108.5
278.421	82.5
278.652	105.5
278.884	104.5
279.115	98.5
279.347	106.5
279.579	116.5
279.81	164.5
280.042	268.5
280.273	353.5
280.505	247.5
280.736	113.5
280.968	102.5
281.199	92.5
281.431	81.5
281.662	104.5
281.894	99.5
282.125	129.5
282.356	144.5
282.588	184.5
282.819	154.5
283.051	100.5
283.282	84.5
283.513	94.5
283.745	76.5
283.976	97.5
284.207	74.5
284.439	81.5
284.67	100.5
284.901	99.5
285.132	98.5
285.364	102.5
285.595	99.5
285.826	99.5
286.057	95.5
286.288	82.5
286.52	78.5
286.751	93.5
286.982	86.5
287.213	91.5
287.444	92.5
287.675	84.5
287.906	107.5
288.138	96.5
288.369	106.5
288.6	111.5
288.831	94.5
289.062	96.5
289.293	94.5
289.524	86.5
289.755	86.5
289.986	91.5
290.217	86.5
290.448	94.5
290.679	92.5
290.91	100.5
291.141	92.5
291.371	100.5
291.602	93.5
291.833	83.5
292.064	92.5
292.295	93.5
292.526	96.5
292.757	76.5
292.987	84.5
293.218	94.5
293.449	92.5
293.68	99.5
293.91	87.5
294.141	102.5
294.372	103.5
294.603	103.5
294.833	91.5
295.064	90.5
295.295	88.5
295.525	90.5
295.756	114.5
295.987	142.5
296.217	200.5
296.448	157.5
296.679	99.5
296.909	100.5
297.14	105.5
297.37	107.5
297.601	92.5
297.831	94.5
298.062	94.5
298.292	84.5
298.523	108.5
298.753	90.5
298.984	89.5
299.214	89.5
299.445	87.5
299.675	112.5
299.905	116.5
300.136	96.5
300.366	95.5
300.597	80.5
300.827	113.5
301.057	109.5
301.288	116.5
301.518	117.5
301.748	110.5
301.979	126.5
302.209	115.5
302.439	95.5
302.669	104.5
302.9	109.5
303.13	113.5
303.36	97.5
303.59	162.5
303.82	177.5
304.051	125.5
304.281	97.5
304.511	105.5
304.741	82.5
304.971	98.5
305.201	90.5
305.431	92.5
305.661	94.5
305.891	97.5
306.121	112.5
306.352	117.5
306.582	126.5
306.812	116.5
307.042	140.5
307.272	193.5
307.502	225.5
307.731	212.5
307.961	156.5
308.191	96.5
308.421	97.5
308.651	112.5
308.881	104.5
309.111	94.5
309.341	115.5
309.571	96.5
309.8	105.5
310.03	118.5
310.26	112.5
310.49	89.5
310.72	106.5
310.949	139.5
311.179	120.5
311.409	106.5
311.639	94.5
311.868	119.5
312.098	126.5
312.328	112.5
312.557	124.5
312.787	153.5
313.017	137.5
313.246	115.5
313.476	98.5
313.706	104.5
313.935	119.5
314.165	108.5
314.394	127.5
314.624	121.5
314.853	124.5
315.083	109.5
315.312	108.5
315.542	108.5
315.771	88.5
316.001	94.5
316.23	107.5
316.46	100.5
316.689	105.5
316.919	120.5
317.148	104.5
317.377	100.5
317.607	98.5
317.836	94.5
318.065	99.5
318.295	90.5
318.524	98.5
318.753	98.5
318.983	108.5
319.212	120.5
319.441	135.5
319.67	115.5
319.9	110.5
320.129	93.5
320.358	107.5
320.587	104.5
320.816	121.5
321.046	123.5
321.275	115.5
321.504	96.5
321.733	107.5
321.962	98.5
322.191	121.5
322.42	137.5
322.649	152.5
322.878	142.5
323.108	153.5
323.337	194.5
323.566	181.5
323.795	213.5
324.024	308.5
324.253	680.5
324.482	1542.5
324.71	3320.5
324.939	4370.5
325.168	1484.5
325.397	393.5
325.626	208.5
325.855	164.5
326.084	168.5
326.313	171.5
326.542	223.5
326.77	369.5
326.999	766.5
327.228	1688.5
327.457	3166.5
327.686	2510.5
327.914	809.5
328.143	823.5
328.372	1044.5
328.6	530.5
328.829	254.5
329.058	257.5
329.287	248.5
329.515	240.5
329.744	361.5
329.972	776.5
330.201	1605.5
330.43	2286.5
330.658	963.5
330.887	414.5
331.115	226.5
331.344	129.5
331.572	138.5
331.801	144.5
332.03	159.5
332.258	130.5
332.486	132.5
332.715	114.5
332.943	139.5
333.172	140.5
333.4	160.5
333.629	210.5
333.857	349.5
334.085	684.5
334.314	1525.5
334.542	2982.5
334.771	2657.5
334.999	635.5
335.227	242.5
335.455	133.5
335.684	122.5
335.912	111.5
336.14	129.5
336.369	118.5
336.597	122.5
336.825	128.5
337.053	98.5
337.281	96.5
337.51	92.5
337.738	97.5
337.966	96.5
338.194	109.5
338.422	115.5
338.65	120.5
338.878	109.5
339.106	107.5
339.334	88.5
339.562	96.5
339.79	96.5
340.018	100.5
340.246	106.5
340.474	117.5
340.702	106.5
340.93	99.5
341.158	93.5
341.386	114.5
341.614	109.5
341.842	118.5
342.07	118.5
342.298	89.5
342.526	98.5
342.754	105.5
342.981	77.5
343.209	98.5
343.437	103.5
343.665	83.5
343.893	100.5
344.12	89.5
344.348	92.5
344.576	98.5
344.804	101.5
345.031	118.5
345.259	91.5
345.487	103.5
345.714	92.5
345.942	86.5
346.17	94.5
346.397	99.5
346.625	106.5
346.853	93.5
347.08	91.5
347.308	123.5
347.535	112.5
347.763	111.5
347.99	128.5
348.218	116.5
348.445	130.5
348.673	109.5
348.9	109.5
349.128	95.5
349.355	79.5
349.583	88.5
349.81	106.5
350.037	93.5
350.265	99.5
350.492	105.5
350.72	108.5
350.947	88.5
351.174	126.5
351.402	131.5
351.629	120.5
351.856	105.5
352.083	98.5
352.311	120.5
352.538	126.5
352.765	131.5
352.992	138.5
353.22	137.5
353.447	127.5
353.674	103.5
353.901	94.5
354.128	97.5
354.355	92.5
354.583	86.5
354.81	96.5
355.037	86.5
355.264	85.5
355.491	83.5
355.718	92.5
355.945	90.5
356.172	91.5
356.399	90.5
356.626	102.5
356.853	103.5
357.08	96.5
357.307	103.5
357.534	74.5
357.761	98.5
357.988	108.5
358.215	104.5
358.441	104.5
358.668	89.5
358.895	86.5
359.122	90.5
359.349	84.5
359.576	98.5
359.802	125.5
360.029	174.5
360.256	163.5
360.483	121.5
360.709	102.5
360.936	116.5
361.163	111.5
361.39	124.5
361.616	120.5
361.843	106.5
362.07	112.5
362.296	113.5
362.523	114.5
362.749	114.5
362.976	112.5
363.203	94.5
363.429	106.5
363.656	103.5
363.882	100.5
364.109	100.5
364.335	97.5
364.562	94.5
364.788	98.5
365.015	107.5
365.241	111.5
365.468	136.5
365.694	126.5
365.92	112.5
366.147	119.5
366.373	108.5
366.599	98.5
366.826	94.5
367.052	108.5
367.278	83.5
367.505	88.5
367.731	101.5
367.957	98.5
368.184	115.5
368.41	112.5
368.636	129.5
368.862	135.5
369.089	128.5
369.315	108.5
369.541	115.5
369.767	93.5
369.993	108.5
370.219	110.5
370.445	92.5
370.672	105.5
370.898	97.5
371.124	86.5
371.35	90.5
371.576	94.5
371.802	79.5
372.028	77.5
372.254	81.5
372.48	92.5
372.706	87.5
372.932	98.5
373.158	91.5
373.384	86.5
373.61	88.5
373.835	98.5
374.061	100.5
374.287	108.5
374.513	93.5
374.739	102.5
374.965	81.5
375.191	95.5
375.416	92.5
375.642	83.5
375.868	87.5
376.094	94.5
376.319	96.5
376.545	94.5
376.771	94.5
376.997	96.5
377.222	101.5
377.448	89.5
377.674	82.5
377.899	96.5
378.125	78.5
378.35	81.5
378.576	101.5
378.802	83.5
379.027	89.5
379.253	100.5
379.478	96.5
379.704	94.5
379.929	83.5
380.155	104.5
380.38	102.5
380.606	103.5
380.831	104.5
381.057	99.5
381.282	95.5
381.507	89.5
381.733	106.5
381.958	87.5
382.184	91.5
382.409	99.5
382.634	113.5
382.86	99.5
383.085	97.5
383.31	96.5
383.535	101.5
383.761	102.5
383.986	100.5
384.211	94.5
384.436	87.5
384.662	84.5
384.887	100.5
385.112	99.5
385.337	110.5
385.562	89.5
385.787	107.5
386.013	119.5
386.238	131.5
386.463	112.5
386.688	100.5
386.913	98.5
387.138	102.5
387.363	114.5
387.588	108.5
387.813	97.5
388.038	106.5
388.263	109.5
388.488	106.5
388.713	103.5
388.938	114.5
389.163	89.5
389.387	95.5
389.612	96.5
389.837	99.5
390.062	90.5
390.287	96.5
390.512	85.5
390.736	84.5
390.961	80.5
391.186	81.5
391.411	86.5
391.636	98.5
391.86	82.5
392.085	76.5
392.31	77.5
392.534	93.5
392.759	88.5
392.984	97.5
393.208	99.5
393.433	91.5
393.658	80.5
393.882	92.5
394.107	90.5
394.331	83.5
394.556	82.5
394.78	82.5
395.005	106.5
395.229	86.5
395.454	92.5
395.678	94.5
395.903	98.5
396.127	97.5
396.352	86.5
396.576	91.5
396.801	81.5
397.025	85.5
397.249	97.5
397.474	84.5
397.698	87.5
397.922	96.5
398.147	80.5
398.371	88.5
398.595	84.5
398.82	90.5
399.044	78.5
399.268	87.5
399.492	96.5
399.717	94.5
399.941	95.5
400.165	111.5
400.389	75.5
400.613	92.5
400.837	93.5
401.062	98.5
401.286	106.5
401.51	109.5
401.734	90.5
401.958	131.5
402.182	170.5
402.406	238.5
402.63	156.5
402.854	118.5
403.078	101.5
403.302	106.5
403.526	97.5
403.75	106.5
403.974	104.5
404.198	98.5
404.422	105.5
404.645	110.5
404.869	106.5
405.093	128.5
405.317	164.5
405.541	158.5
405.765	131.5
405.988	176.5
406.212	272.5
406.436	376.5
406.66	254.5
406.883	127.5
407.107	121.5
407.331	123.5
407.555	125.5
407.778	126.5
408.002	104.5
408.226	112.5
408.449	87.5
408.673	90.5
408.896	95.5
409.12	111.5
409.344	98.5
409.567	89.5
409.791	93.5
410.014	103.5
410.238	95.5
410.461	74.5
410.685	96.5
410.908	105.5
411.132	106.5
411.355	104.5
411.578	93.5
411.802	92.5
412.025	99.5
412.249	107.5
412.472	152.5
412.695	172.5
412.919	125.5
413.142	94.5
413.365	100.5
413.589	90.5
413.812	87.5
414.035	82.5
414.258	100.5
414.482	93.5
414.705	101.5
414.928	98.5
415.151	82.5
415.374	94.5
415.597	99.5
415.821	89.5
416.044	84.5
416.267	103.5
416.49	95.5
416.713	111.5
416.936	100.5
417.159	99.5
417.382	89.5
417.605	111.5
417.828	118.5
418.051	110.5
418.274	98.5
418.497	92.5
418.72	91.5
418.943	96.5
419.166	97.5
419.389	91.5
419.611	92.5
419.834	96.5
420.057	100.5
420.28	98.5
420.503	86.5
420.726	95.5
420.948	96.5
421.171	111.5
421.394	110.5
421.617	98.5
421.839	83.5
422.062	73.5
422.285	92.5
422.507	106.5
422.73	121.5
422.953	91.5
423.175	90.5
423.398	89.5
423.621	98.5
423.843	89.5
424.066	94.5
424.288	100.5
424.511	102.5
424.733	100.5
424.956	128.5
425.178	107.5
425.401	130.5
425.623	121.5
425.846	106.5
426.068	117.5
426.291	109.5
426.513	96.5
426.735	102.5
426.958	116.5
427.18	136.5
427.402	211.5
427.625	348.5
427.847	320.5
428.069	307.5
428.292	161.5
428.514	100.5
428.736	97.5
428.958	87.5
429.181	97.5
429.403	93.5
429.625	90.5
429.847	102.5
430.069	111.5
430.292	114.5
430.514	91.5
430.736	95.5
430.958	87.5
431.18	98.5
431.402	87.5
431.624	93.5
431.846	82.5
432.068	76.5
432.29	79.5
432.512	83.5
432.734	104.5
432.956	104.5
433.178	126.5
433.4	122.5
433.622	89.5
433.844	96.5
434.066	101.5
434.287	102.5
434.509	98.5
434.731	102.5
434.953	86.5
435.175	107.5
435.397	91.5
435.618	94.5
435.84	133.5
436.062	182.5
436.284	158.5
436.505	129.5
436.727	131.5
436.949	110.5
437.17	93.5
437.392	89.5
437.614	106.5
437.835	150.5
438.057	184.5
438.278	151.5
438.5	130.5
438.721	170.5
438.943	125.5
439.165	100.5
439.386	97.5
439.608	92.5
439.829	133.5
440.05	198.5
440.272	239.5
440.493	148.5
440.715	111.5
440.936	91.5
441.158	97.5
441.379	98.5
441.6	121.5
441.822	123.5
442.043	103.5
442.264	136.5
442.486	120.5
442.707	117.5
442.928	137.5
443.149	204.5
443.371	214.5
443.592	158.5
443.813	136.5
444.034	150.5
444.255	106.5
444.476	96.5
444.698	91.5
444.919	89.5
445.14	134.5
445.361	140.5
445.582	175.5
445.803	235.5
446.024	239.5
446.245	212.5
446.466	163.5
446.687	88.5
446.908	98.5
447.129	100.5
447.35	96.5
447.571	108.5
447.792	123.5
448.013	127.5
448.234	140.5
448.455	135.5
448.675	156.5
448.896	171.5
449.117	114.5
449.338	122.5
449.559	175.5
449.779	178.5
450	104.5
450.221	99.5
450.442	94.5
450.662	127.5
450.883	162.5
451.104	160.5
451.324	107.5
451.545	105.5
451.766	84.5
451.986	87.5
452.207	94.5
452.428	100.5
452.648	127.5
452.869	144.5
453.089	134.5
453.31	172.5
453.53	105.5
453.751	104.5
453.971	139.5
454.192	156.5
454.412	104.5
454.633	97.5
454.853	86.5
455.073	89.5
455.294	100.5
455.514	126.5
455.734	103.5
455.955	88.5
456.175	68.5
456.395	95.5
456.616	90.5
456.836	93.5
457.056	83.5
457.276	92.5
457.497	92.5
457.717	82.5
457.937	92.5
458.157	88.5
458.377	100.5
458.598	144.5
458.818	255.5
459.038	290.5
459.258	178.5
459.478	108.5
459.698	89.5
459.918	90.5
460.138	94.5
460.358	83.5
460.578	97.5
460.798	106.5
461.018	106.5
461.238	98.5
461.458	100.5
461.678	81.5
461.898	86.5
462.118	98.5
462.338	94.5
462.558	86.5
462.777	94.5
462.997	105.5
463.217	122.5
463.437	104.5
463.657	100.5
463.876	83.5
464.096	99.5
464.316	122.5
464.536	111.5
464.755	114.5
464.975	149.5
465.195	281.5
465.414	296.5
465.634	132.5
465.854	100.5
466.073	85.5
466.293	102.5
466.512	84.5
466.732	92.5
466.951	95.5
467.171	97.5
467.391	126.5
467.61	186.5
467.829	299.5
468.049	887.5
468.268	1319.5
468.488	293.5
468.707	143.5
468.927	105.5
469.146	98.5
469.365	112.5
469.585	107.5
469.804	128.5
470.023	127.5
470.243	111.5
470.462	134.5
470.681	177.5
470.901	114.5
471.12	122.5
471.339	108.5
471.558	140.5
471.777	214.5
471.997	454.5
472.216	1731.5
472.435	3997.5
472.654	857.5
472.873	223.5
473.092	128.5
473.311	90.5
473.53	112.5
473.749	90.5
473.968	114.5
474.187	149.5
474.406	106.5
474.625	79.5
474.844	104.5
475.063	101.5
475.282	91.5
475.501	88.5
475.72	87.5
475.939	82.5
476.158	94.5
476.377	96.5
476.596	105.5
476.814	104.5
477.033	108.5
477.252	96.5
477.471	79.5
477.69	103.5
477.908	85.5
478.127	102.5
478.346	95.5
478.564	100.5
478.783	114.5
479.002	125.5
479.22	122.5
479.439	145.5
479.658	151.5
479.876	153.5
480.095	135.5
480.313	166.5
480.532	209.5
480.751	413.5
480.969	1636.5
481.188	6952.5
481.406	3810.5
481.624	526.5
481.843	170.5
482.061	126.5
482.28	118.5
482.498	113.5
482.717	111.5
482.935	98.5
483.153	103.5
483.372	92.5
483.59	99.5
483.808	98.5
484.027	108.5
484.245	100.5
484.463	107.5
484.681	112.5
484.9	103.5
485.118	115.5
485.336	104.5
485.554	88.5
485.772	108.5
485.99	111.5
486.209	110.5
486.427	113.5
486.645	115.5
486.863	140.5
487.081	120.5
487.299	115.5
487.517	102.5
487.735	100.5
487.953	103.5
488.171	89.5
488.389	121.5
488.607	110.5
488.825	107.5
489.043	89.5
489.261	85.5
489.479	87.5
489.696	83.5
489.914	90.5
490.132	98.5
490.35	102.5
490.568	84.5
490.786	94.5
491.003	94.5
491.221	118.5
491.439	104.5
491.657	96.5
491.874	84.5
492.092	98.5
492.31	108.5
492.527	107.5
492.745	86.5
492.963	92.5
493.18	93.5
493.398	98.5
493.615	90.5
493.833	95.5
494.05	96.5
494.268	92.5
494.485	103.5
494.703	88.5
494.92	91.5
495.138	96.5
495.355	86.5
495.573	84.5
495.79	107.5
496.008	94.5
496.225	98.5
496.442	94.5
496.66	106.5
496.877	86.5
497.094	92.5
497.312	97.5
497.529	89.5
497.746	89.5
497.963	107.5
498.181	108.5
498.398	106.5
498.615	134.5
498.832	125.5
499.049	111.5
499.267	92.5
499.484	89.5
499.701	93.5
499.918	89.5
500.135	107.5
500.352	111.5
500.569	93.5
500.786	116.5
501.003	100.5
501.22	87.5
501.437	90.5
501.654	103.5
501.871	154.5
502.088	102.5
502.305	99.5
502.522	91.5
502.739	90.5
502.956	87.5
503.172	97.5
503.389	111.5
503.606	152.5
503.823	116.5
504.04	104.5
504.256	103.5
504.473	93.5
504.69	96.5
504.907	79.5
505.123	99.5
505.34	106.5
505.557	109.5
505.773	91.5
505.99	107.5
506.207	96.5
506.423	97.5
506.64	84.5
506.856	99.5
507.073	89.5
507.289	97.5
507.506	120.5
507.722	146.5
507.939	143.5
508.155	121.5
508.372	100.5
508.588	97.5
508.805	110.5
509.021	105.5
509.238	99.5
509.454	113.5
509.67	116.5
509.887	124.5
510.103	144.5
510.319	268.5
510.536	1084.5
510.752	3834.5
510.968	1007.5
511.184	194.5
511.401	154.5
511.617	119.5
511.833	115.5
512.049	106.5
512.265	96.5
512.481	106.5
512.698	106.5
512.914	103.5
513.13	106.5
513.346	95.5
513.562	95.5
513.778	115.5
513.994	137.5
514.21	126.5
514.426	178.5
514.642	215.5
514.858	190.5
515.074	278.5
515.29	913.5
515.506	3286.5
515.721	1086.5
515.937	247.5
516.153	158.5
516.369	119.5
516.585	113.5
516.801	119.5
517.016	111.5
517.232	110.5
517.448	98.5
517.664	118.5
517.879	102.5
518.095	107.5
518.311	118.5
518.527	121.5
518.742	93.5
518.958	125.5
519.173	91.5
519.389	108.5
519.605	80.5
519.82	106.5
520.036	130.5
520.251	176.5
520.467	171.5
520.682	130.5
520.898	144.5
521.113	156.5
521.329	214.5
521.544	375.5
521.76	1256.5
521.975	5589.5
522.19	3182.5
522.406	618.5
522.621	196.5
522.836	122.5
523.052	99.5
523.267	111.5
523.482	125.5
523.698	124.5
523.913	158.5
524.128	135.5
524.343	110.5
524.559	99.5
524.774	91.5
524.989	116.5
525.204	129.5
525.419	115.5
525.634	108.5
525.849	116.5
526.064	91.5
526.28	90.5
526.495	102.5
526.71	93.5
526.925	85.5
527.14	109.5
527.355	94.5
527.57	96.5
527.785	91.5
527.999	97.5
528.214	87.5
528.429	118.5
528.644	106.5
528.859	94.5
529.074	97.5
529.289	179.5
529.503	347.5
529.718	141.5
