Data from Circ_1997_H10_HRD10591_00060.txt Node
Date: Wed Jan 03 11:29:39 EST 2024
User: Yrep
Spectrometer: HR+D1059
Trigger mode: 1
Integration Time (sec): 1.000000E-1
Scans to average: 1
Electric dark correction enabled: true
Nonlinearity correction enabled: false
Boxcar width: 0
XAxis mode: Wavelengths
Number of Pixels in Spectrum: 2048
>>>>>Begin Spectral Data<<<<<
223.165	-31.44
223.4	-31.44
223.635	-31.44
223.869	-9.44
224.104	-20.44
224.338	-13.44
224.573	-4.44
224.808	-26.44
225.042	-20.44
225.277	0.56
225.511	-7.44
225.746	8.56
225.98	9.56
226.215	19.56
226.449	8.56
226.683	23.56
226.918	24.56
227.152	38.56
227.387	28.56
227.621	39.56
227.856	53.56
228.09	41.56
228.324	53.56
228.559	51.56
228.793	63.56
229.027	53.56
229.262	81.56
229.496	85.56
229.73	95.56
229.964	102.56
230.199	71.56
230.433	60.56
230.667	73.56
230.901	75.56
231.136	81.56
231.37	75.56
231.604	78.56
231.838	91.56
232.072	77.56
232.306	83.56
232.541	77.56
232.775	65.56
233.009	72.56
233.243	81.56
233.477	76.56
233.711	77.56
233.945	76.56
234.179	88.56
234.413	66.56
234.647	86.56
234.881	82.56
235.115	62.56
235.349	86.56
235.583	81.56
235.817	90.56
236.051	81.56
236.285	85.56
236.519	70.56
236.753	69.56
236.987	73.56
237.221	77.56
237.455	99.56
237.689	76.56
237.922	69.56
238.156	104.56
238.39	85.56
238.624	63.56
238.858	73.56
239.091	71.56
239.325	92.56
239.559	90.56
239.793	81.56
240.027	81.56
240.26	92.56
240.494	65.56
240.728	75.56
240.961	72.56
241.195	58.56
241.429	80.56
241.662	81.56
241.896	69.56
242.13	74.56
242.363	81.56
242.597	77.56
242.83	64.56
243.064	76.56
243.298	76.56
243.531	80.56
243.765	75.56
243.998	69.56
244.232	85.56
244.465	81.56
244.699	79.56
244.932	93.56
245.166	72.56
245.399	79.56
245.633	93.56
245.866	87.56
246.099	75.56
246.333	76.56
246.566	79.56
246.8	75.56
247.033	79.56
247.266	76.56
247.5	85.56
247.733	91.56
247.966	75.56
248.2	84.56
248.433	76.56
248.666	88.56
248.899	100.56
249.133	93.56
249.366	112.56
249.599	122.56
249.832	90.56
250.066	97.56
250.299	87.56
250.532	89.56
250.765	94.56
250.998	86.56
251.231	86.56
251.465	87.56
251.698	72.56
251.931	85.56
252.164	79.56
252.397	73.56
252.63	90.56
252.863	82.56
253.096	80.56
253.329	78.56
253.562	86.56
253.795	77.56
254.028	83.56
254.261	88.56
254.494	91.56
254.727	96.56
254.96	93.56
255.193	74.56
255.426	79.56
255.659	69.56
255.892	101.56
256.124	97.56
256.357	93.56
256.59	80.56
256.823	75.56
257.056	82.56
257.289	80.56
257.521	85.56
257.754	80.56
257.987	91.56
258.22	82.56
258.452	85.56
258.685	91.56
258.918	74.56
259.151	83.56
259.383	81.56
259.616	84.56
259.849	75.56
260.081	91.56
260.314	93.56
260.547	76.56
260.779	99.56
261.012	110.56
261.244	111.56
261.477	105.56
261.71	104.56
261.942	133.56
262.175	138.56
262.407	109.56
262.64	92.56
262.872	95.56
263.105	82.56
263.337	82.56
263.57	89.56
263.802	86.56
264.035	88.56
264.267	85.56
264.499	86.56
264.732	91.56
264.964	87.56
265.197	89.56
265.429	75.56
265.661	99.56
265.894	79.56
266.126	90.56
266.358	78.56
266.591	78.56
266.823	78.56
267.055	96.56
267.287	83.56
267.52	89.56
267.752	81.56
267.984	91.56
268.216	81.56
268.448	95.56
268.681	73.56
268.913	89.56
269.145	93.56
269.377	91.56
269.609	89.56
269.841	87.56
270.073	85.56
270.306	103.56
270.538	97.56
270.77	87.56
271.002	85.56
271.234	95.56
271.466	98.56
271.698	85.56
271.93	82.56
272.162	85.56
272.394	92.56
272.626	95.56
272.858	88.56
273.09	92.56
273.322	82.56
273.553	78.56
273.785	90.56
274.017	89.56
274.249	90.56
274.481	89.56
274.713	89.56
274.945	89.56
275.176	95.56
275.408	98.56
275.64	118.56
275.872	128.56
276.104	121.56
276.335	113.56
276.567	136.56
276.799	148.56
277.031	192.56
277.262	219.56
277.494	156.56
277.726	105.56
277.957	82.56
278.189	96.56
278.421	117.56
278.652	102.56
278.884	99.56
279.115	94.56
279.347	101.56
279.579	119.56
279.81	125.56
280.042	236.56
280.273	308.56
280.505	208.56
280.736	115.56
280.968	106.56
281.199	93.56
281.431	81.56
281.662	94.56
281.894	95.56
282.125	98.56
282.356	145.56
282.588	177.56
282.819	139.56
283.051	96.56
283.282	77.56
283.513	97.56
283.745	90.56
283.976	89.56
284.207	94.56
284.439	99.56
284.67	95.56
284.901	96.56
285.132	86.56
285.364	80.56
285.595	92.56
285.826	96.56
286.057	83.56
286.288	100.56
286.52	73.56
286.751	72.56
286.982	91.56
287.213	90.56
287.444	89.56
287.675	87.56
287.906	82.56
288.138	108.56
288.369	92.56
288.6	79.56
288.831	82.56
289.062	93.56
289.293	91.56
289.524	81.56
289.755	77.56
289.986	93.56
290.217	91.56
290.448	89.56
290.679	88.56
290.91	97.56
291.141	81.56
291.371	88.56
291.602	74.56
291.833	93.56
292.064	104.56
292.295	96.56
292.526	97.56
292.757	97.56
292.987	86.56
293.218	81.56
293.449	77.56
293.68	95.56
293.91	91.56
294.141	102.56
294.372	85.56
294.603	80.56
294.833	92.56
295.064	89.56
295.295	81.56
295.525	105.56
295.756	109.56
295.987	129.56
296.217	163.56
296.448	141.56
296.679	80.56
296.909	97.56
297.14	79.56
297.37	89.56
297.601	95.56
297.831	86.56
298.062	83.56
298.292	91.56
298.523	89.56
298.753	91.56
298.984	102.56
299.214	97.56
299.445	104.56
299.675	95.56
299.905	98.56
300.136	90.56
300.366	106.56
300.597	104.56
300.827	116.56
301.057	99.56
301.288	122.56
301.518	100.56
301.748	104.56
301.979	115.56
302.209	104.56
302.439	95.56
302.669	93.56
302.9	90.56
303.13	122.56
303.36	109.56
303.59	145.56
303.82	153.56
304.051	99.56
304.281	95.56
304.511	88.56
304.741	81.56
304.971	100.56
305.201	95.56
305.431	95.56
305.661	89.56
305.891	92.56
306.121	78.56
306.352	108.56
306.582	121.56
306.812	121.56
307.042	127.56
307.272	176.56
307.502	190.56
307.731	180.56
307.961	137.56
308.191	101.56
308.421	97.56
308.651	91.56
308.881	92.56
309.111	95.56
309.341	104.56
309.571	106.56
309.8	109.56
310.03	109.56
310.26	101.56
310.49	93.56
310.72	114.56
310.949	132.56
311.179	121.56
311.409	88.56
311.639	107.56
311.868	109.56
312.098	111.56
312.328	102.56
312.557	133.56
312.787	124.56
313.017	113.56
313.246	103.56
313.476	105.56
313.706	102.56
313.935	113.56
314.165	129.56
314.394	124.56
314.624	105.56
314.853	112.56
315.083	107.56
315.312	102.56
315.542	97.56
315.771	93.56
316.001	84.56
316.23	93.56
316.46	90.56
316.689	106.56
316.919	116.56
317.148	103.56
317.377	102.56
317.607	102.56
317.836	119.56
318.065	100.56
318.295	87.56
318.524	89.56
318.753	87.56
318.983	101.56
319.212	107.56
319.441	125.56
319.67	107.56
319.9	86.56
320.129	96.56
320.358	99.56
320.587	96.56
320.816	116.56
321.046	114.56
321.275	114.56
321.504	111.56
321.733	106.56
321.962	112.56
322.191	135.56
322.42	126.56
322.649	113.56
322.878	140.56
323.108	135.56
323.337	163.56
323.566	168.56
323.795	198.56
324.024	308.56
324.253	640.56
324.482	1469.56
324.71	3102.56
324.939	4115.56
325.168	1393.56
325.397	372.56
325.626	193.56
325.855	163.56
326.084	165.56
326.313	177.56
326.542	210.56
326.77	346.56
326.999	773.56
327.228	1634.56
327.457	3113.56
327.686	2422.56
327.914	743.56
328.143	652.56
328.372	815.56
328.6	447.56
328.829	230.56
329.058	214.56
329.287	242.56
329.515	203.56
329.744	319.56
329.972	619.56
330.201	1265.56
330.43	1816.56
330.658	766.56
330.887	361.56
331.115	213.56
331.344	127.56
331.572	129.56
331.801	138.56
332.03	137.56
332.258	121.56
332.486	104.56
332.715	114.56
332.943	117.56
333.172	123.56
333.4	153.56
333.629	178.56
333.857	269.56
334.085	555.56
334.314	1215.56
334.542	2444.56
334.771	2148.56
334.999	525.56
335.227	215.56
335.455	136.56
335.684	124.56
335.912	120.56
336.14	104.56
336.369	124.56
336.597	128.56
336.825	120.56
337.053	98.56
337.281	99.56
337.51	95.56
337.738	110.56
337.966	106.56
338.194	113.56
338.422	112.56
338.65	114.56
338.878	104.56
339.106	82.56
339.334	110.56
339.562	106.56
339.79	109.56
340.018	122.56
340.246	97.56
340.474	109.56
340.702	110.56
340.93	94.56
341.158	106.56
341.386	99.56
341.614	116.56
341.842	96.56
342.07	100.56
342.298	98.56
342.526	88.56
342.754	90.56
342.981	106.56
343.209	90.56
343.437	114.56
343.665	98.56
343.893	83.56
344.12	88.56
344.348	89.56
344.576	95.56
344.804	93.56
345.031	105.56
345.259	124.56
345.487	97.56
345.714	109.56
345.942	91.56
346.17	91.56
346.397	102.56
346.625	103.56
346.853	103.56
347.08	78.56
347.308	98.56
347.535	114.56
347.763	110.56
347.99	103.56
348.218	118.56
348.445	115.56
348.673	105.56
348.9	106.56
349.128	103.56
349.355	100.56
349.583	101.56
349.81	107.56
350.037	111.56
350.265	90.56
350.492	82.56
350.72	99.56
350.947	110.56
351.174	126.56
351.402	128.56
351.629	119.56
351.856	115.56
352.083	115.56
352.311	130.56
352.538	123.56
352.765	120.56
352.992	124.56
353.22	121.56
353.447	113.56
353.674	88.56
353.901	104.56
354.128	105.56
354.355	102.56
354.583	106.56
354.81	101.56
355.037	109.56
355.264	90.56
355.491	101.56
355.718	91.56
355.945	83.56
356.172	91.56
356.399	96.56
356.626	99.56
356.853	86.56
357.08	95.56
357.307	78.56
357.534	93.56
357.761	91.56
357.988	90.56
358.215	87.56
358.441	98.56
358.668	85.56
358.895	98.56
359.122	103.56
359.349	91.56
359.576	101.56
359.802	119.56
360.029	147.56
360.256	155.56
360.483	122.56
360.709	98.56
360.936	101.56
361.163	99.56
361.39	99.56
361.616	106.56
361.843	100.56
362.07	108.56
362.296	117.56
362.523	109.56
362.749	98.56
362.976	101.56
363.203	94.56
363.429	89.56
363.656	103.56
363.882	96.56
364.109	93.56
364.335	94.56
364.562	99.56
364.788	102.56
365.015	102.56
365.241	116.56
365.468	115.56
365.694	122.56
365.92	114.56
366.147	113.56
366.373	100.56
366.599	103.56
366.826	97.56
367.052	81.56
367.278	97.56
367.505	87.56
367.731	99.56
367.957	108.56
368.184	95.56
368.41	96.56
368.636	137.56
368.862	117.56
369.089	119.56
369.315	91.56
369.541	86.56
369.767	96.56
369.993	92.56
370.219	106.56
370.445	95.56
370.672	99.56
370.898	100.56
371.124	91.56
371.35	82.56
371.576	91.56
371.802	90.56
372.028	92.56
372.254	89.56
372.48	88.56
372.706	103.56
372.932	105.56
373.158	96.56
373.384	91.56
373.61	98.56
373.835	83.56
374.061	102.56
374.287	88.56
374.513	103.56
374.739	110.56
374.965	81.56
375.191	71.56
375.416	94.56
375.642	96.56
375.868	99.56
376.094	103.56
376.319	99.56
376.545	96.56
376.771	98.56
376.997	83.56
377.222	100.56
377.448	82.56
377.674	85.56
377.899	95.56
378.125	104.56
378.35	79.56
378.576	104.56
378.802	96.56
379.027	85.56
379.253	82.56
379.478	89.56
379.704	82.56
379.929	92.56
380.155	93.56
380.38	102.56
380.606	95.56
380.831	93.56
381.057	94.56
381.282	91.56
381.507	96.56
381.733	103.56
381.958	101.56
382.184	96.56
382.409	96.56
382.634	104.56
382.86	75.56
383.085	80.56
383.31	85.56
383.535	105.56
383.761	104.56
383.986	91.56
384.211	95.56
384.436	99.56
384.662	87.56
384.887	83.56
385.112	104.56
385.337	98.56
385.562	112.56
385.787	107.56
386.013	112.56
386.238	128.56
386.463	115.56
386.688	105.56
386.913	100.56
387.138	98.56
387.363	100.56
387.588	89.56
387.813	103.56
388.038	101.56
388.263	98.56
388.488	115.56
388.713	85.56
388.938	90.56
389.163	98.56
389.387	75.56
389.612	93.56
389.837	103.56
390.062	97.56
390.287	95.56
390.512	98.56
390.736	84.56
390.961	87.56
391.186	93.56
391.411	100.56
391.636	95.56
391.86	99.56
392.085	94.56
392.31	79.56
392.534	91.56
392.759	90.56
392.984	81.56
393.208	90.56
393.433	91.56
393.658	93.56
393.882	75.56
394.107	81.56
394.331	83.56
394.556	85.56
394.78	80.56
395.005	88.56
395.229	93.56
395.454	93.56
395.678	74.56
395.903	95.56
396.127	89.56
396.352	89.56
396.576	101.56
396.801	86.56
397.025	79.56
397.249	89.56
397.474	89.56
397.698	95.56
397.922	93.56
398.147	91.56
398.371	88.56
398.595	82.56
398.82	88.56
399.044	80.56
399.268	100.56
399.492	88.56
399.717	94.56
399.941	98.56
400.165	107.56
400.389	101.56
400.613	91.56
400.837	78.56
401.062	89.56
401.286	91.56
401.51	99.56
401.734	99.56
401.958	113.56
402.182	151.56
402.406	203.56
402.63	152.56
402.854	99.56
403.078	97.56
403.302	89.56
403.526	87.56
403.75	98.56
403.974	89.56
404.198	78.56
404.422	102.56
404.645	100.56
404.869	106.56
405.093	133.56
405.317	152.56
405.541	142.56
405.765	127.56
405.988	145.56
406.212	229.56
406.436	323.56
406.66	193.56
406.883	114.56
407.107	113.56
407.331	108.56
407.555	134.56
407.778	106.56
408.002	79.56
408.226	103.56
408.449	95.56
408.673	86.56
408.896	118.56
409.12	113.56
409.344	105.56
409.567	93.56
409.791	106.56
410.014	96.56
410.238	88.56
410.461	84.56
410.685	88.56
410.908	91.56
411.132	106.56
411.355	107.56
411.578	102.56
411.802	99.56
412.025	89.56
412.249	89.56
412.472	115.56
412.695	157.56
412.919	122.56
413.142	102.56
413.365	80.56
413.589	96.56
413.812	94.56
414.035	99.56
414.258	93.56
414.482	83.56
414.705	84.56
414.928	92.56
415.151	82.56
415.374	102.56
415.597	97.56
415.821	93.56
416.044	90.56
416.267	91.56
416.49	96.56
416.713	89.56
416.936	101.56
417.159	94.56
417.382	104.56
417.605	114.56
417.828	117.56
418.051	98.56
418.274	88.56
418.497	92.56
418.72	77.56
418.943	80.56
419.166	100.56
419.389	96.56
419.611	88.56
419.834	103.56
420.057	102.56
420.28	102.56
420.503	87.56
420.726	101.56
420.948	110.56
421.171	100.56
421.394	95.56
421.617	87.56
421.839	80.56
422.062	83.56
422.285	91.56
422.507	115.56
422.73	119.56
422.953	111.56
423.175	90.56
423.398	86.56
423.621	90.56
423.843	88.56
424.066	89.56
424.288	78.56
424.511	96.56
424.733	126.56
424.956	117.56
425.178	113.56
425.401	121.56
425.623	108.56
425.846	96.56
426.068	98.56
426.291	102.56
426.513	100.56
426.735	114.56
426.958	116.56
427.18	147.56
427.402	218.56
427.625	325.56
427.847	305.56
428.069	313.56
428.292	151.56
428.514	101.56
428.736	99.56
428.958	96.56
429.181	79.56
429.403	94.56
429.625	100.56
429.847	106.56
430.069	124.56
430.292	88.56
430.514	79.56
430.736	103.56
430.958	93.56
431.18	84.56
431.402	95.56
431.624	87.56
431.846	72.56
432.068	86.56
432.29	89.56
432.512	107.56
432.734	106.56
432.956	90.56
433.178	110.56
433.4	110.56
433.622	103.56
433.844	90.56
434.066	96.56
434.287	97.56
434.509	96.56
434.731	105.56
434.953	94.56
435.175	82.56
435.397	107.56
435.618	106.56
435.84	130.56
436.062	159.56
436.284	159.56
436.505	119.56
436.727	117.56
436.949	93.56
437.17	93.56
437.392	98.56
437.614	115.56
437.835	120.56
438.057	173.56
438.278	146.56
438.5	110.56
438.721	164.56
438.943	109.56
439.165	105.56
439.386	91.56
439.608	104.56
439.829	129.56
440.05	182.56
440.272	229.56
440.493	135.56
440.715	97.56
440.936	79.56
441.158	85.56
441.379	98.56
441.6	107.56
441.822	107.56
442.043	114.56
442.264	128.56
442.486	121.56
442.707	117.56
442.928	130.56
443.149	211.56
443.371	187.56
443.592	150.56
443.813	143.56
444.034	121.56
444.255	104.56
444.476	98.56
444.698	88.56
444.919	112.56
445.14	142.56
445.361	158.56
445.582	159.56
445.803	231.56
446.024	203.56
446.245	212.56
446.466	135.56
446.687	111.56
446.908	106.56
447.129	95.56
447.35	89.56
447.571	98.56
447.792	103.56
448.013	107.56
448.234	125.56
448.455	119.56
448.675	158.56
448.896	175.56
449.117	120.56
449.338	127.56
449.559	188.56
449.779	171.56
450	106.56
450.221	105.56
450.442	110.56
450.662	111.56
450.883	119.56
451.104	126.56
451.324	107.56
451.545	103.56
451.766	103.56
451.986	90.56
452.207	82.56
452.428	92.56
452.648	111.56
452.869	128.56
453.089	141.56
453.31	131.56
453.53	105.56
453.751	88.56
453.971	116.56
454.192	150.56
454.412	113.56
454.633	76.56
454.853	91.56
455.073	81.56
455.294	92.56
455.514	110.56
455.734	103.56
455.955	89.56
456.175	93.56
456.395	94.56
456.616	89.56
456.836	86.56
457.056	87.56
457.276	80.56
457.497	89.56
457.717	93.56
457.937	91.56
458.157	80.56
458.377	102.56
458.598	128.56
458.818	224.56
459.038	267.56
459.258	154.56
459.478	111.56
459.698	83.56
459.918	85.56
460.138	78.56
460.358	105.56
460.578	83.56
460.798	84.56
461.018	80.56
461.238	74.56
461.458	96.56
461.678	96.56
461.898	82.56
462.118	80.56
462.338	86.56
462.558	90.56
462.777	90.56
462.997	94.56
463.217	110.56
463.437	95.56
463.657	109.56
463.876	102.56
464.096	118.56
464.316	106.56
464.536	117.56
464.755	91.56
464.975	136.56
465.195	261.56
465.414	257.56
465.634	109.56
465.854	87.56
466.073	84.56
466.293	91.56
466.512	86.56
466.732	93.56
466.951	93.56
467.171	102.56
467.391	115.56
467.61	158.56
467.829	236.56
468.049	654.56
468.268	1006.56
468.488	245.56
468.707	109.56
468.927	85.56
469.146	81.56
469.365	83.56
469.585	103.56
469.804	111.56
470.023	114.56
470.243	94.56
470.462	129.56
470.681	138.56
470.901	111.56
471.12	109.56
471.339	114.56
471.558	135.56
471.777	189.56
471.997	341.56
472.216	1394.56
472.435	3107.56
472.654	682.56
472.873	153.56
473.092	101.56
473.311	107.56
473.53	96.56
473.749	96.56
473.968	102.56
474.187	140.56
474.406	126.56
474.625	105.56
474.844	82.56
475.063	93.56
475.282	85.56
475.501	91.56
475.72	92.56
475.939	105.56
476.158	88.56
476.377	93.56
476.596	88.56
476.814	107.56
477.033	93.56
477.252	91.56
477.471	96.56
477.69	89.56
477.908	90.56
478.127	101.56
478.346	96.56
478.564	93.56
478.783	122.56
479.002	98.56
479.22	111.56
479.439	125.56
479.658	150.56
479.876	134.56
480.095	119.56
480.313	140.56
480.532	177.56
480.751	336.56
480.969	1270.56
481.188	5441.56
481.406	3025.56
481.624	434.56
481.843	143.56
482.061	117.56
482.28	109.56
482.498	105.56
482.717	99.56
482.935	91.56
483.153	110.56
483.372	98.56
483.59	100.56
483.808	86.56
484.027	101.56
484.245	91.56
484.463	81.56
484.681	99.56
484.9	117.56
485.118	104.56
485.336	99.56
485.554	106.56
485.772	94.56
485.99	92.56
486.209	98.56
486.427	121.56
486.645	118.56
486.863	126.56
487.081	113.56
487.299	81.56
487.517	92.56
487.735	101.56
487.953	94.56
488.171	101.56
488.389	98.56
488.607	103.56
488.825	79.56
489.043	89.56
489.261	99.56
489.479	91.56
489.696	83.56
489.914	101.56
490.132	97.56
490.35	85.56
490.568	78.56
490.786	85.56
491.003	77.56
491.221	89.56
491.439	98.56
491.657	98.56
491.874	97.56
492.092	99.56
492.31	98.56
492.527	103.56
492.745	99.56
492.963	97.56
493.18	85.56
493.398	92.56
493.615	91.56
493.833	93.56
494.05	90.56
494.268	99.56
494.485	91.56
494.703	83.56
494.92	90.56
495.138	89.56
495.355	77.56
495.573	91.56
495.79	92.56
496.008	90.56
496.225	94.56
496.442	88.56
496.66	93.56
496.877	90.56
497.094	94.56
497.312	91.56
497.529	94.56
497.746	92.56
497.963	91.56
498.181	106.56
498.398	102.56
498.615	126.56
498.832	129.56
499.049	85.56
499.267	97.56
499.484	87.56
499.701	92.56
499.918	78.56
500.135	90.56
500.352	87.56
500.569	114.56
500.786	101.56
501.003	88.56
501.22	79.56
501.437	89.56
501.654	104.56
501.871	130.56
502.088	98.56
502.305	94.56
502.522	101.56
502.739	95.56
502.956	87.56
503.172	90.56
503.389	109.56
503.606	133.56
503.823	112.56
504.04	93.56
504.256	94.56
504.473	82.56
504.69	99.56
504.907	81.56
505.123	95.56
505.34	91.56
505.557	81.56
505.773	97.56
505.99	109.56
506.207	99.56
506.423	96.56
506.64	90.56
506.856	103.56
507.073	93.56
507.289	95.56
507.506	113.56
507.722	135.56
507.939	150.56
508.155	103.56
508.372	112.56
508.588	97.56
508.805	108.56
509.021	88.56
509.238	87.56
509.454	105.56
509.67	111.56
509.887	111.56
510.103	140.56
510.319	243.56
510.536	931.56
510.752	3278.56
510.968	885.56
511.184	192.56
511.401	129.56
511.617	110.56
511.833	110.56
512.049	97.56
