Data from Circ_1997_H10_HRD10591_00009.txt Node
Date: Wed Jan 03 11:29:29 EST 2024
User: Yrep
Spectrometer: HR+D1059
Trigger mode: 1
Integration Time (sec): 1.000000E-1
Scans to average: 1
Electric dark correction enabled: true
Nonlinearity correction enabled: false
Boxcar width: 0
XAxis mode: Wavelengths
Number of Pixels in Spectrum: 2048
>>>>>Begin Spectral Data<<<<<
223.165	-20.31
223.4	-20.31
223.635	-20.31
223.869	-14.31
224.104	-29.31
224.338	-10.31
224.573	-0.31
224.808	-11.31
225.042	-2.31
225.277	0.69
225.511	-10.31
225.746	-4.31
225.98	1.69
226.215	6.69
226.449	21.69
226.683	22.69
226.918	17.69
227.152	31.69
227.387	39.69
227.621	32.69
227.856	50.69
228.09	44.69
228.324	42.69
228.559	58.69
228.793	72.69
229.027	60.69
229.262	59.69
229.496	78.69
229.73	86.69
229.964	84.69
230.199	66.69
230.433	65.69
230.667	71.69
230.901	73.69
231.136	88.69
231.37	75.69
231.604	85.69
231.838	71.69
232.072	78.69
232.306	80.69
232.541	84.69
232.775	88.69
233.009	76.69
233.243	73.69
233.477	83.69
233.711	89.69
233.945	70.69
234.179	70.69
234.413	81.69
234.647	81.69
234.881	80.69
235.115	74.69
235.349	75.69
235.583	80.69
235.817	67.69
236.051	62.69
236.285	71.69
236.519	70.69
236.753	72.69
236.987	88.69
237.221	87.69
237.455	81.69
237.689	80.69
237.922	83.69
238.156	85.69
238.39	76.69
238.624	72.69
238.858	74.69
239.091	86.69
239.325	83.69
239.559	89.69
239.793	77.69
240.027	73.69
240.26	87.69
240.494	79.69
240.728	78.69
240.961	75.69
241.195	86.69
241.429	85.69
241.662	91.69
241.896	69.69
242.13	64.69
242.363	77.69
242.597	77.69
242.83	77.69
243.064	71.69
243.298	72.69
243.531	65.69
243.765	73.69
243.998	86.69
244.232	87.69
244.465	87.69
244.699	100.69
244.932	79.69
245.166	86.69
245.399	71.69
245.633	78.69
245.866	72.69
246.099	80.69
246.333	88.69
246.566	63.69
246.8	63.69
247.033	64.69
247.266	86.69
247.5	79.69
247.733	92.69
247.966	86.69
248.2	87.69
248.433	84.69
248.666	81.69
248.899	77.69
249.133	86.69
249.366	96.69
249.599	102.69
249.832	77.69
250.066	81.69
250.299	85.69
250.532	88.69
250.765	62.69
250.998	65.69
251.231	78.69
251.465	79.69
251.698	95.69
251.931	88.69
252.164	90.69
252.397	76.69
252.63	75.69
252.863	63.69
253.096	75.69
253.329	77.69
253.562	91.69
253.795	86.69
254.028	77.69
254.261	82.69
254.494	85.69
254.727	78.69
254.96	82.69
255.193	88.69
255.426	74.69
255.659	81.69
255.892	87.69
256.124	74.69
256.357	87.69
256.59	99.69
256.823	77.69
257.056	79.69
257.289	70.69
257.521	82.69
257.754	82.69
257.987	85.69
258.22	89.69
258.452	81.69
258.685	90.69
258.918	82.69
259.151	72.69
259.383	93.69
259.616	83.69
259.849	83.69
260.081	78.69
260.314	64.69
260.547	84.69
260.779	89.69
261.012	92.69
261.244	78.69
261.477	89.69
261.71	101.69
261.942	113.69
262.175	110.69
262.407	97.69
262.64	72.69
262.872	87.69
263.105	77.69
263.337	90.69
263.57	85.69
263.802	78.69
264.035	82.69
264.267	90.69
264.499	90.69
264.732	85.69
264.964	88.69
265.197	73.69
265.429	74.69
265.661	81.69
265.894	79.69
266.126	74.69
266.358	80.69
266.591	73.69
266.823	88.69
267.055	81.69
267.287	95.69
267.52	87.69
267.752	91.69
267.984	86.69
268.216	79.69
268.448	91.69
268.681	86.69
268.913	99.69
269.145	94.69
269.377	92.69
269.609	90.69
269.841	79.69
270.073	73.69
270.306	78.69
270.538	72.69
270.77	91.69
271.002	82.69
271.234	101.69
271.466	86.69
271.698	89.69
271.93	87.69
272.162	90.69
272.394	79.69
272.626	85.69
272.858	77.69
273.09	79.69
273.322	77.69
273.553	96.69
273.785	96.69
274.017	88.69
274.249	92.69
274.481	79.69
274.713	77.69
274.945	93.69
275.176	75.69
275.408	93.69
275.64	98.69
275.872	98.69
276.104	107.69
276.335	99.69
276.567	107.69
276.799	119.69
277.031	114.69
277.262	138.69
277.494	120.69
277.726	87.69
277.957	83.69
278.189	85.69
278.421	102.69
278.652	85.69
278.884	81.69
279.115	101.69
279.347	88.69
279.579	89.69
279.81	106.69
280.042	121.69
280.273	145.69
280.505	137.69
280.736	77.69
280.968	90.69
281.199	102.69
281.431	85.69
281.662	83.69
281.894	98.69
282.125	96.69
282.356	122.69
282.588	150.69
282.819	118.69
283.051	101.69
283.282	88.69
283.513	94.69
283.745	85.69
283.976	71.69
284.207	83.69
284.439	97.69
284.67	80.69
284.901	79.69
285.132	91.69
285.364	81.69
285.595	86.69
285.826	89.69
286.057	84.69
286.288	90.69
286.52	78.69
286.751	77.69
286.982	83.69
287.213	96.69
287.444	67.69
287.675	85.69
287.906	93.69
288.138	91.69
288.369	108.69
288.6	98.69
288.831	87.69
289.062	99.69
289.293	93.69
289.524	110.69
289.755	104.69
289.986	92.69
290.217	85.69
290.448	88.69
290.679	97.69
290.91	80.69
291.141	90.69
291.371	76.69
291.602	92.69
291.833	90.69
292.064	87.69
292.295	87.69
292.526	79.69
292.757	101.69
292.987	76.69
293.218	86.69
293.449	93.69
293.68	107.69
293.91	81.69
294.141	99.69
294.372	85.69
294.603	87.69
294.833	80.69
295.064	80.69
295.295	97.69
295.525	89.69
295.756	109.69
295.987	104.69
296.217	134.69
296.448	112.69
296.679	100.69
296.909	97.69
297.14	95.69
297.37	94.69
297.601	87.69
297.831	85.69
298.062	92.69
298.292	102.69
298.523	98.69
298.753	80.69
298.984	86.69
299.214	83.69
299.445	100.69
299.675	79.69
299.905	91.69
300.136	91.69
300.366	104.69
300.597	80.69
300.827	83.69
301.057	90.69
301.288	93.69
301.518	92.69
301.748	104.69
301.979	102.69
302.209	98.69
302.439	83.69
302.669	83.69
302.9	92.69
303.13	80.69
303.36	99.69
303.59	114.69
303.82	115.69
304.051	107.69
304.281	72.69
304.511	96.69
304.741	83.69
304.971	90.69
305.201	77.69
305.431	93.69
305.661	94.69
305.891	93.69
306.121	89.69
306.352	97.69
306.582	104.69
306.812	103.69
307.042	114.69
307.272	110.69
307.502	135.69
307.731	121.69
307.961	109.69
308.191	103.69
308.421	93.69
308.651	101.69
308.881	93.69
309.111	96.69
309.341	82.69
309.571	73.69
309.8	91.69
310.03	97.69
310.26	96.69
310.49	96.69
310.72	94.69
310.949	117.69
311.179	103.69
311.409	93.69
311.639	94.69
311.868	106.69
312.098	94.69
312.328	94.69
312.557	98.69
312.787	115.69
313.017	117.69
313.246	82.69
313.476	85.69
313.706	96.69
313.935	96.69
314.165	88.69
314.394	117.69
314.624	101.69
314.853	107.69
315.083	106.69
315.312	84.69
315.542	81.69
315.771	97.69
316.001	95.69
316.23	97.69
316.46	89.69
316.689	104.69
316.919	86.69
317.148	100.69
317.377	86.69
317.607	102.69
317.836	90.69
318.065	94.69
318.295	85.69
318.524	85.69
318.753	94.69
318.983	75.69
319.212	102.69
319.441	103.69
319.67	111.69
319.9	94.69
320.129	93.69
320.358	95.69
320.587	89.69
320.816	104.69
321.046	104.69
321.275	106.69
321.504	96.69
321.733	109.69
321.962	107.69
322.191	95.69
322.42	118.69
322.649	111.69
322.878	123.69
323.108	122.69
323.337	130.69
323.566	141.69
323.795	181.69
324.024	232.69
324.253	486.69
324.482	1052.69
324.71	2215.69
324.939	3003.69
325.168	1067.69
325.397	285.69
325.626	167.69
325.855	145.69
326.084	137.69
326.313	151.69
326.542	167.69
326.77	258.69
326.999	543.69
327.228	1215.69
327.457	2326.69
327.686	1820.69
327.914	513.69
328.143	348.69
328.372	382.69
328.6	230.69
328.829	155.69
329.058	153.69
329.287	164.69
329.515	140.69
329.744	159.69
329.972	280.69
330.201	482.69
330.43	726.69
330.658	353.69
330.887	208.69
331.115	146.69
331.344	99.69
331.572	99.69
331.801	106.69
332.03	105.69
332.258	107.69
332.486	102.69
332.715	90.69
332.943	95.69
333.172	108.69
333.4	99.69
333.629	125.69
333.857	163.69
334.085	271.69
334.314	491.69
334.542	939.69
334.771	892.69
334.999	265.69
335.227	151.69
335.455	112.69
335.684	102.69
335.912	99.69
336.14	103.69
336.369	111.69
336.597	109.69
336.825	98.69
337.053	86.69
337.281	93.69
337.51	99.69
337.738	80.69
337.966	92.69
338.194	106.69
338.422	94.69
338.65	89.69
338.878	96.69
339.106	92.69
339.334	112.69
339.562	100.69
339.79	88.69
340.018	82.69
340.246	76.69
340.474	98.69
340.702	97.69
340.93	110.69
341.158	90.69
341.386	95.69
341.614	95.69
341.842	108.69
342.07	89.69
342.298	96.69
342.526	93.69
342.754	81.69
342.981	94.69
343.209	90.69
343.437	102.69
343.665	98.69
343.893	89.69
344.12	94.69
344.348	98.69
344.576	91.69
344.804	84.69
345.031	111.69
345.259	91.69
345.487	95.69
345.714	93.69
345.942	103.69
346.17	95.69
346.397	94.69
346.625	97.69
346.853	95.69
347.08	89.69
347.308	91.69
347.535	108.69
347.763	105.69
347.99	109.69
348.218	80.69
348.445	113.69
348.673	106.69
348.9	88.69
349.128	96.69
349.355	89.69
349.583	98.69
349.81	94.69
350.037	80.69
350.265	106.69
350.492	98.69
350.72	107.69
350.947	98.69
351.174	111.69
351.402	118.69
351.629	117.69
351.856	100.69
352.083	110.69
352.311	109.69
352.538	133.69
352.765	111.69
352.992	99.69
353.22	99.69
353.447	101.69
353.674	97.69
353.901	105.69
354.128	103.69
354.355	104.69
354.583	100.69
354.81	107.69
355.037	82.69
355.264	97.69
355.491	86.69
355.718	95.69
355.945	112.69
356.172	100.69
356.399	98.69
356.626	105.69
356.853	85.69
357.08	105.69
357.307	104.69
357.534	94.69
357.761	93.69
357.988	103.69
358.215	85.69
358.441	105.69
358.668	99.69
358.895	93.69
359.122	77.69
359.349	90.69
359.576	93.69
359.802	99.69
360.029	117.69
360.256	137.69
360.483	100.69
360.709	98.69
360.936	105.69
361.163	92.69
361.39	105.69
361.616	109.69
361.843	98.69
362.07	111.69
362.296	103.69
362.523	91.69
362.749	102.69
362.976	98.69
363.203	104.69
363.429	78.69
363.656	96.69
363.882	103.69
364.109	95.69
364.335	110.69
364.562	88.69
364.788	93.69
365.015	101.69
365.241	99.69
365.468	98.69
365.694	101.69
365.92	99.69
366.147	95.69
366.373	104.69
366.599	85.69
366.826	90.69
367.052	90.69
367.278	92.69
367.505	95.69
367.731	96.69
367.957	101.69
368.184	95.69
368.41	112.69
368.636	126.69
368.862	119.69
369.089	104.69
369.315	83.69
369.541	85.69
369.767	93.69
369.993	85.69
370.219	81.69
370.445	102.69
370.672	88.69
370.898	93.69
371.124	99.69
371.35	99.69
371.576	78.69
371.802	84.69
372.028	94.69
372.254	90.69
372.48	92.69
372.706	83.69
372.932	79.69
373.158	102.69
373.384	91.69
373.61	82.69
373.835	88.69
374.061	86.69
374.287	87.69
374.513	111.69
374.739	101.69
374.965	86.69
375.191	98.69
375.416	87.69
375.642	81.69
375.868	79.69
376.094	85.69
376.319	80.69
376.545	89.69
376.771	93.69
376.997	100.69
377.222	83.69
377.448	99.69
377.674	93.69
377.899	111.69
378.125	95.69
378.35	99.69
378.576	103.69
378.802	95.69
379.027	85.69
379.253	96.69
379.478	93.69
379.704	87.69
379.929	89.69
380.155	97.69
380.38	93.69
380.606	105.69
380.831	102.69
381.057	100.69
381.282	97.69
381.507	98.69
381.733	92.69
381.958	109.69
382.184	106.69
382.409	103.69
382.634	105.69
382.86	105.69
383.085	109.69
383.31	115.69
383.535	100.69
383.761	98.69
383.986	83.69
384.211	99.69
384.436	103.69
384.662	103.69
384.887	99.69
385.112	105.69
385.337	112.69
385.562	102.69
385.787	111.69
386.013	114.69
386.238	103.69
386.463	106.69
386.688	125.69
386.913	110.69
387.138	105.69
387.363	96.69
387.588	104.69
387.813	109.69
388.038	103.69
388.263	123.69
388.488	114.69
388.713	90.69
388.938	98.69
389.163	86.69
389.387	85.69
389.612	97.69
389.837	94.69
390.062	86.69
390.287	93.69
390.512	86.69
390.736	82.69
390.961	93.69
391.186	92.69
391.411	86.69
391.636	93.69
391.86	98.69
392.085	71.69
392.31	75.69
392.534	76.69
392.759	82.69
392.984	95.69
393.208	86.69
393.433	83.69
393.658	93.69
393.882	83.69
394.107	98.69
394.331	85.69
394.556	95.69
394.78	104.69
395.005	82.69
395.229	88.69
395.454	88.69
395.678	80.69
395.903	85.69
396.127	100.69
396.352	83.69
396.576	85.69
396.801	109.69
397.025	91.69
397.249	86.69
397.474	85.69
397.698	75.69
397.922	81.69
398.147	101.69
398.371	83.69
398.595	92.69
398.82	78.69
399.044	83.69
399.268	98.69
399.492	72.69
399.717	90.69
399.941	93.69
400.165	98.69
400.389	97.69
400.613	88.69
400.837	79.69
401.062	97.69
401.286	87.69
401.51	88.69
401.734	90.69
401.958	114.69
402.182	126.69
402.406	167.69
402.63	127.69
402.854	109.69
403.078	87.69
403.302	100.69
403.526	94.69
403.75	80.69
403.974	86.69
404.198	85.69
404.422	72.69
404.645	97.69
404.869	95.69
405.093	85.69
405.317	144.69
405.541	120.69
405.765	110.69
405.988	119.69
406.212	160.69
406.436	215.69
406.66	170.69
406.883	121.69
407.107	106.69
407.331	91.69
407.555	105.69
407.778	106.69
408.002	93.69
408.226	85.69
408.449	87.69
408.673	86.69
408.896	102.69
409.12	97.69
409.344	92.69
409.567	93.69
409.791	87.69
410.014	89.69
410.238	89.69
410.461	82.69
410.685	81.69
410.908	108.69
411.132	105.69
411.355	90.69
411.578	93.69
411.802	91.69
412.025	96.69
412.249	121.69
412.472	102.69
412.695	119.69
412.919	111.69
413.142	98.69
413.365	98.69
413.589	93.69
413.812	86.69
414.035	81.69
414.258	88.69
414.482	93.69
414.705	74.69
414.928	85.69
415.151	106.69
415.374	99.69
415.597	96.69
415.821	84.69
416.044	85.69
416.267	89.69
416.49	88.69
416.713	92.69
416.936	76.69
417.159	79.69
417.382	94.69
417.605	103.69
417.828	105.69
418.051	97.69
418.274	89.69
418.497	72.69
418.72	82.69
418.943	102.69
419.166	79.69
419.389	78.69
419.611	90.69
419.834	81.69
420.057	97.69
420.28	87.69
420.503	102.69
420.726	87.69
420.948	95.69
421.171	84.69
421.394	111.69
421.617	99.69
421.839	94.69
422.062	86.69
422.285	88.69
422.507	84.69
422.73	120.69
422.953	88.69
423.175	84.69
423.398	79.69
423.621	88.69
423.843	93.69
424.066	79.69
424.288	80.69
424.511	88.69
424.733	90.69
424.956	111.69
425.178	109.69
425.401	106.69
425.623	120.69
425.846	96.69
426.068	107.69
426.291	88.69
426.513	96.69
426.735	103.69
426.958	105.69
427.18	111.69
427.402	158.69
427.625	197.69
427.847	199.69
428.069	197.69
428.292	114.69
428.514	92.69
428.736	94.69
428.958	100.69
429.181	85.69
429.403	64.69
429.625	80.69
429.847	100.69
430.069	104.69
430.292	88.69
430.514	76.69
430.736	95.69
430.958	88.69
431.18	92.69
431.402	94.69
431.624	73.69
431.846	97.69
432.068	86.69
432.29	89.69
432.512	88.69
432.734	93.69
432.956	82.69
433.178	105.69
433.4	105.69
433.622	103.69
433.844	100.69
434.066	110.69
434.287	82.69
434.509	93.69
434.731	98.69
434.953	96.69
435.175	99.69
435.397	86.69
435.618	84.69
435.84	130.69
436.062	149.69
436.284	123.69
436.505	113.69
436.727	102.69
436.949	89.69
437.17	91.69
437.392	83.69
437.614	92.69
437.835	117.69
438.057	135.69
438.278	114.69
438.5	109.69
438.721	149.69
438.943	117.69
439.165	89.69
439.386	82.69
439.608	107.69
439.829	116.69
440.05	157.69
440.272	184.69
440.493	109.69
440.715	80.69
440.936	94.69
441.158	91.69
441.379	97.69
441.6	95.69
441.822	100.69
442.043	107.69
442.264	104.69
442.486	113.69
442.707	96.69
442.928	119.69
443.149	157.69
443.371	146.69
443.592	113.69
443.813	119.69
444.034	127.69
444.255	120.69
444.476	86.69
444.698	107.69
444.919	97.69
445.14	130.69
445.361	136.69
445.582	137.69
445.803	166.69
446.024	163.69
446.245	171.69
446.466	135.69
446.687	93.69
446.908	96.69
447.129	94.69
447.35	98.69
447.571	100.69
447.792	99.69
448.013	94.69
448.234	110.69
448.455	97.69
448.675	122.69
448.896	134.69
449.117	94.69
449.338	117.69
449.559	131.69
449.779	143.69
450	101.69
450.221	87.69
450.442	93.69
450.662	110.69
450.883	122.69
451.104	119.69
451.324	105.69
451.545	88.69
451.766	85.69
451.986	90.69
452.207	93.69
452.428	96.69
452.648	95.69
452.869	110.69
453.089	94.69
453.31	129.69
453.53	92.69
453.751	82.69
453.971	105.69
454.192	115.69
454.412	86.69
454.633	80.69
454.853	94.69
455.073	97.69
455.294	91.69
455.514	110.69
455.734	90.69
455.955	72.69
456.175	92.69
456.395	96.69
456.616	90.69
456.836	79.69
457.056	78.69
457.276	81.69
457.497	97.69
457.717	94.69
457.937	83.69
458.157	97.69
458.377	87.69
458.598	113.69
458.818	163.69
459.038	179.69
459.258	120.69
459.478	89.69
459.698	83.69
459.918	99.69
460.138	86.69
460.358	85.69
460.578	76.69
460.798	92.69
461.018	93.69
461.238	88.69
461.458	93.69
461.678	85.69
461.898	84.69
462.118	75.69
462.338	94.69
462.558	81.69
462.777	86.69
462.997	70.69
463.217	88.69
463.437	99.69
463.657	88.69
463.876	88.69
464.096	89.69
464.316	95.69
464.536	93.69
464.755	97.69
464.975	119.69
465.195	184.69
465.414	193.69
465.634	94.69
465.854	79.69
466.073	83.69
466.293	77.69
466.512	87.69
466.732	96.69
466.951	91.69
467.171	102.69
467.391	94.69
467.61	130.69
467.829	141.69
468.049	293.69
468.268	442.69
468.488	161.69
468.707	84.69
468.927	109.69
469.146	72.69
469.365	85.69
469.585	86.69
469.804	94.69
470.023	98.69
470.243	113.69
470.462	95.69
470.681	123.69
470.901	90.69
471.12	102.69
471.339	87.69
471.558	119.69
471.777	119.69
471.997	198.69
472.216	566.69
472.435	1291.69
472.654	349.69
472.873	126.69
473.092	101.69
473.311	91.69
473.53	87.69
473.749	79.69
473.968	98.69
474.187	113.69
474.406	104.69
474.625	96.69
474.844	94.69
475.063	87.69
475.282	80.69
475.501	104.69
475.72	97.69
475.939	87.69
476.158	87.69
476.377	94.69
476.596	105.69
476.814	88.69
477.033	97.69
477.252	75.69
477.471	82.69
477.69	86.69
477.908	93.69
478.127	85.69
478.346	98.69
478.564	84.69
478.783	113.69
479.002	102.69
479.22	104.69
479.439	109.69
479.658	110.69
479.876	90.69
480.095	99.69
480.313	116.69
480.532	123.69
480.751	192.69
480.969	550.69
481.188	2175.69
481.406	1267.69
481.624	245.69
481.843	103.69
482.061	94.69
482.28	101.69
482.498	90.69
482.717	91.69
482.935	91.69
483.153	98.69
483.372	90.69
483.59	111.69
483.808	91.69
484.027	97.69
484.245	103.69
484.463	93.69
484.681	105.69
484.9	99.69
485.118	93.69
485.336	89.69
485.554	102.69
485.772	99.69
485.99	106.69
486.209	102.69
486.427	110.69
486.645	110.69
486.863	120.69
487.081	108.69
487.299	103.69
487.517	105.69
487.735	71.69
487.953	103.69
488.171	77.69
488.389	93.69
488.607	103.69
488.825	101.69
489.043	100.69
489.261	96.69
489.479	97.69
489.696	87.69
489.914	87.69
490.132	90.69
490.35	92.69
490.568	80.69
490.786	93.69
491.003	91.69
491.221	88.69
491.439	87.69
491.657	104.69
491.874	89.69
492.092	89.69
492.31	92.69
492.527	103.69
492.745	88.69
492.963	92.69
493.18	85.69
493.398	81.69
493.615	87.69
493.833	98.69
494.05	94.69
494.268	95.69
494.485	81.69
494.703	83.69
494.92	91.69
495.138	94.69
495.355	97.69
495.573	83.69
495.79	99.69
496.008	92.69
496.225	85.69
496.442	83.69
496.66	97.69
496.877	89.69
497.094	100.69
497.312	78.69
497.529	99.69
497.746	96.69
497.963	97.69
498.181	86.69
498.398	83.69
498.615	113.69
498.832	85.69
499.049	73.69
499.267	92.69
499.484	89.69
499.701	93.69
499.918	103.69
500.135	106.69
500.352	100.69
500.569	89.69
500.786	94.69
501.003	79.69
501.22	89.69
501.437	101.69
501.654	86.69
501.871	114.69
502.088	104.69
502.305	74.69
502.522	91.69
502.739	80.69
502.956	101.69
503.172	100.69
503.389	85.69
503.606	106.69
503.823	102.69
504.04	89.69
504.256	89.69
504.473	74.69
504.69	93.69
504.907	111.69
505.123	86.69
505.34	93.69
505.557	82.69
505.773	90.69
505.99	87.69
506.207	97.69
506.423	88.69
506.64	92.69
506.856	85.69
507.073	100.69
507.289	92.69
507.506	113.69
507.722	118.69
507.939	104.69
508.155	96.69
508.372	97.69
508.588	99.69
508.805	88.69
509.021	87.69
509.238	105.69
509.454	108.69
509.67	109.69
509.887	109.69
510.103	127.69
510.319	198.69
510.536	684.69
510.752	2346.69
510.968	657.69
511.184	158.69
511.401	115.69
511.617	93.69
511.833	93.69
512.049	103.69
512.265	82.69
512.481	94.69
512.698	84.69
512.914	90.69
513.13	95.69
513.346	95.69
513.562	96.69
513.778	98.69
513.994	112.69
