Data from Circ_1997_H10_HRD10591_00065.txt Node
Date: Wed Jan 03 11:29:40 EST 2024
User: Yrep
Spectrometer: HR+D1059
Trigger mode: 1
Integration Time (sec): 1.000000E-1
Scans to average: 1
Electric dark correction enabled: true
Nonlinearity correction enabled: false
Boxcar width: 0
XAxis mode: Wavelengths
Number of Pixels in Spectrum: 2048
>>>>>Begin Spectral Data<<<<<
223.165	-26.75
223.4	-26.75
223.635	-26.75
223.869	-12.75
224.104	-13.75
224.338	-29.75
224.573	-4.75
224.808	-6.75
225.042	-17.75
225.277	-16.75
225.511	4.25
225.746	6.25
225.98	14.25
226.215	9.25
226.449	16.25
226.683	32.25
226.918	21.25
227.152	25.25
227.387	25.25
227.621	46.25
227.856	36.25
228.09	47.25
228.324	32.25
228.559	52.25
228.793	66.25
229.027	70.25
229.262	65.25
229.496	71.25
229.73	91.25
229.964	92.25
230.199	79.25
230.433	59.25
230.667	74.25
230.901	65.25
231.136	72.25
231.37	77.25
231.604	76.25
231.838	74.25
232.072	76.25
232.306	86.25
232.541	80.25
232.775	81.25
233.009	90.25
233.243	84.25
233.477	81.25
233.711	84.25
233.945	74.25
234.179	80.25
234.413	83.25
234.647	79.25
234.881	88.25
235.115	86.25
235.349	69.25
235.583	82.25
235.817	84.25
236.051	82.25
236.285	74.25
236.519	86.25
236.753	81.25
236.987	91.25
237.221	105.25
237.455	84.25
237.689	78.25
237.922	63.25
238.156	62.25
238.39	68.25
238.624	62.25
238.858	80.25
239.091	72.25
239.325	74.25
239.559	81.25
239.793	75.25
240.027	79.25
240.26	80.25
240.494	72.25
240.728	80.25
240.961	80.25
241.195	88.25
241.429	73.25
241.662	77.25
241.896	70.25
242.13	60.25
242.363	89.25
242.597	74.25
242.83	95.25
243.064	79.25
243.298	81.25
243.531	74.25
243.765	64.25
243.998	66.25
244.232	87.25
244.465	96.25
244.699	76.25
244.932	69.25
245.166	83.25
245.399	68.25
245.633	71.25
245.866	93.25
246.099	81.25
246.333	82.25
246.566	74.25
246.8	85.25
247.033	69.25
247.266	88.25
247.5	79.25
247.733	79.25
247.966	74.25
248.2	78.25
248.433	79.25
248.666	86.25
248.899	80.25
249.133	88.25
249.366	92.25
249.599	102.25
249.832	85.25
250.066	87.25
250.299	97.25
250.532	71.25
250.765	72.25
250.998	91.25
251.231	90.25
251.465	83.25
251.698	76.25
251.931	68.25
252.164	54.25
252.397	83.25
252.63	85.25
252.863	85.25
253.096	80.25
253.329	87.25
253.562	74.25
253.795	63.25
254.028	70.25
254.261	88.25
254.494	76.25
254.727	76.25
254.96	77.25
255.193	74.25
255.426	81.25
255.659	84.25
255.892	84.25
256.124	93.25
256.357	89.25
256.59	79.25
256.823	81.25
257.056	81.25
257.289	85.25
257.521	75.25
257.754	71.25
257.987	88.25
258.22	93.25
258.452	100.25
258.685	86.25
258.918	87.25
259.151	89.25
259.383	84.25
259.616	89.25
259.849	72.25
260.081	80.25
260.314	80.25
260.547	73.25
260.779	93.25
261.012	106.25
261.244	108.25
261.477	99.25
261.71	96.25
261.942	113.25
262.175	136.25
262.407	90.25
262.64	82.25
262.872	94.25
263.105	80.25
263.337	93.25
263.57	87.25
263.802	90.25
264.035	77.25
264.267	88.25
264.499	97.25
264.732	82.25
264.964	76.25
265.197	87.25
265.429	108.25
265.661	85.25
265.894	88.25
266.126	76.25
266.358	59.25
266.591	93.25
266.823	79.25
267.055	76.25
267.287	88.25
267.52	90.25
267.752	80.25
267.984	91.25
268.216	74.25
268.448	94.25
268.681	88.25
268.913	88.25
269.145	86.25
269.377	94.25
269.609	88.25
269.841	79.25
270.073	96.25
270.306	71.25
270.538	74.25
270.77	74.25
271.002	73.25
271.234	90.25
271.466	94.25
271.698	97.25
271.93	85.25
272.162	88.25
272.394	80.25
272.626	84.25
272.858	81.25
273.09	84.25
273.322	88.25
273.553	86.25
273.785	96.25
274.017	82.25
274.249	75.25
274.481	80.25
274.713	84.25
274.945	93.25
275.176	90.25
275.408	92.25
275.64	104.25
275.872	119.25
276.104	105.25
276.335	96.25
276.567	116.25
276.799	140.25
277.031	172.25
277.262	182.25
277.494	144.25
277.726	91.25
277.957	92.25
278.189	92.25
278.421	79.25
278.652	87.25
278.884	111.25
279.115	95.25
279.347	96.25
279.579	95.25
279.81	134.25
280.042	197.25
280.273	241.25
280.505	170.25
280.736	96.25
280.968	88.25
281.199	85.25
281.431	97.25
281.662	81.25
281.894	91.25
282.125	104.25
282.356	138.25
282.588	169.25
282.819	121.25
283.051	98.25
283.282	86.25
283.513	89.25
283.745	91.25
283.976	77.25
284.207	98.25
284.439	99.25
284.67	80.25
284.901	86.25
285.132	91.25
285.364	85.25
285.595	104.25
285.826	98.25
286.057	82.25
286.288	69.25
286.52	80.25
286.751	75.25
286.982	91.25
287.213	89.25
287.444	84.25
287.675	94.25
287.906	78.25
288.138	86.25
288.369	92.25
288.6	85.25
288.831	85.25
289.062	98.25
289.293	88.25
289.524	84.25
289.755	88.25
289.986	100.25
290.217	87.25
290.448	94.25
290.679	89.25
290.91	86.25
291.141	94.25
291.371	81.25
291.602	96.25
291.833	89.25
292.064	93.25
292.295	95.25
292.526	90.25
292.757	84.25
292.987	88.25
293.218	87.25
293.449	98.25
293.68	79.25
293.91	96.25
294.141	109.25
294.372	86.25
294.603	90.25
294.833	101.25
295.064	89.25
295.295	89.25
295.525	86.25
295.756	95.25
295.987	122.25
296.217	154.25
296.448	153.25
296.679	100.25
296.909	93.25
297.14	92.25
297.37	87.25
297.601	88.25
297.831	105.25
298.062	79.25
298.292	86.25
298.523	94.25
298.753	80.25
298.984	82.25
299.214	100.25
299.445	92.25
299.675	88.25
299.905	102.25
300.136	83.25
300.366	86.25
300.597	101.25
300.827	92.25
301.057	98.25
301.288	105.25
301.518	99.25
301.748	93.25
301.979	111.25
302.209	103.25
302.439	89.25
302.669	95.25
302.9	77.25
303.13	93.25
303.36	98.25
303.59	130.25
303.82	138.25
304.051	112.25
304.281	98.25
304.511	89.25
304.741	82.25
304.971	98.25
305.201	80.25
305.431	101.25
305.661	105.25
305.891	94.25
306.121	92.25
306.352	107.25
306.582	111.25
306.812	95.25
307.042	107.25
307.272	154.25
307.502	174.25
307.731	166.25
307.961	132.25
308.191	98.25
308.421	103.25
308.651	74.25
308.881	95.25
309.111	72.25
309.341	88.25
309.571	102.25
309.8	86.25
310.03	96.25
310.26	100.25
310.49	84.25
310.72	104.25
310.949	107.25
311.179	111.25
311.409	107.25
311.639	109.25
311.868	109.25
312.098	88.25
312.328	113.25
312.557	107.25
312.787	111.25
313.017	116.25
313.246	101.25
313.476	103.25
313.706	97.25
313.935	96.25
314.165	98.25
314.394	104.25
314.624	114.25
314.853	95.25
315.083	89.25
315.312	87.25
315.542	92.25
315.771	99.25
316.001	84.25
316.23	95.25
316.46	76.25
316.689	83.25
316.919	88.25
317.148	89.25
317.377	97.25
317.607	84.25
317.836	108.25
318.065	90.25
318.295	89.25
318.524	85.25
318.753	98.25
318.983	83.25
319.212	95.25
319.441	130.25
319.67	122.25
319.9	93.25
320.129	105.25
320.358	91.25
320.587	101.25
320.816	110.25
321.046	104.25
321.275	102.25
321.504	84.25
321.733	105.25
321.962	103.25
322.191	97.25
322.42	108.25
322.649	116.25
322.878	121.25
323.108	122.25
323.337	135.25
323.566	134.25
323.795	167.25
324.024	238.25
324.253	440.25
324.482	873.25
324.71	1772.25
324.939	2332.25
325.168	864.25
325.397	247.25
325.626	154.25
325.855	151.25
326.084	127.25
326.313	140.25
326.542	161.25
326.77	227.25
326.999	446.25
327.228	910.25
327.457	1643.25
327.686	1329.25
327.914	526.25
328.143	519.25
328.372	666.25
328.6	358.25
328.829	188.25
329.058	174.25
329.287	181.25
329.515	190.25
329.744	226.25
329.972	478.25
330.201	965.25
330.43	1393.25
330.658	596.25
330.887	272.25
331.115	180.25
331.344	125.25
331.572	114.25
331.801	136.25
332.03	119.25
332.258	106.25
332.486	109.25
332.715	100.25
332.943	116.25
333.172	116.25
333.4	133.25
333.629	156.25
333.857	253.25
334.085	431.25
334.314	884.25
334.542	1778.25
334.771	1580.25
334.999	418.25
335.227	174.25
335.455	133.25
335.684	121.25
335.912	98.25
336.14	104.25
336.369	110.25
336.597	97.25
336.825	109.25
337.053	101.25
337.281	80.25
337.51	98.25
337.738	95.25
337.966	106.25
338.194	102.25
338.422	102.25
338.65	96.25
338.878	98.25
339.106	83.25
339.334	88.25
339.562	100.25
339.79	75.25
340.018	98.25
340.246	96.25
340.474	100.25
340.702	102.25
340.93	110.25
341.158	83.25
341.386	119.25
341.614	118.25
341.842	113.25
342.07	90.25
342.298	97.25
342.526	90.25
342.754	72.25
342.981	89.25
343.209	97.25
343.437	101.25
343.665	88.25
343.893	86.25
344.12	92.25
344.348	82.25
344.576	104.25
344.804	108.25
345.031	95.25
345.259	105.25
345.487	88.25
345.714	98.25
345.942	95.25
346.17	94.25
346.397	90.25
346.625	99.25
346.853	91.25
347.08	106.25
347.308	109.25
347.535	91.25
347.763	118.25
347.99	113.25
348.218	112.25
348.445	115.25
348.673	111.25
348.9	95.25
349.128	94.25
349.355	93.25
349.583	92.25
349.81	93.25
350.037	89.25
350.265	107.25
350.492	87.25
350.72	98.25
350.947	104.25
351.174	121.25
351.402	121.25
351.629	95.25
351.856	96.25
352.083	118.25
352.311	112.25
352.538	114.25
352.765	119.25
352.992	123.25
353.22	116.25
353.447	114.25
353.674	111.25
353.901	100.25
354.128	110.25
354.355	103.25
354.583	90.25
354.81	97.25
355.037	98.25
355.264	96.25
355.491	99.25
355.718	82.25
355.945	86.25
356.172	92.25
356.399	96.25
356.626	95.25
356.853	84.25
357.08	89.25
357.307	74.25
357.534	101.25
357.761	93.25
357.988	89.25
358.215	90.25
358.441	87.25
358.668	89.25
358.895	91.25
359.122	96.25
359.349	96.25
359.576	108.25
359.802	121.25
360.029	150.25
360.256	113.25
360.483	103.25
360.709	93.25
360.936	82.25
361.163	103.25
361.39	101.25
361.616	84.25
361.843	79.25
362.07	96.25
362.296	99.25
362.523	80.25
362.749	81.25
362.976	95.25
363.203	107.25
363.429	95.25
363.656	81.25
363.882	104.25
364.109	86.25
364.335	97.25
364.562	95.25
364.788	82.25
365.015	99.25
365.241	118.25
365.468	111.25
365.694	114.25
365.92	107.25
366.147	94.25
366.373	92.25
366.599	98.25
366.826	85.25
367.052	72.25
367.278	89.25
367.505	93.25
367.731	101.25
367.957	96.25
368.184	97.25
368.41	98.25
368.636	114.25
368.862	125.25
369.089	115.25
369.315	100.25
369.541	86.25
369.767	88.25
369.993	84.25
370.219	75.25
370.445	80.25
370.672	100.25
370.898	99.25
371.124	80.25
371.35	92.25
371.576	82.25
371.802	86.25
372.028	92.25
372.254	83.25
372.48	73.25
372.706	64.25
372.932	63.25
373.158	85.25
373.384	86.25
373.61	86.25
373.835	102.25
374.061	87.25
374.287	78.25
374.513	90.25
374.739	88.25
374.965	89.25
375.191	91.25
375.416	88.25
375.642	82.25
375.868	97.25
376.094	88.25
376.319	97.25
376.545	91.25
376.771	88.25
376.997	94.25
377.222	91.25
377.448	96.25
377.674	86.25
377.899	76.25
378.125	88.25
378.35	80.25
378.576	80.25
378.802	91.25
379.027	85.25
379.253	80.25
379.478	82.25
379.704	103.25
379.929	101.25
380.155	81.25
380.38	95.25
380.606	94.25
380.831	96.25
381.057	99.25
381.282	91.25
381.507	102.25
381.733	93.25
381.958	85.25
382.184	88.25
382.409	94.25
382.634	99.25
382.86	100.25
383.085	88.25
383.31	91.25
383.535	79.25
383.761	106.25
383.986	98.25
384.211	89.25
384.436	86.25
384.662	93.25
384.887	98.25
385.112	97.25
385.337	95.25
385.562	88.25
385.787	89.25
386.013	98.25
386.238	103.25
386.463	87.25
386.688	94.25
386.913	102.25
387.138	110.25
387.363	92.25
387.588	97.25
387.813	103.25
388.038	94.25
388.263	110.25
388.488	97.25
388.713	105.25
388.938	96.25
389.163	88.25
389.387	91.25
389.612	96.25
389.837	94.25
390.062	82.25
390.287	72.25
390.512	92.25
390.736	92.25
390.961	88.25
391.186	93.25
391.411	94.25
391.636	88.25
391.86	88.25
392.085	78.25
392.31	92.25
392.534	95.25
392.759	80.25
392.984	83.25
393.208	87.25
393.433	78.25
393.658	83.25
393.882	88.25
394.107	76.25
394.331	88.25
394.556	98.25
394.78	85.25
395.005	96.25
395.229	98.25
395.454	74.25
395.678	59.25
395.903	90.25
396.127	96.25
396.352	82.25
396.576	83.25
396.801	90.25
397.025	91.25
397.249	88.25
397.474	88.25
397.698	90.25
397.922	86.25
398.147	95.25
398.371	91.25
398.595	94.25
398.82	81.25
399.044	89.25
399.268	80.25
399.492	70.25
399.717	91.25
399.941	106.25
400.165	100.25
400.389	92.25
400.613	84.25
400.837	85.25
401.062	80.25
401.286	91.25
401.51	95.25
401.734	84.25
401.958	104.25
402.182	144.25
402.406	208.25
402.63	133.25
402.854	94.25
403.078	93.25
403.302	96.25
403.526	105.25
403.75	88.25
403.974	88.25
404.198	81.25
404.422	94.25
404.645	91.25
404.869	87.25
405.093	98.25
405.317	120.25
405.541	126.25
405.765	112.25
405.988	132.25
406.212	207.25
406.436	304.25
406.66	190.25
406.883	109.25
407.107	112.25
407.331	101.25
407.555	116.25
407.778	108.25
408.002	98.25
408.226	98.25
408.449	90.25
408.673	73.25
408.896	80.25
409.12	118.25
409.344	105.25
409.567	95.25
409.791	91.25
410.014	94.25
410.238	89.25
410.461	95.25
410.685	113.25
410.908	105.25
411.132	104.25
411.355	101.25
411.578	90.25
411.802	85.25
412.025	93.25
412.249	93.25
412.472	105.25
412.695	115.25
412.919	105.25
413.142	97.25
413.365	93.25
413.589	87.25
413.812	108.25
414.035	103.25
414.258	92.25
414.482	95.25
414.705	85.25
414.928	88.25
415.151	89.25
415.374	86.25
415.597	85.25
415.821	89.25
416.044	95.25
416.267	94.25
416.49	73.25
416.713	72.25
416.936	97.25
417.159	93.25
417.382	89.25
417.605	96.25
417.828	98.25
418.051	93.25
418.274	93.25
418.497	94.25
418.72	89.25
418.943	96.25
419.166	78.25
419.389	88.25
419.611	92.25
419.834	88.25
420.057	76.25
420.28	91.25
420.503	94.25
420.726	82.25
420.948	92.25
421.171	94.25
421.394	102.25
421.617	97.25
421.839	94.25
422.062	93.25
422.285	75.25
422.507	92.25
422.73	103.25
422.953	97.25
423.175	82.25
423.398	87.25
423.621	85.25
423.843	83.25
424.066	89.25
424.288	94.25
424.511	88.25
424.733	112.25
424.956	129.25
425.178	98.25
425.401	111.25
425.623	120.25
425.846	96.25
426.068	99.25
426.291	97.25
426.513	93.25
426.735	96.25
426.958	103.25
427.18	113.25
427.402	155.25
427.625	241.25
427.847	220.25
428.069	192.25
428.292	127.25
428.514	87.25
428.736	88.25
428.958	89.25
429.181	84.25
429.403	98.25
429.625	87.25
429.847	78.25
430.069	107.25
430.292	110.25
430.514	84.25
430.736	80.25
430.958	78.25
431.18	87.25
431.402	80.25
431.624	74.25
431.846	82.25
432.068	91.25
432.29	91.25
432.512	83.25
432.734	88.25
432.956	81.25
433.178	99.25
433.4	90.25
433.622	86.25
433.844	78.25
434.066	90.25
434.287	92.25
434.509	97.25
434.731	95.25
434.953	78.25
435.175	84.25
435.397	96.25
435.618	98.25
435.84	110.25
436.062	132.25
436.284	137.25
436.505	120.25
436.727	103.25
436.949	98.25
437.17	88.25
437.392	92.25
437.614	91.25
437.835	124.25
438.057	158.25
438.278	124.25
438.5	103.25
438.721	129.25
438.943	96.25
439.165	94.25
439.386	83.25
439.608	93.25
439.829	110.25
440.05	147.25
440.272	183.25
440.493	107.25
440.715	81.25
440.936	94.25
441.158	72.25
441.379	90.25
441.6	94.25
441.822	87.25
442.043	96.25
442.264	119.25
442.486	117.25
442.707	108.25
442.928	111.25
443.149	170.25
443.371	159.25
443.592	124.25
443.813	137.25
444.034	113.25
444.255	93.25
444.476	72.25
444.698	98.25
444.919	87.25
445.14	124.25
445.361	120.25
445.582	138.25
445.803	178.25
446.024	165.25
446.245	156.25
446.466	120.25
446.687	100.25
446.908	95.25
447.129	74.25
447.35	92.25
447.571	74.25
447.792	90.25
448.013	100.25
448.234	112.25
448.455	89.25
448.675	116.25
448.896	137.25
449.117	115.25
449.338	111.25
449.559	152.25
449.779	152.25
450	114.25
450.221	99.25
450.442	94.25
450.662	88.25
450.883	118.25
451.104	121.25
451.324	106.25
451.545	94.25
451.766	98.25
451.986	85.25
452.207	84.25
452.428	84.25
452.648	115.25
452.869	122.25
453.089	130.25
453.31	153.25
453.53	101.25
453.751	97.25
453.971	102.25
454.192	134.25
454.412	103.25
454.633	81.25
454.853	83.25
455.073	91.25
455.294	95.25
455.514	102.25
455.734	94.25
455.955	91.25
456.175	81.25
456.395	102.25
456.616	77.25
456.836	70.25
457.056	88.25
457.276	94.25
457.497	92.25
457.717	85.25
457.937	95.25
458.157	98.25
458.377	89.25
458.598	140.25
458.818	208.25
459.038	220.25
459.258	137.25
459.478	70.25
459.698	87.25
459.918	86.25
460.138	81.25
460.358	97.25
460.578	120.25
460.798	94.25
461.018	94.25
461.238	97.25
461.458	89.25
461.678	80.25
461.898	95.25
462.118	96.25
462.338	85.25
462.558	88.25
462.777	81.25
462.997	109.25
463.217	116.25
463.437	95.25
463.657	91.25
463.876	88.25
464.096	90.25
464.316	100.25
464.536	96.25
464.755	109.25
464.975	118.25
465.195	226.25
465.414	221.25
465.634	89.25
465.854	82.25
466.073	91.25
466.293	95.25
466.512	81.25
466.732	105.25
466.951	104.25
467.171	104.25
467.391	119.25
467.61	127.25
467.829	215.25
468.049	575.25
468.268	814.25
468.488	214.25
468.707	129.25
468.927	100.25
469.146	97.25
469.365	104.25
469.585	94.25
469.804	114.25
470.023	112.25
470.243	95.25
470.462	118.25
470.681	130.25
470.901	96.25
471.12	102.25
471.339	114.25
471.558	119.25
471.777	155.25
471.997	298.25
472.216	1136.25
472.435	2533.25
472.654	568.25
472.873	162.25
473.092	109.25
473.311	88.25
473.53	97.25
473.749	108.25
473.968	103.25
474.187	130.25
474.406	110.25
474.625	78.25
474.844	70.25
475.063	97.25
475.282	88.25
475.501	60.25
475.72	76.25
475.939	81.25
476.158	102.25
476.377	87.25
476.596	89.25
476.814	98.25
477.033	95.25
477.252	102.25
477.471	90.25
477.69	77.25
477.908	94.25
478.127	77.25
478.346	89.25
478.564	110.25
478.783	113.25
479.002	88.25
479.22	115.25
479.439	128.25
479.658	136.25
479.876	106.25
480.095	116.25
480.313	129.25
480.532	184.25
480.751	302.25
480.969	1045.25
481.188	4439.25
481.406	2407.25
481.624	352.25
481.843	132.25
482.061	102.25
482.28	86.25
482.498	87.25
482.717	97.25
482.935	93.25
483.153	92.25
483.372	95.25
483.59	79.25
483.808	89.25
484.027	97.25
484.245	104.25
484.463	86.25
484.681	104.25
484.9	88.25
485.118	104.25
485.336	90.25
485.554	85.25
485.772	90.25
485.99	102.25
486.209	87.25
486.427	99.25
486.645	127.25
486.863	129.25
487.081	101.25
487.299	89.25
487.517	90.25
487.735	103.25
487.953	95.25
488.171	93.25
488.389	116.25
488.607	98.25
488.825	89.25
489.043	91.25
489.261	98.25
489.479	87.25
489.696	71.25
489.914	81.25
490.132	96.25
490.35	94.25
490.568	92.25
490.786	70.25
491.003	92.25
491.221	92.25
491.439	86.25
491.657	102.25
491.874	94.25
492.092	84.25
492.31	86.25
492.527	101.25
492.745	89.25
492.963	86.25
493.18	102.25
493.398	88.25
493.615	103.25
493.833	102.25
494.05	77.25
494.268	92.25
494.485	97.25
494.703	79.25
494.92	100.25
495.138	88.25
495.355	97.25
495.573	94.25
495.79	91.25
496.008	97.25
496.225	102.25
496.442	80.25
496.66	70.25
496.877	86.25
497.094	84.25
497.312	78.25
497.529	96.25
497.746	92.25
497.963	71.25
498.181	82.25
498.398	111.25
498.615	114.25
498.832	111.25
499.049	99.25
499.267	92.25
499.484	82.25
499.701	85.25
499.918	81.25
500.135	81.25
500.352	82.25
500.569	98.25
500.786	89.25
501.003	80.25
501.22	80.25
501.437	97.25
501.654	104.25
501.871	129.25
502.088	100.25
502.305	101.25
502.522	88.25
502.739	82.25
502.956	80.25
503.172	95.25
503.389	111.25
503.606	127.25
503.823	103.25
504.04	87.25
504.256	89.25
504.473	91.25
504.69	85.25
504.907	96.25
505.123	94.25
505.34	89.25
505.557	81.25
505.773	81.25
505.99	80.25
506.207	80.25
506.423	92.25
506.64	78.25
506.856	87.25
507.073	92.25
507.289	89.25
507.506	97.25
507.722	129.25
507.939	107.25
508.155	104.25
508.372	96.25
508.588	92.25
508.805	96.25
509.021	99.25
509.238	92.25
509.454	95.25
509.67	95.25
509.887	125.25
510.103	139.25
510.319	248.25
510.536	925.25
510.752	3245.25
510.968	839.25
511.184	180.25
511.401	118.25
511.617	104.25
511.833	113.25
512.049	95.25
512.265	91.25
512.481	101.25
512.698	86.25
512.914	97.25
513.13	88.25
513.346	99.25
513.562	82.25
513.778	95.25
513.994	100.25
514.21	104.25
