Data from Circ_1997_H10_HRD10591_00054.txt Node
Date: Wed Jan 03 11:29:38 EST 2024
User: Yrep
Spectrometer: HR+D1059
Trigger mode: 1
Integration Time (sec): 1.000000E-1
Scans to average: 1
Electric dark correction enabled: true
Nonlinearity correction enabled: false
Boxcar width: 0
XAxis mode: Wavelengths
Number of Pixels in Spectrum: 2048
>>>>>Begin Spectral Data<<<<<
223.165	-4.06
223.4	-4.06
223.635	-4.06
223.869	-10.06
224.104	-18.06
224.338	-11.06
224.573	-2.06
224.808	-3.06
225.042	-14.06
225.277	-20.06
225.511	-1.06
225.746	-2.06
225.98	4.94
226.215	21.94
226.449	14.94
226.683	6.94
226.918	11.94
227.152	24.94
227.387	31.94
227.621	33.94
227.856	33.94
228.09	48.94
228.324	57.94
228.559	59.94
228.793	165.94
229.027	438.94
229.262	517.94
229.496	631.94
229.73	873.94
229.964	873.94
230.199	581.94
230.433	504.94
230.667	482.94
230.901	475.94
231.136	469.94
231.37	479.94
231.604	491.94
231.838	449.94
232.072	461.94
232.306	495.94
232.541	492.94
232.775	487.94
233.009	495.94
233.243	509.94
233.477	512.94
233.711	510.94
233.945	528.94
234.179	550.94
234.413	521.94
234.647	500.94
234.881	558.94
235.115	557.94
235.349	580.94
235.583	604.94
235.817	628.94
236.051	678.94
236.285	634.94
236.519	627.94
236.753	747.94
236.987	951.94
237.221	1409.94
237.455	1502.94
237.689	944.94
237.922	766.94
238.156	747.94
238.39	717.94
238.624	685.94
238.858	686.94
239.091	686.94
239.325	719.94
239.559	735.94
239.793	752.94
240.027	822.94
240.26	967.94
240.494	1011.94
240.728	988.94
240.961	945.94
241.195	883.94
241.429	821.94
241.662	808.94
241.896	813.94
242.13	855.94
242.363	846.94
242.597	875.94
242.83	926.94
243.064	890.94
243.298	939.94
243.531	885.94
243.765	921.94
243.998	944.94
244.232	951.94
244.465	982.94
244.699	983.94
244.932	997.94
245.166	962.94
245.399	1008.94
245.633	989.94
245.866	1002.94
246.099	1003.94
246.333	1043.94
246.566	1069.94
246.8	1109.94
247.033	1099.94
247.266	1137.94
247.5	1210.94
247.733	1253.94
247.966	1215.94
248.2	1260.94
248.433	1269.94
248.666	1337.94
248.899	1501.94
249.133	1637.94
249.366	1636.94
249.599	1622.94
249.832	1586.94
250.066	1848.94
250.299	2494.94
250.532	3274.94
250.765	3056.94
250.998	2502.94
251.231	2071.94
251.465	1750.94
251.698	1685.94
251.931	1619.94
252.164	1581.94
252.397	1621.94
252.63	1617.94
252.863	1720.94
253.096	1804.94
253.329	1879.94
253.562	1768.94
253.795	1726.94
254.028	1735.94
254.261	1842.94
254.494	2033.94
254.727	2405.94
254.96	2480.94
255.193	2297.94
255.426	2403.94
255.659	2979.94
255.892	4570.94
256.124	5995.94
256.357	4738.94
256.59	3357.94
256.823	2665.94
257.056	2355.94
257.289	2173.94
257.521	2037.94
257.754	1978.94
257.987	1942.94
258.22	1879.94
258.452	1849.94
258.685	1824.94
258.918	1850.94
259.151	1880.94
259.383	1878.94
259.616	1915.94
259.849	1989.94
260.081	2133.94
260.314	2241.94
260.547	2117.94
260.779	2010.94
261.012	1917.94
261.244	1940.94
261.477	1897.94
261.71	1894.94
261.942	1963.94
262.175	2056.94
262.407	1886.94
262.64	1836.94
262.872	1830.94
263.105	1868.94
263.337	1802.94
263.57	1802.94
263.802	1826.94
264.035	1852.94
264.267	1810.94
264.499	1833.94
264.732	1843.94
264.964	1851.94
265.197	1870.94
265.429	1878.94
265.661	1894.94
265.894	1910.94
266.126	1933.94
266.358	1951.94
266.591	1935.94
266.823	2025.94
267.055	2015.94
267.287	2042.94
267.52	2007.94
267.752	2015.94
267.984	2057.94
268.216	2072.94
268.448	2085.94
268.681	2166.94
268.913	2295.94
269.145	2478.94
269.377	2485.94
269.609	2388.94
269.841	2382.94
270.073	2488.94
270.306	2729.94
270.538	2852.94
270.77	2675.94
271.002	2585.94
271.234	2596.94
271.466	2769.94
271.698	2857.94
271.93	2859.94
272.162	2846.94
272.394	2798.94
272.626	2629.94
272.858	2452.94
273.09	2453.94
273.322	2483.94
273.553	2410.94
273.785	2436.94
274.017	2499.94
274.249	2527.94
274.481	2523.94
274.713	2516.94
274.945	2617.94
275.176	2571.94
275.408	2650.94
275.64	2737.94
275.872	2771.94
276.104	2766.94
276.335	2796.94
276.567	2957.94
276.799	3212.94
277.031	3620.94
277.262	3850.94
277.494	3494.94
277.726	3188.94
277.957	2975.94
278.189	2925.94
278.421	2846.94
278.652	2857.94
278.884	2831.94
279.115	2823.94
279.347	2815.94
279.579	2965.94
279.81	3073.94
280.042	3473.94
280.273	3733.94
280.505	3481.94
280.736	3182.94
280.968	3041.94
281.199	2961.94
281.431	2892.94
281.662	2912.94
281.894	2863.94
282.125	2949.94
282.356	3126.94
282.588	3288.94
282.819	3032.94
283.051	2914.94
283.282	2802.94
283.513	2853.94
283.745	2933.94
283.976	2910.94
284.207	2918.94
284.439	2922.94
284.67	2890.94
284.901	2925.94
285.132	2935.94
285.364	2881.94
285.595	2951.94
285.826	2889.94
286.057	2979.94
286.288	2988.94
286.52	2945.94
286.751	2967.94
286.982	3054.94
287.213	2988.94
287.444	3046.94
287.675	3133.94
287.906	3178.94
288.138	3189.94
288.369	3203.94
288.6	3145.94
288.831	3080.94
289.062	3138.94
289.293	3077.94
289.524	3131.94
289.755	3113.94
289.986	3082.94
290.217	3063.94
290.448	3069.94
290.679	3064.94
290.91	3063.94
291.141	3065.94
291.371	3053.94
291.602	3074.94
291.833	3004.94
292.064	3061.94
292.295	3059.94
292.526	3047.94
292.757	3026.94
292.987	3027.94
293.218	3016.94
293.449	3069.94
293.68	3045.94
293.91	3027.94
294.141	3013.94
294.372	3005.94
294.603	3024.94
294.833	3059.94
295.064	3088.94
295.295	3110.94
295.525	3117.94
295.756	3186.94
295.987	3288.94
296.217	3533.94
296.448	3408.94
296.679	3182.94
296.909	3126.94
297.14	3222.94
297.37	3236.94
297.601	3255.94
297.831	3277.94
298.062	3269.94
298.292	3283.94
298.523	3388.94
298.753	3350.94
298.984	3282.94
299.214	3313.94
299.445	3349.94
299.675	3395.94
299.905	3365.94
300.136	3363.94
300.366	3347.94
300.597	3404.94
300.827	3522.94
301.057	3592.94
301.288	3595.94
301.518	3579.94
301.748	3605.94
301.979	3680.94
302.209	3775.94
302.439	3700.94
302.669	3642.94
302.9	3569.94
303.13	3497.94
303.36	3704.94
303.59	3791.94
303.82	3897.94
304.051	3689.94
304.281	3639.94
304.511	3539.94
304.741	3532.94
304.971	3559.94
305.201	3512.94
305.431	3489.94
305.661	3525.94
305.891	3517.94
306.121	3597.94
306.352	3619.94
306.582	3577.94
306.812	3602.94
307.042	3759.94
307.272	3943.94
307.502	4004.94
307.731	3941.94
307.961	3743.94
308.191	3649.94
308.421	3674.94
308.651	3625.94
308.881	3638.94
309.111	3735.94
309.341	3652.94
309.571	3764.94
309.8	3820.94
310.03	3959.94
310.26	3948.94
310.49	3918.94
310.72	4129.94
310.949	4229.94
311.179	4175.94
311.409	4002.94
311.639	3965.94
311.868	4046.94
312.098	4063.94
312.328	4130.94
312.557	4323.94
312.787	4472.94
313.017	4254.94
313.246	4119.94
313.476	4011.94
313.706	4076.94
313.935	4180.94
314.165	4394.94
314.394	4374.94
314.624	4323.94
314.853	4171.94
315.083	4104.94
315.312	4001.94
315.542	4028.94
315.771	3975.94
316.001	3915.94
316.23	3956.94
316.46	4000.94
316.689	4111.94
316.919	4174.94
317.148	4152.94
317.377	4133.94
317.607	4133.94
317.836	4139.94
318.065	4029.94
318.295	4075.94
318.524	4114.94
318.753	4029.94
318.983	4069.94
319.212	4045.94
319.441	4211.94
319.67	4162.94
319.9	4023.94
320.129	4090.94
320.358	4042.94
320.587	4173.94
320.816	4185.94
321.046	4278.94
321.275	4255.94
321.504	4283.94
321.733	4317.94
321.962	4331.94
322.191	4566.94
322.42	4744.94
322.649	4759.94
322.878	4948.94
323.108	5017.94
323.337	5314.94
323.566	5507.94
323.795	5963.94
324.024	6677.94
324.253	8973.94
324.482	13451.94
324.71	15615.94
324.939	15615.94
325.168	14573.94
325.397	7729.94
325.626	6249.94
325.855	5809.94
326.084	5726.94
326.313	5870.94
326.542	6071.94
326.77	7078.94
326.999	9181.94
327.228	13308.94
327.457	15615.94
327.686	15615.94
327.914	11486.94
328.143	11229.94
328.372	11965.94
328.6	9523.94
328.829	7956.94
329.058	8182.94
329.287	8323.94
329.515	8540.94
329.744	9702.94
329.972	12643.94
330.201	15360.94
330.43	15615.94
330.658	13387.94
330.887	9978.94
331.115	8231.94
331.344	7186.94
331.572	6817.94
331.801	6879.94
332.03	6858.94
332.258	6669.94
332.486	6725.94
332.715	6919.94
332.943	7311.94
333.172	7727.94
333.4	8284.94
333.629	9226.94
333.857	11071.94
334.085	13794.94
334.314	15615.94
334.542	15615.94
334.771	15615.94
334.999	13447.94
335.227	9229.94
335.455	7905.94
335.684	7226.94
335.912	6816.94
336.14	6412.94
336.369	6300.94
336.597	6238.94
336.825	6041.94
337.053	5893.94
337.281	5627.94
337.51	5585.94
337.738	5551.94
337.966	5484.94
338.194	5427.94
338.422	5306.94
338.65	5217.94
338.878	5119.94
339.106	5114.94
339.334	5070.94
339.562	4994.94
339.79	4848.94
340.018	4905.94
340.246	4956.94
340.474	4955.94
340.702	4915.94
340.93	4883.94
341.158	4842.94
341.386	4823.94
341.614	4845.94
341.842	4850.94
342.07	4816.94
342.298	4689.94
342.526	4699.94
342.754	4639.94
342.981	4691.94
343.209	4774.94
343.437	4979.94
343.665	5217.94
343.893	5520.94
344.12	5539.94
344.348	5285.94
344.576	5076.94
344.804	5027.94
345.031	5087.94
345.259	5019.94
345.487	4860.94
345.714	4700.94
345.942	4592.94
346.17	4559.94
346.397	4456.94
346.625	4558.94
346.853	4542.94
347.08	4561.94
347.308	4565.94
347.535	4683.94
347.763	4758.94
347.99	4651.94
348.218	4737.94
348.445	4781.94
348.673	4625.94
348.9	4522.94
349.128	4445.94
349.355	4391.94
349.583	4391.94
349.81	4427.94
350.037	4339.94
350.265	4377.94
350.492	4426.94
350.72	4435.94
350.947	4419.94
351.174	4568.94
351.402	4664.94
351.629	4525.94
351.856	4590.94
352.083	4668.94
352.311	4736.94
352.538	4670.94
352.765	4593.94
352.992	4513.94
353.22	4501.94
353.447	4426.94
353.674	4345.94
353.901	4299.94
354.128	4254.94
354.355	4250.94
354.583	4269.94
354.81	4206.94
355.037	4217.94
355.264	4237.94
355.491	4187.94
355.718	4233.94
355.945	4144.94
356.172	4216.94
356.399	4165.94
356.626	4292.94
356.853	4251.94
357.08	4247.94
357.307	4240.94
357.534	4200.94
357.761	4178.94
357.988	4232.94
358.215	4193.94
358.441	4261.94
358.668	4325.94
358.895	4347.94
359.122	4373.94
359.349	4448.94
359.576	4596.94
359.802	4917.94
360.029	5132.94
360.256	5066.94
360.483	4757.94
360.709	4583.94
360.936	4561.94
361.163	4443.94
361.39	4568.94
361.616	4609.94
361.843	4468.94
362.07	4511.94
362.296	4585.94
362.523	4528.94
362.749	4509.94
362.976	4427.94
363.203	4311.94
363.429	4330.94
363.656	4370.94
363.882	4337.94
364.109	4229.94
364.335	4321.94
364.562	4334.94
364.788	4325.94
365.015	4377.94
365.241	4387.94
365.468	4375.94
365.694	4485.94
365.92	4461.94
366.147	4339.94
366.373	4381.94
366.599	4301.94
366.826	4236.94
367.052	4335.94
367.278	4344.94
367.505	4351.94
367.731	4323.94
367.957	4352.94
368.184	4341.94
368.41	4472.94
368.636	4537.94
368.862	4529.94
369.089	4503.94
369.315	4398.94
369.541	4395.94
369.767	4458.94
369.993	4464.94
370.219	4453.94
370.445	4492.94
370.672	4456.94
370.898	4468.94
371.124	4543.94
371.35	4561.94
371.576	4497.94
371.802	4495.94
372.028	4504.94
372.254	4483.94
372.48	4600.94
372.706	4606.94
372.932	4725.94
373.158	4596.94
373.384	4615.94
373.61	4516.94
373.835	4612.94
374.061	4634.94
374.287	4711.94
374.513	4770.94
374.739	4825.94
374.965	4879.94
375.191	4898.94
375.416	4777.94
375.642	4708.94
375.868	4687.94
376.094	4606.94
376.319	4569.94
376.545	4584.94
376.771	4547.94
376.997	4501.94
377.222	4540.94
377.448	4486.94
377.674	4494.94
377.899	4424.94
378.125	4449.94
378.35	4457.94
378.576	4472.94
378.802	4393.94
379.027	4478.94
379.253	4448.94
379.478	4410.94
379.704	4419.94
379.929	4519.94
380.155	4569.94
380.38	4508.94
380.606	4526.94
380.831	4458.94
381.057	4572.94
381.282	4538.94
381.507	4586.94
381.733	4649.94
381.958	4631.94
382.184	4652.94
382.409	4701.94
382.634	4785.94
382.86	4737.94
383.085	4812.94
383.31	4872.94
383.535	4951.94
383.761	5014.94
383.986	5086.94
384.211	5227.94
384.436	5194.94
384.662	5328.94
384.887	5304.94
385.112	5299.94
385.337	5419.94
385.562	5413.94
385.787	5402.94
386.013	5519.94
386.238	5666.94
386.463	5463.94
386.688	5426.94
386.913	5410.94
387.138	5367.94
387.363	5397.94
387.588	5279.94
387.813	5388.94
388.038	5241.94
388.263	5305.94
388.488	5377.94
388.713	5357.94
388.938	5292.94
389.163	5320.94
389.387	5325.94
389.612	5224.94
389.837	5263.94
390.062	5205.94
390.287	5270.94
390.512	5335.94
390.736	5393.94
390.961	5405.94
391.186	5539.94
391.411	5691.94
391.636	5872.94
391.86	5980.94
392.085	5941.94
392.31	5871.94
392.534	5813.94
392.759	5634.94
392.984	5588.94
393.208	5506.94
393.433	5567.94
393.658	5509.94
393.882	5614.94
394.107	5618.94
394.331	5593.94
394.556	5680.94
394.78	5671.94
395.005	5722.94
395.229	5785.94
395.454	5971.94
395.678	6017.94
395.903	6011.94
396.127	6121.94
396.352	5901.94
396.576	5781.94
396.801	5712.94
397.025	5749.94
397.249	5936.94
397.474	6004.94
397.698	6114.94
397.922	6256.94
398.147	6331.94
398.371	6460.94
398.595	6548.94
398.82	6884.94
399.044	7410.94
399.268	8116.94
399.492	9118.94
399.717	9802.94
399.941	9578.94
400.165	8947.94
400.389	8427.94
400.613	7526.94
400.837	7220.94
401.062	6893.94
401.286	6836.94
401.51	6843.94
401.734	6836.94
401.958	6966.94
402.182	7026.94
402.406	7274.94
402.63	7261.94
402.854	7314.94
403.078	7400.94
403.302	7513.94
403.526	7651.94
403.75	7669.94
403.974	7892.94
404.198	7941.94
404.422	8179.94
404.645	8288.94
404.869	8421.94
405.093	9178.94
405.317	9887.94
405.541	9797.94
405.765	8597.94
405.988	8262.94
406.212	8167.94
406.436	8333.94
406.66	8269.94
406.883	8143.94
407.107	8710.94
407.331	9216.94
407.555	9749.94
407.778	9427.94
408.002	8689.94
408.226	8294.94
408.449	8050.94
408.673	8069.94
408.896	8162.94
409.12	8314.94
409.344	7755.94
409.567	7454.94
409.791	7462.94
410.014	7327.94
410.238	7266.94
410.461	7359.94
410.685	7389.94
410.908	7523.94
411.132	7685.94
411.355	7831.94
411.578	7449.94
411.802	7422.94
412.025	7680.94
412.249	8296.94
412.472	9014.94
412.695	9776.94
412.919	8933.94
413.142	8267.94
413.365	7885.94
413.589	7606.94
413.812	7277.94
414.035	7012.94
414.258	7151.94
414.482	7130.94
414.705	7014.94
414.928	6923.94
415.151	6883.94
415.374	6889.94
415.597	6828.94
415.821	6736.94
416.044	6776.94
416.267	6727.94
416.49	6664.94
416.713	6620.94
416.936	6727.94
417.159	6780.94
417.382	6997.94
417.605	7173.94
417.828	7318.94
418.051	7162.94
418.274	6908.94
418.497	6730.94
418.72	6892.94
418.943	6932.94
419.166	7414.94
419.389	7807.94
419.611	7853.94
419.834	7909.94
420.057	8116.94
420.28	8589.94
420.503	8350.94
420.726	7922.94
420.948	7781.94
421.171	7934.94
421.394	7700.94
421.617	7079.94
421.839	6987.94
422.062	7014.94
422.285	7159.94
422.507	7769.94
422.73	8352.94
422.953	7646.94
423.175	7210.94
423.398	7242.94
423.621	7310.94
423.843	7490.94
424.066	7404.94
424.288	7389.94
424.511	7641.94
424.733	8062.94
424.956	8539.94
425.178	7985.94
425.401	8147.94
425.623	8068.94
425.846	7124.94
426.068	6983.94
426.291	6865.94
426.513	6843.94
426.735	6928.94
426.958	7499.94
427.18	8509.94
427.402	9893.94
427.625	10507.94
427.847	9949.94
428.069	9722.94
428.292	7989.94
428.514	6896.94
428.736	6540.94
428.958	6441.94
429.181	6133.94
429.403	6183.94
429.625	6315.94
429.847	6638.94
430.069	7164.94
430.292	6673.94
430.514	6042.94
430.736	6149.94
430.958	5969.94
431.18	5922.94
431.402	5834.94
431.624	5850.94
431.846	5987.94
432.068	6016.94
432.29	6072.94
432.512	5965.94
432.734	6157.94
432.956	5959.94
433.178	6106.94
433.4	6074.94
433.622	6030.94
433.844	6081.94
434.066	5970.94
434.287	6105.94
434.509	6329.94
434.731	6482.94
434.953	6629.94
435.175	6808.94
435.397	6918.94
435.618	6853.94
435.84	7308.94
436.062	8291.94
436.284	8161.94
436.505	6769.94
436.727	6489.94
436.949	6261.94
437.17	6057.94
437.392	6059.94
437.614	6134.94
437.835	6702.94
438.057	7766.94
438.278	8451.94
438.5	8210.94
438.721	9218.94
438.943	7818.94
439.165	6631.94
439.386	6359.94
439.608	6499.94
439.829	6711.94
440.05	7254.94
440.272	7662.94
440.493	6769.94
440.715	6477.94
440.936	6355.94
441.158	6361.94
441.379	6481.94
441.6	6819.94
441.822	7089.94
442.043	7517.94
442.264	8355.94
442.486	7992.94
442.707	7114.94
442.928	7011.94
443.149	7348.94
443.371	7655.94
443.592	8107.94
443.813	9057.94
444.034	8956.94
444.255	7675.94
444.476	7524.94
444.698	7653.94
444.919	7753.94
445.14	7612.94
445.361	7567.94
445.582	7892.94
445.803	8753.94
446.024	9436.94
446.245	8915.94
446.466	7810.94
446.687	6628.94
446.908	6385.94
447.129	6096.94
447.35	5851.94
447.571	5851.94
447.792	5782.94
448.013	5956.94
448.234	6152.94
448.455	6846.94
448.675	8119.94
448.896	8557.94
449.117	6958.94
449.338	7241.94
449.559	8825.94
449.779	8882.94
450	6619.94
450.221	6022.94
450.442	5758.94
450.662	5713.94
450.883	5844.94
451.104	6043.94
451.324	5832.94
451.545	5594.94
451.766	5442.94
451.986	5260.94
452.207	5307.94
452.428	5269.94
452.648	5263.94
452.869	5396.94
453.089	5369.94
453.31	5487.94
453.53	5265.94
453.751	5238.94
453.971	5412.94
454.192	5558.94
454.412	5277.94
454.633	5215.94
454.853	5109.94
455.073	5159.94
455.294	5679.94
455.514	6191.94
455.734	5612.94
455.955	5004.94
456.175	4935.94
456.395	4953.94
456.616	4878.94
456.836	4953.94
457.056	4851.94
457.276	4763.94
457.497	5050.94
457.717	5098.94
457.937	5043.94
458.157	5214.94
458.377	5306.94
458.598	5722.94
458.818	6588.94
459.038	7515.94
459.258	7154.94
459.478	6317.94
459.698	6177.94
459.918	6138.94
460.138	6321.94
460.358	6553.94
460.578	6561.94
460.798	6630.94
461.018	6610.94
461.238	6516.94
461.458	6492.94
461.678	6515.94
461.898	6649.94
462.118	6683.94
462.338	7021.94
462.558	7066.94
462.777	7352.94
462.997	8023.94
463.217	8513.94
463.437	8187.94
463.657	7659.94
463.876	7431.94
464.096	7483.94
464.316	7546.94
464.536	7597.94
464.755	7387.94
464.975	7369.94
465.195	7831.94
465.414	7957.94
465.634	6722.94
465.854	6355.94
466.073	6089.94
466.293	5816.94
466.512	5741.94
466.732	5646.94
466.951	5726.94
467.171	5657.94
467.391	5800.94
467.61	6075.94
467.829	6515.94
468.049	8141.94
468.268	9944.94
468.488	7385.94
468.707	6218.94
468.927	5935.94
469.146	5772.94
469.365	5693.94
469.585	5745.94
469.804	5965.94
470.023	6111.94
470.243	6025.94
470.462	6159.94
470.681	6342.94
470.901	6136.94
471.12	6067.94
471.339	6049.94
471.558	6151.94
471.777	6414.94
471.997	7313.94
472.216	11557.94
472.435	15615.94
472.654	12281.94
472.873	8461.94
473.092	7356.94
473.311	6740.94
473.53	6513.94
473.749	6339.94
473.968	6837.94
474.187	7808.94
474.406	7169.94
474.625	6183.94
474.844	5801.94
475.063	5786.94
475.282	5750.94
475.501	5812.94
475.72	5772.94
475.939	5757.94
476.158	5875.94
476.377	5779.94
476.596	5804.94
476.814	6013.94
477.033	6009.94
477.252	6121.94
477.471	6134.94
477.69	6315.94
477.908	6409.94
478.127	6531.94
478.346	6596.94
478.564	6713.94
478.783	6795.94
479.002	7058.94
479.22	6983.94
479.439	7245.94
479.658	7478.94
479.876	7619.94
480.095	7924.94
480.313	8586.94
480.532	8791.94
480.751	9712.94
480.969	13374.94
481.188	15615.94
481.406	15615.94
481.624	14481.94
481.843	11085.94
482.061	9559.94
482.28	8698.94
482.498	8207.94
482.717	7772.94
482.935	7597.94
483.153	7412.94
483.372	7246.94
483.59	7162.94
483.808	7061.94
484.027	7071.94
484.245	7043.94
484.463	7045.94
484.681	7055.94
484.9	7049.94
485.118	7135.94
485.336	7103.94
485.554	7130.94
485.772	7130.94
485.99	7203.94
486.209	7214.94
486.427	7285.94
486.645	7371.94
486.863	7497.94
487.081	7399.94
487.299	7362.94
487.517	7321.94
