Data from Circ_1997_H10_HRD10591_00058.txt Node
Date: Wed Jan 03 11:29:39 EST 2024
User: Yrep
Spectrometer: HR+D1059
Trigger mode: 1
Integration Time (sec): 1.000000E-1
Scans to average: 1
Electric dark correction enabled: true
Nonlinearity correction enabled: false
Boxcar width: 0
XAxis mode: Wavelengths
Number of Pixels in Spectrum: 2048
>>>>>Begin Spectral Data<<<<<
223.165	-7.94
223.4	-7.94
223.635	-7.94
223.869	-27.94
224.104	-25.94
224.338	-12.94
224.573	-20.94
224.808	-15.94
225.042	-21.94
225.277	2.06
225.511	-1.94
225.746	16.06
225.98	15.06
226.215	17.06
226.449	12.06
226.683	17.06
226.918	17.06
227.152	39.06
227.387	53.06
227.621	42.06
227.856	48.06
228.09	56.06
228.324	52.06
228.559	58.06
228.793	57.06
229.027	74.06
229.262	78.06
229.496	78.06
229.73	82.06
229.964	92.06
230.199	81.06
230.433	61.06
230.667	76.06
230.901	78.06
231.136	81.06
231.37	88.06
231.604	79.06
231.838	68.06
232.072	80.06
232.306	88.06
232.541	64.06
232.775	81.06
233.009	87.06
233.243	77.06
233.477	75.06
233.711	87.06
233.945	75.06
234.179	91.06
234.413	92.06
234.647	73.06
234.881	97.06
235.115	84.06
235.349	94.06
235.583	78.06
235.817	84.06
236.051	77.06
236.285	84.06
236.519	70.06
236.753	70.06
236.987	74.06
237.221	82.06
237.455	93.06
237.689	78.06
237.922	71.06
238.156	76.06
238.39	78.06
238.624	82.06
238.858	79.06
239.091	76.06
239.325	74.06
239.559	74.06
239.793	83.06
240.027	96.06
240.26	98.06
240.494	79.06
240.728	77.06
240.961	73.06
241.195	65.06
241.429	74.06
241.662	74.06
241.896	65.06
242.13	70.06
242.363	72.06
242.597	80.06
242.83	88.06
243.064	70.06
243.298	90.06
243.531	80.06
243.765	81.06
243.998	96.06
244.232	90.06
244.465	87.06
244.699	78.06
244.932	77.06
245.166	100.06
245.399	79.06
245.633	79.06
245.866	73.06
246.099	71.06
246.333	85.06
246.566	77.06
246.8	87.06
247.033	68.06
247.266	81.06
247.5	72.06
247.733	83.06
247.966	88.06
248.2	74.06
248.433	85.06
248.666	74.06
248.899	79.06
249.133	87.06
249.366	106.06
249.599	113.06
249.832	97.06
250.066	84.06
250.299	68.06
250.532	85.06
250.765	80.06
250.998	78.06
251.231	76.06
251.465	75.06
251.698	89.06
251.931	72.06
252.164	79.06
252.397	56.06
252.63	79.06
252.863	88.06
253.096	89.06
253.329	86.06
253.562	65.06
253.795	88.06
254.028	76.06
254.261	98.06
254.494	93.06
254.727	86.06
254.96	74.06
255.193	65.06
255.426	81.06
255.659	72.06
255.892	108.06
256.124	93.06
256.357	87.06
256.59	86.06
256.823	72.06
257.056	82.06
257.289	94.06
257.521	71.06
257.754	80.06
257.987	86.06
258.22	90.06
258.452	102.06
258.685	94.06
258.918	81.06
259.151	93.06
259.383	74.06
259.616	92.06
259.849	94.06
260.081	98.06
260.314	87.06
260.547	98.06
260.779	90.06
261.012	103.06
261.244	107.06
261.477	113.06
261.71	92.06
261.942	125.06
262.175	137.06
262.407	111.06
262.64	89.06
262.872	82.06
263.105	79.06
263.337	87.06
263.57	77.06
263.802	77.06
264.035	66.06
264.267	82.06
264.499	76.06
264.732	86.06
264.964	100.06
265.197	82.06
265.429	78.06
265.661	82.06
265.894	91.06
266.126	98.06
266.358	94.06
266.591	86.06
266.823	77.06
267.055	80.06
267.287	87.06
267.52	87.06
267.752	101.06
267.984	86.06
268.216	85.06
268.448	99.06
268.681	88.06
268.913	83.06
269.145	81.06
269.377	86.06
269.609	114.06
269.841	74.06
270.073	93.06
270.306	90.06
270.538	89.06
270.77	80.06
271.002	77.06
271.234	85.06
271.466	84.06
271.698	81.06
271.93	92.06
272.162	88.06
272.394	80.06
272.626	104.06
272.858	79.06
273.09	87.06
273.322	92.06
273.553	93.06
273.785	80.06
274.017	80.06
274.249	85.06
274.481	90.06
274.713	89.06
274.945	82.06
275.176	93.06
275.408	89.06
275.64	115.06
275.872	122.06
276.104	102.06
276.335	110.06
276.567	123.06
276.799	132.06
277.031	180.06
277.262	189.06
277.494	129.06
277.726	100.06
277.957	80.06
278.189	82.06
278.421	91.06
278.652	88.06
278.884	100.06
279.115	87.06
279.347	90.06
279.579	104.06
279.81	126.06
280.042	176.06
280.273	252.06
280.505	159.06
280.736	112.06
280.968	104.06
281.199	94.06
281.431	89.06
281.662	89.06
281.894	101.06
282.125	102.06
282.356	142.06
282.588	157.06
282.819	124.06
283.051	98.06
283.282	97.06
283.513	77.06
283.745	82.06
283.976	64.06
284.207	84.06
284.439	88.06
284.67	76.06
284.901	76.06
285.132	101.06
285.364	87.06
285.595	89.06
285.826	103.06
286.057	101.06
286.288	84.06
286.52	79.06
286.751	79.06
286.982	80.06
287.213	79.06
287.444	87.06
287.675	87.06
287.906	82.06
288.138	103.06
288.369	103.06
288.6	84.06
288.831	92.06
289.062	99.06
289.293	82.06
289.524	91.06
289.755	105.06
289.986	86.06
290.217	74.06
290.448	94.06
290.679	88.06
290.91	109.06
291.141	89.06
291.371	86.06
291.602	82.06
291.833	77.06
292.064	82.06
292.295	89.06
292.526	90.06
292.757	92.06
292.987	87.06
293.218	105.06
293.449	78.06
293.68	79.06
293.91	88.06
294.141	103.06
294.372	95.06
294.603	84.06
294.833	86.06
295.064	104.06
295.295	97.06
295.525	106.06
295.756	121.06
295.987	119.06
296.217	157.06
296.448	133.06
296.679	94.06
296.909	81.06
297.14	84.06
297.37	97.06
297.601	85.06
297.831	75.06
298.062	85.06
298.292	92.06
298.523	105.06
298.753	94.06
298.984	81.06
299.214	91.06
299.445	92.06
299.675	86.06
299.905	95.06
300.136	98.06
300.366	97.06
300.597	90.06
300.827	94.06
301.057	120.06
301.288	100.06
301.518	108.06
301.748	85.06
301.979	112.06
302.209	83.06
302.439	92.06
302.669	92.06
302.9	72.06
303.13	87.06
303.36	91.06
303.59	135.06
303.82	135.06
304.051	105.06
304.281	89.06
304.511	96.06
304.741	78.06
304.971	92.06
305.201	92.06
305.431	86.06
305.661	93.06
305.891	78.06
306.121	90.06
306.352	108.06
306.582	104.06
306.812	94.06
307.042	133.06
307.272	154.06
307.502	168.06
307.731	164.06
307.961	110.06
308.191	106.06
308.421	81.06
308.651	102.06
308.881	97.06
309.111	96.06
309.341	108.06
309.571	104.06
309.8	114.06
310.03	89.06
310.26	102.06
310.49	97.06
310.72	100.06
310.949	114.06
311.179	117.06
311.409	94.06
311.639	99.06
311.868	103.06
312.098	108.06
312.328	95.06
312.557	105.06
312.787	107.06
313.017	106.06
313.246	96.06
313.476	98.06
313.706	102.06
313.935	90.06
314.165	99.06
314.394	98.06
314.624	101.06
314.853	98.06
315.083	95.06
315.312	96.06
315.542	99.06
315.771	105.06
316.001	94.06
316.23	94.06
316.46	91.06
316.689	104.06
316.919	92.06
317.148	81.06
317.377	102.06
317.607	85.06
317.836	99.06
318.065	93.06
318.295	79.06
318.524	81.06
318.753	95.06
318.983	116.06
319.212	91.06
319.441	111.06
319.67	103.06
319.9	103.06
320.129	98.06
320.358	91.06
320.587	105.06
320.816	113.06
321.046	97.06
321.275	97.06
321.504	97.06
321.733	103.06
321.962	106.06
322.191	109.06
322.42	108.06
322.649	122.06
322.878	118.06
323.108	125.06
323.337	148.06
323.566	148.06
323.795	185.06
324.024	265.06
324.253	566.06
324.482	1279.06
324.71	2795.06
324.939	3658.06
325.168	1251.06
325.397	344.06
325.626	180.06
325.855	140.06
326.084	139.06
326.313	176.06
326.542	191.06
326.77	296.06
326.999	664.06
327.228	1451.06
327.457	2717.06
327.686	2171.06
327.914	633.06
328.143	521.06
328.372	649.06
328.6	389.06
328.829	192.06
329.058	208.06
329.287	182.06
329.515	177.06
329.744	252.06
329.972	474.06
330.201	949.06
330.43	1387.06
330.658	626.06
330.887	279.06
331.115	187.06
331.344	125.06
331.572	114.06
331.801	127.06
332.03	124.06
332.258	103.06
332.486	100.06
332.715	98.06
332.943	125.06
333.172	116.06
333.4	130.06
333.629	176.06
333.857	214.06
334.085	425.06
334.314	902.06
334.542	1806.06
334.771	1643.06
334.999	433.06
335.227	169.06
335.455	138.06
335.684	120.06
335.912	92.06
336.14	100.06
336.369	115.06
336.597	113.06
336.825	103.06
337.053	100.06
337.281	94.06
337.51	92.06
337.738	93.06
337.966	101.06
338.194	108.06
338.422	103.06
338.65	109.06
338.878	103.06
339.106	99.06
339.334	91.06
339.562	96.06
339.79	90.06
340.018	69.06
340.246	90.06
340.474	98.06
340.702	97.06
340.93	75.06
341.158	100.06
341.386	95.06
341.614	107.06
341.842	105.06
342.07	92.06
342.298	95.06
342.526	102.06
342.754	85.06
342.981	93.06
343.209	95.06
343.437	92.06
343.665	103.06
343.893	91.06
344.12	90.06
344.348	101.06
344.576	95.06
344.804	90.06
345.031	95.06
345.259	110.06
345.487	100.06
345.714	90.06
345.942	90.06
346.17	97.06
346.397	87.06
346.625	95.06
346.853	96.06
347.08	86.06
347.308	103.06
347.535	104.06
347.763	99.06
347.99	102.06
348.218	111.06
348.445	127.06
348.673	103.06
348.9	92.06
349.128	81.06
349.355	99.06
349.583	92.06
349.81	102.06
350.037	98.06
350.265	80.06
350.492	96.06
350.72	86.06
350.947	107.06
351.174	111.06
351.402	125.06
351.629	104.06
351.856	104.06
352.083	117.06
352.311	116.06
352.538	126.06
352.765	130.06
352.992	118.06
353.22	115.06
353.447	108.06
353.674	105.06
353.901	92.06
354.128	102.06
354.355	107.06
354.583	93.06
354.81	102.06
355.037	86.06
355.264	95.06
355.491	96.06
355.718	89.06
355.945	90.06
356.172	80.06
356.399	82.06
356.626	107.06
356.853	109.06
357.08	94.06
357.307	92.06
357.534	88.06
357.761	92.06
357.988	87.06
358.215	81.06
358.441	99.06
358.668	101.06
358.895	88.06
359.122	88.06
359.349	89.06
359.576	110.06
359.802	127.06
360.029	127.06
360.256	132.06
360.483	116.06
360.709	98.06
360.936	75.06
361.163	98.06
361.39	131.06
361.616	108.06
361.843	85.06
362.07	102.06
362.296	109.06
362.523	97.06
362.749	98.06
362.976	108.06
363.203	79.06
363.429	94.06
363.656	87.06
363.882	89.06
364.109	92.06
364.335	91.06
364.562	93.06
364.788	110.06
365.015	112.06
365.241	104.06
365.468	110.06
365.694	114.06
365.92	93.06
366.147	98.06
366.373	104.06
366.599	88.06
366.826	88.06
367.052	90.06
367.278	98.06
367.505	86.06
367.731	95.06
367.957	96.06
368.184	88.06
368.41	99.06
368.636	123.06
368.862	136.06
369.089	115.06
369.315	96.06
369.541	96.06
369.767	89.06
369.993	97.06
370.219	105.06
370.445	104.06
370.672	92.06
370.898	92.06
371.124	92.06
371.35	93.06
371.576	94.06
371.802	92.06
372.028	99.06
372.254	89.06
372.48	107.06
372.706	82.06
372.932	79.06
373.158	85.06
373.384	102.06
373.61	89.06
373.835	83.06
374.061	88.06
374.287	98.06
374.513	105.06
374.739	89.06
374.965	89.06
375.191	96.06
375.416	88.06
375.642	91.06
375.868	97.06
376.094	79.06
376.319	85.06
376.545	99.06
376.771	83.06
376.997	86.06
377.222	87.06
377.448	90.06
377.674	98.06
377.899	102.06
378.125	89.06
378.35	87.06
378.576	94.06
378.802	84.06
379.027	102.06
379.253	98.06
379.478	87.06
379.704	92.06
379.929	94.06
380.155	99.06
380.38	95.06
380.606	96.06
380.831	90.06
381.057	86.06
381.282	116.06
381.507	91.06
381.733	108.06
381.958	102.06
382.184	94.06
382.409	103.06
382.634	103.06
382.86	105.06
383.085	98.06
383.31	94.06
383.535	80.06
383.761	98.06
383.986	101.06
384.211	105.06
384.436	97.06
384.662	103.06
384.887	96.06
385.112	94.06
385.337	88.06
385.562	85.06
385.787	99.06
386.013	124.06
386.238	119.06
386.463	103.06
386.688	120.06
386.913	107.06
387.138	107.06
387.363	104.06
387.588	103.06
387.813	93.06
388.038	99.06
388.263	103.06
388.488	103.06
388.713	112.06
388.938	97.06
389.163	87.06
389.387	100.06
389.612	99.06
389.837	85.06
390.062	103.06
390.287	95.06
390.512	92.06
390.736	99.06
390.961	97.06
391.186	95.06
391.411	111.06
391.636	73.06
391.86	101.06
392.085	101.06
392.31	99.06
392.534	85.06
392.759	79.06
392.984	83.06
393.208	62.06
393.433	92.06
393.658	88.06
393.882	81.06
394.107	78.06
394.331	89.06
394.556	76.06
394.78	94.06
395.005	101.06
395.229	77.06
395.454	90.06
395.678	83.06
395.903	80.06
396.127	82.06
396.352	96.06
396.576	96.06
396.801	99.06
397.025	96.06
397.249	109.06
397.474	96.06
397.698	88.06
397.922	93.06
398.147	108.06
398.371	84.06
398.595	82.06
398.82	93.06
399.044	82.06
399.268	77.06
399.492	89.06
399.717	83.06
399.941	81.06
400.165	99.06
400.389	102.06
400.613	97.06
400.837	96.06
401.062	86.06
401.286	90.06
401.51	97.06
401.734	99.06
401.958	106.06
402.182	136.06
402.406	185.06
402.63	138.06
402.854	92.06
403.078	98.06
403.302	103.06
403.526	94.06
403.75	109.06
403.974	83.06
404.198	86.06
404.422	88.06
404.645	97.06
404.869	99.06
405.093	131.06
405.317	162.06
405.541	158.06
405.765	116.06
405.988	136.06
406.212	193.06
406.436	295.06
406.66	190.06
406.883	113.06
407.107	113.06
407.331	111.06
407.555	108.06
407.778	107.06
408.002	98.06
408.226	91.06
408.449	96.06
408.673	93.06
408.896	98.06
409.12	92.06
409.344	90.06
409.567	85.06
409.791	80.06
410.014	99.06
410.238	94.06
410.461	93.06
410.685	85.06
410.908	101.06
411.132	96.06
411.355	99.06
411.578	98.06
411.802	98.06
412.025	89.06
412.249	110.06
412.472	129.06
412.695	136.06
412.919	104.06
413.142	92.06
413.365	101.06
413.589	84.06
413.812	84.06
414.035	103.06
414.258	95.06
414.482	71.06
414.705	88.06
414.928	92.06
415.151	105.06
415.374	102.06
415.597	96.06
415.821	88.06
416.044	96.06
416.267	78.06
416.49	97.06
416.713	106.06
416.936	85.06
417.159	97.06
417.382	105.06
417.605	101.06
417.828	110.06
418.051	107.06
418.274	81.06
418.497	96.06
418.72	82.06
418.943	88.06
419.166	77.06
419.389	102.06
419.611	86.06
419.834	95.06
420.057	102.06
420.28	100.06
420.503	88.06
420.726	105.06
420.948	84.06
421.171	113.06
421.394	111.06
421.617	90.06
421.839	93.06
422.062	101.06
422.285	97.06
422.507	105.06
422.73	116.06
422.953	97.06
423.175	101.06
423.398	72.06
423.621	100.06
423.843	88.06
424.066	89.06
424.288	92.06
424.511	79.06
424.733	111.06
424.956	111.06
425.178	111.06
425.401	126.06
425.623	104.06
425.846	89.06
426.068	87.06
426.291	100.06
426.513	92.06
426.735	93.06
426.958	106.06
427.18	132.06
427.402	187.06
427.625	266.06
427.847	272.06
428.069	272.06
428.292	127.06
428.514	100.06
428.736	93.06
428.958	84.06
429.181	96.06
429.403	96.06
429.625	87.06
429.847	101.06
430.069	108.06
430.292	103.06
430.514	85.06
430.736	65.06
430.958	81.06
431.18	92.06
431.402	83.06
431.624	83.06
431.846	77.06
432.068	88.06
432.29	91.06
432.512	85.06
432.734	92.06
432.956	123.06
433.178	114.06
433.4	104.06
433.622	91.06
433.844	105.06
434.066	85.06
434.287	85.06
434.509	81.06
434.731	98.06
434.953	75.06
435.175	81.06
435.397	93.06
435.618	109.06
435.84	129.06
436.062	158.06
436.284	137.06
436.505	114.06
436.727	109.06
436.949	100.06
437.17	84.06
437.392	81.06
437.614	96.06
437.835	111.06
438.057	134.06
438.278	129.06
438.5	134.06
438.721	154.06
438.943	104.06
439.165	96.06
439.386	97.06
439.608	108.06
439.829	113.06
440.05	172.06
440.272	206.06
440.493	123.06
440.715	102.06
440.936	94.06
441.158	97.06
441.379	77.06
441.6	96.06
441.822	115.06
442.043	112.06
442.264	113.06
442.486	102.06
442.707	90.06
442.928	126.06
443.149	177.06
443.371	188.06
443.592	127.06
443.813	142.06
444.034	117.06
444.255	92.06
444.476	97.06
444.698	95.06
444.919	97.06
445.14	148.06
445.361	151.06
445.582	141.06
445.803	196.06
446.024	181.06
446.245	188.06
446.466	154.06
446.687	108.06
446.908	108.06
447.129	105.06
447.35	99.06
447.571	92.06
447.792	97.06
448.013	105.06
448.234	117.06
448.455	114.06
448.675	125.06
448.896	134.06
449.117	109.06
449.338	126.06
449.559	177.06
449.779	172.06
450	109.06
450.221	89.06
450.442	99.06
450.662	108.06
450.883	119.06
451.104	125.06
451.324	111.06
451.545	81.06
451.766	89.06
451.986	88.06
452.207	83.06
452.428	99.06
452.648	109.06
452.869	107.06
453.089	127.06
453.31	153.06
453.53	93.06
453.751	96.06
453.971	119.06
454.192	138.06
454.412	96.06
454.633	89.06
454.853	91.06
455.073	77.06
455.294	95.06
455.514	108.06
455.734	96.06
455.955	92.06
456.175	88.06
456.395	84.06
456.616	90.06
456.836	88.06
457.056	90.06
457.276	94.06
457.497	69.06
457.717	85.06
457.937	97.06
458.157	83.06
458.377	120.06
458.598	128.06
458.818	196.06
459.038	234.06
459.258	146.06
459.478	97.06
459.698	87.06
459.918	84.06
460.138	100.06
460.358	89.06
460.578	102.06
460.798	89.06
461.018	102.06
461.238	96.06
461.458	97.06
461.678	94.06
461.898	92.06
462.118	76.06
462.338	97.06
462.558	90.06
462.777	95.06
462.997	89.06
463.217	110.06
463.437	94.06
463.657	87.06
463.876	98.06
464.096	91.06
464.316	95.06
464.536	96.06
464.755	93.06
464.975	118.06
465.195	218.06
465.414	209.06
465.634	113.06
465.854	92.06
466.073	84.06
466.293	87.06
466.512	94.06
466.732	97.06
466.951	89.06
467.171	94.06
467.391	116.06
467.61	163.06
467.829	219.06
468.049	548.06
468.268	802.06
468.488	212.06
468.707	116.06
468.927	103.06
469.146	91.06
469.365	95.06
469.585	94.06
469.804	111.06
470.023	118.06
470.243	117.06
470.462	117.06
470.681	132.06
470.901	103.06
471.12	97.06
471.339	118.06
471.558	117.06
471.777	150.06
471.997	290.06
472.216	1077.06
472.435	2455.06
472.654	584.06
472.873	174.06
473.092	106.06
473.311	102.06
473.53	101.06
473.749	91.06
473.968	107.06
474.187	118.06
474.406	117.06
474.625	91.06
474.844	90.06
475.063	87.06
475.282	80.06
475.501	80.06
475.72	94.06
475.939	88.06
476.158	95.06
476.377	86.06
476.596	92.06
476.814	93.06
477.033	96.06
477.252	107.06
477.471	89.06
477.69	81.06
477.908	93.06
478.127	91.06
478.346	85.06
478.564	97.06
478.783	118.06
479.002	106.06
479.22	116.06
479.439	129.06
479.658	133.06
479.876	129.06
480.095	128.06
480.313	144.06
480.532	175.06
480.751	282.06
480.969	1030.06
481.188	4370.06
481.406	2432.06
481.624	368.06
481.843	132.06
482.061	106.06
482.28	92.06
482.498	96.06
482.717	88.06
482.935	101.06
483.153	101.06
483.372	87.06
483.59	93.06
483.808	82.06
484.027	101.06
484.245	98.06
484.463	91.06
484.681	82.06
484.9	92.06
485.118	92.06
485.336	97.06
485.554	101.06
485.772	97.06
485.99	129.06
486.209	105.06
486.427	106.06
486.645	112.06
486.863	137.06
487.081	120.06
487.299	103.06
487.517	98.06
487.735	96.06
487.953	87.06
488.171	106.06
488.389	111.06
488.607	94.06
488.825	96.06
489.043	100.06
489.261	90.06
489.479	90.06
489.696	82.06
489.914	88.06
490.132	96.06
490.35	95.06
490.568	106.06
490.786	93.06
491.003	95.06
491.221	87.06
491.439	80.06
491.657	72.06
491.874	95.06
492.092	94.06
492.31	85.06
492.527	103.06
492.745	103.06
492.963	90.06
493.18	100.06
493.398	94.06
493.615	99.06
493.833	96.06
494.05	93.06
494.268	87.06
494.485	83.06
494.703	92.06
494.92	90.06
495.138	95.06
495.355	87.06
495.573	98.06
495.79	88.06
496.008	91.06
496.225	96.06
496.442	101.06
496.66	86.06
496.877	78.06
497.094	97.06
497.312	86.06
497.529	94.06
497.746	88.06
497.963	87.06
498.181	101.06
498.398	102.06
498.615	123.06
498.832	132.06
499.049	88.06
499.267	91.06
499.484	89.06
499.701	102.06
499.918	86.06
500.135	103.06
500.352	90.06
500.569	100.06
500.786	105.06
501.003	80.06
501.22	89.06
501.437	93.06
501.654	107.06
501.871	122.06
502.088	98.06
502.305	93.06
502.522	93.06
502.739	92.06
502.956	101.06
503.172	96.06
503.389	108.06
503.606	121.06
503.823	113.06
504.04	96.06
504.256	94.06
504.473	91.06
504.69	86.06
504.907	72.06
505.123	85.06
505.34	90.06
505.557	90.06
505.773	97.06
505.99	81.06
506.207	84.06
506.423	93.06
506.64	90.06
506.856	104.06
507.073	93.06
507.289	97.06
507.506	102.06
507.722	122.06
507.939	128.06
508.155	107.06
508.372	94.06
508.588	102.06
508.805	108.06
509.021	102.06
509.238	97.06
509.454	110.06
509.67	118.06
509.887	107.06
510.103	134.06
510.319	212.06
510.536	868.06
510.752	2984.06
510.968	803.06
511.184	180.06
511.401	112.06
511.617	112.06
511.833	106.06
512.049	98.06
512.265	95.06
512.481	94.06
512.698	107.06
512.914	89.06
