Data from Circ_1997_H10_HRD10591_00043.txt Node
Date: Wed Jan 03 11:29:36 EST 2024
User: Yrep
Spectrometer: HR+D1059
Trigger mode: 1
Integration Time (sec): 1.000000E-1
Scans to average: 1
Electric dark correction enabled: true
Nonlinearity correction enabled: false
Boxcar width: 0
XAxis mode: Wavelengths
Number of Pixels in Spectrum: 2048
>>>>>Begin Spectral Data<<<<<
223.165	-11.88
223.4	-11.88
223.635	-11.88
223.869	-32.88
224.104	-14.88
224.338	-15.88
224.573	-7.88
224.808	-18.88
225.042	-13.88
225.277	4.12
225.511	9.12
225.746	-14.88
225.98	11.12
226.215	6.12
226.449	16.12
226.683	26.12
226.918	27.12
227.152	31.12
227.387	25.12
227.621	31.12
227.856	39.12
228.09	51.12
228.324	42.12
228.559	51.12
228.793	49.12
229.027	70.12
229.262	51.12
229.496	71.12
229.73	99.12
229.964	92.12
230.199	67.12
230.433	61.12
230.667	80.12
230.901	73.12
231.136	82.12
231.37	89.12
231.604	85.12
231.838	95.12
232.072	65.12
232.306	89.12
232.541	95.12
232.775	67.12
233.009	95.12
233.243	78.12
233.477	86.12
233.711	93.12
233.945	86.12
234.179	73.12
234.413	71.12
234.647	86.12
234.881	84.12
235.115	80.12
235.349	73.12
235.583	93.12
235.817	77.12
236.051	57.12
236.285	70.12
236.519	67.12
236.753	68.12
236.987	84.12
237.221	87.12
237.455	103.12
237.689	73.12
237.922	72.12
238.156	62.12
238.39	75.12
238.624	83.12
238.858	84.12
239.091	55.12
239.325	79.12
239.559	92.12
239.793	84.12
240.027	84.12
240.26	78.12
240.494	99.12
240.728	86.12
240.961	95.12
241.195	85.12
241.429	83.12
241.662	76.12
241.896	77.12
242.13	79.12
242.363	86.12
242.597	78.12
242.83	78.12
243.064	82.12
243.298	72.12
243.531	73.12
243.765	78.12
243.998	75.12
244.232	78.12
244.465	79.12
244.699	76.12
244.932	78.12
245.166	77.12
245.399	77.12
245.633	76.12
245.866	84.12
246.099	77.12
246.333	80.12
246.566	76.12
246.8	76.12
247.033	65.12
247.266	68.12
247.5	83.12
247.733	80.12
247.966	68.12
248.2	94.12
248.433	78.12
248.666	89.12
248.899	90.12
249.133	94.12
249.366	102.12
249.599	101.12
249.832	80.12
250.066	72.12
250.299	97.12
250.532	94.12
250.765	78.12
250.998	89.12
251.231	78.12
251.465	83.12
251.698	87.12
251.931	84.12
252.164	88.12
252.397	81.12
252.63	81.12
252.863	85.12
253.096	87.12
253.329	83.12
253.562	110.12
253.795	92.12
254.028	83.12
254.261	91.12
254.494	85.12
254.727	80.12
254.96	75.12
255.193	91.12
255.426	96.12
255.659	92.12
255.892	95.12
256.124	100.12
256.357	85.12
256.59	72.12
256.823	90.12
257.056	97.12
257.289	79.12
257.521	98.12
257.754	95.12
257.987	94.12
258.22	92.12
258.452	87.12
258.685	97.12
258.918	95.12
259.151	92.12
259.383	92.12
259.616	79.12
259.849	71.12
260.081	89.12
260.314	78.12
260.547	99.12
260.779	90.12
261.012	104.12
261.244	116.12
261.477	83.12
261.71	110.12
261.942	136.12
262.175	128.12
262.407	93.12
262.64	85.12
262.872	73.12
263.105	86.12
263.337	96.12
263.57	89.12
263.802	83.12
264.035	92.12
264.267	78.12
264.499	87.12
264.732	83.12
264.964	95.12
265.197	77.12
265.429	91.12
265.661	81.12
265.894	75.12
266.126	78.12
266.358	84.12
266.591	70.12
266.823	88.12
267.055	72.12
267.287	89.12
267.52	85.12
267.752	75.12
267.984	90.12
268.216	84.12
268.448	90.12
268.681	92.12
268.913	80.12
269.145	79.12
269.377	99.12
269.609	92.12
269.841	81.12
270.073	99.12
270.306	83.12
270.538	75.12
270.77	68.12
271.002	80.12
271.234	73.12
271.466	96.12
271.698	83.12
271.93	90.12
272.162	85.12
272.394	79.12
272.626	97.12
272.858	83.12
273.09	87.12
273.322	96.12
273.553	80.12
273.785	85.12
274.017	79.12
274.249	90.12
274.481	87.12
274.713	90.12
274.945	94.12
275.176	89.12
275.408	106.12
275.64	108.12
275.872	115.12
276.104	108.12
276.335	97.12
276.567	109.12
276.799	157.12
277.031	172.12
277.262	192.12
277.494	140.12
277.726	97.12
277.957	95.12
278.189	93.12
278.421	100.12
278.652	80.12
278.884	80.12
279.115	88.12
279.347	79.12
279.579	110.12
279.81	136.12
280.042	200.12
280.273	244.12
280.505	187.12
280.736	101.12
280.968	97.12
281.199	81.12
281.431	64.12
281.662	87.12
281.894	99.12
282.125	112.12
282.356	151.12
282.588	153.12
282.819	128.12
283.051	88.12
283.282	94.12
283.513	97.12
283.745	89.12
283.976	86.12
284.207	89.12
284.439	79.12
284.67	97.12
284.901	96.12
285.132	88.12
285.364	91.12
285.595	89.12
285.826	79.12
286.057	92.12
286.288	93.12
286.52	91.12
286.751	80.12
286.982	90.12
287.213	91.12
287.444	84.12
287.675	94.12
287.906	99.12
288.138	95.12
288.369	95.12
288.6	87.12
288.831	90.12
289.062	86.12
289.293	94.12
289.524	79.12
289.755	99.12
289.986	88.12
290.217	87.12
290.448	89.12
290.679	84.12
290.91	94.12
291.141	89.12
291.371	88.12
291.602	89.12
291.833	79.12
292.064	88.12
292.295	83.12
292.526	94.12
292.757	91.12
292.987	86.12
293.218	87.12
293.449	84.12
293.68	91.12
293.91	80.12
294.141	89.12
294.372	89.12
294.603	89.12
294.833	81.12
295.064	83.12
295.295	81.12
295.525	99.12
295.756	104.12
295.987	132.12
296.217	151.12
296.448	143.12
296.679	94.12
296.909	95.12
297.14	91.12
297.37	88.12
297.601	104.12
297.831	86.12
298.062	100.12
298.292	89.12
298.523	86.12
298.753	83.12
298.984	90.12
299.214	90.12
299.445	92.12
299.675	81.12
299.905	107.12
300.136	103.12
300.366	84.12
300.597	88.12
300.827	99.12
301.057	101.12
301.288	115.12
301.518	106.12
301.748	103.12
301.979	120.12
302.209	98.12
302.439	90.12
302.669	88.12
302.9	85.12
303.13	82.12
303.36	109.12
303.59	150.12
303.82	153.12
304.051	98.12
304.281	86.12
304.511	102.12
304.741	101.12
304.971	83.12
305.201	84.12
305.431	86.12
305.661	93.12
305.891	90.12
306.121	110.12
306.352	125.12
306.582	116.12
306.812	94.12
307.042	129.12
307.272	159.12
307.502	179.12
307.731	168.12
307.961	135.12
308.191	95.12
308.421	96.12
308.651	90.12
308.881	89.12
309.111	90.12
309.341	94.12
309.571	102.12
309.8	107.12
310.03	102.12
310.26	103.12
310.49	100.12
310.72	92.12
310.949	124.12
311.179	107.12
311.409	95.12
311.639	93.12
311.868	100.12
312.098	97.12
312.328	117.12
312.557	127.12
312.787	121.12
313.017	107.12
313.246	92.12
313.476	94.12
313.706	87.12
313.935	95.12
314.165	129.12
314.394	118.12
314.624	101.12
314.853	105.12
315.083	92.12
315.312	90.12
315.542	83.12
315.771	109.12
316.001	95.12
316.23	91.12
316.46	81.12
316.689	102.12
316.919	107.12
317.148	104.12
317.377	112.12
317.607	92.12
317.836	94.12
318.065	97.12
318.295	100.12
318.524	96.12
318.753	95.12
318.983	101.12
319.212	97.12
319.441	115.12
319.67	113.12
319.9	104.12
320.129	94.12
320.358	97.12
320.587	91.12
320.816	105.12
321.046	105.12
321.275	117.12
321.504	107.12
321.733	105.12
321.962	110.12
322.191	103.12
322.42	122.12
322.649	124.12
322.878	117.12
323.108	132.12
323.337	162.12
323.566	168.12
323.795	198.12
324.024	295.12
324.253	614.12
324.482	1389.12
324.71	2998.12
324.939	3950.12
325.168	1344.12
325.397	345.12
325.626	190.12
325.855	159.12
326.084	150.12
326.313	163.12
326.542	203.12
326.77	315.12
326.999	693.12
327.228	1571.12
327.457	2996.12
327.686	2307.12
327.914	693.12
328.143	599.12
328.372	719.12
328.6	399.12
328.829	199.12
329.058	199.12
329.287	215.12
329.515	222.12
329.744	274.12
329.972	533.12
330.201	1133.12
330.43	1593.12
330.658	676.12
330.887	315.12
331.115	205.12
331.344	124.12
331.572	119.12
331.801	121.12
332.03	137.12
332.258	111.12
332.486	111.12
332.715	111.12
332.943	125.12
333.172	106.12
333.4	143.12
333.629	171.12
333.857	256.12
334.085	489.12
334.314	1062.12
334.542	2095.12
334.771	1904.12
334.999	481.12
335.227	181.12
335.455	120.12
335.684	121.12
335.912	104.12
336.14	98.12
336.369	109.12
336.597	105.12
336.825	109.12
337.053	113.12
337.281	89.12
337.51	86.12
337.738	89.12
337.966	99.12
338.194	108.12
338.422	101.12
338.65	90.12
338.878	95.12
339.106	78.12
339.334	97.12
339.562	83.12
339.79	81.12
340.018	83.12
340.246	95.12
340.474	113.12
340.702	89.12
340.93	85.12
341.158	101.12
341.386	86.12
341.614	89.12
341.842	105.12
342.07	100.12
342.298	90.12
342.526	95.12
342.754	85.12
342.981	78.12
343.209	83.12
343.437	111.12
343.665	84.12
343.893	91.12
344.12	83.12
344.348	74.12
344.576	99.12
344.804	96.12
345.031	99.12
345.259	118.12
345.487	103.12
345.714	90.12
345.942	91.12
346.17	92.12
346.397	94.12
346.625	92.12
346.853	100.12
347.08	85.12
347.308	91.12
347.535	92.12
347.763	104.12
347.99	100.12
348.218	117.12
348.445	110.12
348.673	102.12
348.9	96.12
349.128	83.12
349.355	91.12
349.583	97.12
349.81	89.12
350.037	91.12
350.265	107.12
350.492	100.12
350.72	81.12
350.947	99.12
351.174	108.12
351.402	129.12
351.629	113.12
351.856	113.12
352.083	110.12
352.311	111.12
352.538	127.12
352.765	116.12
352.992	123.12
353.22	113.12
353.447	119.12
353.674	107.12
353.901	97.12
354.128	100.12
354.355	93.12
354.583	84.12
354.81	107.12
355.037	113.12
355.264	86.12
355.491	104.12
355.718	90.12
355.945	85.12
356.172	88.12
356.399	118.12
356.626	110.12
356.853	96.12
357.08	74.12
357.307	78.12
357.534	89.12
357.761	96.12
357.988	86.12
358.215	93.12
358.441	96.12
358.668	81.12
358.895	83.12
359.122	75.12
359.349	82.12
359.576	100.12
359.802	112.12
360.029	144.12
360.256	147.12
360.483	113.12
360.709	90.12
360.936	81.12
361.163	92.12
361.39	94.12
361.616	109.12
361.843	95.12
362.07	107.12
362.296	105.12
362.523	91.12
362.749	87.12
362.976	94.12
363.203	101.12
363.429	89.12
363.656	97.12
363.882	88.12
364.109	87.12
364.335	77.12
364.562	87.12
364.788	95.12
365.015	85.12
365.241	110.12
365.468	126.12
365.694	122.12
365.92	106.12
366.147	91.12
366.373	96.12
366.599	87.12
366.826	105.12
367.052	81.12
367.278	80.12
367.505	86.12
367.731	105.12
367.957	83.12
368.184	104.12
368.41	116.12
368.636	117.12
368.862	140.12
369.089	124.12
369.315	104.12
369.541	112.12
369.767	97.12
369.993	107.12
370.219	87.12
370.445	95.12
370.672	89.12
370.898	87.12
371.124	90.12
371.35	95.12
371.576	87.12
371.802	92.12
372.028	69.12
372.254	89.12
372.48	83.12
372.706	87.12
372.932	94.12
373.158	92.12
373.384	84.12
373.61	106.12
373.835	75.12
374.061	92.12
374.287	103.12
374.513	99.12
374.739	83.12
374.965	93.12
375.191	79.12
375.416	87.12
375.642	83.12
375.868	94.12
376.094	75.12
376.319	90.12
376.545	92.12
376.771	93.12
376.997	91.12
377.222	88.12
377.448	78.12
377.674	88.12
377.899	91.12
378.125	81.12
378.35	92.12
378.576	93.12
378.802	75.12
379.027	89.12
379.253	104.12
379.478	91.12
379.704	87.12
379.929	85.12
380.155	104.12
380.38	93.12
380.606	97.12
380.831	96.12
381.057	94.12
381.282	93.12
381.507	95.12
381.733	92.12
381.958	97.12
382.184	101.12
382.409	101.12
382.634	105.12
382.86	107.12
383.085	101.12
383.31	105.12
383.535	92.12
383.761	105.12
383.986	89.12
384.211	85.12
384.436	92.12
384.662	97.12
384.887	92.12
385.112	99.12
385.337	89.12
385.562	96.12
385.787	96.12
386.013	108.12
386.238	123.12
386.463	87.12
386.688	101.12
386.913	90.12
387.138	102.12
387.363	95.12
387.588	80.12
387.813	86.12
388.038	95.12
388.263	105.12
388.488	86.12
388.713	77.12
388.938	87.12
389.163	94.12
389.387	84.12
389.612	92.12
389.837	80.12
390.062	98.12
390.287	82.12
390.512	87.12
390.736	88.12
390.961	81.12
391.186	89.12
391.411	74.12
391.636	105.12
391.86	80.12
392.085	81.12
392.31	95.12
392.534	77.12
392.759	81.12
392.984	81.12
393.208	102.12
393.433	110.12
393.658	89.12
393.882	93.12
394.107	76.12
394.331	84.12
394.556	91.12
394.78	81.12
395.005	85.12
395.229	86.12
395.454	76.12
395.678	77.12
395.903	96.12
396.127	82.12
396.352	87.12
396.576	80.12
396.801	84.12
397.025	91.12
397.249	93.12
397.474	96.12
397.698	96.12
397.922	89.12
398.147	91.12
398.371	88.12
398.595	85.12
398.82	97.12
399.044	90.12
399.268	91.12
399.492	77.12
399.717	87.12
399.941	83.12
400.165	91.12
400.389	102.12
400.613	87.12
400.837	101.12
401.062	89.12
401.286	93.12
401.51	94.12
401.734	103.12
401.958	116.12
402.182	133.12
402.406	197.12
402.63	151.12
402.854	93.12
403.078	87.12
403.302	94.12
403.526	84.12
403.75	88.12
403.974	90.12
404.198	94.12
404.422	97.12
404.645	101.12
404.869	96.12
405.093	119.12
405.317	164.12
405.541	155.12
405.765	115.12
405.988	129.12
406.212	196.12
406.436	302.12
406.66	190.12
406.883	129.12
407.107	105.12
407.331	120.12
407.555	114.12
407.778	110.12
408.002	96.12
408.226	99.12
408.449	78.12
408.673	95.12
408.896	94.12
409.12	96.12
409.344	88.12
409.567	85.12
409.791	103.12
410.014	85.12
410.238	86.12
410.461	81.12
410.685	97.12
410.908	104.12
411.132	116.12
411.355	105.12
411.578	85.12
411.802	87.12
412.025	90.12
412.249	96.12
412.472	134.12
412.695	176.12
412.919	131.12
413.142	110.12
413.365	87.12
413.589	89.12
413.812	82.12
414.035	99.12
414.258	99.12
414.482	86.12
414.705	81.12
414.928	100.12
415.151	105.12
415.374	88.12
415.597	89.12
415.821	85.12
416.044	93.12
416.267	98.12
416.49	89.12
416.713	83.12
416.936	79.12
417.159	83.12
417.382	105.12
417.605	112.12
417.828	123.12
418.051	97.12
418.274	97.12
418.497	87.12
418.72	79.12
418.943	93.12
419.166	99.12
419.389	92.12
419.611	87.12
419.834	88.12
420.057	84.12
420.28	105.12
420.503	104.12
420.726	95.12
420.948	92.12
421.171	91.12
421.394	99.12
421.617	88.12
421.839	86.12
422.062	89.12
422.285	106.12
422.507	118.12
422.73	120.12
422.953	99.12
423.175	75.12
423.398	87.12
423.621	81.12
423.843	79.12
424.066	90.12
424.288	85.12
424.511	97.12
424.733	108.12
424.956	143.12
425.178	98.12
425.401	128.12
425.623	111.12
425.846	101.12
426.068	97.12
426.291	96.12
426.513	92.12
426.735	109.12
426.958	105.12
427.18	140.12
427.402	200.12
427.625	304.12
427.847	279.12
428.069	273.12
428.292	136.12
428.514	91.12
428.736	99.12
428.958	93.12
429.181	76.12
429.403	87.12
429.625	83.12
429.847	104.12
430.069	122.12
430.292	109.12
430.514	94.12
430.736	81.12
430.958	90.12
431.18	83.12
431.402	74.12
431.624	96.12
431.846	91.12
432.068	73.12
432.29	89.12
432.512	108.12
432.734	98.12
432.956	101.12
433.178	93.12
433.4	97.12
433.622	102.12
433.844	74.12
434.066	103.12
434.287	79.12
434.509	83.12
434.731	83.12
434.953	99.12
435.175	82.12
435.397	87.12
435.618	104.12
435.84	117.12
436.062	172.12
436.284	151.12
436.505	131.12
436.727	110.12
436.949	89.12
437.17	101.12
437.392	86.12
437.614	108.12
437.835	118.12
438.057	157.12
438.278	143.12
438.5	130.12
438.721	157.12
438.943	123.12
439.165	105.12
439.386	85.12
439.608	87.12
439.829	122.12
440.05	172.12
440.272	215.12
440.493	120.12
440.715	101.12
440.936	84.12
441.158	92.12
441.379	91.12
441.6	101.12
441.822	89.12
442.043	114.12
442.264	128.12
442.486	132.12
442.707	96.12
442.928	131.12
443.149	197.12
443.371	185.12
443.592	140.12
443.813	144.12
444.034	140.12
444.255	99.12
444.476	95.12
444.698	97.12
444.919	98.12
445.14	142.12
445.361	150.12
445.582	160.12
445.803	232.12
446.024	217.12
446.245	205.12
446.466	159.12
446.687	93.12
446.908	77.12
447.129	76.12
447.35	99.12
447.571	102.12
447.792	99.12
448.013	101.12
448.234	124.12
448.455	111.12
448.675	151.12
448.896	156.12
449.117	109.12
449.338	140.12
449.559	166.12
449.779	192.12
450	111.12
450.221	105.12
450.442	88.12
450.662	106.12
450.883	118.12
451.104	137.12
451.324	105.12
451.545	95.12
451.766	84.12
451.986	93.12
452.207	97.12
452.428	93.12
452.648	111.12
452.869	105.12
453.089	134.12
453.31	132.12
453.53	100.12
453.751	96.12
453.971	113.12
454.192	136.12
454.412	107.12
454.633	81.12
454.853	87.12
455.073	81.12
455.294	92.12
455.514	117.12
455.734	86.12
455.955	84.12
456.175	89.12
456.395	92.12
456.616	88.12
456.836	93.12
457.056	84.12
457.276	95.12
457.497	80.12
457.717	77.12
457.937	87.12
458.157	85.12
458.377	102.12
458.598	116.12
458.818	222.12
459.038	232.12
459.258	154.12
459.478	100.12
459.698	77.12
459.918	89.12
460.138	88.12
460.358	80.12
460.578	86.12
460.798	71.12
461.018	84.12
461.238	87.12
461.458	87.12
461.678	93.12
461.898	78.12
462.118	100.12
462.338	69.12
462.558	91.12
462.777	96.12
462.997	102.12
463.217	93.12
463.437	93.12
463.657	96.12
463.876	76.12
464.096	94.12
464.316	95.12
464.536	101.12
464.755	106.12
464.975	117.12
465.195	243.12
465.414	251.12
465.634	106.12
465.854	94.12
466.073	69.12
466.293	98.12
466.512	87.12
466.732	85.12
466.951	96.12
467.171	101.12
467.391	120.12
467.61	162.12
467.829	216.12
468.049	606.12
468.268	828.12
468.488	221.12
468.707	111.12
468.927	95.12
469.146	89.12
469.365	93.12
469.585	78.12
469.804	97.12
470.023	122.12
470.243	111.12
470.462	118.12
470.681	150.12
470.901	96.12
471.12	107.12
471.339	102.12
471.558	108.12
471.777	152.12
471.997	323.12
472.216	1216.12
472.435	2697.12
472.654	593.12
472.873	167.12
473.092	101.12
473.311	87.12
473.53	103.12
473.749	89.12
473.968	112.12
474.187	125.12
474.406	109.12
474.625	94.12
474.844	93.12
475.063	84.12
475.282	78.12
475.501	91.12
475.72	87.12
475.939	78.12
476.158	82.12
476.377	104.12
476.596	101.12
476.814	95.12
477.033	109.12
477.252	99.12
477.471	92.12
477.69	104.12
477.908	99.12
478.127	75.12
478.346	87.12
478.564	92.12
478.783	106.12
479.002	100.12
479.22	97.12
479.439	121.12
479.658	125.12
479.876	132.12
480.095	118.12
480.313	123.12
480.532	166.12
480.751	308.12
480.969	1117.12
481.188	4757.12
481.406	2655.12
481.624	366.12
481.843	131.12
482.061	118.12
482.28	100.12
482.498	101.12
482.717	89.12
482.935	89.12
483.153	91.12
483.372	88.12
483.59	84.12
483.808	88.12
484.027	85.12
484.245	94.12
484.463	98.12
484.681	87.12
484.9	87.12
485.118	100.12
485.336	96.12
485.554	107.12
485.772	101.12
485.99	107.12
486.209	100.12
486.427	108.12
486.645	110.12
486.863	121.12
487.081	119.12
487.299	93.12
487.517	97.12
487.735	105.12
487.953	84.12
488.171	95.12
488.389	109.12
488.607	104.12
488.825	83.12
489.043	81.12
489.261	90.12
489.479	97.12
489.696	91.12
489.914	95.12
490.132	103.12
490.35	87.12
490.568	91.12
490.786	88.12
491.003	87.12
491.221	86.12
491.439	94.12
491.657	105.12
491.874	89.12
492.092	101.12
492.31	90.12
492.527	88.12
492.745	105.12
492.963	101.12
493.18	102.12
493.398	103.12
493.615	95.12
493.833	91.12
494.05	86.12
494.268	83.12
494.485	92.12
494.703	92.12
494.92	94.12
495.138	97.12
495.355	77.12
495.573	99.12
495.79	84.12
496.008	92.12
496.225	95.12
496.442	90.12
496.66	87.12
496.877	97.12
497.094	95.12
497.312	91.12
497.529	100.12
497.746	94.12
497.963	91.12
498.181	101.12
498.398	93.12
498.615	123.12
498.832	114.12
499.049	78.12
499.267	95.12
499.484	91.12
499.701	90.12
499.918	85.12
500.135	87.12
500.352	79.12
500.569	90.12
500.786	87.12
501.003	80.12
501.22	82.12
501.437	91.12
501.654	98.12
501.871	135.12
502.088	95.12
502.305	79.12
502.522	91.12
502.739	82.12
502.956	79.12
503.172	88.12
503.389	118.12
503.606	124.12
503.823	112.12
504.04	92.12
504.256	90.12
504.473	94.12
504.69	94.12
504.907	94.12
505.123	95.12
505.34	83.12
505.557	72.12
505.773	92.12
505.99	77.12
506.207	92.12
506.423	80.12
506.64	91.12
506.856	81.12
507.073	77.12
507.289	82.12
507.506	124.12
507.722	147.12
507.939	142.12
508.155	97.12
508.372	86.12
508.588	96.12
508.805	91.12
509.021	101.12
509.238	95.12
509.454	99.12
509.67	109.12
509.887	115.12
510.103	135.12
510.319	253.12
510.536	918.12
510.752	3224.12
510.968	867.12
511.184	195.12
511.401	134.12
511.617	108.12
511.833	109.12
512.049	95.12
512.265	102.12
512.481	101.12
512.698	91.12
512.914	100.12
513.13	86.12
513.346	92.12
