Data from Circ_1997_H10_HRD10591_00079.txt Node
Date: Wed Jan 03 11:29:43 EST 2024
User: Yrep
Spectrometer: HR+D1059
Trigger mode: 1
Integration Time (sec): 1.000000E-1
Scans to average: 1
Electric dark correction enabled: true
Nonlinearity correction enabled: false
Boxcar width: 0
XAxis mode: Wavelengths
Number of Pixels in Spectrum: 2048
>>>>>Begin Spectral Data<<<<<
223.165	-16.5
223.4	-16.5
223.635	-16.5
223.869	-24.5
224.104	-19.5
224.338	-8.5
224.573	-20.5
224.808	-10.5
225.042	-8.5
225.277	-14.5
225.511	-3.5
225.746	7.5
225.98	8.5
226.215	15.5
226.449	16.5
226.683	24.5
226.918	34.5
227.152	19.5
227.387	28.5
227.621	42.5
227.856	49.5
228.09	54.5
228.324	50.5
228.559	57.5
228.793	53.5
229.027	64.5
229.262	78.5
229.496	96.5
229.73	106.5
229.964	115.5
230.199	71.5
230.433	70.5
230.667	90.5
230.901	75.5
231.136	72.5
231.37	94.5
231.604	88.5
231.838	76.5
232.072	85.5
232.306	80.5
232.541	91.5
232.775	83.5
233.009	88.5
233.243	83.5
233.477	96.5
233.711	87.5
233.945	89.5
234.179	68.5
234.413	75.5
234.647	78.5
234.881	75.5
235.115	98.5
235.349	82.5
235.583	75.5
235.817	87.5
236.051	79.5
236.285	77.5
236.519	83.5
236.753	87.5
236.987	86.5
237.221	93.5
237.455	95.5
237.689	90.5
237.922	71.5
238.156	98.5
238.39	76.5
238.624	74.5
238.858	87.5
239.091	80.5
239.325	86.5
239.559	79.5
239.793	79.5
240.027	81.5
240.26	83.5
240.494	92.5
240.728	84.5
240.961	95.5
241.195	74.5
241.429	67.5
241.662	94.5
241.896	80.5
242.13	82.5
242.363	75.5
242.597	83.5
242.83	80.5
243.064	99.5
243.298	88.5
243.531	83.5
243.765	70.5
243.998	76.5
244.232	76.5
244.465	91.5
244.699	93.5
244.932	79.5
245.166	94.5
245.399	76.5
245.633	76.5
245.866	87.5
246.099	86.5
246.333	68.5
246.566	86.5
246.8	79.5
247.033	67.5
247.266	80.5
247.5	85.5
247.733	78.5
247.966	67.5
248.2	88.5
248.433	83.5
248.666	84.5
248.899	90.5
249.133	100.5
249.366	107.5
249.599	112.5
249.832	94.5
250.066	94.5
250.299	75.5
250.532	97.5
250.765	81.5
250.998	88.5
251.231	82.5
251.465	77.5
251.698	78.5
251.931	96.5
252.164	93.5
252.397	70.5
252.63	90.5
252.863	67.5
253.096	68.5
253.329	81.5
253.562	80.5
253.795	80.5
254.028	99.5
254.261	78.5
254.494	89.5
254.727	88.5
254.96	89.5
255.193	77.5
255.426	79.5
255.659	76.5
255.892	85.5
256.124	99.5
256.357	95.5
256.59	98.5
256.823	97.5
257.056	91.5
257.289	103.5
257.521	93.5
257.754	85.5
257.987	92.5
258.22	101.5
258.452	97.5
258.685	102.5
258.918	79.5
259.151	88.5
259.383	86.5
259.616	80.5
259.849	85.5
260.081	89.5
260.314	96.5
260.547	104.5
260.779	90.5
261.012	123.5
261.244	114.5
261.477	94.5
261.71	123.5
261.942	134.5
262.175	153.5
262.407	91.5
262.64	82.5
262.872	83.5
263.105	93.5
263.337	90.5
263.57	83.5
263.802	96.5
264.035	81.5
264.267	73.5
264.499	97.5
264.732	91.5
264.964	83.5
265.197	83.5
265.429	84.5
265.661	95.5
265.894	71.5
266.126	96.5
266.358	91.5
266.591	94.5
266.823	92.5
267.055	82.5
267.287	96.5
267.52	98.5
267.752	83.5
267.984	81.5
268.216	83.5
268.448	88.5
268.681	89.5
268.913	100.5
269.145	83.5
269.377	74.5
269.609	78.5
269.841	77.5
270.073	75.5
270.306	83.5
270.538	97.5
270.77	86.5
271.002	86.5
271.234	96.5
271.466	102.5
271.698	94.5
271.93	103.5
272.162	77.5
272.394	98.5
272.626	84.5
272.858	84.5
273.09	90.5
273.322	76.5
273.553	85.5
273.785	83.5
274.017	92.5
274.249	80.5
274.481	99.5
274.713	78.5
274.945	94.5
275.176	95.5
275.408	105.5
275.64	127.5
275.872	145.5
276.104	121.5
276.335	112.5
276.567	132.5
276.799	173.5
277.031	219.5
277.262	251.5
277.494	190.5
277.726	113.5
277.957	108.5
278.189	101.5
278.421	80.5
278.652	93.5
278.884	96.5
279.115	94.5
279.347	112.5
279.579	116.5
279.81	160.5
280.042	262.5
280.273	366.5
280.505	226.5
280.736	131.5
280.968	92.5
281.199	90.5
281.431	95.5
281.662	99.5
281.894	103.5
282.125	109.5
282.356	143.5
282.588	184.5
282.819	154.5
283.051	97.5
283.282	105.5
283.513	104.5
283.745	92.5
283.976	79.5
284.207	95.5
284.439	83.5
284.67	95.5
284.901	94.5
285.132	94.5
285.364	80.5
285.595	86.5
285.826	83.5
286.057	100.5
286.288	80.5
286.52	79.5
286.751	86.5
286.982	74.5
287.213	90.5
287.444	89.5
287.675	87.5
287.906	89.5
288.138	90.5
288.369	99.5
288.6	104.5
288.831	89.5
289.062	114.5
289.293	96.5
289.524	100.5
289.755	99.5
289.986	90.5
290.217	94.5
290.448	93.5
290.679	88.5
290.91	106.5
291.141	80.5
291.371	103.5
291.602	100.5
291.833	70.5
292.064	83.5
292.295	87.5
292.526	107.5
292.757	91.5
292.987	97.5
293.218	92.5
293.449	107.5
293.68	99.5
293.91	84.5
294.141	95.5
294.372	93.5
294.603	98.5
294.833	83.5
295.064	94.5
295.295	92.5
295.525	108.5
295.756	121.5
295.987	136.5
296.217	163.5
296.448	164.5
296.679	89.5
296.909	102.5
297.14	91.5
297.37	92.5
297.601	85.5
297.831	96.5
298.062	88.5
298.292	98.5
298.523	105.5
298.753	84.5
298.984	96.5
299.214	84.5
299.445	102.5
299.675	89.5
299.905	117.5
300.136	106.5
300.366	83.5
300.597	91.5
300.827	84.5
301.057	107.5
301.288	121.5
301.518	109.5
301.748	98.5
301.979	104.5
302.209	105.5
302.439	96.5
302.669	93.5
302.9	86.5
303.13	110.5
303.36	117.5
303.59	142.5
303.82	172.5
304.051	104.5
304.281	88.5
304.511	99.5
304.741	101.5
304.971	93.5
305.201	72.5
305.431	95.5
305.661	86.5
305.891	87.5
306.121	112.5
306.352	113.5
306.582	106.5
306.812	110.5
307.042	133.5
307.272	185.5
307.502	222.5
307.731	198.5
307.961	128.5
308.191	106.5
308.421	92.5
308.651	103.5
308.881	107.5
309.111	106.5
309.341	103.5
309.571	106.5
309.8	94.5
310.03	117.5
310.26	117.5
310.49	116.5
310.72	108.5
310.949	137.5
311.179	126.5
311.409	104.5
311.639	114.5
311.868	96.5
312.098	107.5
312.328	112.5
312.557	110.5
312.787	131.5
313.017	140.5
313.246	117.5
313.476	94.5
313.706	78.5
313.935	110.5
314.165	112.5
314.394	137.5
314.624	122.5
314.853	113.5
315.083	95.5
315.312	99.5
315.542	106.5
315.771	104.5
316.001	94.5
316.23	72.5
316.46	102.5
316.689	81.5
316.919	94.5
317.148	100.5
317.377	123.5
317.607	110.5
317.836	107.5
318.065	95.5
318.295	99.5
318.524	115.5
318.753	102.5
318.983	109.5
319.212	98.5
319.441	119.5
319.67	130.5
319.9	91.5
320.129	110.5
320.358	100.5
320.587	101.5
320.816	114.5
321.046	122.5
321.275	115.5
321.504	107.5
321.733	97.5
321.962	102.5
322.191	94.5
322.42	122.5
322.649	141.5
322.878	142.5
323.108	141.5
323.337	158.5
323.566	183.5
323.795	244.5
324.024	309.5
324.253	675.5
324.482	1544.5
324.71	3302.5
324.939	4419.5
325.168	1526.5
325.397	391.5
325.626	213.5
325.855	164.5
326.084	161.5
326.313	170.5
326.542	220.5
326.77	338.5
326.999	759.5
327.228	1672.5
327.457	3238.5
327.686	2557.5
327.914	833.5
328.143	764.5
328.372	990.5
328.6	532.5
328.829	249.5
329.058	238.5
329.287	253.5
329.515	232.5
329.744	339.5
329.972	732.5
330.201	1584.5
330.43	2334.5
330.658	957.5
330.887	402.5
331.115	253.5
331.344	160.5
331.572	135.5
331.801	160.5
332.03	145.5
332.258	130.5
332.486	135.5
332.715	123.5
332.943	137.5
333.172	141.5
333.4	150.5
333.629	203.5
333.857	302.5
334.085	655.5
334.314	1451.5
334.542	2895.5
334.771	2698.5
334.999	629.5
335.227	235.5
335.455	156.5
335.684	122.5
335.912	115.5
336.14	126.5
336.369	114.5
336.597	128.5
336.825	119.5
337.053	119.5
337.281	104.5
337.51	99.5
337.738	94.5
337.966	93.5
338.194	121.5
338.422	104.5
338.65	95.5
338.878	107.5
339.106	92.5
339.334	106.5
339.562	107.5
339.79	91.5
340.018	95.5
340.246	115.5
340.474	113.5
340.702	96.5
340.93	102.5
341.158	96.5
341.386	116.5
341.614	119.5
341.842	99.5
342.07	99.5
342.298	103.5
342.526	100.5
342.754	93.5
342.981	97.5
343.209	90.5
343.437	95.5
343.665	90.5
343.893	104.5
344.12	90.5
344.348	85.5
344.576	86.5
344.804	96.5
345.031	134.5
345.259	119.5
345.487	104.5
345.714	101.5
345.942	105.5
346.17	94.5
346.397	96.5
346.625	96.5
346.853	102.5
347.08	94.5
347.308	98.5
347.535	108.5
347.763	116.5
347.99	107.5
348.218	116.5
348.445	108.5
348.673	120.5
348.9	100.5
349.128	100.5
349.355	110.5
349.583	90.5
349.81	84.5
350.037	102.5
350.265	95.5
350.492	108.5
350.72	94.5
350.947	114.5
351.174	136.5
351.402	129.5
351.629	109.5
351.856	101.5
352.083	126.5
352.311	125.5
352.538	134.5
352.765	119.5
352.992	143.5
353.22	123.5
353.447	106.5
353.674	95.5
353.901	108.5
354.128	88.5
354.355	106.5
354.583	110.5
354.81	117.5
355.037	96.5
355.264	104.5
355.491	84.5
355.718	89.5
355.945	98.5
356.172	102.5
356.399	94.5
356.626	93.5
356.853	105.5
357.08	104.5
357.307	90.5
357.534	98.5
357.761	88.5
357.988	96.5
358.215	97.5
358.441	91.5
358.668	86.5
358.895	90.5
359.122	99.5
359.349	99.5
359.576	122.5
359.802	130.5
360.029	171.5
360.256	158.5
360.483	126.5
360.709	104.5
360.936	106.5
361.163	111.5
361.39	107.5
361.616	117.5
361.843	109.5
362.07	97.5
362.296	107.5
362.523	116.5
362.749	110.5
362.976	107.5
363.203	106.5
363.429	115.5
363.656	104.5
363.882	98.5
364.109	87.5
364.335	114.5
364.562	102.5
364.788	95.5
365.015	106.5
365.241	124.5
365.468	118.5
365.694	124.5
365.92	120.5
366.147	107.5
366.373	92.5
366.599	90.5
366.826	100.5
367.052	87.5
367.278	96.5
367.505	98.5
367.731	105.5
367.957	98.5
368.184	115.5
368.41	119.5
368.636	131.5
368.862	138.5
369.089	131.5
369.315	90.5
369.541	98.5
369.767	103.5
369.993	110.5
370.219	103.5
370.445	87.5
370.672	97.5
370.898	92.5
371.124	87.5
371.35	105.5
371.576	94.5
371.802	87.5
372.028	82.5
372.254	86.5
372.48	93.5
372.706	82.5
372.932	92.5
373.158	90.5
373.384	102.5
373.61	98.5
373.835	86.5
374.061	100.5
374.287	100.5
374.513	92.5
374.739	86.5
374.965	79.5
375.191	94.5
375.416	96.5
375.642	100.5
375.868	103.5
376.094	112.5
376.319	97.5
376.545	91.5
376.771	98.5
376.997	89.5
377.222	90.5
377.448	107.5
377.674	93.5
377.899	86.5
378.125	78.5
378.35	98.5
378.576	79.5
378.802	99.5
379.027	92.5
379.253	107.5
379.478	85.5
379.704	114.5
379.929	96.5
380.155	100.5
380.38	95.5
380.606	92.5
380.831	103.5
381.057	90.5
381.282	91.5
381.507	99.5
381.733	98.5
381.958	92.5
382.184	87.5
382.409	104.5
382.634	102.5
382.86	100.5
383.085	94.5
383.31	96.5
383.535	94.5
383.761	93.5
383.986	90.5
384.211	90.5
384.436	94.5
384.662	98.5
384.887	104.5
385.112	110.5
385.337	104.5
385.562	91.5
385.787	105.5
386.013	111.5
386.238	111.5
386.463	105.5
386.688	109.5
386.913	88.5
387.138	106.5
387.363	95.5
387.588	107.5
387.813	99.5
388.038	99.5
388.263	109.5
388.488	98.5
388.713	103.5
388.938	95.5
389.163	97.5
389.387	86.5
389.612	89.5
389.837	97.5
390.062	87.5
390.287	106.5
390.512	88.5
390.736	105.5
390.961	79.5
391.186	106.5
391.411	89.5
391.636	86.5
391.86	89.5
392.085	89.5
392.31	91.5
392.534	84.5
392.759	101.5
392.984	89.5
393.208	82.5
393.433	82.5
393.658	95.5
393.882	80.5
394.107	77.5
394.331	80.5
394.556	88.5
394.78	74.5
395.005	96.5
395.229	101.5
395.454	87.5
395.678	92.5
395.903	94.5
396.127	97.5
396.352	96.5
396.576	94.5
396.801	96.5
397.025	95.5
397.249	93.5
397.474	94.5
397.698	82.5
397.922	99.5
398.147	91.5
398.371	95.5
398.595	104.5
398.82	78.5
399.044	91.5
399.268	96.5
399.492	100.5
399.717	83.5
399.941	90.5
400.165	104.5
400.389	99.5
400.613	92.5
400.837	91.5
401.062	91.5
401.286	109.5
401.51	97.5
401.734	106.5
401.958	96.5
402.182	167.5
402.406	222.5
402.63	156.5
402.854	112.5
403.078	113.5
403.302	66.5
403.526	92.5
403.75	99.5
403.974	92.5
404.198	92.5
404.422	102.5
404.645	108.5
404.869	98.5
405.093	131.5
405.317	188.5
405.541	166.5
405.765	137.5
405.988	138.5
406.212	231.5
406.436	336.5
406.66	228.5
406.883	142.5
407.107	111.5
407.331	116.5
407.555	111.5
407.778	126.5
408.002	97.5
408.226	110.5
408.449	103.5
408.673	87.5
408.896	95.5
409.12	118.5
409.344	92.5
409.567	90.5
409.791	89.5
410.014	83.5
410.238	89.5
410.461	106.5
410.685	82.5
410.908	90.5
411.132	115.5
411.355	110.5
411.578	95.5
411.802	86.5
412.025	109.5
412.249	106.5
412.472	135.5
412.695	168.5
412.919	113.5
413.142	98.5
413.365	95.5
413.589	89.5
413.812	92.5
414.035	93.5
414.258	91.5
414.482	94.5
414.705	99.5
414.928	96.5
415.151	91.5
415.374	93.5
415.597	97.5
415.821	106.5
416.044	96.5
416.267	85.5
416.49	98.5
416.713	88.5
416.936	75.5
417.159	98.5
417.382	114.5
417.605	118.5
417.828	118.5
418.051	110.5
418.274	91.5
418.497	86.5
418.72	106.5
418.943	99.5
419.166	90.5
419.389	102.5
419.611	110.5
419.834	97.5
420.057	93.5
420.28	107.5
420.503	114.5
420.726	89.5
420.948	81.5
421.171	122.5
421.394	119.5
421.617	101.5
421.839	98.5
422.062	92.5
422.285	93.5
422.507	104.5
422.73	124.5
422.953	116.5
423.175	116.5
423.398	101.5
423.621	94.5
423.843	93.5
424.066	95.5
424.288	102.5
424.511	104.5
424.733	117.5
424.956	134.5
425.178	121.5
425.401	98.5
425.623	107.5
425.846	121.5
426.068	111.5
426.291	110.5
426.513	92.5
426.735	110.5
426.958	120.5
427.18	149.5
427.402	224.5
427.625	343.5
427.847	320.5
428.069	321.5
428.292	160.5
428.514	114.5
428.736	86.5
428.958	94.5
429.181	89.5
429.403	107.5
429.625	96.5
429.847	108.5
430.069	118.5
430.292	107.5
430.514	88.5
430.736	83.5
430.958	83.5
431.18	104.5
431.402	86.5
431.624	94.5
431.846	87.5
432.068	94.5
432.29	96.5
432.512	73.5
432.734	85.5
432.956	99.5
433.178	109.5
433.4	110.5
433.622	108.5
433.844	93.5
434.066	88.5
434.287	100.5
434.509	98.5
434.731	95.5
434.953	97.5
435.175	89.5
435.397	90.5
435.618	94.5
435.84	125.5
436.062	172.5
436.284	152.5
436.505	136.5
436.727	128.5
436.949	100.5
437.17	92.5
437.392	98.5
437.614	115.5
437.835	137.5
438.057	180.5
438.278	138.5
438.5	131.5
438.721	165.5
438.943	108.5
439.165	109.5
439.386	98.5
439.608	104.5
439.829	126.5
440.05	192.5
440.272	255.5
440.493	140.5
440.715	83.5
440.936	96.5
441.158	95.5
441.379	98.5
441.6	121.5
441.822	119.5
442.043	107.5
442.264	142.5
442.486	136.5
442.707	118.5
442.928	150.5
443.149	210.5
443.371	198.5
443.592	164.5
443.813	153.5
444.034	134.5
444.255	99.5
444.476	88.5
444.698	89.5
444.919	91.5
445.14	159.5
445.361	144.5
445.582	178.5
445.803	262.5
446.024	253.5
446.245	226.5
446.466	137.5
446.687	96.5
446.908	91.5
447.129	95.5
447.35	90.5
447.571	99.5
447.792	110.5
448.013	111.5
448.234	140.5
448.455	113.5
448.675	148.5
448.896	143.5
449.117	129.5
449.338	134.5
449.559	170.5
449.779	180.5
450	103.5
450.221	95.5
450.442	99.5
450.662	112.5
450.883	141.5
451.104	155.5
451.324	106.5
451.545	95.5
451.766	89.5
451.986	89.5
452.207	88.5
452.428	94.5
452.648	126.5
452.869	139.5
453.089	138.5
453.31	160.5
453.53	120.5
453.751	115.5
453.971	128.5
454.192	149.5
454.412	99.5
454.633	82.5
454.853	89.5
455.073	91.5
455.294	102.5
455.514	118.5
455.734	102.5
455.955	103.5
456.175	92.5
456.395	90.5
456.616	97.5
456.836	82.5
457.056	106.5
457.276	82.5
457.497	93.5
457.717	94.5
457.937	92.5
458.157	84.5
458.377	98.5
458.598	148.5
458.818	239.5
459.038	288.5
459.258	170.5
459.478	105.5
459.698	89.5
459.918	96.5
460.138	86.5
460.358	87.5
460.578	101.5
460.798	104.5
461.018	98.5
461.238	86.5
461.458	62.5
461.678	95.5
461.898	84.5
462.118	86.5
462.338	101.5
462.558	97.5
462.777	81.5
462.997	109.5
463.217	123.5
463.437	111.5
463.657	106.5
463.876	82.5
464.096	106.5
464.316	103.5
464.536	105.5
464.755	113.5
464.975	132.5
465.195	270.5
465.414	281.5
465.634	127.5
465.854	119.5
466.073	103.5
466.293	101.5
466.512	110.5
466.732	103.5
466.951	105.5
467.171	110.5
467.391	130.5
467.61	174.5
467.829	267.5
468.049	830.5
468.268	1252.5
468.488	300.5
468.707	128.5
468.927	108.5
469.146	100.5
469.365	115.5
469.585	121.5
469.804	127.5
470.023	126.5
470.243	116.5
470.462	141.5
470.681	156.5
470.901	120.5
471.12	104.5
471.339	129.5
471.558	142.5
471.777	182.5
471.997	431.5
472.216	1651.5
472.435	3890.5
472.654	839.5
472.873	217.5
473.092	109.5
473.311	114.5
473.53	91.5
473.749	98.5
473.968	125.5
474.187	140.5
474.406	134.5
474.625	98.5
474.844	105.5
475.063	105.5
475.282	92.5
475.501	99.5
475.72	98.5
475.939	90.5
476.158	75.5
476.377	95.5
476.596	116.5
476.814	105.5
477.033	123.5
477.252	112.5
477.471	92.5
477.69	87.5
477.908	93.5
478.127	91.5
478.346	86.5
478.564	104.5
478.783	118.5
479.002	113.5
479.22	118.5
479.439	150.5
479.658	138.5
479.876	130.5
480.095	125.5
480.313	160.5
480.532	195.5
480.751	374.5
480.969	1496.5
481.188	6635.5
481.406	3755.5
481.624	505.5
481.843	163.5
482.061	133.5
482.28	107.5
482.498	101.5
482.717	89.5
482.935	105.5
483.153	97.5
483.372	105.5
483.59	103.5
483.808	86.5
484.027	97.5
484.245	110.5
484.463	104.5
484.681	97.5
484.9	105.5
485.118	104.5
485.336	89.5
485.554	90.5
485.772	101.5
485.99	98.5
486.209	113.5
486.427	106.5
486.645	118.5
486.863	131.5
487.081	126.5
487.299	98.5
487.517	92.5
487.735	100.5
487.953	103.5
488.171	82.5
488.389	105.5
488.607	114.5
488.825	97.5
489.043	90.5
489.261	92.5
489.479	87.5
489.696	92.5
489.914	112.5
490.132	98.5
490.35	105.5
490.568	86.5
490.786	96.5
491.003	94.5
491.221	93.5
491.439	97.5
491.657	95.5
491.874	98.5
492.092	87.5
492.31	102.5
492.527	108.5
492.745	101.5
492.963	99.5
493.18	95.5
493.398	89.5
493.615	87.5
493.833	103.5
494.05	89.5
494.268	96.5
494.485	91.5
494.703	99.5
494.92	87.5
495.138	91.5
495.355	96.5
495.573	99.5
495.79	90.5
496.008	104.5
496.225	87.5
496.442	96.5
496.66	104.5
496.877	98.5
497.094	95.5
497.312	107.5
497.529	94.5
497.746	98.5
497.963	98.5
498.181	111.5
498.398	95.5
498.615	126.5
498.832	121.5
499.049	103.5
499.267	91.5
499.484	98.5
499.701	82.5
499.918	83.5
500.135	90.5
500.352	94.5
500.569	105.5
500.786	116.5
501.003	88.5
501.22	96.5
501.437	113.5
501.654	110.5
501.871	134.5
502.088	103.5
502.305	92.5
502.522	102.5
502.739	80.5
502.956	86.5
503.172	97.5
503.389	116.5
503.606	127.5
503.823	129.5
504.04	84.5
504.256	93.5
504.473	102.5
504.69	92.5
504.907	98.5
505.123	93.5
505.34	80.5
505.557	96.5
505.773	93.5
505.99	86.5
506.207	80.5
506.423	96.5
506.64	84.5
506.856	95.5
507.073	84.5
507.289	106.5
507.506	111.5
507.722	147.5
507.939	129.5
508.155	103.5
508.372	97.5
508.588	89.5
508.805	107.5
509.021	96.5
509.238	117.5
509.454	102.5
509.67	97.5
509.887	103.5
510.103	155.5
510.319	266.5
510.536	1008.5
510.752	3650.5
510.968	966.5
511.184	190.5
511.401	131.5
511.617	119.5
511.833	142.5
512.049	109.5
512.265	103.5
512.481	97.5
512.698	97.5
512.914	98.5
513.13	96.5
513.346	100.5
513.562	99.5
513.778	114.5
513.994	118.5
514.21	131.5
514.426	155.5
514.642	206.5
514.858	175.5
515.074	255.5
515.29	860.5
515.506	3108.5
515.721	1066.5
515.937	243.5
516.153	162.5
516.369	123.5
516.585	115.5
516.801	109.5
517.016	115.5
517.232	104.5
517.448	110.5
517.664	95.5
517.879	112.5
518.095	105.5
518.311	111.5
518.527	109.5
518.742	107.5
518.958	106.5
519.173	96.5
519.389	89.5
519.605	105.5
519.82	102.5
520.036	119.5
520.251	152.5
520.467	153.5
520.682	140.5
520.898	143.5
521.113	166.5
521.329	213.5
521.544	378.5
521.76	1191.5
521.975	5281.5
522.19	3102.5
522.406	614.5
522.621	194.5
522.836	142.5
523.052	103.5
523.267	115.5
523.482	100.5
523.698	126.5
523.913	154.5
524.128	123.5
524.343	102.5
524.559	105.5
524.774	93.5
524.989	110.5
525.204	124.5
525.419	109.5
525.634	96.5
525.849	87.5
526.064	90.5
526.28	83.5
526.495	98.5
526.71	100.5
526.925	94.5
527.14	88.5
527.355	98.5
527.57	95.5
527.785	86.5
527.999	83.5
528.214	86.5
528.429	103.5
528.644	99.5
528.859	109.5
529.074	114.5
529.289	171.5
529.503	328.5
529.718	155.5
529.933	107.5
