Data from Circ_1997_H10_HRD10591_00033.txt Node
Date: Wed Jan 03 11:29:34 EST 2024
User: Yrep
Spectrometer: HR+D1059
Trigger mode: 1
Integration Time (sec): 1.000000E-1
Scans to average: 1
Electric dark correction enabled: true
Nonlinearity correction enabled: false
Boxcar width: 0
XAxis mode: Wavelengths
Number of Pixels in Spectrum: 2048
>>>>>Begin Spectral Data<<<<<
223.165	-12.44
223.4	-12.44
223.635	-12.44
223.869	-26.44
224.104	-13.44
224.338	-18.44
224.573	-20.44
224.808	-5.44
225.042	-7.44
225.277	-4.44
225.511	-8.44
225.746	8.56
225.98	19.56
226.215	4.56
226.449	13.56
226.683	24.56
226.918	26.56
227.152	19.56
227.387	27.56
227.621	33.56
227.856	50.56
228.09	37.56
228.324	59.56
228.559	56.56
228.793	68.56
229.027	72.56
229.262	68.56
229.496	83.56
229.73	97.56
229.964	89.56
230.199	69.56
230.433	82.56
230.667	74.56
230.901	76.56
231.136	83.56
231.37	81.56
231.604	92.56
231.838	84.56
232.072	81.56
232.306	80.56
232.541	90.56
232.775	98.56
233.009	89.56
233.243	95.56
233.477	80.56
233.711	84.56
233.945	81.56
234.179	90.56
234.413	91.56
234.647	91.56
234.881	83.56
235.115	96.56
235.349	78.56
235.583	75.56
235.817	78.56
236.051	98.56
236.285	76.56
236.519	71.56
236.753	85.56
236.987	95.56
237.221	92.56
237.455	79.56
237.689	79.56
237.922	94.56
238.156	91.56
238.39	76.56
238.624	84.56
238.858	70.56
239.091	76.56
239.325	82.56
239.559	84.56
239.793	74.56
240.027	88.56
240.26	75.56
240.494	83.56
240.728	74.56
240.961	81.56
241.195	89.56
241.429	63.56
241.662	77.56
241.896	98.56
242.13	83.56
242.363	86.56
242.597	87.56
242.83	84.56
243.064	80.56
243.298	88.56
243.531	80.56
243.765	79.56
243.998	89.56
244.232	89.56
244.465	74.56
244.699	93.56
244.932	89.56
245.166	71.56
245.399	92.56
245.633	80.56
245.866	80.56
246.099	85.56
246.333	81.56
246.566	79.56
246.8	87.56
247.033	82.56
247.266	77.56
247.5	83.56
247.733	98.56
247.966	86.56
248.2	89.56
248.433	91.56
248.666	84.56
248.899	97.56
249.133	83.56
249.366	97.56
249.599	107.56
249.832	88.56
250.066	90.56
250.299	81.56
250.532	91.56
250.765	86.56
250.998	94.56
251.231	90.56
251.465	92.56
251.698	96.56
251.931	92.56
252.164	95.56
252.397	79.56
252.63	94.56
252.863	90.56
253.096	90.56
253.329	89.56
253.562	91.56
253.795	75.56
254.028	89.56
254.261	92.56
254.494	83.56
254.727	85.56
254.96	88.56
255.193	90.56
255.426	86.56
255.659	88.56
255.892	112.56
256.124	100.56
256.357	80.56
256.59	93.56
256.823	100.56
257.056	91.56
257.289	79.56
257.521	77.56
257.754	90.56
257.987	73.56
258.22	88.56
258.452	94.56
258.685	91.56
258.918	88.56
259.151	89.56
259.383	97.56
259.616	96.56
259.849	77.56
260.081	95.56
260.314	93.56
260.547	90.56
260.779	88.56
261.012	102.56
261.244	112.56
261.477	113.56
261.71	100.56
261.942	114.56
262.175	130.56
262.407	96.56
262.64	82.56
262.872	80.56
263.105	98.56
263.337	93.56
263.57	81.56
263.802	97.56
264.035	86.56
264.267	73.56
264.499	77.56
264.732	84.56
264.964	83.56
265.197	95.56
265.429	89.56
265.661	86.56
265.894	92.56
266.126	92.56
266.358	72.56
266.591	84.56
266.823	91.56
267.055	104.56
267.287	94.56
267.52	100.56
267.752	88.56
267.984	89.56
268.216	94.56
268.448	72.56
268.681	82.56
268.913	89.56
269.145	93.56
269.377	92.56
269.609	101.56
269.841	83.56
270.073	84.56
270.306	100.56
270.538	95.56
270.77	96.56
271.002	106.56
271.234	92.56
271.466	109.56
271.698	84.56
271.93	98.56
272.162	99.56
272.394	83.56
272.626	97.56
272.858	90.56
273.09	93.56
273.322	81.56
273.553	97.56
273.785	102.56
274.017	80.56
274.249	82.56
274.481	80.56
274.713	89.56
274.945	97.56
275.176	93.56
275.408	98.56
275.64	101.56
275.872	116.56
276.104	105.56
276.335	102.56
276.567	114.56
276.799	139.56
277.031	152.56
277.262	175.56
277.494	128.56
277.726	101.56
277.957	92.56
278.189	96.56
278.421	95.56
278.652	69.56
278.884	84.56
279.115	99.56
279.347	99.56
279.579	89.56
279.81	127.56
280.042	171.56
280.273	218.56
280.505	166.56
280.736	109.56
280.968	90.56
281.199	95.56
281.431	80.56
281.662	94.56
281.894	93.56
282.125	102.56
282.356	146.56
282.588	152.56
282.819	120.56
283.051	102.56
283.282	95.56
283.513	106.56
283.745	82.56
283.976	88.56
284.207	97.56
284.439	100.56
284.67	85.56
284.901	90.56
285.132	81.56
285.364	89.56
285.595	82.56
285.826	97.56
286.057	89.56
286.288	94.56
286.52	95.56
286.751	94.56
286.982	86.56
287.213	80.56
287.444	92.56
287.675	85.56
287.906	94.56
288.138	96.56
288.369	101.56
288.6	90.56
288.831	74.56
289.062	95.56
289.293	99.56
289.524	98.56
289.755	99.56
289.986	82.56
290.217	91.56
290.448	93.56
290.679	86.56
290.91	98.56
291.141	94.56
291.371	89.56
291.602	96.56
291.833	103.56
292.064	79.56
292.295	93.56
292.526	89.56
292.757	98.56
292.987	75.56
293.218	91.56
293.449	92.56
293.68	92.56
293.91	101.56
294.141	98.56
294.372	101.56
294.603	95.56
294.833	92.56
295.064	97.56
295.295	89.56
295.525	108.56
295.756	120.56
295.987	117.56
296.217	164.56
296.448	124.56
296.679	99.56
296.909	96.56
297.14	92.56
297.37	73.56
297.601	110.56
297.831	109.56
298.062	97.56
298.292	91.56
298.523	94.56
298.753	88.56
298.984	87.56
299.214	94.56
299.445	88.56
299.675	86.56
299.905	111.56
300.136	104.56
300.366	96.56
300.597	94.56
300.827	98.56
301.057	97.56
301.288	121.56
301.518	107.56
301.748	82.56
301.979	115.56
302.209	101.56
302.439	105.56
302.669	93.56
302.9	95.56
303.13	106.56
303.36	109.56
303.59	128.56
303.82	129.56
304.051	107.56
304.281	96.56
304.511	96.56
304.741	103.56
304.971	94.56
305.201	93.56
305.431	89.56
305.661	84.56
305.891	98.56
306.121	99.56
306.352	90.56
306.582	108.56
306.812	110.56
307.042	109.56
307.272	144.56
307.502	150.56
307.731	152.56
307.961	117.56
308.191	108.56
308.421	88.56
308.651	100.56
308.881	104.56
309.111	94.56
309.341	96.56
309.571	108.56
309.8	104.56
310.03	96.56
310.26	111.56
310.49	97.56
310.72	100.56
310.949	121.56
311.179	104.56
311.409	97.56
311.639	103.56
311.868	97.56
312.098	100.56
312.328	103.56
312.557	117.56
312.787	108.56
313.017	115.56
313.246	111.56
313.476	106.56
313.706	88.56
313.935	114.56
314.165	119.56
314.394	114.56
314.624	109.56
314.853	100.56
315.083	102.56
315.312	89.56
315.542	100.56
315.771	99.56
316.001	108.56
316.23	101.56
316.46	100.56
316.689	97.56
316.919	105.56
317.148	106.56
317.377	104.56
317.607	102.56
317.836	95.56
318.065	110.56
318.295	96.56
318.524	75.56
318.753	96.56
318.983	103.56
319.212	109.56
319.441	107.56
319.67	103.56
319.9	107.56
320.129	106.56
320.358	96.56
320.587	84.56
320.816	113.56
321.046	92.56
321.275	104.56
321.504	103.56
321.733	100.56
321.962	102.56
322.191	120.56
322.42	110.56
322.649	117.56
322.878	129.56
323.108	141.56
323.337	142.56
323.566	169.56
323.795	172.56
324.024	264.56
324.253	524.56
324.482	1196.56
324.71	2555.56
324.939	3411.56
325.168	1200.56
325.397	328.56
325.626	190.56
325.855	156.56
326.084	156.56
326.313	161.56
326.542	180.56
326.77	291.56
326.999	647.56
327.228	1365.56
327.457	2564.56
327.686	2028.56
327.914	584.56
328.143	472.56
328.372	547.56
328.6	297.56
328.829	171.56
329.058	177.56
329.287	173.56
329.515	176.56
329.744	233.56
329.972	392.56
330.201	776.56
330.43	1151.56
330.658	564.56
330.887	268.56
331.115	173.56
331.344	115.56
331.572	110.56
331.801	113.56
332.03	115.56
332.258	110.56
332.486	101.56
332.715	115.56
332.943	122.56
333.172	123.56
333.4	122.56
333.629	149.56
333.857	210.56
334.085	366.56
334.314	776.56
334.542	1482.56
334.771	1395.56
334.999	347.56
335.227	165.56
335.455	120.56
335.684	113.56
335.912	110.56
336.14	100.56
336.369	107.56
336.597	113.56
336.825	112.56
337.053	102.56
337.281	91.56
337.51	100.56
337.738	106.56
337.966	102.56
338.194	106.56
338.422	114.56
338.65	119.56
338.878	89.56
339.106	90.56
339.334	96.56
339.562	98.56
339.79	98.56
340.018	102.56
340.246	101.56
340.474	99.56
340.702	105.56
340.93	108.56
341.158	96.56
341.386	95.56
341.614	105.56
341.842	116.56
342.07	104.56
342.298	101.56
342.526	97.56
342.754	77.56
342.981	91.56
343.209	90.56
343.437	97.56
343.665	97.56
343.893	88.56
344.12	95.56
344.348	94.56
344.576	101.56
344.804	100.56
345.031	110.56
345.259	114.56
345.487	96.56
345.714	95.56
345.942	105.56
346.17	98.56
346.397	98.56
346.625	109.56
346.853	96.56
347.08	85.56
347.308	91.56
347.535	124.56
347.763	98.56
347.99	110.56
348.218	107.56
348.445	110.56
348.673	104.56
348.9	96.56
349.128	91.56
349.355	82.56
349.583	93.56
349.81	90.56
350.037	104.56
350.265	93.56
350.492	96.56
350.72	112.56
350.947	105.56
351.174	112.56
351.402	118.56
351.629	101.56
351.856	121.56
352.083	102.56
352.311	105.56
352.538	112.56
352.765	110.56
352.992	113.56
353.22	107.56
353.447	109.56
353.674	99.56
353.901	105.56
354.128	100.56
354.355	99.56
354.583	92.56
354.81	111.56
355.037	92.56
355.264	99.56
355.491	92.56
355.718	98.56
355.945	96.56
356.172	101.56
356.399	86.56
356.626	77.56
356.853	107.56
357.08	95.56
357.307	76.56
357.534	90.56
357.761	98.56
357.988	102.56
358.215	93.56
358.441	101.56
358.668	85.56
358.895	106.56
359.122	101.56
359.349	101.56
359.576	80.56
359.802	108.56
360.029	129.56
360.256	125.56
360.483	108.56
360.709	99.56
360.936	100.56
361.163	97.56
361.39	103.56
361.616	100.56
361.843	93.56
362.07	92.56
362.296	104.56
362.523	83.56
362.749	99.56
362.976	85.56
363.203	96.56
363.429	97.56
363.656	94.56
363.882	90.56
364.109	94.56
364.335	86.56
364.562	97.56
364.788	82.56
365.015	108.56
365.241	112.56
365.468	101.56
365.694	94.56
365.92	93.56
366.147	96.56
366.373	91.56
366.599	92.56
366.826	84.56
367.052	83.56
367.278	103.56
367.505	93.56
367.731	95.56
367.957	108.56
368.184	90.56
368.41	110.56
368.636	119.56
368.862	117.56
369.089	118.56
369.315	103.56
369.541	108.56
369.767	102.56
369.993	97.56
370.219	103.56
370.445	88.56
370.672	99.56
370.898	91.56
371.124	95.56
371.35	90.56
371.576	80.56
371.802	86.56
372.028	100.56
372.254	96.56
372.48	88.56
372.706	94.56
372.932	90.56
373.158	91.56
373.384	100.56
373.61	86.56
373.835	79.56
374.061	92.56
374.287	85.56
374.513	73.56
374.739	98.56
374.965	84.56
375.191	107.56
375.416	92.56
375.642	95.56
375.868	90.56
376.094	96.56
376.319	86.56
376.545	80.56
376.771	92.56
376.997	77.56
377.222	93.56
377.448	81.56
377.674	104.56
377.899	107.56
378.125	102.56
378.35	90.56
378.576	86.56
378.802	99.56
379.027	98.56
379.253	100.56
379.478	86.56
379.704	92.56
379.929	98.56
380.155	86.56
380.38	107.56
380.606	94.56
380.831	94.56
381.057	92.56
381.282	100.56
381.507	92.56
381.733	92.56
381.958	111.56
382.184	114.56
382.409	99.56
382.634	106.56
382.86	98.56
383.085	102.56
383.31	109.56
383.535	92.56
383.761	100.56
383.986	116.56
384.211	101.56
384.436	98.56
384.662	88.56
384.887	104.56
385.112	101.56
385.337	110.56
385.562	94.56
385.787	107.56
386.013	109.56
386.238	120.56
386.463	112.56
386.688	113.56
386.913	117.56
387.138	114.56
387.363	121.56
387.588	98.56
387.813	105.56
388.038	95.56
388.263	114.56
388.488	108.56
388.713	115.56
388.938	99.56
389.163	91.56
389.387	100.56
389.612	94.56
389.837	111.56
390.062	90.56
390.287	105.56
390.512	90.56
390.736	98.56
390.961	102.56
391.186	81.56
391.411	88.56
391.636	95.56
391.86	79.56
392.085	77.56
392.31	98.56
392.534	92.56
392.759	80.56
392.984	83.56
393.208	98.56
393.433	98.56
393.658	86.56
393.882	84.56
394.107	93.56
394.331	85.56
394.556	83.56
394.78	92.56
395.005	99.56
395.229	85.56
395.454	103.56
395.678	76.56
395.903	77.56
396.127	102.56
396.352	73.56
396.576	90.56
396.801	93.56
397.025	94.56
397.249	94.56
397.474	95.56
397.698	100.56
397.922	77.56
398.147	93.56
398.371	86.56
398.595	77.56
398.82	83.56
399.044	80.56
399.268	76.56
399.492	85.56
399.717	106.56
399.941	101.56
400.165	103.56
400.389	107.56
400.613	87.56
400.837	95.56
401.062	79.56
401.286	96.56
401.51	77.56
401.734	109.56
401.958	98.56
402.182	142.56
402.406	177.56
402.63	125.56
402.854	100.56
403.078	91.56
403.302	88.56
403.526	94.56
403.75	88.56
403.974	83.56
404.198	102.56
404.422	94.56
404.645	97.56
404.869	98.56
405.093	121.56
405.317	124.56
405.541	124.56
405.765	99.56
405.988	117.56
406.212	188.56
406.436	246.56
406.66	172.56
406.883	105.56
407.107	92.56
407.331	85.56
407.555	98.56
407.778	105.56
408.002	91.56
408.226	87.56
408.449	85.56
408.673	90.56
408.896	100.56
409.12	106.56
409.344	95.56
409.567	99.56
409.791	101.56
410.014	107.56
410.238	100.56
410.461	92.56
410.685	99.56
410.908	84.56
411.132	110.56
411.355	108.56
411.578	81.56
411.802	97.56
412.025	84.56
412.249	109.56
412.472	115.56
412.695	142.56
412.919	104.56
413.142	100.56
413.365	102.56
413.589	95.56
413.812	81.56
414.035	101.56
414.258	88.56
414.482	96.56
414.705	88.56
414.928	88.56
415.151	94.56
415.374	95.56
415.597	80.56
415.821	101.56
416.044	87.56
416.267	89.56
416.49	93.56
416.713	101.56
416.936	92.56
417.159	91.56
417.382	84.56
417.605	92.56
417.828	115.56
418.051	95.56
418.274	79.56
418.497	92.56
418.72	96.56
418.943	97.56
419.166	85.56
419.389	82.56
419.611	86.56
419.834	90.56
420.057	93.56
420.28	112.56
420.503	85.56
420.726	91.56
420.948	85.56
421.171	96.56
421.394	97.56
421.617	94.56
421.839	91.56
422.062	90.56
422.285	99.56
422.507	85.56
422.73	106.56
422.953	93.56
423.175	86.56
423.398	91.56
423.621	84.56
423.843	98.56
424.066	97.56
424.288	86.56
424.511	98.56
424.733	110.56
424.956	112.56
425.178	99.56
425.401	113.56
425.623	105.56
425.846	100.56
426.068	111.56
426.291	94.56
426.513	98.56
426.735	103.56
426.958	109.56
427.18	121.56
427.402	172.56
427.625	238.56
427.847	233.56
428.069	244.56
428.292	140.56
428.514	113.56
428.736	87.56
428.958	79.56
429.181	85.56
429.403	94.56
429.625	71.56
429.847	93.56
430.069	117.56
430.292	92.56
430.514	97.56
430.736	86.56
430.958	95.56
431.18	80.56
431.402	86.56
431.624	89.56
431.846	89.56
432.068	89.56
432.29	86.56
432.512	88.56
432.734	87.56
432.956	88.56
433.178	106.56
433.4	108.56
433.622	96.56
433.844	92.56
434.066	88.56
434.287	89.56
434.509	89.56
434.731	83.56
434.953	88.56
435.175	76.56
435.397	84.56
435.618	88.56
435.84	111.56
436.062	144.56
436.284	141.56
436.505	114.56
436.727	99.56
436.949	106.56
437.17	87.56
437.392	67.56
437.614	88.56
437.835	130.56
438.057	133.56
438.278	145.56
438.5	129.56
438.721	146.56
438.943	102.56
439.165	97.56
439.386	98.56
439.608	106.56
439.829	103.56
440.05	154.56
440.272	202.56
440.493	114.56
440.715	100.56
440.936	88.56
441.158	91.56
441.379	101.56
441.6	110.56
441.822	116.56
442.043	102.56
442.264	112.56
442.486	120.56
442.707	92.56
442.928	117.56
443.149	158.56
443.371	157.56
443.592	117.56
443.813	133.56
444.034	133.56
444.255	87.56
444.476	74.56
444.698	99.56
444.919	88.56
445.14	136.56
445.361	140.56
445.582	124.56
445.803	189.56
446.024	186.56
446.245	164.56
446.466	120.56
446.687	86.56
446.908	106.56
447.129	92.56
447.35	81.56
447.571	98.56
447.792	98.56
448.013	94.56
448.234	117.56
448.455	120.56
448.675	130.56
448.896	136.56
449.117	105.56
449.338	123.56
449.559	137.56
449.779	165.56
450	96.56
450.221	84.56
450.442	105.56
450.662	101.56
450.883	97.56
451.104	112.56
451.324	99.56
451.545	99.56
451.766	96.56
451.986	83.56
452.207	95.56
452.428	102.56
452.648	103.56
452.869	131.56
453.089	129.56
453.31	125.56
453.53	93.56
453.751	96.56
453.971	114.56
454.192	121.56
454.412	100.56
454.633	81.56
454.853	75.56
455.073	94.56
455.294	97.56
455.514	101.56
455.734	86.56
455.955	76.56
456.175	94.56
456.395	89.56
456.616	88.56
456.836	88.56
457.056	91.56
457.276	85.56
457.497	93.56
457.717	87.56
457.937	89.56
458.157	83.56
458.377	100.56
458.598	121.56
458.818	170.56
459.038	209.56
459.258	131.56
459.478	103.56
459.698	82.56
459.918	83.56
460.138	86.56
460.358	82.56
460.578	89.56
460.798	96.56
461.018	92.56
461.238	79.56
461.458	84.56
461.678	87.56
461.898	93.56
462.118	92.56
462.338	77.56
462.558	88.56
462.777	96.56
462.997	92.56
463.217	106.56
463.437	88.56
463.657	92.56
463.876	95.56
464.096	98.56
464.316	110.56
464.536	95.56
464.755	96.56
464.975	110.56
465.195	212.56
465.414	190.56
465.634	110.56
465.854	90.56
466.073	90.56
466.293	95.56
466.512	93.56
466.732	88.56
466.951	80.56
467.171	99.56
467.391	106.56
467.61	140.56
467.829	192.56
468.049	490.56
468.268	672.56
468.488	195.56
468.707	99.56
468.927	98.56
469.146	80.56
469.365	109.56
469.585	82.56
469.804	102.56
470.023	116.56
470.243	106.56
470.462	116.56
470.681	137.56
470.901	98.56
471.12	96.56
471.339	85.56
471.558	104.56
471.777	141.56
471.997	266.56
472.216	909.56
472.435	2003.56
472.654	477.56
472.873	153.56
473.092	102.56
473.311	105.56
473.53	80.56
473.749	88.56
473.968	106.56
474.187	128.56
474.406	115.56
474.625	94.56
474.844	92.56
475.063	93.56
475.282	103.56
475.501	89.56
475.72	92.56
475.939	80.56
476.158	98.56
476.377	94.56
476.596	94.56
476.814	101.56
477.033	108.56
477.252	93.56
477.471	85.56
477.69	88.56
477.908	92.56
478.127	96.56
478.346	92.56
478.564	97.56
478.783	102.56
479.002	103.56
479.22	96.56
479.439	118.56
479.658	130.56
479.876	117.56
480.095	113.56
480.313	120.56
480.532	141.56
480.751	242.56
480.969	846.56
481.188	3529.56
481.406	2003.56
481.624	303.56
481.843	129.56
482.061	117.56
482.28	103.56
482.498	96.56
482.717	88.56
482.935	75.56
483.153	96.56
483.372	88.56
483.59	78.56
483.808	82.56
484.027	101.56
484.245	101.56
484.463	110.56
484.681	110.56
484.9	100.56
485.118	92.56
485.336	93.56
485.554	97.56
485.772	96.56
485.99	117.56
486.209	110.56
486.427	90.56
486.645	113.56
486.863	110.56
487.081	102.56
487.299	87.56
487.517	88.56
487.735	102.56
487.953	91.56
488.171	110.56
488.389	87.56
488.607	93.56
488.825	89.56
489.043	85.56
489.261	76.56
489.479	84.56
489.696	90.56
489.914	90.56
490.132	102.56
490.35	86.56
490.568	88.56
490.786	79.56
491.003	81.56
491.221	101.56
491.439	92.56
491.657	96.56
491.874	86.56
492.092	84.56
492.31	108.56
492.527	94.56
492.745	108.56
492.963	82.56
493.18	93.56
493.398	98.56
493.615	95.56
493.833	102.56
494.05	95.56
494.268	93.56
494.485	101.56
494.703	76.56
494.92	90.56
495.138	89.56
495.355	92.56
495.573	96.56
495.79	92.56
496.008	100.56
496.225	96.56
496.442	84.56
496.66	89.56
496.877	93.56
497.094	86.56
497.312	98.56
497.529	84.56
497.746	93.56
497.963	78.56
498.181	102.56
498.398	102.56
498.615	129.56
498.832	108.56
499.049	93.56
499.267	78.56
499.484	102.56
499.701	96.56
499.918	90.56
500.135	89.56
500.352	85.56
500.569	82.56
500.786	115.56
501.003	93.56
501.22	101.56
501.437	100.56
501.654	105.56
501.871	112.56
502.088	78.56
502.305	94.56
502.522	75.56
502.739	86.56
502.956	95.56
503.172	93.56
503.389	116.56
503.606	116.56
503.823	106.56
504.04	97.56
504.256	102.56
504.473	92.56
504.69	79.56
504.907	109.56
505.123	112.56
505.34	86.56
505.557	84.56
505.773	88.56
505.99	97.56
506.207	87.56
506.423	94.56
506.64	94.56
506.856	101.56
507.073	94.56
507.289	90.56
507.506	99.56
507.722	108.56
507.939	121.56
508.155	103.56
508.372	90.56
508.588	106.56
508.805	100.56
509.021	97.56
509.238	97.56
509.454	99.56
509.67	102.56
509.887	105.56
510.103	142.56
510.319	219.56
510.536	765.56
510.752	2552.56
510.968	745.56
511.184	161.56
511.401	117.56
511.617	100.56
511.833	120.56
512.049	108.56
512.265	102.56
512.481	103.56
512.698	86.56
