Data from Circ_1997_H10_HRD10591_00042.txt Node
Date: Wed Jan 03 11:29:36 EST 2024
User: Yrep
Spectrometer: HR+D1059
Trigger mode: 1
Integration Time (sec): 1.000000E-1
Scans to average: 1
Electric dark correction enabled: true
Nonlinearity correction enabled: false
Boxcar width: 0
XAxis mode: Wavelengths
Number of Pixels in Spectrum: 2048
>>>>>Begin Spectral Data<<<<<
223.165	-29.38
223.4	-29.38
223.635	-29.38
223.869	-33.38
224.104	-15.38
224.338	-0.38
224.573	0.62
224.808	-2.38
225.042	0.62
225.277	-11.38
225.511	-2.38
225.746	-1.38
225.98	3.62
226.215	16.62
226.449	4.62
226.683	24.62
226.918	23.62
227.152	21.62
227.387	20.62
227.621	36.62
227.856	42.62
228.09	49.62
228.324	47.62
228.559	67.62
228.793	70.62
229.027	61.62
229.262	76.62
229.496	90.62
229.73	108.62
229.964	112.62
230.199	90.62
230.433	99.62
230.667	74.62
230.901	59.62
231.136	78.62
231.37	79.62
231.604	75.62
231.838	79.62
232.072	67.62
232.306	98.62
232.541	110.62
232.775	90.62
233.009	90.62
233.243	88.62
233.477	73.62
233.711	72.62
233.945	94.62
234.179	75.62
234.413	78.62
234.647	78.62
234.881	69.62
235.115	79.62
235.349	73.62
235.583	75.62
235.817	74.62
236.051	97.62
236.285	78.62
236.519	86.62
236.753	83.62
236.987	82.62
237.221	99.62
237.455	114.62
237.689	95.62
237.922	78.62
238.156	82.62
238.39	91.62
238.624	95.62
238.858	75.62
239.091	72.62
239.325	86.62
239.559	94.62
239.793	96.62
240.027	79.62
240.26	84.62
240.494	96.62
240.728	79.62
240.961	81.62
241.195	83.62
241.429	81.62
241.662	79.62
241.896	78.62
242.13	75.62
242.363	86.62
242.597	78.62
242.83	107.62
243.064	75.62
243.298	81.62
243.531	67.62
243.765	76.62
243.998	89.62
244.232	92.62
244.465	95.62
244.699	92.62
244.932	83.62
245.166	82.62
245.399	82.62
245.633	84.62
245.866	87.62
246.099	88.62
246.333	95.62
246.566	84.62
246.8	87.62
247.033	81.62
247.266	84.62
247.5	87.62
247.733	78.62
247.966	96.62
248.2	78.62
248.433	88.62
248.666	83.62
248.899	96.62
249.133	99.62
249.366	116.62
249.599	115.62
249.832	88.62
250.066	84.62
250.299	89.62
250.532	91.62
250.765	93.62
250.998	92.62
251.231	71.62
251.465	86.62
251.698	75.62
251.931	73.62
252.164	104.62
252.397	78.62
252.63	95.62
252.863	83.62
253.096	92.62
253.329	88.62
253.562	82.62
253.795	77.62
254.028	90.62
254.261	86.62
254.494	80.62
254.727	107.62
254.96	87.62
255.193	86.62
255.426	98.62
255.659	94.62
255.892	100.62
256.124	112.62
256.357	88.62
256.59	95.62
256.823	96.62
257.056	92.62
257.289	90.62
257.521	85.62
257.754	80.62
257.987	86.62
258.22	89.62
258.452	105.62
258.685	95.62
258.918	99.62
259.151	83.62
259.383	82.62
259.616	75.62
259.849	95.62
260.081	88.62
260.314	95.62
260.547	95.62
260.779	99.62
261.012	108.62
261.244	119.62
261.477	100.62
261.71	104.62
261.942	146.62
262.175	164.62
262.407	102.62
262.64	75.62
262.872	94.62
263.105	99.62
263.337	102.62
263.57	92.62
263.802	99.62
264.035	70.62
264.267	78.62
264.499	94.62
264.732	92.62
264.964	79.62
265.197	81.62
265.429	96.62
265.661	76.62
265.894	81.62
266.126	91.62
266.358	71.62
266.591	84.62
266.823	90.62
267.055	91.62
267.287	84.62
267.52	94.62
267.752	87.62
267.984	76.62
268.216	81.62
268.448	100.62
268.681	84.62
268.913	91.62
269.145	97.62
269.377	85.62
269.609	88.62
269.841	90.62
270.073	81.62
270.306	93.62
270.538	87.62
270.77	90.62
271.002	95.62
271.234	103.62
271.466	98.62
271.698	90.62
271.93	90.62
272.162	83.62
272.394	96.62
272.626	97.62
272.858	92.62
273.09	91.62
273.322	87.62
273.553	99.62
273.785	95.62
274.017	95.62
274.249	90.62
274.481	87.62
274.713	96.62
274.945	96.62
275.176	100.62
275.408	115.62
275.64	112.62
275.872	139.62
276.104	106.62
276.335	97.62
276.567	151.62
276.799	166.62
277.031	185.62
277.262	217.62
277.494	165.62
277.726	115.62
277.957	98.62
278.189	99.62
278.421	97.62
278.652	105.62
278.884	89.62
279.115	91.62
279.347	90.62
279.579	97.62
279.81	139.62
280.042	222.62
280.273	313.62
280.505	195.62
280.736	118.62
280.968	90.62
281.199	83.62
281.431	89.62
281.662	90.62
281.894	99.62
282.125	116.62
282.356	144.62
282.588	181.62
282.819	164.62
283.051	109.62
283.282	93.62
283.513	100.62
283.745	90.62
283.976	102.62
284.207	92.62
284.439	99.62
284.67	91.62
284.901	83.62
285.132	87.62
285.364	89.62
285.595	99.62
285.826	89.62
286.057	78.62
286.288	89.62
286.52	89.62
286.751	78.62
286.982	89.62
287.213	95.62
287.444	98.62
287.675	96.62
287.906	92.62
288.138	97.62
288.369	95.62
288.6	103.62
288.831	86.62
289.062	100.62
289.293	87.62
289.524	81.62
289.755	99.62
289.986	90.62
290.217	86.62
290.448	76.62
290.679	97.62
290.91	95.62
291.141	87.62
291.371	84.62
291.602	95.62
291.833	95.62
292.064	92.62
292.295	93.62
292.526	107.62
292.757	71.62
292.987	100.62
293.218	103.62
293.449	86.62
293.68	96.62
293.91	94.62
294.141	87.62
294.372	97.62
294.603	79.62
294.833	83.62
295.064	87.62
295.295	115.62
295.525	100.62
295.756	115.62
295.987	121.62
296.217	182.62
296.448	164.62
296.679	91.62
296.909	96.62
297.14	85.62
297.37	105.62
297.601	81.62
297.831	95.62
298.062	77.62
298.292	91.62
298.523	96.62
298.753	86.62
298.984	93.62
299.214	98.62
299.445	103.62
299.675	106.62
299.905	114.62
300.136	95.62
300.366	90.62
300.597	99.62
300.827	107.62
301.057	111.62
301.288	124.62
301.518	100.62
301.748	101.62
301.979	120.62
302.209	125.62
302.439	97.62
302.669	92.62
302.9	94.62
303.13	95.62
303.36	116.62
303.59	142.62
303.82	153.62
304.051	115.62
304.281	95.62
304.511	101.62
304.741	107.62
304.971	101.62
305.201	99.62
305.431	90.62
305.661	97.62
305.891	107.62
306.121	105.62
306.352	135.62
306.582	122.62
306.812	119.62
307.042	143.62
307.272	191.62
307.502	196.62
307.731	193.62
307.961	134.62
308.191	128.62
308.421	92.62
308.651	98.62
308.881	110.62
309.111	85.62
309.341	101.62
309.571	115.62
309.8	121.62
310.03	96.62
310.26	111.62
310.49	106.62
310.72	113.62
310.949	143.62
311.179	122.62
311.409	105.62
311.639	108.62
311.868	107.62
312.098	105.62
312.328	97.62
312.557	140.62
312.787	129.62
313.017	118.62
313.246	108.62
313.476	95.62
313.706	99.62
313.935	111.62
314.165	123.62
314.394	148.62
314.624	117.62
314.853	94.62
315.083	100.62
315.312	101.62
315.542	97.62
315.771	85.62
316.001	107.62
316.23	98.62
316.46	107.62
316.689	102.62
316.919	106.62
317.148	106.62
317.377	122.62
317.607	111.62
317.836	115.62
318.065	102.62
318.295	107.62
318.524	90.62
318.753	96.62
318.983	104.62
319.212	100.62
319.441	119.62
319.67	123.62
319.9	100.62
320.129	99.62
320.358	84.62
320.587	109.62
320.816	110.62
321.046	83.62
321.275	87.62
321.504	109.62
321.733	119.62
321.962	107.62
322.191	122.62
322.42	122.62
322.649	132.62
322.878	135.62
323.108	152.62
323.337	172.62
323.566	185.62
323.795	221.62
324.024	284.62
324.253	604.62
324.482	1359.62
324.71	2926.62
324.939	3922.62
325.168	1339.62
325.397	369.62
325.626	198.62
325.855	164.62
326.084	150.62
326.313	170.62
326.542	219.62
326.77	304.62
326.999	690.62
327.228	1496.62
327.457	2789.62
327.686	2310.62
327.914	718.62
328.143	654.62
328.372	858.62
328.6	473.62
328.829	241.62
329.058	227.62
329.287	244.62
329.515	220.62
329.744	290.62
329.972	573.62
330.201	1276.62
330.43	1859.62
330.658	815.62
330.887	360.62
331.115	215.62
331.344	139.62
331.572	142.62
331.801	146.62
332.03	140.62
332.258	130.62
332.486	109.62
332.715	121.62
332.943	115.62
333.172	132.62
333.4	138.62
333.629	174.62
333.857	270.62
334.085	555.62
334.314	1197.62
334.542	2386.62
334.771	2219.62
334.999	538.62
335.227	218.62
335.455	155.62
335.684	114.62
335.912	119.62
336.14	105.62
336.369	105.62
336.597	121.62
336.825	118.62
337.053	115.62
337.281	118.62
337.51	95.62
337.738	109.62
337.966	95.62
338.194	120.62
338.422	98.62
338.65	97.62
338.878	102.62
339.106	94.62
339.334	101.62
339.562	82.62
339.79	94.62
340.018	102.62
340.246	118.62
340.474	106.62
340.702	102.62
340.93	96.62
341.158	72.62
341.386	121.62
341.614	99.62
341.842	108.62
342.07	104.62
342.298	104.62
342.526	94.62
342.754	83.62
342.981	98.62
343.209	99.62
343.437	100.62
343.665	106.62
343.893	106.62
344.12	83.62
344.348	97.62
344.576	87.62
344.804	103.62
345.031	121.62
345.259	117.62
345.487	108.62
345.714	110.62
345.942	108.62
346.17	94.62
346.397	108.62
346.625	109.62
346.853	96.62
347.08	92.62
347.308	102.62
347.535	107.62
347.763	106.62
347.99	107.62
348.218	119.62
348.445	126.62
348.673	125.62
348.9	109.62
349.128	87.62
349.355	111.62
349.583	115.62
349.81	107.62
350.037	107.62
350.265	82.62
350.492	80.62
350.72	102.62
350.947	97.62
351.174	111.62
351.402	131.62
351.629	108.62
351.856	100.62
352.083	101.62
352.311	125.62
352.538	132.62
352.765	135.62
352.992	142.62
353.22	120.62
353.447	111.62
353.674	124.62
353.901	100.62
354.128	95.62
354.355	95.62
354.583	103.62
354.81	98.62
355.037	100.62
355.264	103.62
355.491	84.62
355.718	108.62
355.945	95.62
356.172	100.62
356.399	97.62
356.626	80.62
356.853	100.62
357.08	95.62
357.307	84.62
357.534	98.62
357.761	89.62
357.988	98.62
358.215	82.62
358.441	97.62
358.668	92.62
358.895	86.62
359.122	98.62
359.349	89.62
359.576	98.62
359.802	125.62
360.029	169.62
360.256	163.62
360.483	127.62
360.709	99.62
360.936	107.62
361.163	98.62
361.39	109.62
361.616	117.62
361.843	99.62
362.07	108.62
362.296	104.62
362.523	100.62
362.749	114.62
362.976	100.62
363.203	98.62
363.429	102.62
363.656	117.62
363.882	104.62
364.109	86.62
364.335	95.62
364.562	96.62
364.788	103.62
365.015	95.62
365.241	125.62
365.468	112.62
365.694	118.62
365.92	117.62
366.147	106.62
366.373	99.62
366.599	100.62
366.826	100.62
367.052	82.62
367.278	98.62
367.505	84.62
367.731	98.62
367.957	112.62
368.184	102.62
368.41	93.62
368.636	138.62
368.862	134.62
369.089	121.62
369.315	104.62
369.541	95.62
369.767	87.62
369.993	97.62
370.219	88.62
370.445	97.62
370.672	88.62
370.898	89.62
371.124	79.62
371.35	94.62
371.576	97.62
371.802	81.62
372.028	82.62
372.254	97.62
372.48	79.62
372.706	84.62
372.932	92.62
373.158	99.62
373.384	104.62
373.61	95.62
373.835	81.62
374.061	107.62
374.287	111.62
374.513	91.62
374.739	95.62
374.965	91.62
375.191	90.62
375.416	96.62
375.642	112.62
375.868	107.62
376.094	91.62
376.319	84.62
376.545	90.62
376.771	104.62
376.997	92.62
377.222	94.62
377.448	93.62
377.674	98.62
377.899	85.62
378.125	98.62
378.35	96.62
378.576	70.62
378.802	88.62
379.027	88.62
379.253	100.62
379.478	90.62
379.704	92.62
379.929	104.62
380.155	102.62
380.38	88.62
380.606	100.62
380.831	89.62
381.057	102.62
381.282	115.62
381.507	91.62
381.733	114.62
381.958	96.62
382.184	96.62
382.409	96.62
382.634	100.62
382.86	103.62
383.085	105.62
383.31	101.62
383.535	99.62
383.761	105.62
383.986	80.62
384.211	88.62
384.436	85.62
384.662	99.62
384.887	114.62
385.112	102.62
385.337	103.62
385.562	106.62
385.787	108.62
386.013	116.62
386.238	117.62
386.463	109.62
386.688	105.62
386.913	105.62
387.138	113.62
387.363	97.62
387.588	99.62
387.813	98.62
388.038	101.62
388.263	107.62
388.488	110.62
388.713	102.62
388.938	100.62
389.163	94.62
389.387	85.62
389.612	88.62
389.837	94.62
390.062	98.62
390.287	91.62
390.512	82.62
390.736	97.62
390.961	95.62
391.186	97.62
391.411	92.62
391.636	91.62
391.86	75.62
392.085	80.62
392.31	92.62
392.534	105.62
392.759	89.62
392.984	93.62
393.208	103.62
393.433	99.62
393.658	106.62
393.882	104.62
394.107	92.62
394.331	87.62
394.556	92.62
394.78	81.62
395.005	86.62
395.229	93.62
395.454	83.62
395.678	76.62
395.903	85.62
396.127	98.62
396.352	97.62
396.576	80.62
396.801	103.62
397.025	92.62
397.249	87.62
397.474	88.62
397.698	83.62
397.922	91.62
398.147	93.62
398.371	66.62
398.595	89.62
398.82	95.62
399.044	94.62
399.268	89.62
399.492	108.62
399.717	84.62
399.941	89.62
400.165	103.62
400.389	100.62
400.613	99.62
400.837	92.62
401.062	87.62
401.286	88.62
401.51	93.62
401.734	110.62
401.958	103.62
402.182	156.62
402.406	215.62
402.63	166.62
402.854	103.62
403.078	100.62
403.302	108.62
403.526	110.62
403.75	80.62
403.974	87.62
404.198	110.62
404.422	83.62
404.645	99.62
404.869	96.62
405.093	126.62
405.317	156.62
405.541	154.62
405.765	126.62
405.988	168.62
406.212	246.62
406.436	363.62
406.66	240.62
406.883	134.62
407.107	128.62
407.331	111.62
407.555	99.62
407.778	128.62
408.002	103.62
408.226	98.62
408.449	102.62
408.673	85.62
408.896	97.62
409.12	119.62
409.344	93.62
409.567	97.62
409.791	91.62
410.014	95.62
410.238	92.62
410.461	92.62
410.685	91.62
410.908	92.62
411.132	107.62
411.355	108.62
411.578	97.62
411.802	89.62
412.025	99.62
412.249	107.62
412.472	131.62
412.695	157.62
412.919	114.62
413.142	117.62
413.365	90.62
413.589	83.62
413.812	104.62
414.035	103.62
414.258	94.62
414.482	93.62
414.705	115.62
414.928	98.62
415.151	102.62
415.374	87.62
415.597	76.62
415.821	84.62
416.044	97.62
416.267	94.62
416.49	106.62
416.713	93.62
416.936	96.62
417.159	100.62
417.382	106.62
417.605	97.62
417.828	105.62
418.051	106.62
418.274	90.62
418.497	93.62
418.72	88.62
418.943	76.62
419.166	87.62
419.389	77.62
419.611	91.62
419.834	108.62
420.057	94.62
420.28	105.62
420.503	82.62
420.726	93.62
420.948	94.62
421.171	122.62
421.394	106.62
421.617	91.62
421.839	86.62
422.062	95.62
422.285	97.62
422.507	108.62
422.73	129.62
422.953	97.62
423.175	84.62
423.398	94.62
423.621	80.62
423.843	81.62
424.066	88.62
424.288	98.62
424.511	97.62
424.733	113.62
424.956	145.62
425.178	131.62
425.401	111.62
425.623	122.62
425.846	97.62
426.068	103.62
426.291	104.62
426.513	92.62
426.735	109.62
426.958	115.62
427.18	131.62
427.402	222.62
427.625	305.62
427.847	302.62
428.069	290.62
428.292	137.62
428.514	112.62
428.736	109.62
428.958	104.62
429.181	106.62
429.403	83.62
429.625	103.62
429.847	110.62
430.069	123.62
430.292	105.62
430.514	74.62
430.736	79.62
430.958	71.62
431.18	80.62
431.402	99.62
431.624	85.62
431.846	96.62
432.068	90.62
432.29	91.62
432.512	87.62
432.734	96.62
432.956	105.62
433.178	108.62
433.4	107.62
433.622	92.62
433.844	89.62
434.066	97.62
434.287	93.62
434.509	98.62
434.731	108.62
434.953	82.62
435.175	83.62
435.397	103.62
435.618	94.62
435.84	115.62
436.062	158.62
436.284	142.62
436.505	122.62
436.727	122.62
436.949	71.62
437.17	94.62
437.392	97.62
437.614	112.62
437.835	135.62
438.057	167.62
438.278	146.62
438.5	127.62
438.721	156.62
438.943	111.62
439.165	100.62
439.386	86.62
439.608	100.62
439.829	130.62
440.05	188.62
440.272	226.62
440.493	105.62
440.715	88.62
440.936	90.62
441.158	85.62
441.379	110.62
441.6	106.62
441.822	108.62
442.043	119.62
442.264	130.62
442.486	133.62
442.707	114.62
442.928	152.62
443.149	219.62
443.371	199.62
443.592	146.62
443.813	147.62
444.034	126.62
444.255	103.62
444.476	96.62
444.698	74.62
444.919	100.62
445.14	140.62
445.361	152.62
445.582	184.62
445.803	244.62
446.024	218.62
446.245	204.62
446.466	145.62
446.687	104.62
446.908	99.62
447.129	89.62
447.35	89.62
447.571	114.62
447.792	95.62
448.013	100.62
448.234	130.62
448.455	109.62
448.675	146.62
448.896	149.62
449.117	128.62
449.338	134.62
449.559	162.62
449.779	183.62
450	104.62
450.221	97.62
450.442	86.62
450.662	107.62
450.883	138.62
451.104	163.62
451.324	118.62
451.545	92.62
451.766	98.62
451.986	81.62
452.207	82.62
452.428	101.62
452.648	120.62
452.869	150.62
453.089	152.62
453.31	152.62
453.53	114.62
453.751	108.62
453.971	121.62
454.192	144.62
454.412	104.62
454.633	89.62
454.853	98.62
455.073	94.62
455.294	103.62
455.514	121.62
455.734	110.62
455.955	94.62
456.175	106.62
456.395	85.62
456.616	94.62
456.836	76.62
457.056	94.62
457.276	104.62
457.497	95.62
457.717	77.62
457.937	82.62
458.157	70.62
458.377	83.62
458.598	142.62
458.818	250.62
459.038	282.62
459.258	187.62
459.478	110.62
459.698	82.62
459.918	91.62
460.138	89.62
460.358	87.62
460.578	95.62
460.798	90.62
461.018	116.62
461.238	89.62
461.458	90.62
461.678	90.62
461.898	89.62
462.118	79.62
462.338	91.62
462.558	100.62
462.777	96.62
462.997	111.62
463.217	103.62
463.437	106.62
463.657	105.62
463.876	90.62
464.096	98.62
464.316	105.62
464.536	97.62
464.755	105.62
464.975	134.62
465.195	274.62
465.414	302.62
465.634	125.62
465.854	94.62
466.073	83.62
466.293	98.62
466.512	89.62
466.732	94.62
466.951	82.62
467.171	97.62
467.391	115.62
467.61	163.62
467.829	231.62
468.049	664.62
468.268	1009.62
468.488	264.62
468.707	112.62
468.927	93.62
469.146	87.62
469.365	97.62
469.585	116.62
469.804	110.62
470.023	110.62
470.243	100.62
470.462	134.62
470.681	155.62
470.901	116.62
471.12	108.62
471.339	105.62
471.558	125.62
471.777	187.62
471.997	340.62
472.216	1330.62
472.435	3093.62
472.654	704.62
472.873	188.62
473.092	124.62
473.311	96.62
473.53	90.62
473.749	93.62
473.968	125.62
474.187	150.62
474.406	119.62
474.625	95.62
474.844	96.62
475.063	81.62
475.282	93.62
475.501	84.62
475.72	90.62
475.939	81.62
476.158	90.62
476.377	93.62
476.596	95.62
476.814	103.62
477.033	114.62
477.252	98.62
477.471	92.62
477.69	96.62
477.908	100.62
478.127	104.62
478.346	90.62
478.564	99.62
478.783	105.62
479.002	121.62
479.22	113.62
479.439	139.62
479.658	137.62
479.876	126.62
480.095	124.62
480.313	135.62
480.532	191.62
480.751	315.62
480.969	1221.62
481.188	5448.62
481.406	3056.62
481.624	434.62
481.843	159.62
482.061	101.62
482.28	100.62
482.498	102.62
482.717	92.62
482.935	90.62
483.153	104.62
483.372	90.62
483.59	95.62
483.808	94.62
484.027	97.62
484.245	102.62
484.463	88.62
484.681	96.62
484.9	85.62
485.118	102.62
485.336	95.62
485.554	98.62
485.772	116.62
485.99	114.62
486.209	107.62
486.427	98.62
486.645	127.62
486.863	146.62
487.081	114.62
487.299	100.62
487.517	105.62
487.735	74.62
487.953	100.62
488.171	96.62
488.389	102.62
488.607	108.62
488.825	92.62
489.043	91.62
489.261	103.62
489.479	97.62
489.696	93.62
489.914	103.62
490.132	84.62
490.35	91.62
490.568	91.62
490.786	81.62
491.003	95.62
491.221	115.62
491.439	92.62
491.657	88.62
491.874	104.62
492.092	99.62
492.31	90.62
492.527	103.62
492.745	99.62
492.963	78.62
493.18	104.62
493.398	101.62
493.615	98.62
493.833	98.62
494.05	97.62
494.268	104.62
494.485	106.62
494.703	91.62
494.92	88.62
495.138	96.62
495.355	89.62
495.573	97.62
495.79	93.62
496.008	91.62
496.225	106.62
496.442	95.62
496.66	96.62
496.877	93.62
497.094	99.62
497.312	99.62
497.529	76.62
497.746	90.62
497.963	85.62
498.181	102.62
498.398	109.62
498.615	127.62
498.832	112.62
499.049	102.62
499.267	102.62
499.484	95.62
499.701	103.62
499.918	80.62
500.135	89.62
500.352	86.62
500.569	104.62
500.786	89.62
501.003	92.62
501.22	82.62
501.437	94.62
501.654	101.62
501.871	138.62
502.088	106.62
502.305	93.62
502.522	86.62
502.739	92.62
502.956	76.62
503.172	98.62
503.389	97.62
503.606	150.62
503.823	120.62
504.04	104.62
504.256	89.62
504.473	104.62
504.69	103.62
504.907	88.62
505.123	95.62
505.34	89.62
505.557	94.62
505.773	96.62
505.99	94.62
506.207	96.62
506.423	80.62
506.64	97.62
506.856	92.62
507.073	103.62
507.289	101.62
507.506	106.62
507.722	152.62
507.939	143.62
508.155	107.62
508.372	106.62
508.588	84.62
508.805	95.62
509.021	96.62
509.238	96.62
509.454	107.62
509.67	120.62
509.887	121.62
510.103	148.62
510.319	256.62
510.536	1027.62
510.752	3678.62
510.968	948.62
511.184	203.62
511.401	138.62
