Data from Circ_1997_H10_HRD10591_00007.txt Node
Date: Wed Jan 03 11:29:29 EST 2024
User: Yrep
Spectrometer: HR+D1059
Trigger mode: 1
Integration Time (sec): 1.000000E-1
Scans to average: 1
Electric dark correction enabled: true
Nonlinearity correction enabled: false
Boxcar width: 0
XAxis mode: Wavelengths
Number of Pixels in Spectrum: 2048
>>>>>Begin Spectral Data<<<<<
223.165	-18.62
223.4	-18.62
223.635	-18.62
223.869	-20.62
224.104	-19.62
224.338	-4.62
224.573	-16.62
224.808	-8.62
225.042	-15.62
225.277	-7.62
225.511	-8.62
225.746	-8.62
225.98	13.38
226.215	15.38
226.449	24.38
226.683	15.38
226.918	29.38
227.152	31.38
227.387	37.38
227.621	60.38
227.856	40.38
228.09	51.38
228.324	55.38
228.559	52.38
228.793	71.38
229.027	55.38
229.262	72.38
229.496	86.38
229.73	83.38
229.964	93.38
230.199	72.38
230.433	87.38
230.667	79.38
230.901	68.38
231.136	70.38
231.37	79.38
231.604	85.38
231.838	81.38
232.072	73.38
232.306	78.38
232.541	77.38
232.775	76.38
233.009	70.38
233.243	81.38
233.477	87.38
233.711	62.38
233.945	80.38
234.179	73.38
234.413	64.38
234.647	79.38
234.881	85.38
235.115	85.38
235.349	60.38
235.583	81.38
235.817	74.38
236.051	78.38
236.285	77.38
236.519	85.38
236.753	68.38
236.987	82.38
237.221	85.38
237.455	88.38
237.689	83.38
237.922	73.38
238.156	78.38
238.39	81.38
238.624	78.38
238.858	81.38
239.091	80.38
239.325	78.38
239.559	72.38
239.793	86.38
240.027	76.38
240.26	64.38
240.494	75.38
240.728	86.38
240.961	59.38
241.195	67.38
241.429	70.38
241.662	75.38
241.896	73.38
242.13	67.38
242.363	84.38
242.597	63.38
242.83	85.38
243.064	69.38
243.298	80.38
243.531	72.38
243.765	88.38
243.998	74.38
244.232	69.38
244.465	100.38
244.699	79.38
244.932	84.38
245.166	77.38
245.399	67.38
245.633	88.38
245.866	76.38
246.099	94.38
246.333	84.38
246.566	92.38
246.8	70.38
247.033	67.38
247.266	63.38
247.5	87.38
247.733	67.38
247.966	61.38
248.2	73.38
248.433	64.38
248.666	76.38
248.899	75.38
249.133	78.38
249.366	111.38
249.599	104.38
249.832	92.38
250.066	79.38
250.299	71.38
250.532	83.38
250.765	78.38
250.998	85.38
251.231	77.38
251.465	80.38
251.698	76.38
251.931	89.38
252.164	81.38
252.397	77.38
252.63	77.38
252.863	80.38
253.096	73.38
253.329	84.38
253.562	89.38
253.795	79.38
254.028	71.38
254.261	70.38
254.494	81.38
254.727	77.38
254.96	89.38
255.193	77.38
255.426	71.38
255.659	87.38
255.892	94.38
256.124	84.38
256.357	71.38
256.59	83.38
256.823	76.38
257.056	86.38
257.289	92.38
257.521	93.38
257.754	77.38
257.987	83.38
258.22	85.38
258.452	77.38
258.685	84.38
258.918	95.38
259.151	87.38
259.383	95.38
259.616	84.38
259.849	86.38
260.081	96.38
260.314	69.38
260.547	73.38
260.779	75.38
261.012	87.38
261.244	85.38
261.477	93.38
261.71	98.38
261.942	112.38
262.175	136.38
262.407	63.38
262.64	77.38
262.872	73.38
263.105	80.38
263.337	74.38
263.57	91.38
263.802	94.38
264.035	82.38
264.267	75.38
264.499	85.38
264.732	91.38
264.964	73.38
265.197	78.38
265.429	76.38
265.661	88.38
265.894	80.38
266.126	72.38
266.358	75.38
266.591	81.38
266.823	71.38
267.055	82.38
267.287	78.38
267.52	89.38
267.752	83.38
267.984	86.38
268.216	80.38
268.448	89.38
268.681	89.38
268.913	76.38
269.145	78.38
269.377	84.38
269.609	78.38
269.841	86.38
270.073	81.38
270.306	75.38
270.538	83.38
270.77	93.38
271.002	77.38
271.234	96.38
271.466	90.38
271.698	79.38
271.93	80.38
272.162	81.38
272.394	77.38
272.626	88.38
272.858	82.38
273.09	73.38
273.322	78.38
273.553	86.38
273.785	88.38
274.017	84.38
274.249	81.38
274.481	85.38
274.713	92.38
274.945	101.38
275.176	89.38
275.408	81.38
275.64	103.38
275.872	110.38
276.104	90.38
276.335	108.38
276.567	92.38
276.799	119.38
277.031	130.38
277.262	164.38
277.494	112.38
277.726	93.38
277.957	78.38
278.189	97.38
278.421	85.38
278.652	78.38
278.884	77.38
279.115	87.38
279.347	89.38
279.579	95.38
279.81	115.38
280.042	156.38
280.273	197.38
280.505	140.38
280.736	105.38
280.968	84.38
281.199	75.38
281.431	93.38
281.662	83.38
281.894	100.38
282.125	94.38
282.356	110.38
282.588	144.38
282.819	110.38
283.051	94.38
283.282	81.38
283.513	97.38
283.745	87.38
283.976	83.38
284.207	74.38
284.439	85.38
284.67	69.38
284.901	80.38
285.132	86.38
285.364	69.38
285.595	87.38
285.826	83.38
286.057	71.38
286.288	87.38
286.52	97.38
286.751	81.38
286.982	73.38
287.213	97.38
287.444	97.38
287.675	87.38
287.906	90.38
288.138	90.38
288.369	73.38
288.6	85.38
288.831	84.38
289.062	88.38
289.293	101.38
289.524	80.38
289.755	82.38
289.986	76.38
290.217	73.38
290.448	69.38
290.679	76.38
290.91	94.38
291.141	83.38
291.371	108.38
291.602	90.38
291.833	81.38
292.064	97.38
292.295	84.38
292.526	96.38
292.757	83.38
292.987	81.38
293.218	92.38
293.449	73.38
293.68	94.38
293.91	89.38
294.141	80.38
294.372	83.38
294.603	76.38
294.833	93.38
295.064	88.38
295.295	96.38
295.525	100.38
295.756	90.38
295.987	117.38
296.217	157.38
296.448	134.38
296.679	97.38
296.909	77.38
297.14	79.38
297.37	84.38
297.601	96.38
297.831	77.38
298.062	109.38
298.292	101.38
298.523	80.38
298.753	96.38
298.984	82.38
299.214	96.38
299.445	93.38
299.675	94.38
299.905	97.38
300.136	99.38
300.366	84.38
300.597	81.38
300.827	94.38
301.057	103.38
301.288	104.38
301.518	96.38
301.748	97.38
301.979	104.38
302.209	100.38
302.439	101.38
302.669	82.38
302.9	95.38
303.13	96.38
303.36	99.38
303.59	120.38
303.82	125.38
304.051	99.38
304.281	80.38
304.511	87.38
304.741	76.38
304.971	85.38
305.201	75.38
305.431	96.38
305.661	95.38
305.891	78.38
306.121	88.38
306.352	98.38
306.582	101.38
306.812	87.38
307.042	103.38
307.272	127.38
307.502	142.38
307.731	147.38
307.961	106.38
308.191	98.38
308.421	84.38
308.651	91.38
308.881	97.38
309.111	87.38
309.341	89.38
309.571	92.38
309.8	97.38
310.03	101.38
310.26	91.38
310.49	96.38
310.72	98.38
310.949	96.38
311.179	112.38
311.409	87.38
311.639	81.38
311.868	108.38
312.098	86.38
312.328	85.38
312.557	115.38
312.787	118.38
313.017	110.38
313.246	81.38
313.476	84.38
313.706	88.38
313.935	100.38
314.165	94.38
314.394	101.38
314.624	103.38
314.853	111.38
315.083	107.38
315.312	89.38
315.542	102.38
315.771	82.38
316.001	87.38
316.23	79.38
316.46	85.38
316.689	87.38
316.919	88.38
317.148	92.38
317.377	98.38
317.607	97.38
317.836	95.38
318.065	78.38
318.295	92.38
318.524	87.38
318.753	71.38
318.983	83.38
319.212	103.38
319.441	120.38
319.67	96.38
319.9	104.38
320.129	92.38
320.358	96.38
320.587	92.38
320.816	87.38
321.046	112.38
321.275	117.38
321.504	96.38
321.733	90.38
321.962	91.38
322.191	108.38
322.42	115.38
322.649	110.38
322.878	122.38
323.108	127.38
323.337	133.38
323.566	153.38
323.795	190.38
324.024	277.38
324.253	533.38
324.482	1221.38
324.71	2652.38
324.939	3549.38
325.168	1210.38
325.397	323.38
325.626	181.38
325.855	151.38
326.084	147.38
326.313	157.38
326.542	189.38
326.77	296.38
326.999	638.38
327.228	1351.38
327.457	2684.38
327.686	2112.38
327.914	583.38
328.143	397.38
328.372	492.38
328.6	287.38
328.829	160.38
329.058	160.38
329.287	179.38
329.515	163.38
329.744	202.38
329.972	328.38
330.201	643.38
330.43	945.38
330.658	448.38
330.887	239.38
331.115	183.38
331.344	113.38
331.572	99.38
331.801	103.38
332.03	115.38
332.258	100.38
332.486	106.38
332.715	103.38
332.943	101.38
333.172	107.38
333.4	120.38
333.629	141.38
333.857	180.38
334.085	314.38
334.314	608.38
334.542	1154.38
334.771	1120.38
334.999	317.38
335.227	155.38
335.455	118.38
335.684	105.38
335.912	103.38
336.14	106.38
336.369	116.38
336.597	107.38
336.825	100.38
337.053	104.38
337.281	81.38
337.51	84.38
337.738	103.38
337.966	98.38
338.194	106.38
338.422	116.38
338.65	105.38
338.878	96.38
339.106	104.38
339.334	96.38
339.562	80.38
339.79	85.38
340.018	107.38
340.246	94.38
340.474	97.38
340.702	99.38
340.93	90.38
341.158	86.38
341.386	109.38
341.614	86.38
341.842	102.38
342.07	92.38
342.298	82.38
342.526	92.38
342.754	98.38
342.981	88.38
343.209	84.38
343.437	90.38
343.665	90.38
343.893	99.38
344.12	86.38
344.348	86.38
344.576	88.38
344.804	100.38
345.031	96.38
345.259	91.38
345.487	86.38
345.714	96.38
345.942	107.38
346.17	95.38
346.397	92.38
346.625	92.38
346.853	95.38
347.08	97.38
347.308	94.38
347.535	91.38
347.763	107.38
347.99	94.38
348.218	114.38
348.445	103.38
348.673	97.38
348.9	105.38
349.128	95.38
349.355	82.38
349.583	104.38
349.81	102.38
350.037	114.38
350.265	96.38
350.492	94.38
350.72	93.38
350.947	100.38
351.174	104.38
351.402	112.38
351.629	109.38
351.856	95.38
352.083	90.38
352.311	107.38
352.538	102.38
352.765	116.38
352.992	105.38
353.22	113.38
353.447	107.38
353.674	104.38
353.901	92.38
354.128	93.38
354.355	95.38
354.583	90.38
354.81	98.38
355.037	86.38
355.264	94.38
355.491	80.38
355.718	97.38
355.945	103.38
356.172	88.38
356.399	87.38
356.626	91.38
356.853	108.38
357.08	83.38
357.307	94.38
357.534	80.38
357.761	93.38
357.988	75.38
358.215	92.38
358.441	80.38
358.668	105.38
358.895	94.38
359.122	86.38
359.349	97.38
359.576	95.38
359.802	97.38
360.029	122.38
360.256	122.38
360.483	112.38
360.709	89.38
360.936	103.38
361.163	97.38
361.39	97.38
361.616	92.38
361.843	102.38
362.07	87.38
362.296	104.38
362.523	92.38
362.749	86.38
362.976	93.38
363.203	92.38
363.429	79.38
363.656	90.38
363.882	102.38
364.109	95.38
364.335	100.38
364.562	101.38
364.788	113.38
365.015	93.38
365.241	111.38
365.468	106.38
365.694	108.38
365.92	84.38
366.147	88.38
366.373	92.38
366.599	83.38
366.826	77.38
367.052	95.38
367.278	79.38
367.505	84.38
367.731	109.38
367.957	98.38
368.184	93.38
368.41	95.38
368.636	119.38
368.862	115.38
369.089	100.38
369.315	101.38
369.541	82.38
369.767	108.38
369.993	89.38
370.219	92.38
370.445	88.38
370.672	86.38
370.898	76.38
371.124	93.38
371.35	92.38
371.576	86.38
371.802	86.38
372.028	99.38
372.254	79.38
372.48	82.38
372.706	86.38
372.932	87.38
373.158	79.38
373.384	76.38
373.61	90.38
373.835	97.38
374.061	87.38
374.287	86.38
374.513	82.38
374.739	88.38
374.965	86.38
375.191	84.38
375.416	96.38
375.642	78.38
375.868	90.38
376.094	74.38
376.319	88.38
376.545	87.38
376.771	88.38
376.997	85.38
377.222	102.38
377.448	94.38
377.674	93.38
377.899	86.38
378.125	85.38
378.35	85.38
378.576	85.38
378.802	84.38
379.027	84.38
379.253	108.38
379.478	80.38
379.704	81.38
379.929	80.38
380.155	93.38
380.38	108.38
380.606	89.38
380.831	101.38
381.057	96.38
381.282	100.38
381.507	96.38
381.733	81.38
381.958	88.38
382.184	94.38
382.409	90.38
382.634	96.38
382.86	99.38
383.085	103.38
383.31	93.38
383.535	106.38
383.761	98.38
383.986	96.38
384.211	99.38
384.436	103.38
384.662	117.38
384.887	107.38
385.112	107.38
385.337	101.38
385.562	111.38
385.787	107.38
386.013	107.38
386.238	135.38
386.463	115.38
386.688	105.38
386.913	110.38
387.138	95.38
387.363	118.38
387.588	90.38
387.813	103.38
388.038	104.38
388.263	117.38
388.488	108.38
388.713	107.38
388.938	100.38
389.163	88.38
389.387	96.38
389.612	96.38
389.837	95.38
390.062	99.38
390.287	86.38
390.512	90.38
390.736	92.38
390.961	98.38
391.186	77.38
391.411	79.38
391.636	89.38
391.86	79.38
392.085	88.38
392.31	74.38
392.534	79.38
392.759	84.38
392.984	96.38
393.208	89.38
393.433	101.38
393.658	102.38
393.882	77.38
394.107	87.38
394.331	88.38
394.556	81.38
394.78	65.38
395.005	82.38
395.229	83.38
395.454	96.38
395.678	82.38
395.903	93.38
396.127	76.38
396.352	85.38
396.576	82.38
396.801	106.38
397.025	86.38
397.249	82.38
397.474	92.38
397.698	87.38
397.922	87.38
398.147	83.38
398.371	80.38
398.595	90.38
398.82	82.38
399.044	80.38
399.268	80.38
399.492	84.38
399.717	78.38
399.941	84.38
400.165	95.38
400.389	88.38
400.613	97.38
400.837	89.38
401.062	93.38
401.286	102.38
401.51	96.38
401.734	86.38
401.958	98.38
402.182	149.38
402.406	180.38
402.63	121.38
402.854	93.38
403.078	77.38
403.302	96.38
403.526	99.38
403.75	83.38
403.974	97.38
404.198	77.38
404.422	83.38
404.645	91.38
404.869	106.38
405.093	120.38
405.317	123.38
405.541	113.38
405.765	103.38
405.988	120.38
406.212	198.38
406.436	288.38
406.66	175.38
406.883	109.38
407.107	96.38
407.331	105.38
407.555	96.38
407.778	101.38
408.002	89.38
408.226	91.38
408.449	88.38
408.673	101.38
408.896	89.38
409.12	100.38
409.344	104.38
409.567	92.38
409.791	87.38
410.014	95.38
410.238	90.38
410.461	96.38
410.685	95.38
410.908	91.38
411.132	89.38
411.355	116.38
411.578	95.38
411.802	89.38
412.025	80.38
412.249	106.38
412.472	102.38
412.695	138.38
412.919	104.38
413.142	81.38
413.365	84.38
413.589	89.38
413.812	79.38
414.035	94.38
414.258	84.38
414.482	87.38
414.705	95.38
414.928	96.38
415.151	85.38
415.374	108.38
415.597	89.38
415.821	74.38
416.044	103.38
416.267	99.38
416.49	84.38
416.713	95.38
416.936	85.38
417.159	78.38
417.382	86.38
417.605	90.38
417.828	109.38
418.051	92.38
418.274	98.38
418.497	84.38
418.72	87.38
418.943	91.38
419.166	89.38
419.389	83.38
419.611	106.38
419.834	80.38
420.057	95.38
420.28	78.38
420.503	94.38
420.726	91.38
420.948	93.38
421.171	89.38
421.394	90.38
421.617	95.38
421.839	101.38
422.062	90.38
422.285	87.38
422.507	115.38
422.73	106.38
422.953	94.38
423.175	93.38
423.398	90.38
423.621	84.38
423.843	86.38
424.066	96.38
424.288	87.38
424.511	108.38
424.733	117.38
424.956	111.38
425.178	96.38
425.401	100.38
425.623	115.38
425.846	112.38
426.068	100.38
426.291	97.38
426.513	88.38
426.735	91.38
426.958	104.38
427.18	115.38
427.402	160.38
427.625	221.38
427.847	239.38
428.069	213.38
428.292	122.38
428.514	99.38
428.736	73.38
428.958	81.38
429.181	95.38
429.403	83.38
429.625	88.38
429.847	111.38
430.069	122.38
430.292	97.38
430.514	83.38
430.736	83.38
430.958	84.38
431.18	83.38
431.402	89.38
431.624	83.38
431.846	86.38
432.068	78.38
432.29	90.38
432.512	91.38
432.734	91.38
432.956	91.38
433.178	98.38
433.4	99.38
433.622	96.38
433.844	87.38
434.066	87.38
434.287	85.38
434.509	89.38
434.731	92.38
434.953	85.38
435.175	72.38
435.397	94.38
435.618	84.38
435.84	125.38
436.062	154.38
436.284	135.38
436.505	97.38
436.727	109.38
436.949	106.38
437.17	91.38
437.392	79.38
437.614	102.38
437.835	103.38
438.057	128.38
438.278	116.38
438.5	118.38
438.721	136.38
438.943	113.38
439.165	99.38
439.386	88.38
439.608	96.38
439.829	101.38
440.05	144.38
440.272	206.38
440.493	103.38
440.715	87.38
440.936	85.38
441.158	83.38
441.379	97.38
441.6	100.38
441.822	95.38
442.043	94.38
442.264	105.38
442.486	116.38
442.707	105.38
442.928	112.38
443.149	160.38
443.371	181.38
443.592	125.38
443.813	121.38
444.034	125.38
444.255	98.38
444.476	92.38
444.698	93.38
444.919	90.38
445.14	129.38
445.361	149.38
445.582	145.38
445.803	193.38
446.024	193.38
446.245	166.38
446.466	133.38
446.687	92.38
446.908	86.38
447.129	94.38
447.35	93.38
447.571	116.38
447.792	101.38
448.013	100.38
448.234	109.38
448.455	107.38
448.675	127.38
448.896	131.38
449.117	90.38
449.338	116.38
449.559	156.38
449.779	153.38
450	111.38
450.221	95.38
450.442	103.38
450.662	105.38
450.883	118.38
451.104	136.38
451.324	99.38
451.545	81.38
451.766	86.38
451.986	86.38
452.207	95.38
452.428	94.38
452.648	93.38
452.869	120.38
453.089	119.38
453.31	139.38
453.53	88.38
453.751	98.38
453.971	115.38
454.192	131.38
454.412	92.38
454.633	87.38
454.853	89.38
455.073	87.38
455.294	96.38
455.514	122.38
455.734	97.38
455.955	79.38
456.175	73.38
456.395	77.38
456.616	71.38
456.836	84.38
457.056	80.38
457.276	88.38
457.497	91.38
457.717	91.38
457.937	79.38
458.157	88.38
458.377	89.38
458.598	113.38
458.818	177.38
459.038	220.38
459.258	135.38
459.478	88.38
459.698	101.38
459.918	83.38
460.138	88.38
460.358	80.38
460.578	76.38
460.798	89.38
461.018	100.38
461.238	83.38
461.458	78.38
461.678	80.38
461.898	87.38
462.118	90.38
462.338	94.38
462.558	84.38
462.777	93.38
462.997	102.38
463.217	94.38
463.437	85.38
463.657	90.38
463.876	83.38
464.096	102.38
464.316	84.38
464.536	87.38
464.755	90.38
464.975	120.38
465.195	208.38
465.414	206.38
465.634	115.38
465.854	88.38
466.073	92.38
466.293	95.38
466.512	92.38
466.732	85.38
466.951	101.38
467.171	96.38
467.391	90.38
467.61	141.38
467.829	156.38
468.049	367.38
468.268	531.38
468.488	165.38
468.707	89.38
468.927	94.38
469.146	90.38
469.365	87.38
469.585	99.38
469.804	110.38
470.023	109.38
470.243	110.38
470.462	103.38
470.681	117.38
470.901	97.38
471.12	103.38
471.339	115.38
471.558	104.38
471.777	122.38
471.997	215.38
472.216	669.38
472.435	1593.38
472.654	424.38
472.873	136.38
473.092	103.38
473.311	101.38
473.53	91.38
473.749	85.38
473.968	94.38
474.187	121.38
474.406	106.38
474.625	96.38
474.844	89.38
475.063	87.38
475.282	89.38
475.501	88.38
475.72	96.38
475.939	79.38
476.158	70.38
476.377	88.38
476.596	91.38
476.814	104.38
477.033	102.38
477.252	94.38
477.471	95.38
477.69	86.38
477.908	95.38
478.127	92.38
478.346	92.38
478.564	79.38
478.783	88.38
479.002	97.38
479.22	92.38
479.439	108.38
479.658	112.38
479.876	120.38
480.095	106.38
480.313	111.38
480.532	131.38
480.751	219.38
480.969	634.38
481.188	2731.38
481.406	1632.38
481.624	248.38
481.843	109.38
482.061	99.38
482.28	102.38
482.498	87.38
482.717	92.38
482.935	102.38
483.153	69.38
483.372	84.38
483.59	88.38
483.808	94.38
484.027	83.38
484.245	63.38
484.463	97.38
484.681	104.38
484.9	96.38
485.118	97.38
485.336	97.38
485.554	94.38
485.772	81.38
485.99	97.38
486.209	98.38
486.427	118.38
486.645	111.38
486.863	121.38
487.081	104.38
487.299	95.38
487.517	101.38
487.735	85.38
487.953	94.38
488.171	95.38
488.389	93.38
488.607	95.38
488.825	82.38
489.043	88.38
489.261	79.38
489.479	82.38
489.696	83.38
489.914	75.38
490.132	92.38
490.35	81.38
490.568	96.38
490.786	82.38
491.003	85.38
491.221	91.38
491.439	91.38
491.657	89.38
491.874	88.38
492.092	91.38
492.31	104.38
492.527	95.38
492.745	93.38
492.963	91.38
493.18	91.38
493.398	81.38
493.615	98.38
493.833	86.38
494.05	84.38
494.268	78.38
494.485	79.38
494.703	83.38
494.92	74.38
495.138	85.38
495.355	97.38
495.573	89.38
495.79	84.38
496.008	96.38
496.225	85.38
496.442	90.38
496.66	85.38
496.877	90.38
497.094	92.38
497.312	104.38
497.529	96.38
497.746	112.38
497.963	83.38
498.181	99.38
498.398	85.38
498.615	105.38
498.832	102.38
499.049	86.38
499.267	86.38
499.484	84.38
499.701	89.38
499.918	96.38
500.135	83.38
500.352	90.38
500.569	97.38
500.786	84.38
501.003	100.38
501.22	85.38
501.437	89.38
501.654	95.38
501.871	116.38
502.088	104.38
502.305	94.38
502.522	93.38
502.739	102.38
502.956	84.38
503.172	87.38
503.389	101.38
503.606	106.38
503.823	95.38
504.04	80.38
504.256	88.38
504.473	85.38
504.69	97.38
504.907	92.38
505.123	87.38
505.34	95.38
505.557	90.38
505.773	79.38
505.99	78.38
506.207	80.38
506.423	104.38
506.64	100.38
506.856	89.38
507.073	71.38
507.289	103.38
507.506	110.38
507.722	121.38
507.939	120.38
508.155	91.38
508.372	86.38
508.588	97.38
508.805	84.38
509.021	97.38
509.238	104.38
509.454	101.38
509.67	86.38
509.887	122.38
510.103	116.38
510.319	220.38
510.536	784.38
510.752	2687.38
510.968	718.38
511.184	163.38
511.401	115.38
511.617	95.38
511.833	92.38
512.049	85.38
512.265	95.38
512.481	87.38
512.698	89.38
512.914	81.38
513.13	97.38
513.346	104.38
513.562	94.38
513.778	88.38
513.994	92.38
514.21	107.38
514.426	133.38
