Data from Circ_1997_H10_HRD10591_00022.txt Node
Date: Wed Jan 03 11:29:32 EST 2024
User: Yrep
Spectrometer: HR+D1059
Trigger mode: 1
Integration Time (sec): 1.000000E-1
Scans to average: 1
Electric dark correction enabled: true
Nonlinearity correction enabled: false
Boxcar width: 0
XAxis mode: Wavelengths
Number of Pixels in Spectrum: 2048
>>>>>Begin Spectral Data<<<<<
223.165	-7.31
223.4	-7.31
223.635	-7.31
223.869	-15.31
224.104	-20.31
224.338	-10.31
224.573	-5.31
224.808	-15.31
225.042	-7.31
225.277	7.69
225.511	-14.31
225.746	14.69
225.98	6.69
226.215	1.69
226.449	9.69
226.683	26.69
226.918	5.69
227.152	22.69
227.387	21.69
227.621	31.69
227.856	47.69
228.09	57.69
228.324	40.69
228.559	49.69
228.793	45.69
229.027	52.69
229.262	74.69
229.496	88.69
229.73	93.69
229.964	97.69
230.199	77.69
230.433	65.69
230.667	88.69
230.901	79.69
231.136	72.69
231.37	73.69
231.604	69.69
231.838	73.69
232.072	81.69
232.306	88.69
232.541	70.69
232.775	81.69
233.009	81.69
233.243	83.69
233.477	81.69
233.711	84.69
233.945	76.69
234.179	82.69
234.413	86.69
234.647	78.69
234.881	86.69
235.115	74.69
235.349	98.69
235.583	94.69
235.817	75.69
236.051	80.69
236.285	87.69
236.519	86.69
236.753	74.69
236.987	87.69
237.221	89.69
237.455	100.69
237.689	78.69
237.922	63.69
238.156	84.69
238.39	68.69
238.624	79.69
238.858	64.69
239.091	79.69
239.325	83.69
239.559	80.69
239.793	80.69
240.027	64.69
240.26	90.69
240.494	69.69
240.728	76.69
240.961	77.69
241.195	70.69
241.429	71.69
241.662	77.69
241.896	70.69
242.13	77.69
242.363	72.69
242.597	61.69
242.83	72.69
243.064	77.69
243.298	88.69
243.531	74.69
243.765	98.69
243.998	85.69
244.232	86.69
244.465	90.69
244.699	91.69
244.932	68.69
245.166	77.69
245.399	77.69
245.633	73.69
245.866	80.69
246.099	87.69
246.333	93.69
246.566	84.69
246.8	74.69
247.033	78.69
247.266	86.69
247.5	75.69
247.733	84.69
247.966	75.69
248.2	69.69
248.433	86.69
248.666	81.69
248.899	81.69
249.133	93.69
249.366	102.69
249.599	97.69
249.832	92.69
250.066	97.69
250.299	76.69
250.532	81.69
250.765	76.69
250.998	86.69
251.231	70.69
251.465	98.69
251.698	76.69
251.931	80.69
252.164	74.69
252.397	86.69
252.63	77.69
252.863	82.69
253.096	89.69
253.329	79.69
253.562	97.69
253.795	86.69
254.028	77.69
254.261	85.69
254.494	82.69
254.727	88.69
254.96	74.69
255.193	76.69
255.426	94.69
255.659	85.69
255.892	95.69
256.124	99.69
256.357	85.69
256.59	74.69
256.823	78.69
257.056	93.69
257.289	77.69
257.521	100.69
257.754	80.69
257.987	76.69
258.22	84.69
258.452	94.69
258.685	87.69
258.918	88.69
259.151	91.69
259.383	85.69
259.616	77.69
259.849	79.69
260.081	87.69
260.314	89.69
260.547	78.69
260.779	97.69
261.012	98.69
261.244	94.69
261.477	100.69
261.71	93.69
261.942	115.69
262.175	136.69
262.407	104.69
262.64	62.69
262.872	90.69
263.105	92.69
263.337	87.69
263.57	79.69
263.802	88.69
264.035	75.69
264.267	99.69
264.499	90.69
264.732	84.69
264.964	84.69
265.197	82.69
265.429	79.69
265.661	84.69
265.894	72.69
266.126	77.69
266.358	78.69
266.591	79.69
266.823	74.69
267.055	87.69
267.287	94.69
267.52	70.69
267.752	74.69
267.984	83.69
268.216	92.69
268.448	94.69
268.681	96.69
268.913	78.69
269.145	85.69
269.377	86.69
269.609	83.69
269.841	89.69
270.073	82.69
270.306	82.69
270.538	86.69
270.77	79.69
271.002	77.69
271.234	96.69
271.466	77.69
271.698	81.69
271.93	75.69
272.162	79.69
272.394	88.69
272.626	77.69
272.858	91.69
273.09	92.69
273.322	81.69
273.553	90.69
273.785	74.69
274.017	78.69
274.249	82.69
274.481	80.69
274.713	98.69
274.945	92.69
275.176	83.69
275.408	81.69
275.64	101.69
275.872	104.69
276.104	106.69
276.335	92.69
276.567	91.69
276.799	126.69
277.031	137.69
277.262	148.69
277.494	119.69
277.726	90.69
277.957	101.69
278.189	92.69
278.421	84.69
278.652	87.69
278.884	86.69
279.115	93.69
279.347	89.69
279.579	95.69
279.81	110.69
280.042	170.69
280.273	199.69
280.505	151.69
280.736	104.69
280.968	86.69
281.199	87.69
281.431	97.69
281.662	82.69
281.894	86.69
282.125	114.69
282.356	127.69
282.588	171.69
282.819	141.69
283.051	89.69
283.282	87.69
283.513	78.69
283.745	79.69
283.976	89.69
284.207	77.69
284.439	79.69
284.67	80.69
284.901	94.69
285.132	87.69
285.364	83.69
285.595	93.69
285.826	89.69
286.057	88.69
286.288	93.69
286.52	65.69
286.751	72.69
286.982	76.69
287.213	81.69
287.444	80.69
287.675	84.69
287.906	78.69
288.138	92.69
288.369	99.69
288.6	104.69
288.831	91.69
289.062	80.69
289.293	88.69
289.524	77.69
289.755	90.69
289.986	94.69
290.217	87.69
290.448	88.69
290.679	92.69
290.91	96.69
291.141	90.69
291.371	83.69
291.602	76.69
291.833	86.69
292.064	83.69
292.295	74.69
292.526	103.69
292.757	95.69
292.987	97.69
293.218	86.69
293.449	88.69
293.68	86.69
293.91	99.69
294.141	94.69
294.372	90.69
294.603	83.69
294.833	76.69
295.064	88.69
295.295	94.69
295.525	90.69
295.756	102.69
295.987	121.69
296.217	155.69
296.448	125.69
296.679	109.69
296.909	84.69
297.14	94.69
297.37	102.69
297.601	88.69
297.831	83.69
298.062	102.69
298.292	76.69
298.523	85.69
298.753	81.69
298.984	89.69
299.214	94.69
299.445	95.69
299.675	96.69
299.905	96.69
300.136	81.69
300.366	88.69
300.597	80.69
300.827	114.69
301.057	121.69
301.288	100.69
301.518	97.69
301.748	82.69
301.979	91.69
302.209	94.69
302.439	101.69
302.669	105.69
302.9	98.69
303.13	91.69
303.36	112.69
303.59	127.69
303.82	128.69
304.051	105.69
304.281	97.69
304.511	84.69
304.741	80.69
304.971	84.69
305.201	88.69
305.431	80.69
305.661	83.69
305.891	86.69
306.121	87.69
306.352	101.69
306.582	105.69
306.812	103.69
307.042	114.69
307.272	139.69
307.502	150.69
307.731	145.69
307.961	110.69
308.191	96.69
308.421	89.69
308.651	96.69
308.881	90.69
309.111	95.69
309.341	111.69
309.571	89.69
309.8	91.69
310.03	113.69
310.26	100.69
310.49	109.69
310.72	104.69
310.949	110.69
311.179	118.69
311.409	92.69
311.639	97.69
311.868	105.69
312.098	105.69
312.328	102.69
312.557	105.69
312.787	106.69
313.017	105.69
313.246	97.69
313.476	98.69
313.706	89.69
313.935	100.69
314.165	112.69
314.394	97.69
314.624	117.69
314.853	100.69
315.083	95.69
315.312	103.69
315.542	102.69
315.771	96.69
316.001	89.69
316.23	75.69
316.46	89.69
316.689	98.69
316.919	82.69
317.148	86.69
317.377	104.69
317.607	98.69
317.836	104.69
318.065	94.69
318.295	104.69
318.524	94.69
318.753	94.69
318.983	106.69
319.212	98.69
319.441	104.69
319.67	122.69
319.9	109.69
320.129	88.69
320.358	93.69
320.587	101.69
320.816	110.69
321.046	101.69
321.275	93.69
321.504	100.69
321.733	95.69
321.962	109.69
322.191	108.69
322.42	120.69
322.649	132.69
322.878	131.69
323.108	132.69
323.337	153.69
323.566	156.69
323.795	185.69
324.024	265.69
324.253	569.69
324.482	1292.69
324.71	2856.69
324.939	3744.69
325.168	1292.69
325.397	349.69
325.626	178.69
325.855	162.69
326.084	143.69
326.313	162.69
326.542	200.69
326.77	310.69
326.999	649.69
327.228	1521.69
327.457	2860.69
327.686	2230.69
327.914	619.69
328.143	448.69
328.372	538.69
328.6	315.69
328.829	181.69
329.058	170.69
329.287	166.69
329.515	171.69
329.744	225.69
329.972	394.69
330.201	773.69
330.43	1116.69
330.658	519.69
330.887	257.69
331.115	179.69
331.344	134.69
331.572	120.69
331.801	110.69
332.03	113.69
332.258	107.69
332.486	98.69
332.715	102.69
332.943	117.69
333.172	126.69
333.4	129.69
333.629	137.69
333.857	205.69
334.085	332.69
334.314	740.69
334.542	1412.69
334.771	1364.69
334.999	357.69
335.227	161.69
335.455	113.69
335.684	118.69
335.912	101.69
336.14	98.69
336.369	115.69
336.597	122.69
336.825	105.69
337.053	105.69
337.281	100.69
337.51	90.69
337.738	106.69
337.966	89.69
338.194	98.69
338.422	98.69
338.65	79.69
338.878	93.69
339.106	90.69
339.334	101.69
339.562	89.69
339.79	89.69
340.018	89.69
340.246	80.69
340.474	105.69
340.702	75.69
340.93	87.69
341.158	98.69
341.386	94.69
341.614	104.69
341.842	95.69
342.07	76.69
342.298	92.69
342.526	90.69
342.754	79.69
342.981	87.69
343.209	90.69
343.437	89.69
343.665	87.69
343.893	98.69
344.12	78.69
344.348	101.69
344.576	100.69
344.804	90.69
345.031	93.69
345.259	109.69
345.487	109.69
345.714	102.69
345.942	96.69
346.17	98.69
346.397	96.69
346.625	86.69
346.853	105.69
347.08	100.69
347.308	95.69
347.535	106.69
347.763	103.69
347.99	89.69
348.218	97.69
348.445	116.69
348.673	86.69
348.9	89.69
349.128	103.69
349.355	93.69
349.583	84.69
349.81	99.69
350.037	87.69
350.265	95.69
350.492	98.69
350.72	94.69
350.947	108.69
351.174	104.69
351.402	116.69
351.629	105.69
351.856	86.69
352.083	99.69
352.311	128.69
352.538	118.69
352.765	123.69
352.992	113.69
353.22	110.69
353.447	85.69
353.674	97.69
353.901	87.69
354.128	101.69
354.355	84.69
354.583	93.69
354.81	116.69
355.037	98.69
355.264	94.69
355.491	95.69
355.718	98.69
355.945	93.69
356.172	88.69
356.399	82.69
356.626	86.69
356.853	94.69
357.08	86.69
357.307	91.69
357.534	92.69
357.761	92.69
357.988	93.69
358.215	89.69
358.441	93.69
358.668	94.69
358.895	86.69
359.122	88.69
359.349	92.69
359.576	82.69
359.802	101.69
360.029	140.69
360.256	122.69
360.483	124.69
360.709	100.69
360.936	91.69
361.163	108.69
361.39	98.69
361.616	96.69
361.843	83.69
362.07	88.69
362.296	106.69
362.523	77.69
362.749	97.69
362.976	95.69
363.203	104.69
363.429	85.69
363.656	105.69
363.882	99.69
364.109	83.69
364.335	96.69
364.562	85.69
364.788	91.69
365.015	109.69
365.241	100.69
365.468	121.69
365.694	120.69
365.92	104.69
366.147	89.69
366.373	100.69
366.599	90.69
366.826	86.69
367.052	95.69
367.278	95.69
367.505	92.69
367.731	96.69
367.957	86.69
368.184	96.69
368.41	105.69
368.636	129.69
368.862	143.69
369.089	125.69
369.315	102.69
369.541	84.69
369.767	96.69
369.993	97.69
370.219	95.69
370.445	86.69
370.672	88.69
370.898	84.69
371.124	78.69
371.35	84.69
371.576	88.69
371.802	90.69
372.028	85.69
372.254	94.69
372.48	90.69
372.706	73.69
372.932	93.69
373.158	88.69
373.384	98.69
373.61	85.69
373.835	82.69
374.061	89.69
374.287	98.69
374.513	81.69
374.739	87.69
374.965	83.69
375.191	91.69
375.416	95.69
375.642	87.69
375.868	97.69
376.094	102.69
376.319	91.69
376.545	94.69
376.771	98.69
376.997	86.69
377.222	85.69
377.448	92.69
377.674	85.69
377.899	94.69
378.125	68.69
378.35	86.69
378.576	94.69
378.802	87.69
379.027	81.69
379.253	85.69
379.478	98.69
379.704	84.69
379.929	98.69
380.155	96.69
380.38	96.69
380.606	94.69
380.831	92.69
381.057	95.69
381.282	82.69
381.507	98.69
381.733	91.69
381.958	95.69
382.184	88.69
382.409	95.69
382.634	103.69
382.86	97.69
383.085	95.69
383.31	96.69
383.535	95.69
383.761	101.69
383.986	96.69
384.211	95.69
384.436	100.69
384.662	100.69
384.887	103.69
385.112	105.69
385.337	102.69
385.562	93.69
385.787	100.69
386.013	117.69
386.238	110.69
386.463	103.69
386.688	98.69
386.913	102.69
387.138	106.69
387.363	106.69
387.588	98.69
387.813	95.69
388.038	97.69
388.263	94.69
388.488	113.69
388.713	95.69
388.938	90.69
389.163	88.69
389.387	84.69
389.612	81.69
389.837	99.69
390.062	88.69
390.287	86.69
390.512	101.69
390.736	86.69
390.961	89.69
391.186	94.69
391.411	99.69
391.636	95.69
391.86	76.69
392.085	92.69
392.31	95.69
392.534	97.69
392.759	69.69
392.984	87.69
393.208	87.69
393.433	89.69
393.658	89.69
393.882	67.69
394.107	76.69
394.331	95.69
394.556	77.69
394.78	76.69
395.005	84.69
395.229	68.69
395.454	79.69
395.678	90.69
395.903	88.69
396.127	98.69
396.352	91.69
396.576	74.69
396.801	105.69
397.025	95.69
397.249	84.69
397.474	82.69
397.698	91.69
397.922	86.69
398.147	82.69
398.371	80.69
398.595	97.69
398.82	74.69
399.044	82.69
399.268	88.69
399.492	81.69
399.717	87.69
399.941	87.69
400.165	103.69
400.389	88.69
400.613	87.69
400.837	87.69
401.062	92.69
401.286	103.69
401.51	77.69
401.734	105.69
401.958	99.69
402.182	129.69
402.406	171.69
402.63	138.69
402.854	101.69
403.078	84.69
403.302	85.69
403.526	84.69
403.75	87.69
403.974	86.69
404.198	76.69
404.422	97.69
404.645	104.69
404.869	95.69
405.093	113.69
405.317	158.69
405.541	130.69
405.765	115.69
405.988	133.69
406.212	191.69
406.436	279.69
406.66	186.69
406.883	108.69
407.107	102.69
407.331	88.69
407.555	99.69
407.778	109.69
408.002	92.69
408.226	102.69
408.449	84.69
408.673	86.69
408.896	90.69
409.12	113.69
409.344	88.69
409.567	92.69
409.791	87.69
410.014	112.69
410.238	98.69
410.461	91.69
410.685	85.69
410.908	92.69
411.132	106.69
411.355	106.69
411.578	97.69
411.802	86.69
412.025	96.69
412.249	105.69
412.472	109.69
412.695	137.69
412.919	104.69
413.142	84.69
413.365	104.69
413.589	94.69
413.812	92.69
414.035	80.69
414.258	90.69
414.482	93.69
414.705	86.69
414.928	81.69
415.151	76.69
415.374	96.69
415.597	88.69
415.821	93.69
416.044	84.69
416.267	101.69
416.49	88.69
416.713	87.69
416.936	89.69
417.159	82.69
417.382	93.69
417.605	94.69
417.828	103.69
418.051	94.69
418.274	94.69
418.497	90.69
418.72	87.69
418.943	81.69
419.166	89.69
419.389	95.69
419.611	89.69
419.834	106.69
420.057	93.69
420.28	98.69
420.503	93.69
420.726	88.69
420.948	86.69
421.171	92.69
421.394	101.69
421.617	89.69
421.839	88.69
422.062	84.69
422.285	81.69
422.507	96.69
422.73	95.69
422.953	96.69
423.175	87.69
423.398	88.69
423.621	89.69
423.843	76.69
424.066	102.69
424.288	100.69
424.511	88.69
424.733	108.69
424.956	117.69
425.178	116.69
425.401	120.69
425.623	106.69
425.846	109.69
426.068	108.69
426.291	92.69
426.513	95.69
426.735	89.69
426.958	102.69
427.18	114.69
427.402	190.69
427.625	250.69
427.847	244.69
428.069	230.69
428.292	129.69
428.514	95.69
428.736	97.69
428.958	95.69
429.181	78.69
429.403	84.69
429.625	86.69
429.847	110.69
430.069	114.69
430.292	94.69
430.514	79.69
430.736	79.69
430.958	81.69
431.18	95.69
431.402	82.69
431.624	81.69
431.846	79.69
432.068	78.69
432.29	104.69
432.512	105.69
432.734	95.69
432.956	100.69
433.178	97.69
433.4	105.69
433.622	89.69
433.844	92.69
434.066	81.69
434.287	94.69
434.509	84.69
434.731	89.69
434.953	92.69
435.175	95.69
435.397	86.69
435.618	90.69
435.84	121.69
436.062	151.69
436.284	146.69
436.505	121.69
436.727	125.69
436.949	95.69
437.17	92.69
437.392	89.69
437.614	94.69
437.835	132.69
438.057	150.69
438.278	116.69
438.5	125.69
438.721	156.69
438.943	115.69
439.165	101.69
439.386	89.69
439.608	108.69
439.829	114.69
440.05	154.69
440.272	214.69
440.493	109.69
440.715	92.69
440.936	89.69
441.158	89.69
441.379	91.69
441.6	97.69
441.822	105.69
442.043	97.69
442.264	117.69
442.486	122.69
442.707	102.69
442.928	114.69
443.149	183.69
443.371	179.69
443.592	126.69
443.813	134.69
444.034	138.69
444.255	98.69
444.476	91.69
444.698	94.69
444.919	80.69
445.14	124.69
445.361	137.69
445.582	176.69
445.803	201.69
446.024	191.69
446.245	197.69
446.466	139.69
446.687	87.69
446.908	96.69
447.129	88.69
447.35	82.69
447.571	91.69
447.792	86.69
448.013	98.69
448.234	106.69
448.455	127.69
448.675	120.69
448.896	167.69
449.117	111.69
449.338	122.69
449.559	158.69
449.779	178.69
450	107.69
450.221	88.69
450.442	101.69
450.662	98.69
450.883	123.69
451.104	118.69
451.324	99.69
451.545	96.69
451.766	96.69
451.986	90.69
452.207	82.69
452.428	82.69
452.648	96.69
452.869	105.69
453.089	111.69
453.31	125.69
453.53	89.69
453.751	96.69
453.971	114.69
454.192	127.69
454.412	93.69
454.633	87.69
454.853	98.69
455.073	79.69
455.294	115.69
455.514	126.69
455.734	92.69
455.955	81.69
456.175	91.69
456.395	87.69
456.616	92.69
456.836	97.69
457.056	92.69
457.276	87.69
457.497	79.69
457.717	89.69
457.937	79.69
458.157	85.69
458.377	100.69
458.598	120.69
458.818	199.69
459.038	220.69
459.258	151.69
459.478	84.69
459.698	62.69
459.918	85.69
460.138	93.69
460.358	96.69
460.578	75.69
460.798	105.69
461.018	90.69
461.238	80.69
461.458	78.69
461.678	83.69
461.898	77.69
462.118	93.69
462.338	90.69
462.558	95.69
462.777	100.69
462.997	92.69
463.217	83.69
463.437	93.69
463.657	83.69
463.876	85.69
464.096	98.69
464.316	98.69
464.536	94.69
464.755	111.69
464.975	121.69
465.195	225.69
465.414	220.69
465.634	105.69
465.854	79.69
466.073	86.69
466.293	94.69
466.512	93.69
466.732	87.69
466.951	88.69
467.171	95.69
467.391	102.69
467.61	140.69
467.829	169.69
468.049	448.69
468.268	632.69
468.488	180.69
468.707	104.69
468.927	96.69
469.146	82.69
469.365	95.69
469.585	92.69
469.804	104.69
470.023	116.69
470.243	111.69
470.462	102.69
470.681	135.69
470.901	108.69
471.12	102.69
471.339	101.69
471.558	121.69
471.777	125.69
471.997	260.69
472.216	840.69
472.435	1932.69
472.654	473.69
472.873	140.69
473.092	93.69
473.311	80.69
473.53	103.69
473.749	94.69
473.968	100.69
474.187	127.69
474.406	116.69
474.625	103.69
474.844	93.69
475.063	76.69
475.282	80.69
475.501	100.69
475.72	79.69
475.939	79.69
476.158	93.69
476.377	75.69
476.596	98.69
476.814	96.69
477.033	98.69
477.252	84.69
477.471	94.69
477.69	91.69
477.908	95.69
478.127	86.69
478.346	94.69
478.564	112.69
478.783	97.69
479.002	102.69
479.22	107.69
479.439	114.69
479.658	125.69
479.876	110.69
480.095	117.69
480.313	124.69
480.532	142.69
480.751	226.69
480.969	796.69
481.188	3353.69
481.406	1916.69
481.624	316.69
481.843	134.69
482.061	116.69
482.28	105.69
482.498	87.69
482.717	81.69
482.935	80.69
483.153	79.69
483.372	84.69
483.59	79.69
483.808	93.69
484.027	94.69
484.245	92.69
484.463	88.69
484.681	93.69
484.9	99.69
485.118	91.69
485.336	100.69
485.554	102.69
485.772	96.69
485.99	117.69
486.209	100.69
486.427	104.69
486.645	102.69
486.863	114.69
487.081	118.69
487.299	102.69
487.517	106.69
487.735	91.69
487.953	100.69
488.171	93.69
488.389	91.69
488.607	119.69
488.825	85.69
489.043	84.69
489.261	96.69
489.479	76.69
489.696	97.69
489.914	87.69
490.132	89.69
490.35	90.69
490.568	98.69
490.786	90.69
491.003	70.69
491.221	78.69
491.439	102.69
491.657	86.69
491.874	100.69
492.092	89.69
492.31	81.69
492.527	79.69
492.745	95.69
492.963	93.69
493.18	94.69
493.398	104.69
493.615	84.69
493.833	102.69
494.05	91.69
494.268	99.69
494.485	94.69
494.703	82.69
494.92	94.69
495.138	90.69
495.355	79.69
495.573	89.69
495.79	92.69
496.008	95.69
496.225	82.69
496.442	72.69
496.66	97.69
496.877	84.69
497.094	92.69
497.312	85.69
497.529	78.69
497.746	81.69
497.963	94.69
498.181	87.69
498.398	101.69
498.615	105.69
498.832	111.69
499.049	84.69
499.267	97.69
499.484	94.69
499.701	76.69
499.918	92.69
500.135	96.69
500.352	84.69
500.569	94.69
500.786	97.69
501.003	105.69
501.22	91.69
501.437	86.69
501.654	99.69
501.871	129.69
502.088	95.69
502.305	91.69
502.522	86.69
502.739	79.69
502.956	90.69
503.172	88.69
503.389	98.69
503.606	123.69
503.823	100.69
504.04	86.69
504.256	102.69
504.473	96.69
504.69	82.69
504.907	96.69
505.123	88.69
505.34	93.69
505.557	83.69
505.773	88.69
505.99	91.69
506.207	84.69
506.423	76.69
506.64	96.69
506.856	84.69
507.073	102.69
507.289	75.69
507.506	92.69
507.722	125.69
507.939	127.69
508.155	110.69
508.372	107.69
508.588	90.69
508.805	105.69
509.021	102.69
509.238	94.69
509.454	104.69
509.67	98.69
509.887	111.69
510.103	138.69
510.319	221.69
510.536	808.69
510.752	2868.69
510.968	763.69
511.184	166.69
511.401	116.69
511.617	107.69
511.833	112.69
512.049	93.69
512.265	96.69
512.481	89.69
512.698	92.69
512.914	84.69
513.13	94.69
513.346	98.69
513.562	96.69
513.778	96.69
513.994	94.69
