Data from Circ_1997_H10_HRD10591_00052.txt Node
Date: Wed Jan 03 11:29:38 EST 2024
User: Yrep
Spectrometer: HR+D1059
Trigger mode: 1
Integration Time (sec): 1.000000E-1
Scans to average: 1
Electric dark correction enabled: true
Nonlinearity correction enabled: false
Boxcar width: 0
XAxis mode: Wavelengths
Number of Pixels in Spectrum: 2048
>>>>>Begin Spectral Data<<<<<
223.165	-8.5
223.4	-8.5
223.635	-8.5
223.869	-23.5
224.104	-20.5
224.338	-25.5
224.573	-24.5
224.808	-7.5
225.042	-12.5
225.277	4.5
225.511	-11.5
225.746	9.5
225.98	10.5
226.215	0.5
226.449	28.5
226.683	26.5
226.918	19.5
227.152	34.5
227.387	44.5
227.621	35.5
227.856	44.5
228.09	51.5
228.324	53.5
228.559	35.5
228.793	55.5
229.027	76.5
229.262	78.5
229.496	76.5
229.73	91.5
229.964	78.5
230.199	72.5
230.433	73.5
230.667	76.5
230.901	83.5
231.136	76.5
231.37	89.5
231.604	96.5
231.838	81.5
232.072	86.5
232.306	81.5
232.541	54.5
232.775	86.5
233.009	79.5
233.243	88.5
233.477	85.5
233.711	91.5
233.945	90.5
234.179	70.5
234.413	74.5
234.647	76.5
234.881	73.5
235.115	83.5
235.349	82.5
235.583	81.5
235.817	85.5
236.051	88.5
236.285	75.5
236.519	66.5
236.753	75.5
236.987	90.5
237.221	92.5
237.455	87.5
237.689	94.5
237.922	86.5
238.156	75.5
238.39	83.5
238.624	73.5
238.858	73.5
239.091	59.5
239.325	90.5
239.559	83.5
239.793	84.5
240.027	87.5
240.26	80.5
240.494	65.5
240.728	67.5
240.961	73.5
241.195	70.5
241.429	86.5
241.662	68.5
241.896	87.5
242.13	89.5
242.363	67.5
242.597	82.5
242.83	82.5
243.064	76.5
243.298	73.5
243.531	78.5
243.765	68.5
243.998	69.5
244.232	81.5
244.465	94.5
244.699	87.5
244.932	57.5
245.166	88.5
245.399	93.5
245.633	90.5
245.866	79.5
246.099	73.5
246.333	91.5
246.566	99.5
246.8	83.5
247.033	92.5
247.266	86.5
247.5	73.5
247.733	81.5
247.966	89.5
248.2	70.5
248.433	87.5
248.666	73.5
248.899	78.5
249.133	76.5
249.366	118.5
249.599	99.5
249.832	87.5
250.066	98.5
250.299	85.5
250.532	92.5
250.765	91.5
250.998	75.5
251.231	75.5
251.465	75.5
251.698	77.5
251.931	84.5
252.164	61.5
252.397	69.5
252.63	83.5
252.863	79.5
253.096	94.5
253.329	67.5
253.562	85.5
253.795	65.5
254.028	89.5
254.261	59.5
254.494	82.5
254.727	78.5
254.96	80.5
255.193	90.5
255.426	65.5
255.659	68.5
255.892	94.5
256.124	96.5
256.357	89.5
256.59	88.5
256.823	99.5
257.056	91.5
257.289	82.5
257.521	79.5
257.754	80.5
257.987	93.5
258.22	86.5
258.452	89.5
258.685	104.5
258.918	92.5
259.151	80.5
259.383	90.5
259.616	73.5
259.849	89.5
260.081	79.5
260.314	83.5
260.547	94.5
260.779	94.5
261.012	111.5
261.244	113.5
261.477	94.5
261.71	98.5
261.942	133.5
262.175	134.5
262.407	95.5
262.64	92.5
262.872	96.5
263.105	82.5
263.337	81.5
263.57	79.5
263.802	86.5
264.035	84.5
264.267	76.5
264.499	80.5
264.732	100.5
264.964	97.5
265.197	100.5
265.429	81.5
265.661	84.5
265.894	80.5
266.126	95.5
266.358	83.5
266.591	82.5
266.823	89.5
267.055	98.5
267.287	90.5
267.52	76.5
267.752	84.5
267.984	89.5
268.216	80.5
268.448	88.5
268.681	84.5
268.913	94.5
269.145	83.5
269.377	75.5
269.609	88.5
269.841	91.5
270.073	88.5
270.306	82.5
270.538	83.5
270.77	92.5
271.002	86.5
271.234	91.5
271.466	94.5
271.698	80.5
271.93	86.5
272.162	91.5
272.394	81.5
272.626	94.5
272.858	88.5
273.09	82.5
273.322	86.5
273.553	77.5
273.785	79.5
274.017	83.5
274.249	85.5
274.481	82.5
274.713	91.5
274.945	91.5
275.176	87.5
275.408	85.5
275.64	112.5
275.872	103.5
276.104	109.5
276.335	110.5
276.567	110.5
276.799	125.5
277.031	163.5
277.262	183.5
277.494	123.5
277.726	100.5
277.957	90.5
278.189	94.5
278.421	85.5
278.652	83.5
278.884	95.5
279.115	81.5
279.347	87.5
279.579	94.5
279.81	115.5
280.042	181.5
280.273	248.5
280.505	161.5
280.736	103.5
280.968	88.5
281.199	89.5
281.431	96.5
281.662	99.5
281.894	93.5
282.125	94.5
282.356	128.5
282.588	162.5
282.819	129.5
283.051	95.5
283.282	94.5
283.513	98.5
283.745	79.5
283.976	78.5
284.207	91.5
284.439	89.5
284.67	77.5
284.901	90.5
285.132	95.5
285.364	79.5
285.595	92.5
285.826	100.5
286.057	101.5
286.288	82.5
286.52	83.5
286.751	82.5
286.982	91.5
287.213	81.5
287.444	83.5
287.675	96.5
287.906	92.5
288.138	94.5
288.369	98.5
288.6	99.5
288.831	86.5
289.062	99.5
289.293	91.5
289.524	97.5
289.755	81.5
289.986	85.5
290.217	81.5
290.448	83.5
290.679	91.5
290.91	83.5
291.141	103.5
291.371	88.5
291.602	89.5
291.833	94.5
292.064	92.5
292.295	81.5
292.526	81.5
292.757	80.5
292.987	81.5
293.218	85.5
293.449	82.5
293.68	76.5
293.91	90.5
294.141	88.5
294.372	73.5
294.603	78.5
294.833	95.5
295.064	80.5
295.295	94.5
295.525	99.5
295.756	106.5
295.987	122.5
296.217	144.5
296.448	138.5
296.679	89.5
296.909	94.5
297.14	92.5
297.37	86.5
297.601	99.5
297.831	95.5
298.062	83.5
298.292	82.5
298.523	74.5
298.753	81.5
298.984	109.5
299.214	98.5
299.445	97.5
299.675	88.5
299.905	96.5
300.136	99.5
300.366	95.5
300.597	98.5
300.827	95.5
301.057	100.5
301.288	103.5
301.518	102.5
301.748	94.5
301.979	117.5
302.209	108.5
302.439	90.5
302.669	102.5
302.9	93.5
303.13	90.5
303.36	116.5
303.59	123.5
303.82	136.5
304.051	105.5
304.281	104.5
304.511	89.5
304.741	83.5
304.971	91.5
305.201	88.5
305.431	88.5
305.661	78.5
305.891	93.5
306.121	97.5
306.352	102.5
306.582	99.5
306.812	90.5
307.042	108.5
307.272	172.5
307.502	168.5
307.731	153.5
307.961	134.5
308.191	96.5
308.421	84.5
308.651	106.5
308.881	100.5
309.111	92.5
309.341	83.5
309.571	111.5
309.8	105.5
310.03	102.5
310.26	108.5
310.49	105.5
310.72	102.5
310.949	110.5
311.179	96.5
311.409	105.5
311.639	104.5
311.868	96.5
312.098	97.5
312.328	101.5
312.557	110.5
312.787	104.5
313.017	114.5
313.246	103.5
313.476	92.5
313.706	94.5
313.935	86.5
314.165	87.5
314.394	122.5
314.624	105.5
314.853	109.5
315.083	105.5
315.312	96.5
315.542	77.5
315.771	88.5
316.001	96.5
316.23	89.5
316.46	102.5
316.689	106.5
316.919	109.5
317.148	107.5
317.377	97.5
317.607	98.5
317.836	99.5
318.065	90.5
318.295	97.5
318.524	97.5
318.753	84.5
318.983	88.5
319.212	106.5
319.441	112.5
319.67	109.5
319.9	102.5
320.129	82.5
320.358	82.5
320.587	96.5
320.816	101.5
321.046	105.5
321.275	117.5
321.504	100.5
321.733	98.5
321.962	115.5
322.191	99.5
322.42	105.5
322.649	115.5
322.878	111.5
323.108	122.5
323.337	157.5
323.566	138.5
323.795	174.5
324.024	250.5
324.253	509.5
324.482	1130.5
324.71	2467.5
324.939	3240.5
325.168	1131.5
325.397	310.5
325.626	167.5
325.855	160.5
326.084	146.5
326.313	137.5
326.542	175.5
326.77	278.5
326.999	598.5
327.228	1319.5
327.457	2422.5
327.686	1917.5
327.914	586.5
328.143	508.5
328.372	605.5
328.6	347.5
328.829	167.5
329.058	172.5
329.287	166.5
329.515	180.5
329.744	235.5
329.972	435.5
330.201	898.5
330.43	1306.5
330.658	579.5
330.887	264.5
331.115	178.5
331.344	123.5
331.572	107.5
331.801	113.5
332.03	121.5
332.258	117.5
332.486	104.5
332.715	106.5
332.943	110.5
333.172	126.5
333.4	114.5
333.629	144.5
333.857	234.5
334.085	403.5
334.314	828.5
334.542	1656.5
334.771	1578.5
334.999	418.5
335.227	186.5
335.455	130.5
335.684	114.5
335.912	91.5
336.14	89.5
336.369	109.5
336.597	114.5
336.825	92.5
337.053	106.5
337.281	96.5
337.51	100.5
337.738	102.5
337.966	98.5
338.194	90.5
338.422	99.5
338.65	96.5
338.878	104.5
339.106	93.5
339.334	94.5
339.562	100.5
339.79	92.5
340.018	112.5
340.246	97.5
340.474	96.5
340.702	104.5
340.93	110.5
341.158	94.5
341.386	94.5
341.614	99.5
341.842	68.5
342.07	107.5
342.298	90.5
342.526	89.5
342.754	64.5
342.981	95.5
343.209	97.5
343.437	102.5
343.665	82.5
343.893	86.5
344.12	97.5
344.348	90.5
344.576	86.5
344.804	94.5
345.031	106.5
345.259	100.5
345.487	96.5
345.714	93.5
345.942	74.5
346.17	100.5
346.397	102.5
346.625	100.5
346.853	96.5
347.08	104.5
347.308	106.5
347.535	98.5
347.763	113.5
347.99	102.5
348.218	108.5
348.445	120.5
348.673	111.5
348.9	86.5
349.128	89.5
349.355	80.5
349.583	74.5
349.81	101.5
350.037	97.5
350.265	100.5
350.492	91.5
350.72	105.5
350.947	99.5
351.174	122.5
351.402	112.5
351.629	95.5
351.856	115.5
352.083	95.5
352.311	115.5
352.538	119.5
352.765	135.5
352.992	116.5
353.22	118.5
353.447	102.5
353.674	108.5
353.901	100.5
354.128	94.5
354.355	78.5
354.583	105.5
354.81	92.5
355.037	92.5
355.264	96.5
355.491	100.5
355.718	75.5
355.945	95.5
356.172	95.5
356.399	79.5
356.626	81.5
356.853	98.5
357.08	102.5
357.307	100.5
357.534	97.5
357.761	88.5
357.988	94.5
358.215	94.5
358.441	98.5
358.668	88.5
358.895	99.5
359.122	90.5
359.349	89.5
359.576	85.5
359.802	106.5
360.029	123.5
360.256	127.5
360.483	114.5
360.709	90.5
360.936	92.5
361.163	92.5
361.39	90.5
361.616	100.5
361.843	95.5
362.07	96.5
362.296	104.5
362.523	88.5
362.749	81.5
362.976	95.5
363.203	88.5
363.429	82.5
363.656	101.5
363.882	76.5
364.109	88.5
364.335	92.5
364.562	104.5
364.788	93.5
365.015	96.5
365.241	98.5
365.468	111.5
365.694	108.5
365.92	92.5
366.147	94.5
366.373	96.5
366.599	97.5
366.826	100.5
367.052	87.5
367.278	86.5
367.505	96.5
367.731	103.5
367.957	92.5
368.184	96.5
368.41	110.5
368.636	118.5
368.862	125.5
369.089	104.5
369.315	91.5
369.541	106.5
369.767	88.5
369.993	103.5
370.219	92.5
370.445	93.5
370.672	92.5
370.898	84.5
371.124	95.5
371.35	87.5
371.576	93.5
371.802	96.5
372.028	97.5
372.254	94.5
372.48	93.5
372.706	105.5
372.932	106.5
373.158	90.5
373.384	99.5
373.61	89.5
373.835	91.5
374.061	89.5
374.287	98.5
374.513	103.5
374.739	78.5
374.965	91.5
375.191	86.5
375.416	85.5
375.642	98.5
375.868	102.5
376.094	101.5
376.319	97.5
376.545	95.5
376.771	87.5
376.997	94.5
377.222	88.5
377.448	110.5
377.674	94.5
377.899	90.5
378.125	89.5
378.35	94.5
378.576	101.5
378.802	79.5
379.027	70.5
379.253	88.5
379.478	88.5
379.704	97.5
379.929	86.5
380.155	101.5
380.38	104.5
380.606	100.5
380.831	94.5
381.057	102.5
381.282	89.5
381.507	89.5
381.733	84.5
381.958	89.5
382.184	98.5
382.409	100.5
382.634	108.5
382.86	103.5
383.085	91.5
383.31	78.5
383.535	83.5
383.761	95.5
383.986	101.5
384.211	83.5
384.436	96.5
384.662	94.5
384.887	106.5
385.112	100.5
385.337	83.5
385.562	91.5
385.787	90.5
386.013	96.5
386.238	95.5
386.463	107.5
386.688	110.5
386.913	105.5
387.138	86.5
387.363	98.5
387.588	79.5
387.813	106.5
388.038	108.5
388.263	95.5
388.488	103.5
388.713	91.5
388.938	102.5
389.163	101.5
389.387	88.5
389.612	102.5
389.837	98.5
390.062	93.5
390.287	86.5
390.512	97.5
390.736	94.5
390.961	99.5
391.186	88.5
391.411	90.5
391.636	88.5
391.86	91.5
392.085	84.5
392.31	84.5
392.534	100.5
392.759	74.5
392.984	92.5
393.208	87.5
393.433	78.5
393.658	80.5
393.882	85.5
394.107	88.5
394.331	76.5
394.556	89.5
394.78	88.5
395.005	84.5
395.229	84.5
395.454	81.5
395.678	96.5
395.903	92.5
396.127	96.5
396.352	90.5
396.576	92.5
396.801	78.5
397.025	88.5
397.249	84.5
397.474	87.5
397.698	90.5
397.922	85.5
398.147	91.5
398.371	94.5
398.595	86.5
398.82	87.5
399.044	82.5
399.268	85.5
399.492	97.5
399.717	85.5
399.941	93.5
400.165	83.5
400.389	97.5
400.613	79.5
400.837	83.5
401.062	87.5
401.286	94.5
401.51	90.5
401.734	105.5
401.958	94.5
402.182	134.5
402.406	180.5
402.63	131.5
402.854	98.5
403.078	82.5
403.302	82.5
403.526	86.5
403.75	89.5
403.974	87.5
404.198	84.5
404.422	77.5
404.645	83.5
404.869	103.5
405.093	100.5
405.317	136.5
405.541	130.5
405.765	122.5
405.988	121.5
406.212	195.5
406.436	278.5
406.66	179.5
406.883	108.5
407.107	99.5
407.331	97.5
407.555	95.5
407.778	113.5
408.002	99.5
408.226	100.5
408.449	88.5
408.673	89.5
408.896	104.5
409.12	95.5
409.344	93.5
409.567	91.5
409.791	86.5
410.014	103.5
410.238	104.5
410.461	98.5
410.685	85.5
410.908	103.5
411.132	105.5
411.355	102.5
411.578	90.5
411.802	98.5
412.025	104.5
412.249	91.5
412.472	121.5
412.695	141.5
412.919	111.5
413.142	107.5
413.365	84.5
413.589	84.5
413.812	92.5
414.035	87.5
414.258	92.5
414.482	82.5
414.705	75.5
414.928	93.5
415.151	83.5
415.374	87.5
415.597	90.5
415.821	90.5
416.044	86.5
416.267	100.5
416.49	94.5
416.713	68.5
416.936	90.5
417.159	87.5
417.382	94.5
417.605	104.5
417.828	102.5
418.051	98.5
418.274	97.5
418.497	82.5
418.72	86.5
418.943	90.5
419.166	89.5
419.389	104.5
419.611	99.5
419.834	100.5
420.057	98.5
420.28	115.5
420.503	76.5
420.726	98.5
420.948	91.5
421.171	113.5
421.394	110.5
421.617	105.5
421.839	98.5
422.062	93.5
422.285	95.5
422.507	93.5
422.73	93.5
422.953	94.5
423.175	95.5
423.398	73.5
423.621	102.5
423.843	95.5
424.066	80.5
424.288	78.5
424.511	97.5
424.733	113.5
424.956	119.5
425.178	111.5
425.401	115.5
425.623	99.5
425.846	96.5
426.068	89.5
426.291	89.5
426.513	88.5
426.735	87.5
426.958	85.5
427.18	116.5
427.402	176.5
427.625	265.5
427.847	244.5
428.069	240.5
428.292	127.5
428.514	93.5
428.736	80.5
428.958	87.5
429.181	89.5
429.403	98.5
429.625	94.5
429.847	95.5
430.069	105.5
430.292	100.5
430.514	91.5
430.736	89.5
430.958	88.5
431.18	95.5
431.402	97.5
431.624	100.5
431.846	78.5
432.068	93.5
432.29	88.5
432.512	99.5
432.734	90.5
432.956	96.5
433.178	109.5
433.4	108.5
433.622	96.5
433.844	92.5
434.066	98.5
434.287	83.5
434.509	91.5
434.731	80.5
434.953	83.5
435.175	83.5
435.397	97.5
435.618	90.5
435.84	115.5
436.062	142.5
436.284	138.5
436.505	130.5
436.727	117.5
436.949	106.5
437.17	82.5
437.392	83.5
437.614	96.5
437.835	118.5
438.057	130.5
438.278	132.5
438.5	122.5
438.721	159.5
438.943	111.5
439.165	78.5
439.386	91.5
439.608	91.5
439.829	95.5
440.05	151.5
440.272	188.5
440.493	121.5
440.715	95.5
440.936	81.5
441.158	100.5
441.379	113.5
441.6	106.5
441.822	78.5
442.043	95.5
442.264	120.5
442.486	97.5
442.707	94.5
442.928	115.5
443.149	150.5
443.371	160.5
443.592	125.5
443.813	132.5
444.034	130.5
444.255	91.5
444.476	99.5
444.698	88.5
444.919	98.5
445.14	139.5
445.361	146.5
445.582	143.5
445.803	195.5
446.024	190.5
446.245	156.5
446.466	127.5
446.687	95.5
446.908	81.5
447.129	84.5
447.35	90.5
447.571	81.5
447.792	92.5
448.013	99.5
448.234	104.5
448.455	116.5
448.675	133.5
448.896	148.5
449.117	115.5
449.338	119.5
449.559	143.5
449.779	164.5
450	99.5
450.221	90.5
450.442	77.5
450.662	106.5
450.883	118.5
451.104	129.5
451.324	107.5
451.545	92.5
451.766	90.5
451.986	76.5
452.207	83.5
452.428	107.5
452.648	96.5
452.869	138.5
453.089	122.5
453.31	115.5
453.53	98.5
453.751	103.5
453.971	107.5
454.192	125.5
454.412	102.5
454.633	100.5
454.853	89.5
455.073	89.5
455.294	86.5
455.514	103.5
455.734	89.5
455.955	92.5
456.175	81.5
456.395	98.5
456.616	78.5
456.836	79.5
457.056	96.5
457.276	95.5
457.497	92.5
457.717	94.5
457.937	93.5
458.157	90.5
458.377	94.5
458.598	120.5
458.818	195.5
459.038	216.5
459.258	130.5
459.478	95.5
459.698	93.5
459.918	81.5
460.138	99.5
460.358	100.5
460.578	93.5
460.798	107.5
461.018	87.5
461.238	100.5
461.458	93.5
461.678	68.5
461.898	82.5
462.118	74.5
462.338	93.5
462.558	98.5
462.777	97.5
462.997	89.5
463.217	119.5
463.437	105.5
463.657	73.5
463.876	84.5
464.096	89.5
464.316	90.5
464.536	90.5
464.755	99.5
464.975	113.5
465.195	208.5
465.414	223.5
465.634	105.5
465.854	93.5
466.073	90.5
466.293	91.5
466.512	94.5
466.732	84.5
466.951	93.5
467.171	105.5
467.391	120.5
467.61	142.5
467.829	194.5
468.049	508.5
468.268	758.5
468.488	217.5
468.707	109.5
468.927	91.5
469.146	90.5
469.365	84.5
469.585	97.5
469.804	97.5
470.023	88.5
470.243	102.5
470.462	111.5
470.681	134.5
470.901	105.5
471.12	107.5
471.339	113.5
471.558	108.5
471.777	146.5
471.997	265.5
472.216	1016.5
472.435	2298.5
472.654	540.5
472.873	146.5
473.092	110.5
473.311	88.5
473.53	90.5
473.749	97.5
473.968	117.5
474.187	136.5
474.406	98.5
474.625	89.5
474.844	87.5
475.063	94.5
475.282	96.5
475.501	92.5
475.72	84.5
475.939	91.5
476.158	95.5
476.377	92.5
476.596	102.5
476.814	86.5
477.033	89.5
477.252	96.5
477.471	100.5
477.69	102.5
477.908	97.5
478.127	97.5
478.346	102.5
478.564	104.5
478.783	115.5
479.002	104.5
479.22	119.5
479.439	111.5
479.658	128.5
479.876	113.5
480.095	106.5
480.313	148.5
480.532	156.5
480.751	267.5
480.969	932.5
481.188	4071.5
481.406	2280.5
481.624	338.5
481.843	118.5
482.061	108.5
482.28	108.5
482.498	95.5
482.717	97.5
482.935	100.5
483.153	83.5
483.372	90.5
483.59	100.5
483.808	95.5
484.027	102.5
484.245	96.5
484.463	99.5
484.681	104.5
484.9	98.5
485.118	106.5
485.336	90.5
485.554	84.5
485.772	90.5
485.99	86.5
486.209	113.5
486.427	95.5
486.645	115.5
486.863	114.5
487.081	107.5
487.299	87.5
487.517	89.5
487.735	101.5
487.953	92.5
488.171	81.5
488.389	100.5
488.607	108.5
488.825	90.5
489.043	93.5
489.261	95.5
489.479	82.5
489.696	84.5
489.914	84.5
490.132	86.5
490.35	90.5
490.568	97.5
490.786	93.5
491.003	87.5
491.221	91.5
491.439	95.5
491.657	94.5
491.874	105.5
492.092	88.5
492.31	104.5
492.527	100.5
492.745	106.5
492.963	89.5
493.18	88.5
493.398	87.5
493.615	108.5
493.833	93.5
494.05	91.5
494.268	93.5
494.485	100.5
494.703	91.5
494.92	87.5
495.138	83.5
495.355	86.5
495.573	97.5
495.79	81.5
496.008	97.5
496.225	93.5
496.442	95.5
496.66	99.5
496.877	86.5
497.094	84.5
497.312	96.5
497.529	100.5
497.746	98.5
497.963	87.5
498.181	87.5
498.398	106.5
498.615	107.5
498.832	113.5
499.049	103.5
499.267	87.5
499.484	92.5
499.701	76.5
499.918	97.5
500.135	95.5
500.352	86.5
500.569	97.5
500.786	97.5
501.003	88.5
501.22	88.5
501.437	87.5
501.654	92.5
501.871	114.5
502.088	88.5
502.305	98.5
502.522	95.5
502.739	94.5
502.956	98.5
503.172	97.5
503.389	100.5
503.606	121.5
503.823	96.5
504.04	105.5
504.256	72.5
504.473	73.5
504.69	83.5
504.907	90.5
505.123	99.5
505.34	87.5
505.557	93.5
505.773	75.5
505.99	82.5
506.207	103.5
506.423	85.5
506.64	93.5
506.856	98.5
507.073	92.5
507.289	96.5
507.506	106.5
507.722	121.5
507.939	130.5
508.155	95.5
508.372	94.5
508.588	106.5
508.805	92.5
509.021	85.5
509.238	97.5
509.454	98.5
509.67	104.5
509.887	122.5
510.103	128.5
510.319	206.5
510.536	807.5
510.752	2784.5
510.968	784.5
511.184	176.5
511.401	129.5
511.617	119.5
511.833	107.5
512.049	109.5
512.265	92.5
512.481	73.5
512.698	110.5
512.914	79.5
513.13	79.5
513.346	96.5
513.562	94.5
513.778	100.5
513.994	102.5
514.21	112.5
514.426	135.5
514.642	168.5
514.858	164.5
515.074	201.5
515.29	597.5
515.506	2116.5
515.721	778.5
515.937	192.5
516.153	114.5
516.369	114.5
516.585	104.5
516.801	98.5
517.016	87.5
517.232	94.5
517.448	88.5
517.664	104.5
517.879	87.5
518.095	101.5
518.311	99.5
518.527	102.5
518.742	91.5
518.958	96.5
519.173	107.5
519.389	106.5
519.605	104.5
519.82	106.5
520.036	104.5
520.251	133.5
520.467	120.5
520.682	116.5
520.898	108.5
521.113	138.5
521.329	175.5
521.544	241.5
521.76	786.5
521.975	3554.5
522.19	2134.5
522.406	422.5
522.621	146.5
522.836	114.5
523.052	98.5
523.267	99.5
523.482	98.5
523.698	101.5
523.913	134.5
524.128	115.5
524.343	77.5
524.559	97.5
524.774	94.5
524.989	100.5
525.204	117.5
525.419	107.5
525.634	92.5
525.849	88.5
526.064	92.5
526.28	105.5
526.495	87.5
526.71	94.5
526.925	79.5
527.14	94.5
527.355	93.5
527.57	86.5
527.785	84.5
527.999	95.5
528.214	82.5
528.429	111.5
528.644	96.5
528.859	104.5
529.074	119.5
529.289	152.5
529.503	222.5
529.718	121.5
529.933	90.5
530.148	97.5
530.363	95.5
530.577	87.5
530.792	91.5
531.007	98.5
531.221	95.5
531.436	87.5
531.651	96.5
531.865	110.5
532.08	86.5
532.295	89.5
532.509	95.5
532.724	99.5
532.938	93.5
