Data from Circ_1997_H10_HRD10591_00023.txt Node
Date: Wed Jan 03 11:29:32 EST 2024
User: Yrep
Spectrometer: HR+D1059
Trigger mode: 1
Integration Time (sec): 1.000000E-1
Scans to average: 1
Electric dark correction enabled: true
Nonlinearity correction enabled: false
Boxcar width: 0
XAxis mode: Wavelengths
Number of Pixels in Spectrum: 2048
>>>>>Begin Spectral Data<<<<<
223.165	-21.56
223.4	-21.56
223.635	-21.56
223.869	-9.56
224.104	-28.56
224.338	-17.56
224.573	-24.56
224.808	-19.56
225.042	-7.56
225.277	-8.56
225.511	9.44
225.746	6.44
225.98	13.44
226.215	8.44
226.449	26.44
226.683	18.44
226.918	22.44
227.152	32.44
227.387	28.44
227.621	37.44
227.856	46.44
228.09	46.44
228.324	52.44
228.559	56.44
228.793	62.44
229.027	78.44
229.262	71.44
229.496	78.44
229.73	110.44
229.964	105.44
230.199	86.44
230.433	76.44
230.667	78.44
230.901	78.44
231.136	79.44
231.37	78.44
231.604	83.44
231.838	81.44
232.072	69.44
232.306	86.44
232.541	94.44
232.775	90.44
233.009	84.44
233.243	86.44
233.477	63.44
233.711	84.44
233.945	92.44
234.179	75.44
234.413	86.44
234.647	80.44
234.881	74.44
235.115	84.44
235.349	75.44
235.583	86.44
235.817	80.44
236.051	76.44
236.285	82.44
236.519	75.44
236.753	79.44
236.987	85.44
237.221	85.44
237.455	96.44
237.689	85.44
237.922	84.44
238.156	72.44
238.39	79.44
238.624	82.44
238.858	81.44
239.091	77.44
239.325	91.44
239.559	84.44
239.793	74.44
240.027	80.44
240.26	74.44
240.494	77.44
240.728	84.44
240.961	86.44
241.195	74.44
241.429	76.44
241.662	72.44
241.896	62.44
242.13	94.44
242.363	69.44
242.597	71.44
242.83	72.44
243.064	77.44
243.298	94.44
243.531	80.44
243.765	77.44
243.998	71.44
244.232	91.44
244.465	86.44
244.699	79.44
244.932	82.44
245.166	77.44
245.399	80.44
245.633	83.44
245.866	87.44
246.099	62.44
246.333	85.44
246.566	87.44
246.8	76.44
247.033	57.44
247.266	78.44
247.5	84.44
247.733	79.44
247.966	84.44
248.2	83.44
248.433	83.44
248.666	82.44
248.899	85.44
249.133	109.44
249.366	117.44
249.599	108.44
249.832	93.44
250.066	84.44
250.299	82.44
250.532	90.44
250.765	82.44
250.998	89.44
251.231	75.44
251.465	83.44
251.698	86.44
251.931	95.44
252.164	74.44
252.397	81.44
252.63	89.44
252.863	74.44
253.096	86.44
253.329	85.44
253.562	85.44
253.795	83.44
254.028	80.44
254.261	80.44
254.494	71.44
254.727	71.44
254.96	94.44
255.193	79.44
255.426	86.44
255.659	80.44
255.892	93.44
256.124	105.44
256.357	89.44
256.59	79.44
256.823	78.44
257.056	86.44
257.289	77.44
257.521	86.44
257.754	97.44
257.987	72.44
258.22	79.44
258.452	92.44
258.685	80.44
258.918	87.44
259.151	87.44
259.383	98.44
259.616	81.44
259.849	92.44
260.081	88.44
260.314	86.44
260.547	77.44
260.779	89.44
261.012	111.44
261.244	110.44
261.477	94.44
261.71	96.44
261.942	134.44
262.175	153.44
262.407	113.44
262.64	88.44
262.872	80.44
263.105	73.44
263.337	80.44
263.57	71.44
263.802	79.44
264.035	66.44
264.267	77.44
264.499	69.44
264.732	96.44
264.964	89.44
265.197	68.44
265.429	80.44
265.661	82.44
265.894	85.44
266.126	82.44
266.358	70.44
266.591	86.44
266.823	67.44
267.055	93.44
267.287	96.44
267.52	85.44
267.752	76.44
267.984	82.44
268.216	94.44
268.448	94.44
268.681	73.44
268.913	90.44
269.145	88.44
269.377	80.44
269.609	87.44
269.841	88.44
270.073	82.44
270.306	89.44
270.538	94.44
270.77	81.44
271.002	90.44
271.234	81.44
271.466	98.44
271.698	82.44
271.93	90.44
272.162	94.44
272.394	92.44
272.626	104.44
272.858	93.44
273.09	94.44
273.322	80.44
273.553	89.44
273.785	80.44
274.017	76.44
274.249	89.44
274.481	108.44
274.713	96.44
274.945	85.44
275.176	92.44
275.408	98.44
275.64	111.44
275.872	129.44
276.104	107.44
276.335	102.44
276.567	118.44
276.799	151.44
277.031	179.44
277.262	183.44
277.494	144.44
277.726	98.44
277.957	91.44
278.189	98.44
278.421	99.44
278.652	76.44
278.884	91.44
279.115	99.44
279.347	91.44
279.579	96.44
279.81	127.44
280.042	190.44
280.273	261.44
280.505	174.44
280.736	112.44
280.968	99.44
281.199	95.44
281.431	92.44
281.662	88.44
281.894	75.44
282.125	112.44
282.356	141.44
282.588	179.44
282.819	135.44
283.051	105.44
283.282	90.44
283.513	90.44
283.745	101.44
283.976	86.44
284.207	77.44
284.439	76.44
284.67	81.44
284.901	93.44
285.132	87.44
285.364	107.44
285.595	81.44
285.826	94.44
286.057	107.44
286.288	79.44
286.52	93.44
286.751	86.44
286.982	95.44
287.213	96.44
287.444	82.44
287.675	93.44
287.906	80.44
288.138	82.44
288.369	78.44
288.6	87.44
288.831	90.44
289.062	90.44
289.293	80.44
289.524	86.44
289.755	92.44
289.986	83.44
290.217	81.44
290.448	92.44
290.679	72.44
290.91	89.44
291.141	95.44
291.371	88.44
291.602	78.44
291.833	94.44
292.064	86.44
292.295	88.44
292.526	104.44
292.757	91.44
292.987	91.44
293.218	96.44
293.449	92.44
293.68	90.44
293.91	92.44
294.141	94.44
294.372	99.44
294.603	88.44
294.833	96.44
295.064	88.44
295.295	97.44
295.525	90.44
295.756	99.44
295.987	130.44
296.217	169.44
296.448	154.44
296.679	92.44
296.909	87.44
297.14	76.44
297.37	83.44
297.601	77.44
297.831	90.44
298.062	93.44
298.292	85.44
298.523	98.44
298.753	96.44
298.984	84.44
299.214	87.44
299.445	91.44
299.675	96.44
299.905	89.44
300.136	85.44
300.366	91.44
300.597	97.44
300.827	102.44
301.057	109.44
301.288	123.44
301.518	112.44
301.748	103.44
301.979	111.44
302.209	90.44
302.439	109.44
302.669	96.44
302.9	91.44
303.13	98.44
303.36	116.44
303.59	140.44
303.82	149.44
304.051	113.44
304.281	106.44
304.511	102.44
304.741	88.44
304.971	92.44
305.201	89.44
305.431	75.44
305.661	101.44
305.891	89.44
306.121	98.44
306.352	116.44
306.582	102.44
306.812	97.44
307.042	112.44
307.272	174.44
307.502	177.44
307.731	177.44
307.961	120.44
308.191	97.44
308.421	89.44
308.651	98.44
308.881	94.44
309.111	102.44
309.341	113.44
309.571	108.44
309.8	107.44
310.03	107.44
310.26	128.44
310.49	105.44
310.72	120.44
310.949	120.44
311.179	113.44
311.409	103.44
311.639	116.44
311.868	117.44
312.098	113.44
312.328	91.44
312.557	117.44
312.787	135.44
313.017	114.44
313.246	101.44
313.476	87.44
313.706	109.44
313.935	96.44
314.165	128.44
314.394	126.44
314.624	115.44
314.853	123.44
315.083	96.44
315.312	98.44
315.542	104.44
315.771	103.44
316.001	101.44
316.23	92.44
316.46	82.44
316.689	94.44
316.919	103.44
317.148	102.44
317.377	98.44
317.607	101.44
317.836	111.44
318.065	96.44
318.295	97.44
318.524	88.44
318.753	100.44
318.983	102.44
319.212	108.44
319.441	120.44
319.67	118.44
319.9	92.44
320.129	92.44
320.358	99.44
320.587	102.44
320.816	112.44
321.046	134.44
321.275	106.44
321.504	105.44
321.733	85.44
321.962	106.44
322.191	120.44
322.42	116.44
322.649	125.44
322.878	139.44
323.108	140.44
323.337	174.44
323.566	190.44
323.795	224.44
324.024	315.44
324.253	684.44
324.482	1543.44
324.71	3301.44
324.939	4451.44
325.168	1472.44
325.397	366.44
325.626	198.44
325.855	173.44
326.084	165.44
326.313	177.44
326.542	197.44
326.77	350.44
326.999	778.44
327.228	1729.44
327.457	3316.44
327.686	2547.44
327.914	722.44
328.143	606.44
328.372	729.44
328.6	411.44
328.829	209.44
329.058	202.44
329.287	219.44
329.515	184.44
329.744	275.44
329.972	540.44
330.201	1086.44
330.43	1550.44
330.658	673.44
330.887	305.44
331.115	196.44
331.344	129.44
331.572	120.44
331.801	135.44
332.03	142.44
332.258	116.44
332.486	109.44
332.715	133.44
332.943	126.44
333.172	131.44
333.4	153.44
333.629	166.44
333.857	249.44
334.085	469.44
334.314	999.44
334.542	2000.44
334.771	1789.44
334.999	466.44
335.227	196.44
335.455	127.44
335.684	113.44
335.912	105.44
336.14	99.44
336.369	105.44
336.597	108.44
336.825	116.44
337.053	104.44
337.281	101.44
337.51	107.44
337.738	113.44
337.966	110.44
338.194	107.44
338.422	107.44
338.65	110.44
338.878	92.44
339.106	91.44
339.334	100.44
339.562	104.44
339.79	107.44
340.018	101.44
340.246	92.44
340.474	102.44
340.702	103.44
340.93	95.44
341.158	102.44
341.386	100.44
341.614	101.44
341.842	90.44
342.07	99.44
342.298	94.44
342.526	110.44
342.754	105.44
342.981	86.44
343.209	104.44
343.437	92.44
343.665	90.44
343.893	92.44
344.12	91.44
344.348	85.44
344.576	98.44
344.804	104.44
345.031	106.44
345.259	123.44
345.487	103.44
345.714	106.44
345.942	96.44
346.17	94.44
346.397	96.44
346.625	90.44
346.853	98.44
347.08	76.44
347.308	101.44
347.535	103.44
347.763	125.44
347.99	111.44
348.218	114.44
348.445	110.44
348.673	130.44
348.9	100.44
349.128	92.44
349.355	101.44
349.583	100.44
349.81	89.44
350.037	105.44
350.265	110.44
350.492	105.44
350.72	99.44
350.947	101.44
351.174	112.44
351.402	125.44
351.629	111.44
351.856	102.44
352.083	126.44
352.311	125.44
352.538	119.44
352.765	121.44
352.992	133.44
353.22	125.44
353.447	119.44
353.674	106.44
353.901	100.44
354.128	93.44
354.355	94.44
354.583	104.44
354.81	101.44
355.037	87.44
355.264	85.44
355.491	91.44
355.718	112.44
355.945	94.44
356.172	91.44
356.399	83.44
356.626	93.44
356.853	99.44
357.08	97.44
357.307	72.44
357.534	87.44
357.761	98.44
357.988	98.44
358.215	78.44
358.441	88.44
358.668	103.44
358.895	90.44
359.122	79.44
359.349	100.44
359.576	95.44
359.802	137.44
360.029	164.44
360.256	145.44
360.483	124.44
360.709	102.44
360.936	98.44
361.163	123.44
361.39	109.44
361.616	101.44
361.843	105.44
362.07	104.44
362.296	87.44
362.523	105.44
362.749	112.44
362.976	90.44
363.203	83.44
363.429	97.44
363.656	97.44
363.882	98.44
364.109	86.44
364.335	94.44
364.562	96.44
364.788	93.44
365.015	89.44
365.241	100.44
365.468	127.44
365.694	111.44
365.92	109.44
366.147	93.44
366.373	98.44
366.599	100.44
366.826	97.44
367.052	104.44
367.278	102.44
367.505	97.44
367.731	107.44
367.957	98.44
368.184	95.44
368.41	116.44
368.636	140.44
368.862	135.44
369.089	119.44
369.315	113.44
369.541	101.44
369.767	100.44
369.993	99.44
370.219	105.44
370.445	110.44
370.672	104.44
370.898	76.44
371.124	103.44
371.35	89.44
371.576	108.44
371.802	76.44
372.028	79.44
372.254	84.44
372.48	96.44
372.706	88.44
372.932	88.44
373.158	91.44
373.384	96.44
373.61	97.44
373.835	79.44
374.061	88.44
374.287	104.44
374.513	99.44
374.739	91.44
374.965	86.44
375.191	95.44
375.416	101.44
375.642	92.44
375.868	91.44
376.094	84.44
376.319	96.44
376.545	88.44
376.771	88.44
376.997	86.44
377.222	101.44
377.448	86.44
377.674	98.44
377.899	84.44
378.125	80.44
378.35	91.44
378.576	80.44
378.802	88.44
379.027	95.44
379.253	97.44
379.478	90.44
379.704	89.44
379.929	98.44
380.155	94.44
380.38	78.44
380.606	104.44
380.831	103.44
381.057	91.44
381.282	110.44
381.507	100.44
381.733	100.44
381.958	101.44
382.184	93.44
382.409	105.44
382.634	116.44
382.86	98.44
383.085	99.44
383.31	98.44
383.535	96.44
383.761	84.44
383.986	96.44
384.211	95.44
384.436	108.44
384.662	110.44
384.887	86.44
385.112	110.44
385.337	96.44
385.562	105.44
385.787	98.44
386.013	115.44
386.238	131.44
386.463	95.44
386.688	110.44
386.913	115.44
387.138	104.44
387.363	105.44
387.588	95.44
387.813	105.44
388.038	108.44
388.263	109.44
388.488	108.44
388.713	108.44
388.938	86.44
389.163	104.44
389.387	90.44
389.612	83.44
389.837	78.44
390.062	97.44
390.287	82.44
390.512	84.44
390.736	94.44
390.961	90.44
391.186	97.44
391.411	97.44
391.636	85.44
391.86	87.44
392.085	88.44
392.31	95.44
392.534	88.44
392.759	85.44
392.984	87.44
393.208	76.44
393.433	110.44
393.658	92.44
393.882	82.44
394.107	78.44
394.331	77.44
394.556	93.44
394.78	76.44
395.005	88.44
395.229	87.44
395.454	67.44
395.678	93.44
395.903	92.44
396.127	84.44
396.352	86.44
396.576	79.44
396.801	94.44
397.025	88.44
397.249	97.44
397.474	104.44
397.698	93.44
397.922	92.44
398.147	81.44
398.371	102.44
398.595	94.44
398.82	93.44
399.044	89.44
399.268	90.44
399.492	76.44
399.717	86.44
399.941	91.44
400.165	88.44
400.389	103.44
400.613	89.44
400.837	81.44
401.062	101.44
401.286	92.44
401.51	88.44
401.734	82.44
401.958	116.44
402.182	148.44
402.406	204.44
402.63	153.44
402.854	114.44
403.078	91.44
403.302	72.44
403.526	92.44
403.75	98.44
403.974	80.44
404.198	74.44
404.422	90.44
404.645	107.44
404.869	121.44
405.093	131.44
405.317	156.44
405.541	151.44
405.765	119.44
405.988	144.44
406.212	222.44
406.436	343.44
406.66	222.44
406.883	120.44
407.107	111.44
407.331	104.44
407.555	117.44
407.778	117.44
408.002	94.44
408.226	92.44
408.449	97.44
408.673	105.44
408.896	96.44
409.12	111.44
409.344	91.44
409.567	87.44
409.791	89.44
410.014	95.44
410.238	83.44
410.461	95.44
410.685	94.44
410.908	102.44
411.132	104.44
411.355	112.44
411.578	97.44
411.802	100.44
412.025	98.44
412.249	110.44
412.472	132.44
412.695	165.44
412.919	106.44
413.142	93.44
413.365	85.44
413.589	78.44
413.812	92.44
414.035	92.44
414.258	91.44
414.482	92.44
414.705	77.44
414.928	84.44
415.151	76.44
415.374	93.44
415.597	95.44
415.821	89.44
416.044	106.44
416.267	85.44
416.49	95.44
416.713	96.44
416.936	95.44
417.159	95.44
417.382	112.44
417.605	115.44
417.828	115.44
418.051	99.44
418.274	90.44
418.497	87.44
418.72	87.44
418.943	82.44
419.166	95.44
419.389	95.44
419.611	90.44
419.834	87.44
420.057	100.44
420.28	116.44
420.503	94.44
420.726	91.44
420.948	98.44
421.171	102.44
421.394	100.44
421.617	81.44
421.839	82.44
422.062	80.44
422.285	105.44
422.507	98.44
422.73	121.44
422.953	104.44
423.175	94.44
423.398	108.44
423.621	87.44
423.843	80.44
424.066	94.44
424.288	90.44
424.511	104.44
424.733	111.44
424.956	127.44
425.178	125.44
425.401	114.44
425.623	108.44
425.846	98.44
426.068	97.44
426.291	105.44
426.513	82.44
426.735	94.44
426.958	105.44
427.18	134.44
427.402	212.44
427.625	296.44
427.847	292.44
428.069	266.44
428.292	165.44
428.514	101.44
428.736	93.44
428.958	102.44
429.181	102.44
429.403	85.44
429.625	103.44
429.847	110.44
430.069	131.44
430.292	113.44
430.514	81.44
430.736	100.44
430.958	91.44
431.18	86.44
431.402	88.44
431.624	77.44
431.846	93.44
432.068	91.44
432.29	89.44
432.512	88.44
432.734	76.44
432.956	101.44
433.178	97.44
433.4	107.44
433.622	95.44
433.844	102.44
434.066	98.44
434.287	94.44
434.509	85.44
434.731	86.44
434.953	102.44
435.175	82.44
435.397	104.44
435.618	102.44
435.84	127.44
436.062	158.44
436.284	156.44
436.505	133.44
436.727	121.44
436.949	106.44
437.17	89.44
437.392	92.44
437.614	100.44
437.835	143.44
438.057	163.44
438.278	157.44
438.5	138.44
438.721	148.44
438.943	124.44
439.165	93.44
439.386	97.44
439.608	110.44
439.829	120.44
440.05	187.44
440.272	226.44
440.493	120.44
440.715	81.44
440.936	92.44
441.158	76.44
441.379	98.44
441.6	101.44
441.822	105.44
442.043	108.44
442.264	126.44
442.486	143.44
442.707	98.44
442.928	122.44
443.149	217.44
443.371	191.44
443.592	145.44
443.813	152.44
444.034	127.44
444.255	98.44
444.476	97.44
444.698	86.44
444.919	93.44
445.14	141.44
445.361	154.44
445.582	177.44
445.803	229.44
446.024	219.44
446.245	216.44
446.466	143.44
446.687	96.44
446.908	94.44
447.129	87.44
447.35	84.44
447.571	80.44
447.792	94.44
448.013	111.44
448.234	105.44
448.455	126.44
448.675	135.44
448.896	172.44
449.117	124.44
449.338	122.44
449.559	178.44
449.779	180.44
450	109.44
450.221	93.44
450.442	87.44
450.662	111.44
450.883	130.44
451.104	142.44
451.324	108.44
451.545	94.44
451.766	80.44
451.986	97.44
452.207	96.44
452.428	116.44
452.648	118.44
452.869	130.44
453.089	132.44
453.31	158.44
453.53	111.44
453.751	102.44
453.971	135.44
454.192	140.44
454.412	102.44
454.633	94.44
454.853	80.44
455.073	95.44
455.294	100.44
455.514	121.44
455.734	95.44
455.955	84.44
456.175	92.44
456.395	79.44
456.616	86.44
456.836	87.44
457.056	78.44
457.276	95.44
457.497	83.44
457.717	85.44
457.937	93.44
458.157	77.44
458.377	99.44
458.598	140.44
458.818	240.44
459.038	262.44
459.258	164.44
459.478	107.44
459.698	85.44
459.918	80.44
460.138	87.44
460.358	92.44
460.578	89.44
460.798	96.44
461.018	95.44
461.238	84.44
461.458	85.44
461.678	101.44
461.898	93.44
462.118	87.44
462.338	85.44
462.558	107.44
462.777	92.44
462.997	94.44
463.217	111.44
463.437	100.44
463.657	82.44
463.876	97.44
464.096	105.44
464.316	93.44
464.536	116.44
464.755	102.44
464.975	142.44
465.195	281.44
465.414	270.44
465.634	108.44
465.854	93.44
466.073	78.44
466.293	88.44
466.512	90.44
466.732	98.44
466.951	92.44
467.171	94.44
467.391	113.44
467.61	150.44
467.829	204.44
468.049	551.44
468.268	807.44
468.488	213.44
468.707	113.44
468.927	93.44
469.146	97.44
469.365	87.44
469.585	84.44
469.804	104.44
470.023	112.44
470.243	110.44
470.462	144.44
470.681	154.44
470.901	106.44
471.12	106.44
471.339	123.44
471.558	120.44
471.777	171.44
471.997	306.44
472.216	1144.44
472.435	2573.44
472.654	590.44
472.873	150.44
473.092	104.44
473.311	79.44
473.53	92.44
473.749	103.44
473.968	111.44
474.187	141.44
474.406	131.44
474.625	95.44
474.844	92.44
475.063	92.44
475.282	87.44
475.501	87.44
475.72	95.44
475.939	87.44
476.158	101.44
476.377	98.44
476.596	103.44
476.814	116.44
477.033	94.44
477.252	100.44
477.471	89.44
477.69	90.44
477.908	95.44
478.127	99.44
478.346	102.44
478.564	95.44
478.783	117.44
479.002	121.44
479.22	117.44
479.439	153.44
479.658	134.44
479.876	124.44
480.095	111.44
480.313	137.44
480.532	171.44
480.751	298.44
480.969	1037.44
481.188	4586.44
481.406	2559.44
481.624	374.44
481.843	150.44
482.061	118.44
482.28	108.44
482.498	102.44
482.717	97.44
482.935	89.44
483.153	72.44
483.372	89.44
483.59	83.44
483.808	92.44
484.027	84.44
484.245	93.44
484.463	75.44
484.681	105.44
484.9	95.44
485.118	92.44
485.336	96.44
485.554	94.44
485.772	102.44
485.99	114.44
486.209	98.44
486.427	102.44
486.645	124.44
486.863	122.44
487.081	104.44
487.299	102.44
487.517	97.44
487.735	96.44
487.953	109.44
488.171	98.44
488.389	90.44
488.607	105.44
488.825	94.44
489.043	91.44
489.261	79.44
489.479	90.44
489.696	90.44
489.914	72.44
490.132	85.44
490.35	86.44
490.568	80.44
490.786	96.44
491.003	75.44
491.221	108.44
491.439	113.44
491.657	103.44
491.874	104.44
492.092	82.44
492.31	85.44
492.527	97.44
492.745	106.44
492.963	99.44
493.18	105.44
493.398	95.44
493.615	93.44
493.833	93.44
494.05	92.44
494.268	89.44
494.485	90.44
494.703	81.44
494.92	92.44
495.138	104.44
495.355	91.44
495.573	101.44
495.79	103.44
496.008	88.44
496.225	90.44
496.442	87.44
496.66	91.44
496.877	84.44
497.094	92.44
497.312	99.44
497.529	87.44
497.746	93.44
497.963	91.44
498.181	106.44
498.398	107.44
498.615	130.44
498.832	108.44
499.049	88.44
499.267	88.44
499.484	91.44
499.701	105.44
499.918	89.44
500.135	82.44
500.352	92.44
500.569	97.44
500.786	88.44
501.003	100.44
501.22	85.44
501.437	88.44
501.654	102.44
501.871	132.44
502.088	90.44
502.305	92.44
502.522	102.44
502.739	97.44
502.956	92.44
503.172	95.44
503.389	101.44
503.606	123.44
503.823	109.44
504.04	101.44
504.256	109.44
504.473	98.44
504.69	102.44
504.907	96.44
505.123	94.44
505.34	89.44
505.557	106.44
505.773	85.44
505.99	90.44
506.207	93.44
506.423	98.44
506.64	86.44
506.856	88.44
507.073	96.44
507.289	97.44
507.506	100.44
507.722	168.44
507.939	127.44
508.155	102.44
508.372	98.44
508.588	91.44
508.805	98.44
509.021	105.44
509.238	103.44
509.454	96.44
509.67	121.44
509.887	122.44
510.103	144.44
510.319	256.44
510.536	971.44
510.752	3565.44
510.968	955.44
511.184	186.44
511.401	141.44
511.617	106.44
511.833	112.44
512.049	105.44
512.265	96.44
