Data from Circ_1997_H10_HRD10591_00083.txt Node
Date: Wed Jan 03 11:29:44 EST 2024
User: Yrep
Spectrometer: HR+D1059
Trigger mode: 1
Integration Time (sec): 1.000000E-1
Scans to average: 1
Electric dark correction enabled: true
Nonlinearity correction enabled: false
Boxcar width: 0
XAxis mode: Wavelengths
Number of Pixels in Spectrum: 2048
>>>>>Begin Spectral Data<<<<<
223.165	-17.56
223.4	-17.56
223.635	-17.56
223.869	-11.56
224.104	-20.56
224.338	-18.56
224.573	-21.56
224.808	0.44
225.042	-5.56
225.277	-3.56
225.511	-4.56
225.746	0.44
225.98	6.44
226.215	19.44
226.449	15.44
226.683	29.44
226.918	15.44
227.152	16.44
227.387	16.44
227.621	29.44
227.856	41.44
228.09	48.44
228.324	51.44
228.559	64.44
228.793	63.44
229.027	59.44
229.262	69.44
229.496	89.44
229.73	109.44
229.964	102.44
230.199	84.44
230.433	76.44
230.667	72.44
230.901	88.44
231.136	77.44
231.37	67.44
231.604	87.44
231.838	82.44
232.072	81.44
232.306	85.44
232.541	76.44
232.775	75.44
233.009	81.44
233.243	77.44
233.477	84.44
233.711	67.44
233.945	82.44
234.179	86.44
234.413	82.44
234.647	90.44
234.881	80.44
235.115	83.44
235.349	80.44
235.583	96.44
235.817	99.44
236.051	74.44
236.285	85.44
236.519	74.44
236.753	81.44
236.987	92.44
237.221	101.44
237.455	110.44
237.689	85.44
237.922	79.44
238.156	68.44
238.39	81.44
238.624	74.44
238.858	90.44
239.091	88.44
239.325	74.44
239.559	92.44
239.793	89.44
240.027	84.44
240.26	81.44
240.494	80.44
240.728	73.44
240.961	76.44
241.195	82.44
241.429	74.44
241.662	95.44
241.896	95.44
242.13	75.44
242.363	85.44
242.597	106.44
242.83	102.44
243.064	90.44
243.298	93.44
243.531	73.44
243.765	76.44
243.998	78.44
244.232	79.44
244.465	91.44
244.699	92.44
244.932	88.44
245.166	81.44
245.399	91.44
245.633	85.44
245.866	87.44
246.099	83.44
246.333	75.44
246.566	92.44
246.8	100.44
247.033	78.44
247.266	70.44
247.5	83.44
247.733	77.44
247.966	72.44
248.2	87.44
248.433	81.44
248.666	88.44
248.899	84.44
249.133	93.44
249.366	119.44
249.599	111.44
249.832	83.44
250.066	86.44
250.299	98.44
250.532	95.44
250.765	86.44
250.998	78.44
251.231	87.44
251.465	88.44
251.698	92.44
251.931	78.44
252.164	81.44
252.397	87.44
252.63	71.44
252.863	81.44
253.096	93.44
253.329	92.44
253.562	85.44
253.795	85.44
254.028	93.44
254.261	95.44
254.494	90.44
254.727	95.44
254.96	94.44
255.193	88.44
255.426	92.44
255.659	89.44
255.892	112.44
256.124	100.44
256.357	96.44
256.59	99.44
256.823	77.44
257.056	89.44
257.289	79.44
257.521	75.44
257.754	77.44
257.987	99.44
258.22	100.44
258.452	112.44
258.685	87.44
258.918	87.44
259.151	89.44
259.383	84.44
259.616	74.44
259.849	88.44
260.081	89.44
260.314	78.44
260.547	88.44
260.779	100.44
261.012	133.44
261.244	127.44
261.477	120.44
261.71	97.44
261.942	151.44
262.175	160.44
262.407	100.44
262.64	89.44
262.872	95.44
263.105	92.44
263.337	89.44
263.57	72.44
263.802	84.44
264.035	94.44
264.267	84.44
264.499	80.44
264.732	95.44
264.964	81.44
265.197	91.44
265.429	94.44
265.661	88.44
265.894	74.44
266.126	87.44
266.358	91.44
266.591	74.44
266.823	88.44
267.055	90.44
267.287	88.44
267.52	78.44
267.752	87.44
267.984	104.44
268.216	85.44
268.448	89.44
268.681	88.44
268.913	88.44
269.145	92.44
269.377	90.44
269.609	99.44
269.841	96.44
270.073	85.44
270.306	92.44
270.538	92.44
270.77	95.44
271.002	86.44
271.234	104.44
271.466	92.44
271.698	92.44
271.93	87.44
272.162	88.44
272.394	88.44
272.626	83.44
272.858	86.44
273.09	95.44
273.322	82.44
273.553	81.44
273.785	84.44
274.017	92.44
274.249	80.44
274.481	88.44
274.713	91.44
274.945	93.44
275.176	100.44
275.408	121.44
275.64	124.44
275.872	142.44
276.104	117.44
276.335	105.44
276.567	119.44
276.799	160.44
277.031	219.44
277.262	265.44
277.494	183.44
277.726	108.44
277.957	97.44
278.189	93.44
278.421	93.44
278.652	93.44
278.884	71.44
279.115	93.44
279.347	85.44
279.579	112.44
279.81	164.44
280.042	282.44
280.273	370.44
280.505	234.44
280.736	126.44
280.968	115.44
281.199	89.44
281.431	107.44
281.662	81.44
281.894	83.44
282.125	125.44
282.356	145.44
282.588	197.44
282.819	155.44
283.051	105.44
283.282	88.44
283.513	101.44
283.745	97.44
283.976	94.44
284.207	83.44
284.439	93.44
284.67	94.44
284.901	93.44
285.132	100.44
285.364	96.44
285.595	101.44
285.826	98.44
286.057	74.44
286.288	83.44
286.52	93.44
286.751	88.44
286.982	79.44
287.213	94.44
287.444	96.44
287.675	89.44
287.906	100.44
288.138	95.44
288.369	92.44
288.6	99.44
288.831	87.44
289.062	87.44
289.293	97.44
289.524	88.44
289.755	97.44
289.986	77.44
290.217	88.44
290.448	89.44
290.679	89.44
290.91	91.44
291.141	95.44
291.371	103.44
291.602	91.44
291.833	88.44
292.064	83.44
292.295	98.44
292.526	100.44
292.757	98.44
292.987	77.44
293.218	88.44
293.449	98.44
293.68	92.44
293.91	92.44
294.141	86.44
294.372	76.44
294.603	90.44
294.833	104.44
295.064	89.44
295.295	96.44
295.525	79.44
295.756	100.44
295.987	138.44
296.217	186.44
296.448	171.44
296.679	120.44
296.909	102.44
297.14	97.44
297.37	89.44
297.601	109.44
297.831	103.44
298.062	97.44
298.292	103.44
298.523	95.44
298.753	76.44
298.984	91.44
299.214	96.44
299.445	100.44
299.675	101.44
299.905	118.44
300.136	95.44
300.366	97.44
300.597	105.44
300.827	107.44
301.057	112.44
301.288	122.44
301.518	115.44
301.748	125.44
301.979	119.44
302.209	111.44
302.439	101.44
302.669	99.44
302.9	109.44
303.13	103.44
303.36	109.44
303.59	143.44
303.82	167.44
304.051	113.44
304.281	99.44
304.511	88.44
304.741	91.44
304.971	93.44
305.201	89.44
305.431	101.44
305.661	92.44
305.891	101.44
306.121	105.44
306.352	110.44
306.582	127.44
306.812	112.44
307.042	142.44
307.272	211.44
307.502	236.44
307.731	202.44
307.961	136.44
308.191	109.44
308.421	95.44
308.651	103.44
308.881	107.44
309.111	100.44
309.341	109.44
309.571	115.44
309.8	101.44
310.03	108.44
310.26	116.44
310.49	100.44
310.72	135.44
310.949	133.44
311.179	126.44
311.409	102.44
311.639	111.44
311.868	106.44
312.098	83.44
312.328	101.44
312.557	127.44
312.787	132.44
313.017	127.44
313.246	114.44
313.476	97.44
313.706	111.44
313.935	91.44
314.165	118.44
314.394	128.44
314.624	104.44
314.853	124.44
315.083	104.44
315.312	87.44
315.542	89.44
315.771	96.44
316.001	93.44
316.23	97.44
316.46	90.44
316.689	100.44
316.919	92.44
317.148	115.44
317.377	120.44
317.607	109.44
317.836	106.44
318.065	104.44
318.295	93.44
318.524	95.44
318.753	95.44
318.983	116.44
319.212	120.44
319.441	122.44
319.67	131.44
319.9	103.44
320.129	104.44
320.358	100.44
320.587	113.44
320.816	117.44
321.046	115.44
321.275	120.44
321.504	116.44
321.733	113.44
321.962	106.44
322.191	128.44
322.42	126.44
322.649	118.44
322.878	136.44
323.108	165.44
323.337	163.44
323.566	195.44
323.795	207.44
324.024	314.44
324.253	683.44
324.482	1479.44
324.71	3175.44
324.939	4343.44
325.168	1491.44
325.397	387.44
325.626	199.44
325.855	161.44
326.084	166.44
326.313	191.44
326.542	210.44
326.77	349.44
326.999	772.44
327.228	1626.44
327.457	3107.44
327.686	2447.44
327.914	803.44
328.143	764.44
328.372	996.44
328.6	526.44
328.829	245.44
329.058	233.44
329.287	260.44
329.515	223.44
329.744	368.44
329.972	739.44
330.201	1558.44
330.43	2302.44
330.658	947.44
330.887	398.44
331.115	234.44
331.344	153.44
331.572	130.44
331.801	151.44
332.03	147.44
332.258	132.44
332.486	123.44
332.715	121.44
332.943	139.44
333.172	130.44
333.4	169.44
333.629	197.44
333.857	322.44
334.085	648.44
334.314	1439.44
334.542	2877.44
334.771	2635.44
334.999	640.44
335.227	231.44
335.455	148.44
335.684	123.44
335.912	133.44
336.14	113.44
336.369	119.44
336.597	122.44
336.825	126.44
337.053	116.44
337.281	105.44
337.51	96.44
337.738	113.44
337.966	103.44
338.194	115.44
338.422	116.44
338.65	110.44
338.878	114.44
339.106	92.44
339.334	92.44
339.562	102.44
339.79	101.44
340.018	94.44
340.246	111.44
340.474	110.44
340.702	110.44
340.93	102.44
341.158	110.44
341.386	112.44
341.614	96.44
341.842	109.44
342.07	95.44
342.298	107.44
342.526	98.44
342.754	82.44
342.981	97.44
343.209	98.44
343.437	99.44
343.665	95.44
343.893	103.44
344.12	97.44
344.348	99.44
344.576	99.44
344.804	94.44
345.031	113.44
345.259	126.44
345.487	110.44
345.714	115.44
345.942	95.44
346.17	96.44
346.397	101.44
346.625	103.44
346.853	108.44
347.08	112.44
347.308	119.44
347.535	111.44
347.763	119.44
347.99	130.44
348.218	121.44
348.445	134.44
348.673	122.44
348.9	95.44
349.128	101.44
349.355	99.44
349.583	96.44
349.81	94.44
350.037	106.44
350.265	101.44
350.492	95.44
350.72	98.44
350.947	116.44
351.174	115.44
351.402	129.44
351.629	111.44
351.856	114.44
352.083	117.44
352.311	120.44
352.538	140.44
352.765	119.44
352.992	135.44
353.22	118.44
353.447	116.44
353.674	111.44
353.901	104.44
354.128	91.44
354.355	107.44
354.583	105.44
354.81	93.44
355.037	116.44
355.264	110.44
355.491	90.44
355.718	91.44
355.945	98.44
356.172	107.44
356.399	98.44
356.626	96.44
356.853	96.44
357.08	98.44
357.307	77.44
357.534	89.44
357.761	87.44
357.988	99.44
358.215	98.44
358.441	106.44
358.668	90.44
358.895	90.44
359.122	90.44
359.349	85.44
359.576	95.44
359.802	127.44
360.029	147.44
360.256	160.44
360.483	129.44
360.709	120.44
360.936	107.44
361.163	105.44
361.39	99.44
361.616	117.44
361.843	98.44
362.07	113.44
362.296	110.44
362.523	118.44
362.749	111.44
362.976	103.44
363.203	90.44
363.429	113.44
363.656	93.44
363.882	93.44
364.109	98.44
364.335	102.44
364.562	104.44
364.788	99.44
365.015	119.44
365.241	138.44
365.468	125.44
365.694	142.44
365.92	109.44
366.147	108.44
366.373	96.44
366.599	106.44
366.826	104.44
367.052	107.44
367.278	85.44
367.505	103.44
367.731	97.44
367.957	107.44
368.184	100.44
368.41	110.44
368.636	130.44
368.862	132.44
369.089	125.44
369.315	109.44
369.541	113.44
369.767	107.44
369.993	102.44
370.219	101.44
370.445	97.44
370.672	84.44
370.898	94.44
371.124	94.44
371.35	88.44
371.576	84.44
371.802	92.44
372.028	100.44
372.254	85.44
372.48	81.44
372.706	88.44
372.932	89.44
373.158	93.44
373.384	95.44
373.61	94.44
373.835	84.44
374.061	82.44
374.287	99.44
374.513	99.44
374.739	103.44
374.965	86.44
375.191	95.44
375.416	91.44
375.642	105.44
375.868	103.44
376.094	102.44
376.319	99.44
376.545	85.44
376.771	89.44
376.997	112.44
377.222	98.44
377.448	96.44
377.674	86.44
377.899	88.44
378.125	92.44
378.35	90.44
378.576	97.44
378.802	99.44
379.027	110.44
379.253	98.44
379.478	88.44
379.704	88.44
379.929	96.44
380.155	99.44
380.38	87.44
380.606	91.44
380.831	84.44
381.057	114.44
381.282	92.44
381.507	87.44
381.733	88.44
381.958	89.44
382.184	100.44
382.409	117.44
382.634	109.44
382.86	105.44
383.085	113.44
383.31	92.44
383.535	101.44
383.761	100.44
383.986	119.44
384.211	113.44
384.436	111.44
384.662	90.44
384.887	98.44
385.112	85.44
385.337	81.44
385.562	107.44
385.787	106.44
386.013	104.44
386.238	119.44
386.463	117.44
386.688	114.44
386.913	102.44
387.138	95.44
387.363	95.44
387.588	102.44
387.813	94.44
388.038	102.44
388.263	99.44
388.488	111.44
388.713	100.44
388.938	95.44
389.163	106.44
389.387	99.44
389.612	92.44
389.837	110.44
390.062	91.44
390.287	82.44
390.512	96.44
390.736	100.44
390.961	92.44
391.186	100.44
391.411	94.44
391.636	98.44
391.86	106.44
392.085	88.44
392.31	80.44
392.534	88.44
392.759	93.44
392.984	107.44
393.208	99.44
393.433	96.44
393.658	94.44
393.882	72.44
394.107	87.44
394.331	101.44
394.556	89.44
394.78	113.44
395.005	98.44
395.229	87.44
395.454	86.44
395.678	95.44
395.903	81.44
396.127	82.44
396.352	97.44
396.576	92.44
396.801	87.44
397.025	91.44
397.249	82.44
397.474	89.44
397.698	91.44
397.922	82.44
398.147	81.44
398.371	91.44
398.595	90.44
398.82	83.44
399.044	88.44
399.268	87.44
399.492	78.44
399.717	91.44
399.941	91.44
400.165	100.44
400.389	97.44
400.613	106.44
400.837	97.44
401.062	98.44
401.286	97.44
401.51	101.44
401.734	100.44
401.958	119.44
402.182	159.44
402.406	218.44
402.63	155.44
402.854	110.44
403.078	111.44
403.302	100.44
403.526	92.44
403.75	105.44
403.974	107.44
404.198	86.44
404.422	104.44
404.645	108.44
404.869	113.44
405.093	128.44
405.317	157.44
405.541	165.44
405.765	131.44
405.988	165.44
406.212	251.44
406.436	347.44
406.66	219.44
406.883	132.44
407.107	108.44
407.331	119.44
407.555	125.44
407.778	119.44
408.002	95.44
408.226	91.44
408.449	94.44
408.673	109.44
408.896	86.44
409.12	131.44
409.344	106.44
409.567	87.44
409.791	102.44
410.014	117.44
410.238	83.44
410.461	85.44
410.685	76.44
410.908	100.44
411.132	121.44
411.355	121.44
411.578	103.44
411.802	95.44
412.025	95.44
412.249	86.44
412.472	132.44
412.695	174.44
412.919	114.44
413.142	99.44
413.365	99.44
413.589	95.44
413.812	96.44
414.035	93.44
414.258	103.44
414.482	92.44
414.705	95.44
414.928	95.44
415.151	96.44
415.374	85.44
415.597	99.44
415.821	99.44
416.044	100.44
416.267	88.44
416.49	90.44
416.713	92.44
416.936	82.44
417.159	96.44
417.382	111.44
417.605	113.44
417.828	129.44
418.051	108.44
418.274	105.44
418.497	92.44
418.72	92.44
418.943	76.44
419.166	97.44
419.389	107.44
419.611	91.44
419.834	98.44
420.057	91.44
420.28	100.44
420.503	109.44
420.726	92.44
420.948	107.44
421.171	113.44
421.394	106.44
421.617	90.44
421.839	85.44
422.062	98.44
422.285	97.44
422.507	107.44
422.73	129.44
422.953	96.44
423.175	102.44
423.398	81.44
423.621	100.44
423.843	101.44
424.066	83.44
424.288	100.44
424.511	97.44
424.733	117.44
424.956	134.44
425.178	126.44
425.401	121.44
425.623	125.44
425.846	90.44
426.068	124.44
426.291	104.44
426.513	108.44
426.735	118.44
426.958	119.44
427.18	150.44
427.402	241.44
427.625	351.44
427.847	337.44
428.069	309.44
428.292	156.44
428.514	108.44
428.736	97.44
428.958	97.44
429.181	97.44
429.403	97.44
429.625	93.44
429.847	104.44
430.069	125.44
430.292	116.44
430.514	91.44
430.736	101.44
430.958	87.44
431.18	91.44
431.402	88.44
431.624	90.44
431.846	95.44
432.068	91.44
432.29	81.44
432.512	80.44
432.734	88.44
432.956	92.44
433.178	110.44
433.4	115.44
433.622	89.44
433.844	92.44
434.066	104.44
434.287	95.44
434.509	97.44
434.731	108.44
434.953	101.44
435.175	95.44
435.397	98.44
435.618	112.44
435.84	123.44
436.062	183.44
436.284	160.44
436.505	122.44
436.727	127.44
436.949	107.44
437.17	88.44
437.392	98.44
437.614	125.44
437.835	147.44
438.057	169.44
438.278	164.44
438.5	122.44
438.721	165.44
438.943	132.44
439.165	89.44
439.386	112.44
439.608	108.44
439.829	127.44
440.05	199.44
440.272	232.44
440.493	117.44
440.715	96.44
440.936	99.44
441.158	97.44
441.379	101.44
441.6	105.44
441.822	117.44
442.043	111.44
442.264	137.44
442.486	121.44
442.707	110.44
442.928	153.44
443.149	207.44
443.371	197.44
443.592	161.44
443.813	160.44
444.034	155.44
444.255	93.44
444.476	110.44
444.698	99.44
444.919	93.44
445.14	155.44
445.361	156.44
445.582	192.44
445.803	246.44
446.024	234.44
446.245	222.44
446.466	154.44
446.687	96.44
446.908	93.44
447.129	97.44
447.35	106.44
447.571	103.44
447.792	86.44
448.013	106.44
448.234	136.44
448.455	127.44
448.675	145.44
448.896	159.44
449.117	113.44
449.338	129.44
449.559	186.44
449.779	187.44
450	97.44
450.221	94.44
450.442	97.44
450.662	110.44
450.883	139.44
451.104	161.44
451.324	103.44
451.545	87.44
451.766	90.44
451.986	98.44
452.207	105.44
452.428	97.44
452.648	119.44
452.869	124.44
453.089	165.44
453.31	166.44
453.53	108.44
453.751	112.44
453.971	143.44
454.192	152.44
454.412	124.44
454.633	88.44
454.853	107.44
455.073	98.44
455.294	104.44
455.514	138.44
455.734	105.44
455.955	83.44
456.175	90.44
456.395	82.44
456.616	90.44
456.836	97.44
457.056	94.44
457.276	88.44
457.497	76.44
457.717	93.44
457.937	98.44
458.157	103.44
458.377	114.44
458.598	140.44
458.818	244.44
459.038	306.44
459.258	172.44
459.478	104.44
459.698	90.44
459.918	102.44
460.138	91.44
460.358	91.44
460.578	100.44
460.798	101.44
461.018	88.44
461.238	87.44
461.458	87.44
461.678	89.44
461.898	87.44
462.118	88.44
462.338	97.44
462.558	89.44
462.777	97.44
462.997	108.44
463.217	128.44
463.437	115.44
463.657	108.44
463.876	82.44
464.096	104.44
464.316	122.44
464.536	121.44
464.755	108.44
464.975	157.44
465.195	288.44
465.414	299.44
465.634	127.44
465.854	110.44
466.073	109.44
466.293	103.44
466.512	108.44
466.732	96.44
466.951	103.44
467.171	123.44
467.391	118.44
467.61	169.44
467.829	282.44
468.049	821.44
468.268	1257.44
468.488	296.44
468.707	115.44
468.927	116.44
469.146	99.44
469.365	98.44
469.585	106.44
469.804	128.44
470.023	125.44
470.243	107.44
470.462	117.44
470.681	173.44
470.901	118.44
471.12	102.44
471.339	113.44
471.558	143.44
471.777	189.44
471.997	409.44
472.216	1691.44
472.435	3901.44
472.654	851.44
472.873	195.44
473.092	138.44
473.311	112.44
473.53	103.44
473.749	106.44
473.968	121.44
474.187	140.44
474.406	125.44
474.625	95.44
474.844	99.44
475.063	89.44
475.282	97.44
475.501	99.44
475.72	84.44
475.939	93.44
476.158	81.44
476.377	84.44
476.596	96.44
476.814	100.44
477.033	117.44
477.252	106.44
477.471	97.44
477.69	96.44
477.908	97.44
478.127	99.44
478.346	108.44
478.564	126.44
478.783	125.44
479.002	115.44
479.22	123.44
479.439	147.44
479.658	164.44
479.876	156.44
480.095	144.44
480.313	166.44
480.532	199.44
480.751	379.44
480.969	1487.44
481.188	6617.44
481.406	3745.44
481.624	498.44
481.843	159.44
482.061	122.44
482.28	115.44
482.498	108.44
482.717	100.44
482.935	112.44
483.153	91.44
483.372	97.44
483.59	103.44
483.808	103.44
484.027	97.44
484.245	104.44
484.463	96.44
484.681	107.44
484.9	100.44
485.118	105.44
485.336	105.44
485.554	113.44
485.772	107.44
485.99	111.44
486.209	109.44
486.427	112.44
486.645	122.44
486.863	152.44
487.081	122.44
487.299	107.44
487.517	107.44
487.735	99.44
487.953	97.44
488.171	95.44
488.389	102.44
488.607	110.44
488.825	102.44
489.043	90.44
489.261	92.44
489.479	91.44
489.696	90.44
489.914	90.44
490.132	104.44
490.35	113.44
490.568	95.44
490.786	93.44
491.003	99.44
491.221	110.44
491.439	109.44
491.657	97.44
491.874	98.44
492.092	93.44
492.31	103.44
492.527	114.44
492.745	110.44
492.963	84.44
493.18	95.44
493.398	93.44
493.615	111.44
493.833	96.44
494.05	92.44
494.268	104.44
494.485	89.44
494.703	98.44
494.92	99.44
495.138	100.44
495.355	97.44
495.573	94.44
495.79	97.44
496.008	105.44
496.225	101.44
496.442	103.44
496.66	88.44
496.877	89.44
497.094	104.44
497.312	102.44
497.529	100.44
497.746	90.44
497.963	103.44
498.181	106.44
498.398	103.44
498.615	124.44
498.832	123.44
499.049	108.44
499.267	99.44
499.484	90.44
499.701	83.44
499.918	97.44
500.135	108.44
500.352	88.44
500.569	107.44
500.786	107.44
501.003	88.44
501.22	111.44
501.437	111.44
501.654	108.44
501.871	155.44
502.088	109.44
502.305	91.44
502.522	99.44
502.739	93.44
502.956	101.44
503.172	102.44
503.389	99.44
503.606	135.44
503.823	116.44
504.04	107.44
504.256	99.44
504.473	100.44
504.69	95.44
504.907	93.44
505.123	106.44
505.34	103.44
505.557	92.44
505.773	82.44
505.99	105.44
506.207	90.44
506.423	87.44
506.64	97.44
506.856	92.44
507.073	101.44
507.289	111.44
507.506	99.44
507.722	163.44
507.939	144.44
508.155	107.44
508.372	101.44
508.588	93.44
508.805	98.44
509.021	100.44
509.238	101.44
509.454	112.44
509.67	117.44
509.887	136.44
510.103	156.44
510.319	253.44
510.536	1022.44
