Data from Circ_1997_H10_HRD10591_00025.txt Node
Date: Wed Jan 03 11:29:32 EST 2024
User: Yrep
Spectrometer: HR+D1059
Trigger mode: 1
Integration Time (sec): 1.000000E-1
Scans to average: 1
Electric dark correction enabled: true
Nonlinearity correction enabled: false
Boxcar width: 0
XAxis mode: Wavelengths
Number of Pixels in Spectrum: 2048
>>>>>Begin Spectral Data<<<<<
223.165	-12.56
223.4	-12.56
223.635	-12.56
223.869	-23.56
224.104	-25.56
224.338	-13.56
224.573	-5.56
224.808	-15.56
225.042	1.44
225.277	-1.56
225.511	7.44
225.746	5.44
225.98	5.44
226.215	-7.56
226.449	7.44
226.683	15.44
226.918	28.44
227.152	34.44
227.387	27.44
227.621	29.44
227.856	45.44
228.09	37.44
228.324	42.44
228.559	59.44
228.793	39.44
229.027	49.44
229.262	80.44
229.496	75.44
229.73	99.44
229.964	86.44
230.199	71.44
230.433	69.44
230.667	89.44
230.901	81.44
231.136	78.44
231.37	80.44
231.604	73.44
231.838	77.44
232.072	99.44
232.306	85.44
232.541	79.44
232.775	82.44
233.009	77.44
233.243	81.44
233.477	75.44
233.711	83.44
233.945	81.44
234.179	86.44
234.413	87.44
234.647	70.44
234.881	71.44
235.115	77.44
235.349	86.44
235.583	85.44
235.817	72.44
236.051	79.44
236.285	89.44
236.519	83.44
236.753	90.44
236.987	86.44
237.221	96.44
237.455	89.44
237.689	67.44
237.922	78.44
238.156	75.44
238.39	82.44
238.624	72.44
238.858	61.44
239.091	82.44
239.325	81.44
239.559	93.44
239.793	75.44
240.027	99.44
240.26	80.44
240.494	79.44
240.728	81.44
240.961	72.44
241.195	75.44
241.429	76.44
241.662	72.44
241.896	79.44
242.13	84.44
242.363	93.44
242.597	74.44
242.83	76.44
243.064	79.44
243.298	83.44
243.531	86.44
243.765	71.44
243.998	80.44
244.232	75.44
244.465	87.44
244.699	73.44
244.932	75.44
245.166	83.44
245.399	95.44
245.633	88.44
245.866	77.44
246.099	87.44
246.333	95.44
246.566	79.44
246.8	69.44
247.033	86.44
247.266	64.44
247.5	78.44
247.733	92.44
247.966	85.44
248.2	76.44
248.433	73.44
248.666	82.44
248.899	87.44
249.133	80.44
249.366	108.44
249.599	101.44
249.832	89.44
250.066	106.44
250.299	92.44
250.532	95.44
250.765	89.44
250.998	83.44
251.231	83.44
251.465	89.44
251.698	95.44
251.931	87.44
252.164	93.44
252.397	87.44
252.63	72.44
252.863	62.44
253.096	96.44
253.329	79.44
253.562	90.44
253.795	78.44
254.028	81.44
254.261	88.44
254.494	83.44
254.727	84.44
254.96	87.44
255.193	82.44
255.426	86.44
255.659	88.44
255.892	99.44
256.124	98.44
256.357	104.44
256.59	90.44
256.823	71.44
257.056	85.44
257.289	106.44
257.521	81.44
257.754	95.44
257.987	85.44
258.22	90.44
258.452	91.44
258.685	87.44
258.918	71.44
259.151	92.44
259.383	84.44
259.616	89.44
259.849	98.44
260.081	87.44
260.314	97.44
260.547	84.44
260.779	98.44
261.012	106.44
261.244	98.44
261.477	105.44
261.71	103.44
261.942	137.44
262.175	153.44
262.407	109.44
262.64	87.44
262.872	82.44
263.105	99.44
263.337	86.44
263.57	85.44
263.802	82.44
264.035	74.44
264.267	87.44
264.499	90.44
264.732	79.44
264.964	76.44
265.197	83.44
265.429	97.44
265.661	94.44
265.894	87.44
266.126	88.44
266.358	83.44
266.591	93.44
266.823	89.44
267.055	74.44
267.287	67.44
267.52	90.44
267.752	81.44
267.984	92.44
268.216	90.44
268.448	102.44
268.681	88.44
268.913	93.44
269.145	93.44
269.377	72.44
269.609	85.44
269.841	90.44
270.073	78.44
270.306	78.44
270.538	82.44
270.77	86.44
271.002	89.44
271.234	98.44
271.466	105.44
271.698	80.44
271.93	85.44
272.162	97.44
272.394	83.44
272.626	85.44
272.858	85.44
273.09	82.44
273.322	77.44
273.553	82.44
273.785	76.44
274.017	96.44
274.249	89.44
274.481	77.44
274.713	93.44
274.945	100.44
275.176	94.44
275.408	100.44
275.64	113.44
275.872	113.44
276.104	118.44
276.335	107.44
276.567	114.44
276.799	137.44
277.031	153.44
277.262	163.44
277.494	133.44
277.726	94.44
277.957	82.44
278.189	95.44
278.421	90.44
278.652	83.44
278.884	92.44
279.115	90.44
279.347	84.44
279.579	103.44
279.81	115.44
280.042	185.44
280.273	230.44
280.505	159.44
280.736	98.44
280.968	88.44
281.199	90.44
281.431	104.44
281.662	99.44
281.894	104.44
282.125	112.44
282.356	127.44
282.588	184.44
282.819	138.44
283.051	92.44
283.282	81.44
283.513	96.44
283.745	81.44
283.976	86.44
284.207	79.44
284.439	102.44
284.67	102.44
284.901	83.44
285.132	86.44
285.364	92.44
285.595	105.44
285.826	89.44
286.057	79.44
286.288	86.44
286.52	95.44
286.751	83.44
286.982	77.44
287.213	71.44
287.444	95.44
287.675	96.44
287.906	85.44
288.138	83.44
288.369	102.44
288.6	87.44
288.831	106.44
289.062	98.44
289.293	87.44
289.524	88.44
289.755	93.44
289.986	87.44
290.217	89.44
290.448	89.44
290.679	93.44
290.91	83.44
291.141	81.44
291.371	87.44
291.602	99.44
291.833	98.44
292.064	92.44
292.295	87.44
292.526	92.44
292.757	102.44
292.987	79.44
293.218	90.44
293.449	92.44
293.68	82.44
293.91	93.44
294.141	94.44
294.372	73.44
294.603	93.44
294.833	97.44
295.064	96.44
295.295	90.44
295.525	93.44
295.756	103.44
295.987	140.44
296.217	158.44
296.448	150.44
296.679	84.44
296.909	86.44
297.14	87.44
297.37	99.44
297.601	75.44
297.831	98.44
298.062	89.44
298.292	87.44
298.523	93.44
298.753	102.44
298.984	96.44
299.214	81.44
299.445	89.44
299.675	89.44
299.905	91.44
300.136	93.44
300.366	89.44
300.597	108.44
300.827	105.44
301.057	104.44
301.288	103.44
301.518	106.44
301.748	110.44
301.979	114.44
302.209	107.44
302.439	106.44
302.669	89.44
302.9	95.44
303.13	95.44
303.36	106.44
303.59	134.44
303.82	139.44
304.051	93.44
304.281	93.44
304.511	93.44
304.741	95.44
304.971	86.44
305.201	95.44
305.431	85.44
305.661	82.44
305.891	72.44
306.121	96.44
306.352	117.44
306.582	112.44
306.812	106.44
307.042	127.44
307.272	141.44
307.502	158.44
307.731	156.44
307.961	125.44
308.191	95.44
308.421	81.44
308.651	89.44
308.881	96.44
309.111	86.44
309.341	105.44
309.571	113.44
309.8	99.44
310.03	106.44
310.26	109.44
310.49	97.44
310.72	104.44
310.949	116.44
311.179	98.44
311.409	89.44
311.639	94.44
311.868	91.44
312.098	90.44
312.328	110.44
312.557	129.44
312.787	126.44
313.017	113.44
313.246	89.44
313.476	89.44
313.706	87.44
313.935	89.44
314.165	102.44
314.394	124.44
314.624	107.44
314.853	97.44
315.083	97.44
315.312	88.44
315.542	90.44
315.771	88.44
316.001	90.44
316.23	104.44
316.46	94.44
316.689	93.44
316.919	93.44
317.148	105.44
317.377	103.44
317.607	109.44
317.836	90.44
318.065	113.44
318.295	91.44
318.524	85.44
318.753	95.44
318.983	83.44
319.212	102.44
319.441	105.44
319.67	115.44
319.9	105.44
320.129	99.44
320.358	88.44
320.587	98.44
320.816	118.44
321.046	110.44
321.275	106.44
321.504	88.44
321.733	102.44
321.962	93.44
322.191	117.44
322.42	121.44
322.649	125.44
322.878	124.44
323.108	150.44
323.337	156.44
323.566	163.44
323.795	186.44
324.024	283.44
324.253	595.44
324.482	1326.44
324.71	2899.44
324.939	3931.44
325.168	1368.44
325.397	361.44
325.626	201.44
325.855	159.44
326.084	158.44
326.313	167.44
326.542	209.44
326.77	328.44
326.999	695.44
327.228	1557.44
327.457	2990.44
327.686	2370.44
327.914	691.44
328.143	541.44
328.372	608.44
328.6	357.44
328.829	186.44
329.058	197.44
329.287	189.44
329.515	171.44
329.744	223.44
329.972	446.44
330.201	917.44
330.43	1317.44
330.658	599.44
330.887	287.44
331.115	193.44
331.344	134.44
331.572	137.44
331.801	130.44
332.03	133.44
332.258	114.44
332.486	109.44
332.715	107.44
332.943	101.44
333.172	111.44
333.4	140.44
333.629	153.44
333.857	220.44
334.085	418.44
334.314	873.44
334.542	1667.44
334.771	1577.44
334.999	418.44
335.227	175.44
335.455	125.44
335.684	111.44
335.912	125.44
336.14	102.44
336.369	108.44
336.597	123.44
336.825	114.44
337.053	112.44
337.281	98.44
337.51	100.44
337.738	109.44
337.966	109.44
338.194	110.44
338.422	108.44
338.65	89.44
338.878	94.44
339.106	101.44
339.334	91.44
339.562	89.44
339.79	94.44
340.018	78.44
340.246	99.44
340.474	107.44
340.702	87.44
340.93	94.44
341.158	99.44
341.386	112.44
341.614	106.44
341.842	106.44
342.07	103.44
342.298	90.44
342.526	95.44
342.754	99.44
342.981	87.44
343.209	90.44
343.437	106.44
343.665	89.44
343.893	91.44
344.12	95.44
344.348	93.44
344.576	93.44
344.804	97.44
345.031	102.44
345.259	99.44
345.487	94.44
345.714	102.44
345.942	103.44
346.17	103.44
346.397	105.44
346.625	91.44
346.853	94.44
347.08	93.44
347.308	96.44
347.535	87.44
347.763	94.44
347.99	101.44
348.218	118.44
348.445	119.44
348.673	99.44
348.9	93.44
349.128	120.44
349.355	89.44
349.583	95.44
349.81	94.44
350.037	97.44
350.265	94.44
350.492	91.44
350.72	90.44
350.947	113.44
351.174	123.44
351.402	126.44
351.629	110.44
351.856	109.44
352.083	110.44
352.311	130.44
352.538	140.44
352.765	117.44
352.992	120.44
353.22	125.44
353.447	110.44
353.674	105.44
353.901	113.44
354.128	105.44
354.355	102.44
354.583	82.44
354.81	104.44
355.037	103.44
355.264	90.44
355.491	89.44
355.718	90.44
355.945	96.44
356.172	95.44
356.399	100.44
356.626	103.44
356.853	93.44
357.08	93.44
357.307	96.44
357.534	94.44
357.761	97.44
357.988	100.44
358.215	102.44
358.441	96.44
358.668	93.44
358.895	91.44
359.122	96.44
359.349	87.44
359.576	100.44
359.802	114.44
360.029	154.44
360.256	143.44
360.483	115.44
360.709	95.44
360.936	99.44
361.163	104.44
361.39	104.44
361.616	120.44
361.843	97.44
362.07	96.44
362.296	105.44
362.523	101.44
362.749	102.44
362.976	96.44
363.203	99.44
363.429	106.44
363.656	105.44
363.882	90.44
364.109	98.44
364.335	96.44
364.562	95.44
364.788	106.44
365.015	99.44
365.241	115.44
365.468	120.44
365.694	112.44
365.92	115.44
366.147	93.44
366.373	88.44
366.599	93.44
366.826	98.44
367.052	99.44
367.278	94.44
367.505	88.44
367.731	103.44
367.957	112.44
368.184	98.44
368.41	109.44
368.636	119.44
368.862	136.44
369.089	122.44
369.315	103.44
369.541	102.44
369.767	93.44
369.993	87.44
370.219	98.44
370.445	97.44
370.672	92.44
370.898	76.44
371.124	88.44
371.35	89.44
371.576	97.44
371.802	82.44
372.028	98.44
372.254	80.44
372.48	91.44
372.706	89.44
372.932	85.44
373.158	96.44
373.384	90.44
373.61	90.44
373.835	89.44
374.061	94.44
374.287	99.44
374.513	101.44
374.739	99.44
374.965	103.44
375.191	89.44
375.416	85.44
375.642	90.44
375.868	90.44
376.094	112.44
376.319	98.44
376.545	89.44
376.771	98.44
376.997	87.44
377.222	91.44
377.448	104.44
377.674	83.44
377.899	90.44
378.125	95.44
378.35	95.44
378.576	76.44
378.802	103.44
379.027	81.44
379.253	87.44
379.478	101.44
379.704	86.44
379.929	96.44
380.155	97.44
380.38	97.44
380.606	88.44
380.831	96.44
381.057	90.44
381.282	100.44
381.507	85.44
381.733	91.44
381.958	87.44
382.184	108.44
382.409	107.44
382.634	108.44
382.86	99.44
383.085	103.44
383.31	111.44
383.535	109.44
383.761	106.44
383.986	101.44
384.211	105.44
384.436	103.44
384.662	106.44
384.887	97.44
385.112	103.44
385.337	96.44
385.562	79.44
385.787	125.44
386.013	111.44
386.238	120.44
386.463	103.44
386.688	96.44
386.913	91.44
387.138	103.44
387.363	91.44
387.588	105.44
387.813	106.44
388.038	105.44
388.263	111.44
388.488	103.44
388.713	100.44
388.938	96.44
389.163	103.44
389.387	101.44
389.612	108.44
389.837	97.44
390.062	89.44
390.287	96.44
390.512	98.44
390.736	82.44
390.961	92.44
391.186	85.44
391.411	89.44
391.636	90.44
391.86	86.44
392.085	79.44
392.31	78.44
392.534	87.44
392.759	89.44
392.984	97.44
393.208	92.44
393.433	94.44
393.658	83.44
393.882	87.44
394.107	87.44
394.331	77.44
394.556	84.44
394.78	85.44
395.005	89.44
395.229	83.44
395.454	91.44
395.678	106.44
395.903	89.44
396.127	114.44
396.352	102.44
396.576	75.44
396.801	86.44
397.025	95.44
397.249	84.44
397.474	90.44
397.698	88.44
397.922	87.44
398.147	87.44
398.371	91.44
398.595	86.44
398.82	91.44
399.044	87.44
399.268	90.44
399.492	94.44
399.717	89.44
399.941	77.44
400.165	112.44
400.389	97.44
400.613	88.44
400.837	89.44
401.062	112.44
401.286	92.44
401.51	105.44
401.734	106.44
401.958	103.44
402.182	147.44
402.406	185.44
402.63	147.44
402.854	109.44
403.078	88.44
403.302	86.44
403.526	101.44
403.75	103.44
403.974	97.44
404.198	99.44
404.422	97.44
404.645	109.44
404.869	107.44
405.093	112.44
405.317	148.44
405.541	149.44
405.765	120.44
405.988	131.44
406.212	216.44
406.436	296.44
406.66	202.44
406.883	133.44
407.107	119.44
407.331	120.44
407.555	116.44
407.778	101.44
408.002	100.44
408.226	99.44
408.449	81.44
408.673	83.44
408.896	101.44
409.12	109.44
409.344	107.44
409.567	91.44
409.791	92.44
410.014	92.44
410.238	87.44
410.461	85.44
410.685	103.44
410.908	99.44
411.132	120.44
411.355	111.44
411.578	107.44
411.802	98.44
412.025	95.44
412.249	98.44
412.472	113.44
412.695	146.44
412.919	112.44
413.142	76.44
413.365	89.44
413.589	73.44
413.812	83.44
414.035	79.44
414.258	99.44
414.482	111.44
414.705	89.44
414.928	69.44
415.151	109.44
415.374	94.44
415.597	95.44
415.821	79.44
416.044	67.44
416.267	86.44
416.49	91.44
416.713	75.44
416.936	101.44
417.159	93.44
417.382	109.44
417.605	106.44
417.828	122.44
418.051	105.44
418.274	101.44
418.497	75.44
418.72	86.44
418.943	94.44
419.166	83.44
419.389	94.44
419.611	91.44
419.834	102.44
420.057	80.44
420.28	97.44
420.503	79.44
420.726	94.44
420.948	102.44
421.171	108.44
421.394	106.44
421.617	85.44
421.839	104.44
422.062	89.44
422.285	79.44
422.507	119.44
422.73	113.44
422.953	100.44
423.175	87.44
423.398	84.44
423.621	90.44
423.843	88.44
424.066	84.44
424.288	85.44
424.511	89.44
424.733	105.44
424.956	123.44
425.178	113.44
425.401	121.44
425.623	120.44
425.846	96.44
426.068	115.44
426.291	106.44
426.513	106.44
426.735	88.44
426.958	102.44
427.18	135.44
427.402	192.44
427.625	285.44
427.847	268.44
428.069	255.44
428.292	123.44
428.514	110.44
428.736	80.44
428.958	96.44
429.181	101.44
429.403	88.44
429.625	95.44
429.847	100.44
430.069	129.44
430.292	113.44
430.514	93.44
430.736	87.44
430.958	85.44
431.18	92.44
431.402	84.44
431.624	97.44
431.846	88.44
432.068	83.44
432.29	87.44
432.512	104.44
432.734	89.44
432.956	107.44
433.178	110.44
433.4	120.44
433.622	97.44
433.844	111.44
434.066	94.44
434.287	92.44
434.509	87.44
434.731	107.44
434.953	95.44
435.175	96.44
435.397	98.44
435.618	94.44
435.84	122.44
436.062	174.44
436.284	153.44
436.505	106.44
436.727	130.44
436.949	79.44
437.17	97.44
437.392	97.44
437.614	97.44
437.835	122.44
438.057	162.44
438.278	131.44
438.5	115.44
438.721	169.44
438.943	118.44
439.165	85.44
439.386	95.44
439.608	100.44
439.829	112.44
440.05	176.44
440.272	216.44
440.493	136.44
440.715	105.44
440.936	93.44
441.158	83.44
441.379	91.44
441.6	118.44
441.822	91.44
442.043	104.44
442.264	126.44
442.486	122.44
442.707	115.44
442.928	130.44
443.149	183.44
443.371	176.44
443.592	133.44
443.813	145.44
444.034	132.44
444.255	92.44
444.476	93.44
444.698	87.44
444.919	98.44
445.14	138.44
445.361	153.44
445.582	160.44
445.803	222.44
446.024	210.44
446.245	180.44
446.466	155.44
446.687	90.44
446.908	104.44
447.129	106.44
447.35	102.44
447.571	103.44
447.792	111.44
448.013	113.44
448.234	131.44
448.455	120.44
448.675	140.44
448.896	141.44
449.117	119.44
449.338	120.44
449.559	153.44
449.779	177.44
450	104.44
450.221	98.44
450.442	87.44
450.662	106.44
450.883	123.44
451.104	117.44
451.324	97.44
451.545	101.44
451.766	93.44
451.986	86.44
452.207	95.44
452.428	96.44
452.648	114.44
452.869	126.44
453.089	146.44
453.31	139.44
453.53	112.44
453.751	108.44
453.971	135.44
454.192	129.44
454.412	93.44
454.633	79.44
454.853	88.44
455.073	85.44
455.294	97.44
455.514	116.44
455.734	95.44
455.955	89.44
456.175	79.44
456.395	89.44
456.616	88.44
456.836	83.44
457.056	91.44
457.276	93.44
457.497	93.44
457.717	86.44
457.937	96.44
458.157	96.44
458.377	84.44
458.598	135.44
458.818	223.44
459.038	241.44
459.258	158.44
459.478	96.44
459.698	89.44
459.918	97.44
460.138	101.44
460.358	87.44
460.578	98.44
460.798	88.44
461.018	80.44
461.238	89.44
461.458	107.44
461.678	79.44
461.898	85.44
462.118	93.44
462.338	83.44
462.558	88.44
462.777	101.44
462.997	92.44
463.217	109.44
463.437	101.44
463.657	94.44
463.876	79.44
464.096	87.44
464.316	98.44
464.536	91.44
464.755	87.44
464.975	121.44
465.195	236.44
465.414	231.44
465.634	95.44
465.854	97.44
466.073	85.44
466.293	87.44
466.512	91.44
466.732	78.44
466.951	115.44
467.171	95.44
467.391	97.44
467.61	143.44
467.829	209.44
468.049	514.44
468.268	768.44
468.488	219.44
468.707	107.44
468.927	91.44
469.146	110.44
469.365	94.44
469.585	103.44
469.804	118.44
470.023	109.44
470.243	115.44
470.462	124.44
470.681	138.44
470.901	103.44
471.12	90.44
471.339	108.44
471.558	118.44
471.777	136.44
471.997	288.44
472.216	991.44
472.435	2291.44
472.654	537.44
472.873	151.44
473.092	111.44
473.311	99.44
473.53	88.44
473.749	99.44
473.968	100.44
474.187	129.44
474.406	111.44
474.625	91.44
474.844	91.44
475.063	104.44
475.282	99.44
475.501	78.44
475.72	99.44
475.939	85.44
476.158	84.44
476.377	95.44
476.596	92.44
476.814	108.44
477.033	102.44
477.252	106.44
477.471	90.44
477.69	94.44
477.908	103.44
478.127	110.44
478.346	93.44
478.564	105.44
478.783	111.44
479.002	101.44
479.22	93.44
479.439	117.44
479.658	133.44
479.876	127.44
480.095	115.44
480.313	138.44
480.532	160.44
480.751	273.44
480.969	940.44
481.188	4005.44
481.406	2352.44
481.624	343.44
481.843	117.44
482.061	110.44
482.28	95.44
482.498	99.44
482.717	89.44
482.935	93.44
483.153	87.44
483.372	103.44
483.59	107.44
483.808	88.44
484.027	100.44
484.245	91.44
484.463	89.44
484.681	105.44
484.9	90.44
485.118	98.44
485.336	94.44
485.554	104.44
485.772	104.44
485.99	113.44
486.209	97.44
486.427	107.44
486.645	134.44
486.863	129.44
487.081	111.44
487.299	99.44
487.517	106.44
487.735	97.44
487.953	94.44
488.171	92.44
488.389	106.44
488.607	115.44
488.825	92.44
489.043	93.44
489.261	87.44
489.479	96.44
489.696	107.44
489.914	95.44
490.132	94.44
490.35	94.44
490.568	94.44
490.786	76.44
491.003	94.44
491.221	98.44
491.439	93.44
491.657	97.44
491.874	90.44
492.092	83.44
492.31	99.44
492.527	102.44
492.745	89.44
492.963	89.44
493.18	92.44
493.398	95.44
493.615	93.44
493.833	107.44
494.05	96.44
494.268	89.44
494.485	91.44
494.703	80.44
494.92	83.44
495.138	93.44
495.355	81.44
495.573	100.44
495.79	86.44
496.008	97.44
496.225	105.44
496.442	98.44
496.66	97.44
496.877	89.44
497.094	94.44
497.312	77.44
497.529	84.44
497.746	91.44
497.963	83.44
498.181	113.44
498.398	91.44
498.615	124.44
498.832	109.44
499.049	87.44
499.267	85.44
499.484	79.44
499.701	99.44
499.918	88.44
500.135	107.44
500.352	91.44
500.569	100.44
500.786	83.44
501.003	107.44
501.22	102.44
501.437	110.44
501.654	109.44
501.871	121.44
502.088	93.44
502.305	80.44
502.522	92.44
502.739	92.44
502.956	94.44
503.172	88.44
503.389	100.44
503.606	126.44
503.823	105.44
504.04	95.44
504.256	102.44
504.473	101.44
504.69	83.44
504.907	96.44
505.123	101.44
505.34	89.44
505.557	79.44
505.773	91.44
505.99	104.44
506.207	89.44
506.423	96.44
506.64	86.44
506.856	98.44
507.073	102.44
507.289	95.44
507.506	109.44
507.722	132.44
507.939	136.44
508.155	102.44
508.372	91.44
508.588	95.44
508.805	100.44
509.021	102.44
509.238	114.44
509.454	123.44
509.67	108.44
509.887	112.44
510.103	133.44
510.319	256.44
510.536	917.44
510.752	3193.44
510.968	839.44
511.184	203.44
511.401	113.44
511.617	107.44
511.833	94.44
512.049	101.44
512.265	88.44
512.481	90.44
