Data from Circ_1997_H10_HRD10591_00002.txt Node
Date: Wed Jan 03 11:29:28 EST 2024
User: Yrep
Spectrometer: HR+D1059
Trigger mode: 1
Integration Time (sec): 1.000000E-1
Scans to average: 1
Electric dark correction enabled: true
Nonlinearity correction enabled: false
Boxcar width: 0
XAxis mode: Wavelengths
Number of Pixels in Spectrum: 2048
>>>>>Begin Spectral Data<<<<<
223.165	-17.06
223.4	-17.06
223.635	-17.06
223.869	-12.06
224.104	-22.06
224.338	-17.06
224.573	-19.06
224.808	-5.06
225.042	-15.06
225.277	-4.06
225.511	3.94
225.746	6.94
225.98	-6.06
226.215	12.94
226.449	21.94
226.683	18.94
226.918	22.94
227.152	29.94
227.387	25.94
227.621	41.94
227.856	58.94
228.09	56.94
228.324	44.94
228.559	59.94
228.793	59.94
229.027	60.94
229.262	59.94
229.496	76.94
229.73	87.94
229.964	77.94
230.199	67.94
230.433	73.94
230.667	76.94
230.901	76.94
231.136	82.94
231.37	73.94
231.604	90.94
231.838	77.94
232.072	84.94
232.306	106.94
232.541	79.94
232.775	75.94
233.009	87.94
233.243	86.94
233.477	83.94
233.711	78.94
233.945	87.94
234.179	99.94
234.413	84.94
234.647	76.94
234.881	79.94
235.115	64.94
235.349	86.94
235.583	82.94
235.817	79.94
236.051	73.94
236.285	89.94
236.519	83.94
236.753	79.94
236.987	74.94
237.221	78.94
237.455	79.94
237.689	77.94
237.922	79.94
238.156	75.94
238.39	82.94
238.624	89.94
238.858	63.94
239.091	83.94
239.325	83.94
239.559	90.94
239.793	86.94
240.027	103.94
240.26	59.94
240.494	72.94
240.728	81.94
240.961	73.94
241.195	69.94
241.429	77.94
241.662	64.94
241.896	79.94
242.13	82.94
242.363	88.94
242.597	83.94
242.83	76.94
243.064	74.94
243.298	78.94
243.531	71.94
243.765	94.94
243.998	76.94
244.232	76.94
244.465	80.94
244.699	75.94
244.932	88.94
245.166	81.94
245.399	89.94
245.633	88.94
245.866	86.94
246.099	72.94
246.333	68.94
246.566	80.94
246.8	81.94
247.033	75.94
247.266	77.94
247.5	82.94
247.733	85.94
247.966	87.94
248.2	88.94
248.433	76.94
248.666	84.94
248.899	83.94
249.133	84.94
249.366	98.94
249.599	103.94
249.832	87.94
250.066	95.94
250.299	89.94
250.532	83.94
250.765	76.94
250.998	94.94
251.231	76.94
251.465	89.94
251.698	85.94
251.931	83.94
252.164	73.94
252.397	81.94
252.63	78.94
252.863	92.94
253.096	86.94
253.329	88.94
253.562	86.94
253.795	88.94
254.028	85.94
254.261	78.94
254.494	82.94
254.727	82.94
254.96	91.94
255.193	72.94
255.426	76.94
255.659	79.94
255.892	75.94
256.124	87.94
256.357	77.94
256.59	78.94
256.823	82.94
257.056	90.94
257.289	92.94
257.521	83.94
257.754	79.94
257.987	86.94
258.22	87.94
258.452	95.94
258.685	99.94
258.918	72.94
259.151	82.94
259.383	78.94
259.616	74.94
259.849	89.94
260.081	88.94
260.314	80.94
260.547	82.94
260.779	86.94
261.012	85.94
261.244	103.94
261.477	92.94
261.71	102.94
261.942	110.94
262.175	129.94
262.407	101.94
262.64	88.94
262.872	87.94
263.105	87.94
263.337	100.94
263.57	100.94
263.802	81.94
264.035	82.94
264.267	67.94
264.499	82.94
264.732	104.94
264.964	82.94
265.197	83.94
265.429	91.94
265.661	98.94
265.894	86.94
266.126	76.94
266.358	67.94
266.591	78.94
266.823	79.94
267.055	74.94
267.287	87.94
267.52	80.94
267.752	78.94
267.984	79.94
268.216	88.94
268.448	82.94
268.681	76.94
268.913	87.94
269.145	85.94
269.377	95.94
269.609	78.94
269.841	83.94
270.073	83.94
270.306	74.94
270.538	88.94
270.77	81.94
271.002	84.94
271.234	96.94
271.466	91.94
271.698	94.94
271.93	93.94
272.162	90.94
272.394	84.94
272.626	80.94
272.858	99.94
273.09	92.94
273.322	91.94
273.553	91.94
273.785	73.94
274.017	88.94
274.249	86.94
274.481	91.94
274.713	81.94
274.945	96.94
275.176	106.94
275.408	87.94
275.64	101.94
275.872	96.94
276.104	96.94
276.335	99.94
276.567	115.94
276.799	120.94
277.031	121.94
277.262	134.94
277.494	111.94
277.726	96.94
277.957	91.94
278.189	101.94
278.421	106.94
278.652	90.94
278.884	83.94
279.115	84.94
279.347	106.94
279.579	96.94
279.81	131.94
280.042	121.94
280.273	159.94
280.505	130.94
280.736	94.94
280.968	82.94
281.199	92.94
281.431	80.94
281.662	90.94
281.894	90.94
282.125	96.94
282.356	94.94
282.588	157.94
282.819	126.94
283.051	86.94
283.282	77.94
283.513	87.94
283.745	99.94
283.976	92.94
284.207	87.94
284.439	75.94
284.67	70.94
284.901	90.94
285.132	83.94
285.364	86.94
285.595	88.94
285.826	84.94
286.057	91.94
286.288	80.94
286.52	86.94
286.751	86.94
286.982	92.94
287.213	95.94
287.444	88.94
287.675	83.94
287.906	86.94
288.138	87.94
288.369	93.94
288.6	88.94
288.831	91.94
289.062	85.94
289.293	100.94
289.524	87.94
289.755	91.94
289.986	90.94
290.217	79.94
290.448	87.94
290.679	99.94
290.91	87.94
291.141	84.94
291.371	84.94
291.602	100.94
291.833	98.94
292.064	98.94
292.295	89.94
292.526	100.94
292.757	94.94
292.987	99.94
293.218	87.94
293.449	94.94
293.68	93.94
293.91	79.94
294.141	87.94
294.372	89.94
294.603	98.94
294.833	82.94
295.064	105.94
295.295	88.94
295.525	88.94
295.756	96.94
295.987	97.94
296.217	137.94
296.448	137.94
296.679	104.94
296.909	106.94
297.14	83.94
297.37	93.94
297.601	86.94
297.831	86.94
298.062	97.94
298.292	81.94
298.523	103.94
298.753	85.94
298.984	100.94
299.214	108.94
299.445	94.94
299.675	96.94
299.905	95.94
300.136	82.94
300.366	89.94
300.597	94.94
300.827	91.94
301.057	97.94
301.288	106.94
301.518	87.94
301.748	94.94
301.979	111.94
302.209	103.94
302.439	91.94
302.669	86.94
302.9	86.94
303.13	96.94
303.36	100.94
303.59	118.94
303.82	107.94
304.051	91.94
304.281	87.94
304.511	88.94
304.741	86.94
304.971	90.94
305.201	100.94
305.431	88.94
305.661	104.94
305.891	91.94
306.121	100.94
306.352	104.94
306.582	114.94
306.812	90.94
307.042	115.94
307.272	111.94
307.502	131.94
307.731	132.94
307.961	99.94
308.191	94.94
308.421	91.94
308.651	90.94
308.881	79.94
309.111	108.94
309.341	99.94
309.571	101.94
309.8	95.94
310.03	110.94
310.26	96.94
310.49	96.94
310.72	97.94
310.949	111.94
311.179	122.94
311.409	87.94
311.639	99.94
311.868	95.94
312.098	90.94
312.328	78.94
312.557	107.94
312.787	117.94
313.017	94.94
313.246	93.94
313.476	88.94
313.706	100.94
313.935	103.94
314.165	91.94
314.394	105.94
314.624	92.94
314.853	98.94
315.083	96.94
315.312	105.94
315.542	86.94
315.771	90.94
316.001	99.94
316.23	91.94
316.46	89.94
316.689	89.94
316.919	84.94
317.148	95.94
317.377	104.94
317.607	103.94
317.836	99.94
318.065	93.94
318.295	92.94
318.524	94.94
318.753	103.94
318.983	79.94
319.212	106.94
319.441	103.94
319.67	110.94
319.9	116.94
320.129	89.94
320.358	106.94
320.587	90.94
320.816	103.94
321.046	84.94
321.275	99.94
321.504	94.94
321.733	95.94
321.962	102.94
322.191	102.94
322.42	118.94
322.649	111.94
322.878	116.94
323.108	124.94
323.337	129.94
323.566	136.94
323.795	173.94
324.024	236.94
324.253	470.94
324.482	1012.94
324.71	2214.94
324.939	2978.94
325.168	1048.94
325.397	282.94
325.626	176.94
325.855	141.94
326.084	151.94
326.313	135.94
326.542	167.94
326.77	259.94
326.999	571.94
327.228	1208.94
327.457	2298.94
327.686	1810.94
327.914	513.94
328.143	324.94
328.372	390.94
328.6	246.94
328.829	157.94
329.058	141.94
329.287	139.94
329.515	140.94
329.744	164.94
329.972	280.94
330.201	510.94
330.43	731.94
330.658	360.94
330.887	200.94
331.115	152.94
331.344	106.94
331.572	124.94
331.801	98.94
332.03	111.94
332.258	100.94
332.486	107.94
332.715	106.94
332.943	108.94
333.172	119.94
333.4	116.94
333.629	137.94
333.857	159.94
334.085	262.94
334.314	484.94
334.542	888.94
334.771	855.94
334.999	245.94
335.227	135.94
335.455	114.94
335.684	117.94
335.912	99.94
336.14	96.94
336.369	98.94
336.597	99.94
336.825	94.94
337.053	108.94
337.281	99.94
337.51	102.94
337.738	100.94
337.966	90.94
338.194	93.94
338.422	103.94
338.65	87.94
338.878	82.94
339.106	83.94
339.334	84.94
339.562	102.94
339.79	101.94
340.018	97.94
340.246	80.94
340.474	104.94
340.702	92.94
340.93	75.94
341.158	101.94
341.386	98.94
341.614	99.94
341.842	97.94
342.07	97.94
342.298	106.94
342.526	92.94
342.754	87.94
342.981	88.94
343.209	84.94
343.437	105.94
343.665	99.94
343.893	88.94
344.12	96.94
344.348	79.94
344.576	78.94
344.804	102.94
345.031	101.94
345.259	105.94
345.487	96.94
345.714	105.94
345.942	86.94
346.17	91.94
346.397	81.94
346.625	75.94
346.853	79.94
347.08	87.94
347.308	93.94
347.535	101.94
347.763	109.94
347.99	113.94
348.218	101.94
348.445	119.94
348.673	98.94
348.9	99.94
349.128	105.94
349.355	94.94
349.583	101.94
349.81	91.94
350.037	106.94
350.265	95.94
350.492	86.94
350.72	105.94
350.947	101.94
351.174	102.94
351.402	107.94
351.629	100.94
351.856	111.94
352.083	110.94
352.311	113.94
352.538	122.94
352.765	106.94
352.992	104.94
353.22	118.94
353.447	111.94
353.674	112.94
353.901	97.94
354.128	99.94
354.355	90.94
354.583	109.94
354.81	110.94
355.037	98.94
355.264	94.94
355.491	95.94
355.718	93.94
355.945	87.94
356.172	102.94
356.399	89.94
356.626	107.94
356.853	92.94
357.08	108.94
357.307	97.94
357.534	89.94
357.761	107.94
357.988	84.94
358.215	101.94
358.441	111.94
358.668	110.94
358.895	108.94
359.122	91.94
359.349	95.94
359.576	93.94
359.802	123.94
360.029	128.94
360.256	119.94
360.483	94.94
360.709	87.94
360.936	84.94
361.163	98.94
361.39	104.94
361.616	107.94
361.843	104.94
362.07	96.94
362.296	107.94
362.523	91.94
362.749	100.94
362.976	106.94
363.203	100.94
363.429	92.94
363.656	88.94
363.882	89.94
364.109	88.94
364.335	82.94
364.562	81.94
364.788	91.94
365.015	99.94
365.241	99.94
365.468	104.94
365.694	97.94
365.92	109.94
366.147	108.94
366.373	88.94
366.599	79.94
366.826	110.94
367.052	103.94
367.278	98.94
367.505	96.94
367.731	91.94
367.957	98.94
368.184	100.94
368.41	100.94
368.636	114.94
368.862	116.94
369.089	95.94
369.315	106.94
369.541	108.94
369.767	101.94
369.993	107.94
370.219	94.94
370.445	82.94
370.672	100.94
370.898	95.94
371.124	98.94
371.35	99.94
371.576	106.94
371.802	89.94
372.028	64.94
372.254	93.94
372.48	82.94
372.706	82.94
372.932	98.94
373.158	98.94
373.384	103.94
373.61	98.94
373.835	104.94
374.061	75.94
374.287	97.94
374.513	96.94
374.739	92.94
374.965	84.94
375.191	93.94
375.416	83.94
375.642	88.94
375.868	98.94
376.094	100.94
376.319	86.94
376.545	96.94
376.771	90.94
376.997	96.94
377.222	105.94
377.448	93.94
377.674	92.94
377.899	102.94
378.125	89.94
378.35	110.94
378.576	90.94
378.802	94.94
379.027	105.94
379.253	112.94
379.478	110.94
379.704	97.94
379.929	100.94
380.155	94.94
380.38	97.94
380.606	96.94
380.831	92.94
381.057	121.94
381.282	113.94
381.507	95.94
381.733	78.94
381.958	82.94
382.184	105.94
382.409	101.94
382.634	114.94
382.86	87.94
383.085	105.94
383.31	111.94
383.535	110.94
383.761	113.94
383.986	106.94
384.211	116.94
384.436	96.94
384.662	112.94
384.887	117.94
385.112	122.94
385.337	108.94
385.562	90.94
385.787	93.94
386.013	120.94
386.238	115.94
386.463	115.94
386.688	121.94
386.913	115.94
387.138	114.94
387.363	115.94
387.588	101.94
387.813	93.94
388.038	110.94
388.263	138.94
388.488	107.94
388.713	96.94
388.938	96.94
389.163	108.94
389.387	95.94
389.612	91.94
389.837	97.94
390.062	90.94
390.287	83.94
390.512	95.94
390.736	91.94
390.961	111.94
391.186	88.94
391.411	97.94
391.636	88.94
391.86	105.94
392.085	83.94
392.31	89.94
392.534	92.94
392.759	84.94
392.984	91.94
393.208	96.94
393.433	96.94
393.658	98.94
393.882	88.94
394.107	85.94
394.331	95.94
394.556	85.94
394.78	79.94
395.005	96.94
395.229	81.94
395.454	94.94
395.678	80.94
395.903	87.94
396.127	92.94
396.352	97.94
396.576	84.94
396.801	95.94
397.025	97.94
397.249	95.94
397.474	80.94
397.698	91.94
397.922	83.94
398.147	89.94
398.371	94.94
398.595	95.94
398.82	82.94
399.044	86.94
399.268	97.94
399.492	75.94
399.717	82.94
399.941	80.94
400.165	96.94
400.389	95.94
400.613	97.94
400.837	107.94
401.062	97.94
401.286	83.94
401.51	85.94
401.734	99.94
401.958	102.94
402.182	132.94
402.406	187.94
402.63	120.94
402.854	106.94
403.078	100.94
403.302	80.94
403.526	88.94
403.75	93.94
403.974	81.94
404.198	87.94
404.422	93.94
404.645	93.94
404.869	112.94
405.093	113.94
405.317	142.94
405.541	127.94
405.765	113.94
405.988	114.94
406.212	158.94
406.436	244.94
406.66	165.94
406.883	108.94
407.107	103.94
407.331	104.94
407.555	119.94
407.778	111.94
408.002	83.94
408.226	88.94
408.449	79.94
408.673	90.94
408.896	101.94
409.12	101.94
409.344	93.94
409.567	79.94
409.791	86.94
410.014	82.94
410.238	96.94
410.461	87.94
410.685	95.94
410.908	93.94
411.132	99.94
411.355	97.94
411.578	80.94
411.802	97.94
412.025	100.94
412.249	91.94
412.472	110.94
412.695	132.94
412.919	117.94
413.142	81.94
413.365	88.94
413.589	92.94
413.812	73.94
414.035	99.94
414.258	90.94
414.482	93.94
414.705	98.94
414.928	89.94
415.151	85.94
415.374	91.94
415.597	93.94
415.821	88.94
416.044	90.94
416.267	90.94
416.49	94.94
416.713	74.94
416.936	80.94
417.159	77.94
417.382	98.94
417.605	103.94
417.828	105.94
418.051	89.94
418.274	90.94
418.497	95.94
418.72	81.94
418.943	86.94
419.166	97.94
419.389	86.94
419.611	103.94
419.834	87.94
420.057	90.94
420.28	82.94
420.503	95.94
420.726	86.94
420.948	77.94
421.171	98.94
421.394	107.94
421.617	107.94
421.839	97.94
422.062	103.94
422.285	104.94
422.507	100.94
422.73	107.94
422.953	100.94
423.175	84.94
423.398	103.94
423.621	104.94
423.843	85.94
424.066	95.94
424.288	105.94
424.511	92.94
424.733	114.94
424.956	114.94
425.178	95.94
425.401	111.94
425.623	115.94
425.846	88.94
426.068	103.94
426.291	99.94
426.513	89.94
426.735	91.94
426.958	100.94
427.18	116.94
427.402	164.94
427.625	201.94
427.847	223.94
428.069	190.94
428.292	116.94
428.514	96.94
428.736	90.94
428.958	90.94
429.181	84.94
429.403	91.94
429.625	95.94
429.847	89.94
430.069	106.94
430.292	100.94
430.514	93.94
430.736	76.94
430.958	78.94
431.18	90.94
431.402	83.94
431.624	88.94
431.846	88.94
432.068	89.94
432.29	88.94
432.512	93.94
432.734	86.94
432.956	96.94
433.178	115.94
433.4	98.94
433.622	92.94
433.844	86.94
434.066	94.94
434.287	99.94
434.509	110.94
434.731	88.94
434.953	102.94
435.175	85.94
435.397	89.94
435.618	98.94
435.84	115.94
436.062	126.94
436.284	118.94
436.505	104.94
436.727	105.94
436.949	93.94
437.17	88.94
437.392	100.94
437.614	86.94
437.835	114.94
438.057	139.94
438.278	104.94
438.5	104.94
438.721	147.94
438.943	110.94
439.165	100.94
439.386	89.94
439.608	100.94
439.829	111.94
440.05	144.94
440.272	172.94
440.493	104.94
440.715	97.94
440.936	91.94
441.158	92.94
441.379	80.94
441.6	94.94
441.822	97.94
442.043	102.94
442.264	113.94
442.486	109.94
442.707	92.94
442.928	109.94
443.149	142.94
443.371	154.94
443.592	120.94
443.813	119.94
444.034	112.94
444.255	83.94
444.476	79.94
444.698	90.94
444.919	91.94
445.14	140.94
445.361	122.94
445.582	123.94
445.803	173.94
446.024	143.94
446.245	171.94
446.466	120.94
446.687	94.94
446.908	99.94
447.129	88.94
447.35	97.94
447.571	86.94
447.792	96.94
448.013	102.94
448.234	109.94
448.455	97.94
448.675	127.94
448.896	127.94
449.117	113.94
449.338	120.94
449.559	142.94
449.779	162.94
450	102.94
450.221	95.94
450.442	82.94
450.662	105.94
450.883	124.94
451.104	137.94
451.324	92.94
451.545	92.94
451.766	67.94
451.986	83.94
452.207	94.94
452.428	102.94
452.648	95.94
452.869	114.94
453.089	98.94
453.31	113.94
453.53	99.94
453.751	75.94
453.971	97.94
454.192	127.94
454.412	100.94
454.633	104.94
454.853	86.94
455.073	74.94
455.294	88.94
455.514	97.94
455.734	78.94
455.955	92.94
456.175	92.94
456.395	89.94
456.616	90.94
456.836	87.94
457.056	82.94
457.276	94.94
457.497	93.94
457.717	81.94
457.937	80.94
458.157	81.94
458.377	84.94
458.598	110.94
458.818	162.94
459.038	182.94
459.258	134.94
459.478	93.94
459.698	79.94
459.918	84.94
460.138	72.94
460.358	93.94
460.578	89.94
460.798	81.94
461.018	97.94
461.238	95.94
461.458	91.94
461.678	80.94
461.898	85.94
462.118	94.94
462.338	95.94
462.558	83.94
462.777	95.94
462.997	79.94
463.217	95.94
463.437	95.94
463.657	95.94
463.876	97.94
464.096	86.94
464.316	83.94
464.536	79.94
464.755	92.94
464.975	97.94
465.195	166.94
465.414	174.94
465.634	105.94
465.854	94.94
466.073	97.94
466.293	79.94
466.512	92.94
466.732	77.94
466.951	83.94
467.171	86.94
467.391	102.94
467.61	102.94
467.829	140.94
468.049	324.94
468.268	430.94
468.488	142.94
468.707	101.94
468.927	99.94
469.146	83.94
469.365	81.94
469.585	93.94
469.804	94.94
470.023	106.94
470.243	90.94
470.462	109.94
470.681	126.94
470.901	99.94
471.12	86.94
471.339	81.94
471.558	101.94
471.777	99.94
471.997	187.94
472.216	541.94
472.435	1192.94
472.654	313.94
472.873	104.94
473.092	98.94
473.311	78.94
473.53	89.94
473.749	86.94
473.968	94.94
474.187	114.94
474.406	116.94
474.625	89.94
474.844	100.94
475.063	72.94
475.282	86.94
475.501	88.94
475.72	87.94
475.939	79.94
476.158	99.94
476.377	94.94
476.596	92.94
476.814	100.94
477.033	95.94
477.252	84.94
477.471	96.94
477.69	99.94
477.908	87.94
478.127	94.94
478.346	97.94
478.564	91.94
478.783	113.94
479.002	111.94
479.22	95.94
479.439	92.94
479.658	118.94
479.876	94.94
480.095	103.94
480.313	103.94
480.532	137.94
480.751	182.94
480.969	518.94
481.188	2056.94
481.406	1243.94
481.624	218.94
481.843	106.94
482.061	99.94
482.28	91.94
482.498	80.94
482.717	86.94
482.935	91.94
483.153	91.94
483.372	100.94
483.59	101.94
483.808	80.94
484.027	97.94
484.245	98.94
484.463	84.94
484.681	94.94
484.9	101.94
485.118	107.94
485.336	107.94
485.554	89.94
485.772	109.94
485.99	115.94
486.209	99.94
486.427	113.94
486.645	119.94
486.863	121.94
487.081	116.94
487.299	105.94
487.517	102.94
487.735	96.94
487.953	90.94
488.171	102.94
488.389	83.94
488.607	98.94
488.825	92.94
489.043	112.94
489.261	100.94
489.479	86.94
489.696	86.94
489.914	74.94
490.132	109.94
490.35	86.94
490.568	81.94
490.786	98.94
491.003	92.94
491.221	88.94
491.439	117.94
491.657	95.94
491.874	89.94
492.092	76.94
492.31	92.94
492.527	78.94
492.745	92.94
492.963	94.94
493.18	93.94
493.398	103.94
493.615	99.94
493.833	104.94
494.05	108.94
494.268	85.94
494.485	102.94
494.703	97.94
494.92	88.94
495.138	91.94
495.355	91.94
495.573	91.94
495.79	100.94
496.008	83.94
496.225	98.94
496.442	94.94
496.66	94.94
496.877	81.94
497.094	98.94
497.312	95.94
497.529	90.94
497.746	80.94
497.963	63.94
498.181	88.94
498.398	100.94
498.615	115.94
498.832	115.94
499.049	84.94
499.267	86.94
499.484	86.94
499.701	91.94
499.918	103.94
500.135	92.94
500.352	77.94
500.569	92.94
500.786	96.94
501.003	90.94
501.22	95.94
501.437	92.94
501.654	96.94
501.871	110.94
502.088	90.94
502.305	92.94
502.522	106.94
502.739	83.94
502.956	87.94
503.172	82.94
503.389	99.94
503.606	119.94
503.823	93.94
504.04	105.94
504.256	90.94
504.473	97.94
504.69	84.94
504.907	91.94
505.123	80.94
505.34	84.94
505.557	98.94
505.773	77.94
505.99	91.94
506.207	89.94
506.423	93.94
506.64	86.94
506.856	94.94
507.073	83.94
507.289	91.94
507.506	100.94
507.722	122.94
507.939	113.94
508.155	100.94
508.372	106.94
508.588	77.94
508.805	90.94
509.021	84.94
509.238	100.94
509.454	85.94
509.67	106.94
509.887	106.94
510.103	127.94
510.319	208.94
510.536	678.94
510.752	2246.94
510.968	641.94
511.184	154.94
511.401	122.94
511.617	109.94
511.833	92.94
512.049	98.94
512.265	85.94
512.481	96.94
512.698	88.94
512.914	104.94
513.13	106.94
513.346	99.94
513.562	93.94
513.778	109.94
