Data from Circ_1997_H10_HRD10591_00084.txt Node
Date: Wed Jan 03 11:29:44 EST 2024
User: Yrep
Spectrometer: HR+D1059
Trigger mode: 1
Integration Time (sec): 1.000000E-1
Scans to average: 1
Electric dark correction enabled: true
Nonlinearity correction enabled: false
Boxcar width: 0
XAxis mode: Wavelengths
Number of Pixels in Spectrum: 2048
>>>>>Begin Spectral Data<<<<<
223.165	-18.56
223.4	-18.56
223.635	-18.56
223.869	-25.56
224.104	-18.56
224.338	-23.56
224.573	-18.56
224.808	-9.56
225.042	4.44
225.277	-11.56
225.511	-0.56
225.746	6.44
225.98	15.44
226.215	21.44
226.449	11.44
226.683	10.44
226.918	35.44
227.152	21.44
227.387	28.44
227.621	36.44
227.856	40.44
228.09	57.44
228.324	49.44
228.559	55.44
228.793	64.44
229.027	51.44
229.262	62.44
229.496	83.44
229.73	93.44
229.964	81.44
230.199	90.44
230.433	91.44
230.667	81.44
230.901	85.44
231.136	75.44
231.37	76.44
231.604	63.44
231.838	85.44
232.072	85.44
232.306	95.44
232.541	88.44
232.775	87.44
233.009	84.44
233.243	63.44
233.477	81.44
233.711	87.44
233.945	99.44
234.179	78.44
234.413	75.44
234.647	94.44
234.881	76.44
235.115	71.44
235.349	86.44
235.583	91.44
235.817	86.44
236.051	80.44
236.285	87.44
236.519	78.44
236.753	79.44
236.987	78.44
237.221	86.44
237.455	84.44
237.689	95.44
237.922	88.44
238.156	73.44
238.39	82.44
238.624	69.44
238.858	72.44
239.091	80.44
239.325	69.44
239.559	92.44
239.793	99.44
240.027	79.44
240.26	80.44
240.494	83.44
240.728	67.44
240.961	79.44
241.195	87.44
241.429	76.44
241.662	71.44
241.896	76.44
242.13	77.44
242.363	80.44
242.597	73.44
242.83	65.44
243.064	74.44
243.298	80.44
243.531	77.44
243.765	86.44
243.998	95.44
244.232	76.44
244.465	80.44
244.699	89.44
244.932	83.44
245.166	73.44
245.399	72.44
245.633	75.44
245.866	64.44
246.099	85.44
246.333	90.44
246.566	73.44
246.8	84.44
247.033	91.44
247.266	95.44
247.5	93.44
247.733	81.44
247.966	83.44
248.2	80.44
248.433	80.44
248.666	74.44
248.899	80.44
249.133	101.44
249.366	105.44
249.599	97.44
249.832	79.44
250.066	75.44
250.299	90.44
250.532	98.44
250.765	79.44
250.998	78.44
251.231	80.44
251.465	72.44
251.698	93.44
251.931	91.44
252.164	88.44
252.397	92.44
252.63	82.44
252.863	77.44
253.096	83.44
253.329	76.44
253.562	83.44
253.795	87.44
254.028	90.44
254.261	88.44
254.494	90.44
254.727	101.44
254.96	85.44
255.193	88.44
255.426	83.44
255.659	83.44
255.892	91.44
256.124	107.44
256.357	79.44
256.59	87.44
256.823	85.44
257.056	98.44
257.289	95.44
257.521	96.44
257.754	81.44
257.987	73.44
258.22	109.44
258.452	93.44
258.685	87.44
258.918	83.44
259.151	89.44
259.383	82.44
259.616	83.44
259.849	84.44
260.081	76.44
260.314	82.44
260.547	80.44
260.779	83.44
261.012	97.44
261.244	114.44
261.477	103.44
261.71	107.44
261.942	130.44
262.175	151.44
262.407	91.44
262.64	100.44
262.872	84.44
263.105	90.44
263.337	78.44
263.57	84.44
263.802	81.44
264.035	89.44
264.267	86.44
264.499	78.44
264.732	79.44
264.964	75.44
265.197	79.44
265.429	80.44
265.661	85.44
265.894	79.44
266.126	98.44
266.358	89.44
266.591	79.44
266.823	72.44
267.055	83.44
267.287	97.44
267.52	93.44
267.752	82.44
267.984	85.44
268.216	93.44
268.448	93.44
268.681	101.44
268.913	85.44
269.145	78.44
269.377	91.44
269.609	83.44
269.841	89.44
270.073	90.44
270.306	83.44
270.538	87.44
270.77	83.44
271.002	99.44
271.234	98.44
271.466	89.44
271.698	95.44
271.93	91.44
272.162	95.44
272.394	83.44
272.626	90.44
272.858	84.44
273.09	89.44
273.322	94.44
273.553	97.44
273.785	94.44
274.017	81.44
274.249	89.44
274.481	81.44
274.713	96.44
274.945	102.44
275.176	91.44
275.408	98.44
275.64	98.44
275.872	129.44
276.104	113.44
276.335	99.44
276.567	115.44
276.799	148.44
277.031	167.44
277.262	189.44
277.494	136.44
277.726	91.44
277.957	83.44
278.189	96.44
278.421	107.44
278.652	87.44
278.884	96.44
279.115	95.44
279.347	99.44
279.579	102.44
279.81	129.44
280.042	186.44
280.273	238.44
280.505	180.44
280.736	117.44
280.968	91.44
281.199	81.44
281.431	76.44
281.662	88.44
281.894	95.44
282.125	102.44
282.356	149.44
282.588	165.44
282.819	136.44
283.051	99.44
283.282	80.44
283.513	99.44
283.745	77.44
283.976	79.44
284.207	91.44
284.439	88.44
284.67	87.44
284.901	87.44
285.132	97.44
285.364	81.44
285.595	80.44
285.826	87.44
286.057	91.44
286.288	90.44
286.52	103.44
286.751	71.44
286.982	95.44
287.213	83.44
287.444	85.44
287.675	84.44
287.906	80.44
288.138	101.44
288.369	91.44
288.6	95.44
288.831	96.44
289.062	78.44
289.293	82.44
289.524	93.44
289.755	94.44
289.986	95.44
290.217	96.44
290.448	89.44
290.679	97.44
290.91	81.44
291.141	86.44
291.371	90.44
291.602	87.44
291.833	101.44
292.064	92.44
292.295	89.44
292.526	93.44
292.757	97.44
292.987	95.44
293.218	79.44
293.449	92.44
293.68	87.44
293.91	95.44
294.141	117.44
294.372	122.44
294.603	85.44
294.833	92.44
295.064	77.44
295.295	101.44
295.525	113.44
295.756	103.44
295.987	124.44
296.217	179.44
296.448	151.44
296.679	97.44
296.909	92.44
297.14	88.44
297.37	92.44
297.601	79.44
297.831	94.44
298.062	89.44
298.292	90.44
298.523	103.44
298.753	80.44
298.984	86.44
299.214	93.44
299.445	91.44
299.675	104.44
299.905	103.44
300.136	90.44
300.366	102.44
300.597	95.44
300.827	89.44
301.057	99.44
301.288	98.44
301.518	100.44
301.748	105.44
301.979	107.44
302.209	95.44
302.439	107.44
302.669	92.44
302.9	88.44
303.13	91.44
303.36	116.44
303.59	138.44
303.82	133.44
304.051	93.44
304.281	96.44
304.511	91.44
304.741	103.44
304.971	72.44
305.201	104.44
305.431	89.44
305.661	96.44
305.891	95.44
306.121	109.44
306.352	108.44
306.582	111.44
306.812	109.44
307.042	135.44
307.272	163.44
307.502	179.44
307.731	161.44
307.961	142.44
308.191	104.44
308.421	98.44
308.651	99.44
308.881	106.44
309.111	108.44
309.341	96.44
309.571	86.44
309.8	101.44
310.03	98.44
310.26	120.44
310.49	99.44
310.72	106.44
310.949	118.44
311.179	108.44
311.409	96.44
311.639	103.44
311.868	87.44
312.098	93.44
312.328	111.44
312.557	117.44
312.787	120.44
313.017	121.44
313.246	105.44
313.476	96.44
313.706	99.44
313.935	99.44
314.165	111.44
314.394	100.44
314.624	103.44
314.853	93.44
315.083	94.44
315.312	94.44
315.542	100.44
315.771	94.44
316.001	108.44
316.23	105.44
316.46	91.44
316.689	104.44
316.919	103.44
317.148	110.44
317.377	105.44
317.607	100.44
317.836	97.44
318.065	97.44
318.295	106.44
318.524	93.44
318.753	93.44
318.983	98.44
319.212	100.44
319.441	114.44
319.67	122.44
319.9	104.44
320.129	107.44
320.358	110.44
320.587	111.44
320.816	110.44
321.046	115.44
321.275	109.44
321.504	103.44
321.733	103.44
321.962	110.44
322.191	124.44
322.42	111.44
322.649	118.44
322.878	121.44
323.108	141.44
323.337	130.44
323.566	151.44
323.795	186.44
324.024	256.44
324.253	532.44
324.482	1177.44
324.71	2525.44
324.939	3342.44
325.168	1153.44
325.397	327.44
325.626	196.44
325.855	141.44
326.084	140.44
326.313	158.44
326.542	186.44
326.77	302.44
326.999	602.44
327.228	1317.44
327.457	2503.44
327.686	1955.44
327.914	605.44
328.143	546.44
328.372	620.44
328.6	367.44
328.829	192.44
329.058	205.44
329.287	177.44
329.515	170.44
329.744	255.44
329.972	470.44
330.201	996.44
330.43	1405.44
330.658	581.44
330.887	279.44
331.115	185.44
331.344	131.44
331.572	124.44
331.801	120.44
332.03	137.44
332.258	103.44
332.486	109.44
332.715	115.44
332.943	111.44
333.172	127.44
333.4	141.44
333.629	167.44
333.857	225.44
334.085	468.44
334.314	904.44
334.542	1843.44
334.771	1689.44
334.999	424.44
335.227	187.44
335.455	122.44
335.684	116.44
335.912	121.44
336.14	114.44
336.369	110.44
336.597	121.44
336.825	104.44
337.053	101.44
337.281	92.44
337.51	95.44
337.738	88.44
337.966	97.44
338.194	117.44
338.422	109.44
338.65	95.44
338.878	100.44
339.106	89.44
339.334	97.44
339.562	98.44
339.79	101.44
340.018	103.44
340.246	95.44
340.474	115.44
340.702	122.44
340.93	98.44
341.158	108.44
341.386	94.44
341.614	105.44
341.842	105.44
342.07	99.44
342.298	83.44
342.526	102.44
342.754	88.44
342.981	83.44
343.209	100.44
343.437	100.44
343.665	81.44
343.893	91.44
344.12	89.44
344.348	92.44
344.576	94.44
344.804	98.44
345.031	105.44
345.259	95.44
345.487	103.44
345.714	111.44
345.942	92.44
346.17	98.44
346.397	96.44
346.625	101.44
346.853	97.44
347.08	97.44
347.308	108.44
347.535	97.44
347.763	123.44
347.99	96.44
348.218	113.44
348.445	107.44
348.673	87.44
348.9	98.44
349.128	92.44
349.355	95.44
349.583	96.44
349.81	92.44
350.037	107.44
350.265	104.44
350.492	110.44
350.72	109.44
350.947	108.44
351.174	110.44
351.402	125.44
351.629	107.44
351.856	94.44
352.083	99.44
352.311	110.44
352.538	98.44
352.765	99.44
352.992	115.44
353.22	111.44
353.447	114.44
353.674	110.44
353.901	94.44
354.128	96.44
354.355	91.44
354.583	107.44
354.81	101.44
355.037	95.44
355.264	103.44
355.491	91.44
355.718	85.44
355.945	97.44
356.172	106.44
356.399	109.44
356.626	94.44
356.853	93.44
357.08	96.44
357.307	101.44
357.534	96.44
357.761	95.44
357.988	97.44
358.215	92.44
358.441	95.44
358.668	91.44
358.895	88.44
359.122	78.44
359.349	92.44
359.576	118.44
359.802	101.44
360.029	144.44
360.256	127.44
360.483	125.44
360.709	105.44
360.936	91.44
361.163	94.44
361.39	99.44
361.616	103.44
361.843	96.44
362.07	110.44
362.296	99.44
362.523	97.44
362.749	89.44
362.976	93.44
363.203	97.44
363.429	84.44
363.656	89.44
363.882	102.44
364.109	96.44
364.335	99.44
364.562	111.44
364.788	90.44
365.015	98.44
365.241	105.44
365.468	113.44
365.694	119.44
365.92	112.44
366.147	93.44
366.373	88.44
366.599	96.44
366.826	103.44
367.052	98.44
367.278	95.44
367.505	105.44
367.731	100.44
367.957	98.44
368.184	104.44
368.41	119.44
368.636	131.44
368.862	135.44
369.089	104.44
369.315	98.44
369.541	84.44
369.767	95.44
369.993	94.44
370.219	115.44
370.445	83.44
370.672	91.44
370.898	85.44
371.124	82.44
371.35	95.44
371.576	91.44
371.802	103.44
372.028	79.44
372.254	98.44
372.48	85.44
372.706	104.44
372.932	75.44
373.158	82.44
373.384	88.44
373.61	77.44
373.835	98.44
374.061	86.44
374.287	114.44
374.513	96.44
374.739	93.44
374.965	83.44
375.191	86.44
375.416	94.44
375.642	95.44
375.868	97.44
376.094	99.44
376.319	95.44
376.545	90.44
376.771	98.44
376.997	90.44
377.222	88.44
377.448	100.44
377.674	94.44
377.899	96.44
378.125	103.44
378.35	93.44
378.576	100.44
378.802	101.44
379.027	96.44
379.253	90.44
379.478	83.44
379.704	80.44
379.929	89.44
380.155	98.44
380.38	105.44
380.606	91.44
380.831	96.44
381.057	102.44
381.282	93.44
381.507	89.44
381.733	107.44
381.958	97.44
382.184	104.44
382.409	92.44
382.634	99.44
382.86	99.44
383.085	93.44
383.31	89.44
383.535	101.44
383.761	107.44
383.986	112.44
384.211	98.44
384.436	109.44
384.662	114.44
384.887	91.44
385.112	100.44
385.337	106.44
385.562	94.44
385.787	98.44
386.013	100.44
386.238	102.44
386.463	104.44
386.688	106.44
386.913	84.44
387.138	106.44
387.363	99.44
387.588	106.44
387.813	102.44
388.038	100.44
388.263	91.44
388.488	106.44
388.713	98.44
388.938	101.44
389.163	99.44
389.387	97.44
389.612	95.44
389.837	84.44
390.062	98.44
390.287	91.44
390.512	95.44
390.736	83.44
390.961	99.44
391.186	94.44
391.411	82.44
391.636	79.44
391.86	79.44
392.085	92.44
392.31	76.44
392.534	73.44
392.759	81.44
392.984	77.44
393.208	86.44
393.433	101.44
393.658	94.44
393.882	98.44
394.107	98.44
394.331	78.44
394.556	103.44
394.78	100.44
395.005	101.44
395.229	89.44
395.454	91.44
395.678	76.44
395.903	100.44
396.127	89.44
396.352	79.44
396.576	93.44
396.801	71.44
397.025	86.44
397.249	91.44
397.474	92.44
397.698	75.44
397.922	75.44
398.147	102.44
398.371	90.44
398.595	85.44
398.82	81.44
399.044	91.44
399.268	87.44
399.492	93.44
399.717	86.44
399.941	95.44
400.165	93.44
400.389	85.44
400.613	75.44
400.837	93.44
401.062	81.44
401.286	84.44
401.51	100.44
401.734	102.44
401.958	101.44
402.182	147.44
402.406	189.44
402.63	121.44
402.854	87.44
403.078	88.44
403.302	87.44
403.526	90.44
403.75	91.44
403.974	101.44
404.198	95.44
404.422	88.44
404.645	95.44
404.869	105.44
405.093	121.44
405.317	156.44
405.541	155.44
405.765	111.44
405.988	123.44
406.212	203.44
406.436	270.44
406.66	178.44
406.883	119.44
407.107	107.44
407.331	98.44
407.555	114.44
407.778	97.44
408.002	89.44
408.226	91.44
408.449	92.44
408.673	89.44
408.896	95.44
409.12	116.44
409.344	94.44
409.567	99.44
409.791	105.44
410.014	107.44
410.238	89.44
410.461	97.44
410.685	101.44
410.908	93.44
411.132	107.44
411.355	107.44
411.578	95.44
411.802	82.44
412.025	95.44
412.249	106.44
412.472	104.44
412.695	136.44
412.919	116.44
413.142	93.44
413.365	88.44
413.589	100.44
413.812	96.44
414.035	95.44
414.258	81.44
414.482	92.44
414.705	91.44
414.928	99.44
415.151	99.44
415.374	82.44
415.597	93.44
415.821	91.44
416.044	106.44
416.267	96.44
416.49	112.44
416.713	90.44
416.936	91.44
417.159	104.44
417.382	89.44
417.605	103.44
417.828	95.44
418.051	102.44
418.274	90.44
418.497	87.44
418.72	88.44
418.943	90.44
419.166	87.44
419.389	94.44
419.611	87.44
419.834	91.44
420.057	89.44
420.28	95.44
420.503	89.44
420.726	103.44
420.948	107.44
421.171	112.44
421.394	99.44
421.617	83.44
421.839	67.44
422.062	93.44
422.285	87.44
422.507	110.44
422.73	105.44
422.953	84.44
423.175	95.44
423.398	97.44
423.621	87.44
423.843	93.44
424.066	80.44
424.288	82.44
424.511	96.44
424.733	110.44
424.956	117.44
425.178	101.44
425.401	121.44
425.623	121.44
425.846	98.44
426.068	100.44
426.291	93.44
426.513	90.44
426.735	89.44
426.958	107.44
427.18	123.44
427.402	186.44
427.625	247.44
427.847	242.44
428.069	263.44
428.292	141.44
428.514	101.44
428.736	99.44
428.958	97.44
429.181	78.44
429.403	87.44
429.625	92.44
429.847	100.44
430.069	127.44
430.292	111.44
430.514	97.44
430.736	94.44
430.958	95.44
431.18	94.44
431.402	89.44
431.624	103.44
431.846	84.44
432.068	93.44
432.29	109.44
432.512	95.44
432.734	100.44
432.956	98.44
433.178	100.44
433.4	107.44
433.622	87.44
433.844	105.44
434.066	85.44
434.287	95.44
434.509	89.44
434.731	80.44
434.953	102.44
435.175	104.44
435.397	102.44
435.618	105.44
435.84	113.44
436.062	154.44
436.284	125.44
436.505	124.44
436.727	104.44
436.949	93.44
437.17	89.44
437.392	91.44
437.614	110.44
437.835	108.44
438.057	143.44
438.278	145.44
438.5	117.44
438.721	138.44
438.943	107.44
439.165	106.44
439.386	81.44
439.608	95.44
439.829	111.44
440.05	126.44
440.272	179.44
440.493	122.44
440.715	94.44
440.936	96.44
441.158	104.44
441.379	87.44
441.6	103.44
441.822	91.44
442.043	104.44
442.264	121.44
442.486	108.44
442.707	84.44
442.928	115.44
443.149	158.44
443.371	161.44
443.592	129.44
443.813	130.44
444.034	125.44
444.255	92.44
444.476	103.44
444.698	107.44
444.919	97.44
445.14	144.44
445.361	141.44
445.582	146.44
445.803	190.44
446.024	186.44
446.245	166.44
446.466	120.44
446.687	92.44
446.908	93.44
447.129	92.44
447.35	98.44
447.571	96.44
447.792	107.44
448.013	104.44
448.234	103.44
448.455	109.44
448.675	146.44
448.896	139.44
449.117	115.44
449.338	108.44
449.559	147.44
449.779	175.44
450	101.44
450.221	97.44
450.442	96.44
450.662	98.44
450.883	115.44
451.104	116.44
451.324	94.44
451.545	94.44
451.766	98.44
451.986	97.44
452.207	93.44
452.428	94.44
452.648	95.44
452.869	126.44
453.089	136.44
453.31	123.44
453.53	97.44
453.751	84.44
453.971	103.44
454.192	129.44
454.412	107.44
454.633	100.44
454.853	96.44
455.073	84.44
455.294	97.44
455.514	106.44
455.734	97.44
455.955	106.44
456.175	87.44
456.395	97.44
456.616	94.44
456.836	100.44
457.056	101.44
457.276	80.44
457.497	75.44
457.717	86.44
457.937	84.44
458.157	101.44
458.377	104.44
458.598	124.44
458.818	187.44
459.038	215.44
459.258	142.44
459.478	100.44
459.698	77.44
459.918	87.44
460.138	95.44
460.358	90.44
460.578	109.44
460.798	88.44
461.018	92.44
461.238	87.44
461.458	82.44
461.678	88.44
461.898	99.44
462.118	85.44
462.338	88.44
462.558	88.44
462.777	94.44
462.997	104.44
463.217	100.44
463.437	91.44
463.657	99.44
463.876	108.44
464.096	82.44
464.316	90.44
464.536	88.44
464.755	102.44
464.975	125.44
465.195	210.44
465.414	197.44
465.634	102.44
465.854	96.44
466.073	97.44
466.293	86.44
466.512	94.44
466.732	77.44
466.951	89.44
467.171	107.44
467.391	117.44
467.61	148.44
467.829	216.44
468.049	577.44
468.268	827.44
468.488	229.44
468.707	122.44
468.927	108.44
469.146	106.44
469.365	81.44
469.585	105.44
469.804	108.44
470.023	101.44
470.243	108.44
470.462	122.44
470.681	156.44
470.901	114.44
471.12	92.44
471.339	111.44
471.558	133.44
471.777	166.44
471.997	295.44
472.216	1151.44
472.435	2547.44
472.654	555.44
472.873	169.44
473.092	117.44
473.311	98.44
473.53	84.44
473.749	89.44
473.968	109.44
474.187	111.44
474.406	106.44
474.625	99.44
474.844	85.44
475.063	103.44
475.282	96.44
475.501	96.44
475.72	87.44
475.939	96.44
476.158	112.44
476.377	100.44
476.596	89.44
476.814	96.44
477.033	91.44
477.252	98.44
477.471	96.44
477.69	93.44
477.908	88.44
478.127	99.44
478.346	100.44
478.564	104.44
478.783	97.44
479.002	109.44
479.22	89.44
479.439	123.44
479.658	147.44
479.876	118.44
480.095	125.44
480.313	148.44
480.532	169.44
480.751	283.44
480.969	1110.44
481.188	4596.44
481.406	2477.44
481.624	371.44
481.843	151.44
482.061	120.44
482.28	97.44
482.498	91.44
482.717	106.44
482.935	98.44
483.153	96.44
483.372	80.44
483.59	92.44
483.808	94.44
484.027	110.44
484.245	88.44
484.463	105.44
484.681	111.44
484.9	104.44
485.118	96.44
485.336	92.44
485.554	88.44
485.772	107.44
485.99	111.44
486.209	100.44
486.427	107.44
486.645	121.44
486.863	118.44
487.081	87.44
487.299	103.44
487.517	91.44
487.735	92.44
487.953	89.44
488.171	101.44
488.389	95.44
488.607	116.44
488.825	88.44
489.043	88.44
489.261	95.44
489.479	89.44
489.696	85.44
489.914	96.44
490.132	90.44
490.35	87.44
490.568	94.44
490.786	85.44
491.003	91.44
491.221	83.44
491.439	90.44
491.657	109.44
491.874	101.44
492.092	77.44
492.31	91.44
492.527	82.44
492.745	96.44
492.963	90.44
493.18	100.44
493.398	85.44
493.615	95.44
493.833	99.44
494.05	96.44
494.268	91.44
494.485	83.44
494.703	93.44
494.92	75.44
495.138	97.44
495.355	85.44
495.573	81.44
495.79	95.44
496.008	80.44
496.225	91.44
496.442	95.44
496.66	102.44
496.877	106.44
497.094	87.44
497.312	93.44
497.529	96.44
497.746	99.44
497.963	100.44
498.181	105.44
498.398	107.44
498.615	106.44
498.832	118.44
499.049	92.44
499.267	104.44
499.484	94.44
499.701	92.44
499.918	68.44
500.135	79.44
500.352	93.44
500.569	92.44
500.786	90.44
501.003	95.44
501.22	84.44
501.437	108.44
501.654	108.44
501.871	132.44
502.088	111.44
502.305	75.44
502.522	99.44
502.739	95.44
502.956	87.44
503.172	105.44
503.389	115.44
503.606	122.44
503.823	105.44
504.04	91.44
504.256	82.44
504.473	94.44
504.69	83.44
504.907	100.44
505.123	92.44
505.34	93.44
505.557	91.44
505.773	96.44
505.99	84.44
506.207	80.44
506.423	95.44
506.64	103.44
506.856	101.44
507.073	93.44
507.289	95.44
507.506	105.44
507.722	136.44
507.939	125.44
508.155	115.44
508.372	107.44
508.588	99.44
508.805	114.44
509.021	111.44
509.238	103.44
509.454	107.44
509.67	108.44
509.887	116.44
510.103	144.44
510.319	243.44
510.536	861.44
510.752	2872.44
510.968	781.44
511.184	166.44
511.401	121.44
511.617	105.44
511.833	109.44
512.049	102.44
512.265	96.44
512.481	90.44
