Data from Circ_1997_H10_HRD10591_00013.txt Node
Date: Wed Jan 03 11:29:30 EST 2024
User: Yrep
Spectrometer: HR+D1059
Trigger mode: 1
Integration Time (sec): 1.000000E-1
Scans to average: 1
Electric dark correction enabled: true
Nonlinearity correction enabled: false
Boxcar width: 0
XAxis mode: Wavelengths
Number of Pixels in Spectrum: 2048
>>>>>Begin Spectral Data<<<<<
223.165	-11
223.4	-11
223.635	-11
223.869	-17
224.104	-22
224.338	-23
224.573	-11
224.808	-18
225.042	-5
225.277	-10
225.511	-14
225.746	6
225.98	10
226.215	8
226.449	30
226.683	16
226.918	28
227.152	33
227.387	33
227.621	35
227.856	59
228.09	47
228.324	58
228.559	68
228.793	53
229.027	57
229.262	80
229.496	80
229.73	78
229.964	82
230.199	77
230.433	84
230.667	89
230.901	71
231.136	70
231.37	74
231.604	65
231.838	78
232.072	76
232.306	92
232.541	72
232.775	77
233.009	83
233.243	80
233.477	72
233.711	79
233.945	85
234.179	75
234.413	87
234.647	87
234.881	75
235.115	90
235.349	64
235.583	78
235.817	74
236.051	89
236.285	89
236.519	75
236.753	78
236.987	75
237.221	76
237.455	87
237.689	81
237.922	81
238.156	86
238.39	97
238.624	70
238.858	85
239.091	85
239.325	76
239.559	77
239.793	87
240.027	76
240.26	78
240.494	82
240.728	69
240.961	81
241.195	85
241.429	73
241.662	66
241.896	94
242.13	87
242.363	80
242.597	80
242.83	82
243.064	92
243.298	74
243.531	79
243.765	77
243.998	96
244.232	80
244.465	76
244.699	85
244.932	82
245.166	84
245.399	87
245.633	83
245.866	89
246.099	77
246.333	76
246.566	92
246.8	69
247.033	82
247.266	81
247.5	89
247.733	88
247.966	82
248.2	74
248.433	75
248.666	72
248.899	81
249.133	65
249.366	104
249.599	101
249.832	84
250.066	81
250.299	85
250.532	83
250.765	81
250.998	78
251.231	86
251.465	88
251.698	72
251.931	81
252.164	71
252.397	83
252.63	88
252.863	88
253.096	78
253.329	82
253.562	81
253.795	76
254.028	78
254.261	78
254.494	74
254.727	90
254.96	66
255.193	92
255.426	71
255.659	87
255.892	83
256.124	77
256.357	75
256.59	73
256.823	88
257.056	82
257.289	69
257.521	85
257.754	83
257.987	86
258.22	95
258.452	97
258.685	82
258.918	81
259.151	80
259.383	91
259.616	81
259.849	83
260.081	77
260.314	83
260.547	95
260.779	96
261.012	80
261.244	89
261.477	94
261.71	94
261.942	120
262.175	144
262.407	83
262.64	85
262.872	91
263.105	88
263.337	72
263.57	70
263.802	78
264.035	71
264.267	84
264.499	83
264.732	86
264.964	91
265.197	85
265.429	89
265.661	71
265.894	82
266.126	86
266.358	88
266.591	71
266.823	85
267.055	81
267.287	85
267.52	86
267.752	96
267.984	89
268.216	84
268.448	85
268.681	73
268.913	73
269.145	90
269.377	81
269.609	81
269.841	81
270.073	85
270.306	81
270.538	89
270.77	68
271.002	79
271.234	82
271.466	87
271.698	81
271.93	87
272.162	85
272.394	69
272.626	102
272.858	78
273.09	77
273.322	81
273.553	78
273.785	75
274.017	83
274.249	69
274.481	90
274.713	94
274.945	83
275.176	93
275.408	89
275.64	98
275.872	92
276.104	85
276.335	78
276.567	103
276.799	124
277.031	121
277.262	128
277.494	117
277.726	89
277.957	78
278.189	73
278.421	82
278.652	77
278.884	80
279.115	73
279.347	85
279.579	97
279.81	105
280.042	133
280.273	185
280.505	129
280.736	94
280.968	94
281.199	87
281.431	89
281.662	94
281.894	88
282.125	92
282.356	122
282.588	143
282.819	106
283.051	88
283.282	90
283.513	93
283.745	75
283.976	79
284.207	72
284.439	94
284.67	85
284.901	86
285.132	78
285.364	93
285.595	82
285.826	78
286.057	86
286.288	96
286.52	86
286.751	95
286.982	86
287.213	89
287.444	91
287.675	78
287.906	79
288.138	101
288.369	97
288.6	96
288.831	90
289.062	97
289.293	92
289.524	79
289.755	92
289.986	78
290.217	77
290.448	91
290.679	93
290.91	85
291.141	93
291.371	85
291.602	83
291.833	95
292.064	72
292.295	85
292.526	93
292.757	85
292.987	96
293.218	83
293.449	77
293.68	87
293.91	81
294.141	98
294.372	91
294.603	83
294.833	91
295.064	74
295.295	95
295.525	81
295.756	104
295.987	109
296.217	145
296.448	130
296.679	111
296.909	85
297.14	82
297.37	96
297.601	76
297.831	91
298.062	93
298.292	76
298.523	98
298.753	78
298.984	88
299.214	98
299.445	100
299.675	94
299.905	102
300.136	88
300.366	95
300.597	73
300.827	85
301.057	98
301.288	102
301.518	92
301.748	86
301.979	100
302.209	104
302.439	85
302.669	93
302.9	89
303.13	89
303.36	110
303.59	106
303.82	130
304.051	90
304.281	82
304.511	90
304.741	81
304.971	90
305.201	95
305.431	87
305.661	87
305.891	99
306.121	95
306.352	110
306.582	105
306.812	101
307.042	110
307.272	113
307.502	130
307.731	145
307.961	103
308.191	90
308.421	95
308.651	108
308.881	96
309.111	101
309.341	95
309.571	94
309.8	103
310.03	94
310.26	98
310.49	90
310.72	110
310.949	129
311.179	92
311.409	93
311.639	99
311.868	111
312.098	92
312.328	100
312.557	110
312.787	120
313.017	106
313.246	99
313.476	94
313.706	103
313.935	101
314.165	97
314.394	106
314.624	96
314.853	103
315.083	101
315.312	109
315.542	99
315.771	89
316.001	85
316.23	86
316.46	91
316.689	85
316.919	111
317.148	89
317.377	94
317.607	96
317.836	101
318.065	106
318.295	101
318.524	96
318.753	78
318.983	83
319.212	112
319.441	110
319.67	115
319.9	95
320.129	101
320.358	98
320.587	93
320.816	116
321.046	109
321.275	108
321.504	98
321.733	93
321.962	93
322.191	112
322.42	114
322.649	115
322.878	129
323.108	135
323.337	155
323.566	131
323.795	162
324.024	237
324.253	523
324.482	1183
324.71	2479
324.939	3406
325.168	1150
325.397	318
325.626	187
325.855	146
326.084	155
326.313	149
326.542	181
326.77	278
326.999	633
327.228	1320
327.457	2543
327.686	2014
327.914	571
328.143	382
328.372	439
328.6	259
328.829	149
329.058	161
329.287	160
329.515	149
329.744	182
329.972	312
330.201	565
330.43	857
330.658	395
330.887	217
331.115	161
331.344	102
331.572	109
331.801	109
332.03	113
332.258	115
332.486	105
332.715	100
332.943	110
333.172	103
333.4	120
333.629	150
333.857	171
334.085	303
334.314	567
334.542	1082
334.771	1042
334.999	305
335.227	136
335.455	95
335.684	118
335.912	105
336.14	104
336.369	106
336.597	118
336.825	114
337.053	95
337.281	101
337.51	93
337.738	87
337.966	87
338.194	83
338.422	91
338.65	79
338.878	92
339.106	81
339.334	85
339.562	92
339.79	95
340.018	94
340.246	97
340.474	97
340.702	85
340.93	81
341.158	99
341.386	86
341.614	115
341.842	85
342.07	88
342.298	99
342.526	95
342.754	86
342.981	94
343.209	88
343.437	95
343.665	82
343.893	96
344.12	94
344.348	81
344.576	88
344.804	89
345.031	103
345.259	97
345.487	96
345.714	93
345.942	91
346.17	80
346.397	105
346.625	92
346.853	96
347.08	96
347.308	96
347.535	102
347.763	109
347.99	103
348.218	98
348.445	103
348.673	113
348.9	91
349.128	106
349.355	79
349.583	95
349.81	86
350.037	105
350.265	73
350.492	90
350.72	100
350.947	108
351.174	101
351.402	105
351.629	109
351.856	92
352.083	93
352.311	97
352.538	110
352.765	103
352.992	117
353.22	118
353.447	98
353.674	97
353.901	93
354.128	92
354.355	89
354.583	102
354.81	99
355.037	77
355.264	98
355.491	99
355.718	91
355.945	93
356.172	95
356.399	83
356.626	94
356.853	106
357.08	86
357.307	82
357.534	95
357.761	89
357.988	94
358.215	98
358.441	90
358.668	94
358.895	74
359.122	94
359.349	78
359.576	90
359.802	99
360.029	113
360.256	112
360.483	113
360.709	72
360.936	88
361.163	91
361.39	89
361.616	99
361.843	82
362.07	101
362.296	94
362.523	93
362.749	109
362.976	104
363.203	96
363.429	96
363.656	86
363.882	103
364.109	93
364.335	92
364.562	93
364.788	93
365.015	92
365.241	117
365.468	112
365.694	109
365.92	92
366.147	81
366.373	79
366.599	90
366.826	107
367.052	96
367.278	81
367.505	81
367.731	87
367.957	101
368.184	99
368.41	102
368.636	108
368.862	129
369.089	123
369.315	101
369.541	88
369.767	75
369.993	91
370.219	102
370.445	89
370.672	88
370.898	77
371.124	100
371.35	87
371.576	67
371.802	88
372.028	95
372.254	89
372.48	88
372.706	85
372.932	96
373.158	92
373.384	92
373.61	98
373.835	92
374.061	100
374.287	91
374.513	88
374.739	84
374.965	82
375.191	94
375.416	79
375.642	84
375.868	90
376.094	88
376.319	93
376.545	96
376.771	81
376.997	98
377.222	95
377.448	90
377.674	91
377.899	82
378.125	97
378.35	77
378.576	80
378.802	97
379.027	89
379.253	96
379.478	97
379.704	93
379.929	84
380.155	99
380.38	96
380.606	99
380.831	108
381.057	103
381.282	106
381.507	96
381.733	107
381.958	103
382.184	90
382.409	92
382.634	105
382.86	103
383.085	102
383.31	114
383.535	105
383.761	73
383.986	93
384.211	103
384.436	97
384.662	93
384.887	104
385.112	106
385.337	101
385.562	100
385.787	100
386.013	103
386.238	106
386.463	117
386.688	110
386.913	101
387.138	107
387.363	92
387.588	91
387.813	114
388.038	110
388.263	104
388.488	105
388.713	107
388.938	103
389.163	88
389.387	86
389.612	94
389.837	98
390.062	79
390.287	94
390.512	98
390.736	79
390.961	82
391.186	87
391.411	91
391.636	102
391.86	87
392.085	94
392.31	91
392.534	86
392.759	101
392.984	96
393.208	97
393.433	92
393.658	105
393.882	85
394.107	93
394.331	96
394.556	88
394.78	106
395.005	87
395.229	92
395.454	90
395.678	90
395.903	88
396.127	87
396.352	96
396.576	77
396.801	93
397.025	108
397.249	89
397.474	86
397.698	71
397.922	85
398.147	91
398.371	73
398.595	77
398.82	78
399.044	87
399.268	88
399.492	86
399.717	88
399.941	98
400.165	88
400.389	101
400.613	89
400.837	93
401.062	85
401.286	95
401.51	91
401.734	101
401.958	102
402.182	124
402.406	171
402.63	130
402.854	94
403.078	92
403.302	90
403.526	89
403.75	90
403.974	85
404.198	75
404.422	75
404.645	96
404.869	103
405.093	118
405.317	122
405.541	120
405.765	104
405.988	133
406.212	187
406.436	279
406.66	169
406.883	107
407.107	80
407.331	107
407.555	94
407.778	104
408.002	82
408.226	88
408.449	91
408.673	82
408.896	89
409.12	90
409.344	75
409.567	81
409.791	97
410.014	93
410.238	96
410.461	85
410.685	82
410.908	110
411.132	103
411.355	92
411.578	92
411.802	81
412.025	84
412.249	106
412.472	114
412.695	133
412.919	104
413.142	89
413.365	98
413.589	95
413.812	94
414.035	95
414.258	90
414.482	95
414.705	81
414.928	65
415.151	93
415.374	101
415.597	78
415.821	84
416.044	93
416.267	88
416.49	74
416.713	84
416.936	90
417.159	88
417.382	81
417.605	86
417.828	97
418.051	107
418.274	92
418.497	82
418.72	78
418.943	91
419.166	95
419.389	101
419.611	85
419.834	74
420.057	94
420.28	83
420.503	74
420.726	104
420.948	88
421.171	83
421.394	101
421.617	92
421.839	94
422.062	91
422.285	95
422.507	97
422.73	106
422.953	108
423.175	89
423.398	85
423.621	86
423.843	94
424.066	89
424.288	94
424.511	95
424.733	94
424.956	123
425.178	98
425.401	103
425.623	107
425.846	96
426.068	90
426.291	101
426.513	93
426.735	84
426.958	92
427.18	114
427.402	169
427.625	231
427.847	208
428.069	214
428.292	134
428.514	103
428.736	84
428.958	70
429.181	86
429.403	80
429.625	98
429.847	111
430.069	110
430.292	95
430.514	83
430.736	75
430.958	91
431.18	76
431.402	91
431.624	90
431.846	105
432.068	82
432.29	78
432.512	97
432.734	77
432.956	93
433.178	92
433.4	103
433.622	101
433.844	92
434.066	87
434.287	104
434.509	94
434.731	94
434.953	82
435.175	85
435.397	89
435.618	104
435.84	129
436.062	152
436.284	137
436.505	109
436.727	109
436.949	100
437.17	85
437.392	95
437.614	93
437.835	110
438.057	121
438.278	124
438.5	115
438.721	131
438.943	106
439.165	91
439.386	92
439.608	84
439.829	99
440.05	153
440.272	186
440.493	123
440.715	99
440.936	93
441.158	106
441.379	95
441.6	91
441.822	103
442.043	102
442.264	111
442.486	118
442.707	106
442.928	110
443.149	156
443.371	161
443.592	122
443.813	127
444.034	133
444.255	97
444.476	101
444.698	106
444.919	84
445.14	129
445.361	143
445.582	137
445.803	172
446.024	163
446.245	158
446.466	133
446.687	91
446.908	78
447.129	82
447.35	81
447.571	83
447.792	90
448.013	104
448.234	109
448.455	111
448.675	130
448.896	123
449.117	99
449.338	101
449.559	147
449.779	163
450	105
450.221	103
450.442	111
450.662	102
450.883	113
451.104	120
451.324	98
451.545	96
451.766	86
451.986	84
452.207	90
452.428	101
452.648	101
452.869	112
453.089	125
453.31	129
453.53	92
453.751	90
453.971	104
454.192	129
454.412	104
454.633	100
454.853	96
455.073	73
455.294	81
455.514	99
455.734	95
455.955	94
456.175	87
456.395	93
456.616	87
456.836	86
457.056	81
457.276	95
457.497	81
457.717	69
457.937	93
458.157	80
458.377	96
458.598	131
458.818	192
459.038	185
459.258	122
459.478	92
459.698	86
459.918	96
460.138	78
460.358	89
460.578	94
460.798	84
461.018	73
461.238	80
461.458	76
461.678	82
461.898	85
462.118	90
462.338	80
462.558	78
462.777	89
462.997	91
463.217	98
463.437	94
463.657	89
463.876	78
464.096	94
464.316	115
464.536	105
464.755	113
464.975	106
465.195	179
465.414	195
465.634	108
465.854	99
466.073	94
466.293	83
466.512	96
466.732	82
466.951	91
467.171	89
467.391	114
467.61	121
467.829	157
468.049	358
468.268	482
468.488	150
468.707	99
468.927	103
469.146	85
469.365	92
469.585	85
469.804	95
470.023	116
470.243	114
470.462	111
470.681	119
470.901	93
471.12	93
471.339	109
471.558	98
471.777	131
471.997	220
472.216	667
472.435	1452
472.654	371
472.873	126
473.092	80
473.311	92
473.53	83
473.749	91
473.968	111
474.187	121
474.406	102
474.625	95
474.844	95
475.063	85
475.282	78
475.501	75
475.72	91
475.939	82
476.158	95
476.377	98
476.596	87
476.814	88
477.033	103
477.252	100
477.471	92
477.69	105
477.908	87
478.127	92
478.346	86
478.564	93
478.783	95
479.002	99
479.22	93
479.439	115
479.658	114
479.876	106
480.095	105
480.313	112
480.532	136
480.751	201
480.969	630
481.188	2581
481.406	1488
481.624	248
481.843	108
482.061	98
482.28	102
482.498	87
482.717	93
482.935	78
483.153	80
483.372	82
483.59	85
483.808	88
484.027	100
484.245	91
484.463	93
484.681	102
484.9	99
485.118	78
485.336	90
485.554	104
485.772	103
485.99	90
486.209	111
486.427	100
486.645	126
486.863	112
487.081	92
487.299	93
487.517	84
487.735	92
487.953	93
488.171	104
488.389	94
488.607	110
488.825	92
489.043	92
489.261	99
489.479	86
489.696	105
489.914	106
490.132	81
490.35	88
490.568	98
490.786	88
491.003	103
491.221	96
491.439	111
491.657	76
491.874	109
492.092	104
492.31	99
492.527	97
492.745	80
492.963	95
493.18	87
493.398	94
493.615	87
493.833	83
494.05	93
494.268	85
494.485	86
494.703	94
494.92	84
495.138	69
495.355	96
495.573	90
495.79	94
496.008	94
496.225	107
496.442	97
496.66	94
496.877	90
497.094	83
497.312	91
497.529	103
497.746	87
497.963	100
498.181	98
498.398	81
498.615	116
498.832	96
499.049	95
499.267	92
499.484	98
499.701	89
499.918	91
500.135	82
500.352	96
500.569	86
500.786	104
501.003	93
501.22	95
501.437	94
501.654	105
501.871	120
502.088	85
502.305	86
502.522	88
502.739	96
502.956	90
503.172	96
503.389	109
503.606	114
503.823	103
504.04	88
504.256	81
504.473	99
504.69	84
504.907	81
505.123	92
505.34	85
505.557	82
505.773	96
505.99	98
506.207	85
506.423	92
506.64	100
506.856	90
507.073	89
507.289	90
507.506	94
507.722	131
507.939	117
508.155	99
508.372	92
508.588	88
508.805	98
509.021	97
509.238	108
509.454	97
509.67	97
509.887	110
510.103	127
510.319	233
510.536	802
510.752	2733
510.968	735
511.184	160
511.401	121
511.617	98
511.833	109
512.049	102
512.265	96
512.481	94
512.698	93
512.914	78
513.13	97
513.346	102
513.562	99
513.778	96
513.994	97
514.21	117
514.426	137
514.642	153
514.858	134
515.074	194
515.29	583
515.506	1943
515.721	683
515.937	193
516.153	114
516.369	102
516.585	92
516.801	91
517.016	107
517.232	95
517.448	104
517.664	102
517.879	97
518.095	87
518.311	92
518.527	110
518.742	99
518.958	92
519.173	99
519.389	99
519.605	102
519.82	89
520.036	109
520.251	108
520.467	131
520.682	125
520.898	115
521.113	113
521.329	153
521.544	239
521.76	726
521.975	3271
522.19	1944
522.406	385
522.621	139
522.836	107
523.052	98
523.267	104
523.482	99
523.698	118
523.913	128
524.128	101
524.343	91
524.559	106
524.774	95
524.989	82
525.204	106
525.419	114
525.634	106
525.849	85
526.064	99
526.28	90
526.495	96
526.71	84
526.925	82
527.14	87
527.355	82
527.57	89
527.785	83
527.999	81
528.214	94
528.429	99
528.644	81
528.859	95
529.074	107
529.289	140
529.503	215
529.718	109
529.933	88
530.148	89
530.363	90
530.577	108
530.792	97
531.007	75
531.221	80
531.436	95
531.651	90
531.865	84
532.08	97
532.295	98
532.509	94
532.724	89
532.938	105
533.153	87
533.367	99
533.582	98
533.796	71
534.011	85
534.225	94
534.44	89
534.654	99
534.868	79
535.083	87
535.297	101
535.511	115
535.726	95
535.94	85
536.154	100
536.369	94
536.583	96
536.797	93
537.011	109
537.225	80
537.44	75
537.654	93
537.868	91
538.082	87
538.296	102
538.51	77
538.724	92
538.938	105
539.153	99
539.367	113
539.581	108
539.795	89
540.009	84
540.222	92
540.436	93
540.65	94
540.864	101
541.078	104
541.292	96
541.506	83
541.72	80
541.934	75
542.147	81
542.361	94
542.575	72
542.789	91
543.002	93
543.216	85
543.43	93
543.644	92
543.857	92
544.071	89
544.285	87
544.498	93
544.712	93
544.925	87
545.139	93
545.352	91
545.566	103
545.779	90
545.993	90
546.206	89
546.42	87
546.633	88
546.847	78
547.06	69
547.274	85
547.487	92
547.7	95
547.914	90
548.127	88
548.34	88
548.554	80
548.767	78
548.98	87
549.193	92
549.407	95
549.62	67
549.833	64
550.046	109
550.259	87
550.473	87
550.686	86
550.899	79
551.112	92
551.325	85
551.538	105
551.751	81
551.964	96
552.177	97
552.39	91
552.603	71
552.816	98
553.029	80
553.242	86
553.455	100
553.667	104
553.88	99
554.093	91
554.306	97
554.519	88
554.732	93
554.944	95
555.157	90
555.37	91
555.583	89
555.795	99
556.008	81
556.221	83
556.433	84
556.646	100
556.859	114
557.071	102
557.284	87
557.496	76
557.709	106
557.921	93
558.134	91
558.346	87
558.559	90
558.771	92
558.984	86
559.196	85
559.409	85
559.621	75
559.833	86
560.046	91
560.258	105
560.47	106
560.683	91
560.895	90
561.107	94
561.32	79
561.532	98
561.744	90
561.956	92
562.168	96
562.381	82
562.593	97
562.805	85
563.017	95
563.229	97
563.441	87
563.653	68
563.865	92
564.077	86
564.289	93
564.501	88
564.713	92
564.925	105
565.137	105
565.349	98
565.561	86
565.773	92
565.985	83
566.197	97
566.408	96
566.62	90
566.832	85
567.044	75
567.255	86
567.467	86
567.679	84
567.891	78
568.102	87
568.314	93
568.526	73
568.737	75
568.949	93
569.161	98
569.372	86
569.584	86
569.795	75
570.007	118
570.218	240
570.43	132
570.641	86
570.853	74
571.064	101
571.276	90
571.487	88
571.698	107
571.91	96
572.121	73
572.333	86
572.544	68
572.755	89
572.966	91
573.178	82
573.389	104
573.6	88
573.811	101
574.023	89
574.234	92
574.445	81
574.656	94
574.867	75
575.078	95
575.289	86
575.501	101
575.712	84
575.923	82
576.134	86
576.345	94
576.556	93
576.767	97
576.978	89
577.188	90
577.399	98
577.61	82
577.821	93
578.032	112
578.243	266
578.454	815
578.665	229
578.875	105
579.086	99
579.297	97
579.508	96
579.718	91
579.929	81
580.14	90
580.35	85
580.561	96
580.772	72
580.982	75
581.193	82
581.403	91
581.614	85
581.825	76
582.035	85
582.246	83
