Data from Circ_1997_H10_HRD10591_00077.txt Node
Date: Wed Jan 03 11:29:43 EST 2024
User: Yrep
Spectrometer: HR+D1059
Trigger mode: 1
Integration Time (sec): 1.000000E-1
Scans to average: 1
Electric dark correction enabled: true
Nonlinearity correction enabled: false
Boxcar width: 0
XAxis mode: Wavelengths
Number of Pixels in Spectrum: 2048
>>>>>Begin Spectral Data<<<<<
223.165	-16.31
223.4	-16.31
223.635	-16.31
223.869	-31.31
224.104	-18.31
224.338	-12.31
224.573	-20.31
224.808	-9.31
225.042	-7.31
225.277	-3.31
225.511	-3.31
225.746	8.69
225.98	8.69
226.215	12.69
226.449	5.69
226.683	27.69
226.918	26.69
227.152	31.69
227.387	27.69
227.621	48.69
227.856	39.69
228.09	34.69
228.324	36.69
228.559	44.69
228.793	53.69
229.027	52.69
229.262	79.69
229.496	90.69
229.73	104.69
229.964	102.69
230.199	82.69
230.433	60.69
230.667	78.69
230.901	69.69
231.136	63.69
231.37	83.69
231.604	76.69
231.838	62.69
232.072	80.69
232.306	65.69
232.541	74.69
232.775	93.69
233.009	78.69
233.243	79.69
233.477	83.69
233.711	90.69
233.945	68.69
234.179	83.69
234.413	73.69
234.647	76.69
234.881	73.69
235.115	79.69
235.349	73.69
235.583	70.69
235.817	86.69
236.051	76.69
236.285	72.69
236.519	72.69
236.753	68.69
236.987	85.69
237.221	96.69
237.455	111.69
237.689	77.69
237.922	81.69
238.156	75.69
238.39	69.69
238.624	83.69
238.858	74.69
239.091	75.69
239.325	73.69
239.559	82.69
239.793	82.69
240.027	70.69
240.26	82.69
240.494	74.69
240.728	75.69
240.961	78.69
241.195	85.69
241.429	80.69
241.662	74.69
241.896	79.69
242.13	78.69
242.363	67.69
242.597	72.69
242.83	64.69
243.064	73.69
243.298	85.69
243.531	95.69
243.765	82.69
243.998	86.69
244.232	88.69
244.465	90.69
244.699	97.69
244.932	76.69
245.166	68.69
245.399	75.69
245.633	79.69
245.866	72.69
246.099	80.69
246.333	91.69
246.566	71.69
246.8	74.69
247.033	85.69
247.266	86.69
247.5	68.69
247.733	83.69
247.966	85.69
248.2	88.69
248.433	92.69
248.666	74.69
248.899	74.69
249.133	83.69
249.366	106.69
249.599	105.69
249.832	95.69
250.066	79.69
250.299	97.69
250.532	108.69
250.765	89.69
250.998	82.69
251.231	93.69
251.465	80.69
251.698	88.69
251.931	80.69
252.164	87.69
252.397	70.69
252.63	80.69
252.863	85.69
253.096	79.69
253.329	97.69
253.562	76.69
253.795	72.69
254.028	78.69
254.261	67.69
254.494	78.69
254.727	77.69
254.96	87.69
255.193	87.69
255.426	81.69
255.659	88.69
255.892	91.69
256.124	104.69
256.357	86.69
256.59	68.69
256.823	75.69
257.056	94.69
257.289	110.69
257.521	88.69
257.754	94.69
257.987	78.69
258.22	85.69
258.452	99.69
258.685	87.69
258.918	78.69
259.151	83.69
259.383	101.69
259.616	77.69
259.849	89.69
260.081	85.69
260.314	87.69
260.547	91.69
260.779	100.69
261.012	124.69
261.244	111.69
261.477	99.69
261.71	116.69
261.942	150.69
262.175	178.69
262.407	101.69
262.64	95.69
262.872	91.69
263.105	82.69
263.337	87.69
263.57	91.69
263.802	76.69
264.035	78.69
264.267	78.69
264.499	88.69
264.732	75.69
264.964	73.69
265.197	75.69
265.429	94.69
265.661	83.69
265.894	79.69
266.126	87.69
266.358	85.69
266.591	83.69
266.823	76.69
267.055	89.69
267.287	91.69
267.52	81.69
267.752	85.69
267.984	77.69
268.216	85.69
268.448	76.69
268.681	89.69
268.913	83.69
269.145	93.69
269.377	74.69
269.609	74.69
269.841	85.69
270.073	84.69
270.306	90.69
270.538	90.69
270.77	84.69
271.002	99.69
271.234	95.69
271.466	92.69
271.698	91.69
271.93	76.69
272.162	74.69
272.394	90.69
272.626	89.69
272.858	85.69
273.09	84.69
273.322	86.69
273.553	94.69
273.785	99.69
274.017	76.69
274.249	86.69
274.481	87.69
274.713	86.69
274.945	81.69
275.176	90.69
275.408	104.69
275.64	139.69
275.872	132.69
276.104	101.69
276.335	106.69
276.567	139.69
276.799	170.69
277.031	216.69
277.262	258.69
277.494	180.69
277.726	109.69
277.957	96.69
278.189	100.69
278.421	97.69
278.652	96.69
278.884	110.69
279.115	91.69
279.347	95.69
279.579	108.69
279.81	152.69
280.042	244.69
280.273	360.69
280.505	235.69
280.736	117.69
280.968	95.69
281.199	82.69
281.431	89.69
281.662	107.69
281.894	94.69
282.125	110.69
282.356	154.69
282.588	196.69
282.819	146.69
283.051	99.69
283.282	83.69
283.513	86.69
283.745	71.69
283.976	82.69
284.207	82.69
284.439	88.69
284.67	103.69
284.901	73.69
285.132	103.69
285.364	92.69
285.595	87.69
285.826	95.69
286.057	94.69
286.288	90.69
286.52	75.69
286.751	85.69
286.982	100.69
287.213	85.69
287.444	80.69
287.675	100.69
287.906	86.69
288.138	82.69
288.369	91.69
288.6	85.69
288.831	93.69
289.062	91.69
289.293	71.69
289.524	88.69
289.755	94.69
289.986	92.69
290.217	103.69
290.448	87.69
290.679	79.69
290.91	86.69
291.141	82.69
291.371	84.69
291.602	86.69
291.833	72.69
292.064	77.69
292.295	101.69
292.526	90.69
292.757	100.69
292.987	98.69
293.218	90.69
293.449	81.69
293.68	84.69
293.91	96.69
294.141	92.69
294.372	99.69
294.603	84.69
294.833	81.69
295.064	90.69
295.295	99.69
295.525	90.69
295.756	96.69
295.987	149.69
296.217	194.69
296.448	159.69
296.679	107.69
296.909	89.69
297.14	86.69
297.37	82.69
297.601	93.69
297.831	87.69
298.062	90.69
298.292	90.69
298.523	79.69
298.753	90.69
298.984	91.69
299.214	95.69
299.445	85.69
299.675	85.69
299.905	93.69
300.136	84.69
300.366	91.69
300.597	93.69
300.827	84.69
301.057	115.69
301.288	128.69
301.518	111.69
301.748	108.69
301.979	130.69
302.209	109.69
302.439	104.69
302.669	80.69
302.9	99.69
303.13	100.69
303.36	124.69
303.59	160.69
303.82	172.69
304.051	107.69
304.281	102.69
304.511	110.69
304.741	102.69
304.971	86.69
305.201	102.69
305.431	92.69
305.661	97.69
305.891	106.69
306.121	96.69
306.352	102.69
306.582	135.69
306.812	114.69
307.042	145.69
307.272	187.69
307.502	215.69
307.731	204.69
307.961	157.69
308.191	96.69
308.421	99.69
308.651	86.69
308.881	84.69
309.111	97.69
309.341	96.69
309.571	93.69
309.8	105.69
310.03	114.69
310.26	116.69
310.49	102.69
310.72	114.69
310.949	122.69
311.179	123.69
311.409	99.69
311.639	98.69
311.868	108.69
312.098	106.69
312.328	117.69
312.557	120.69
312.787	137.69
313.017	125.69
313.246	99.69
313.476	102.69
313.706	87.69
313.935	102.69
314.165	108.69
314.394	132.69
314.624	107.69
314.853	103.69
315.083	101.69
315.312	105.69
315.542	76.69
315.771	97.69
316.001	88.69
316.23	93.69
316.46	82.69
316.689	98.69
316.919	109.69
317.148	120.69
317.377	111.69
317.607	100.69
317.836	109.69
318.065	95.69
318.295	96.69
318.524	94.69
318.753	98.69
318.983	92.69
319.212	109.69
319.441	134.69
319.67	127.69
319.9	97.69
320.129	90.69
320.358	109.69
320.587	113.69
320.816	120.69
321.046	112.69
321.275	106.69
321.504	103.69
321.733	96.69
321.962	99.69
322.191	116.69
322.42	132.69
322.649	131.69
322.878	124.69
323.108	150.69
323.337	151.69
323.566	187.69
323.795	224.69
324.024	279.69
324.253	591.69
324.482	1248.69
324.71	2656.69
324.939	3529.69
325.168	1276.69
325.397	350.69
325.626	181.69
325.855	166.69
326.084	161.69
326.313	159.69
326.542	189.69
326.77	316.69
326.999	625.69
327.228	1315.69
327.457	2460.69
327.686	2046.69
327.914	699.69
328.143	760.69
328.372	969.69
328.6	478.69
328.829	226.69
329.058	234.69
329.287	268.69
329.515	232.69
329.744	333.69
329.972	674.69
330.201	1470.69
330.43	2099.69
330.658	908.69
330.887	402.69
331.115	248.69
331.344	142.69
331.572	127.69
331.801	129.69
332.03	144.69
332.258	121.69
332.486	134.69
332.715	116.69
332.943	132.69
333.172	132.69
333.4	146.69
333.629	198.69
333.857	293.69
334.085	619.69
334.314	1315.69
334.542	2632.69
334.771	2429.69
334.999	595.69
335.227	202.69
335.455	152.69
335.684	122.69
335.912	117.69
336.14	111.69
336.369	119.69
336.597	127.69
336.825	124.69
337.053	97.69
337.281	88.69
337.51	102.69
337.738	111.69
337.966	100.69
338.194	93.69
338.422	114.69
338.65	113.69
338.878	94.69
339.106	90.69
339.334	92.69
339.562	94.69
339.79	109.69
340.018	100.69
340.246	102.69
340.474	102.69
340.702	93.69
340.93	99.69
341.158	95.69
341.386	116.69
341.614	111.69
341.842	102.69
342.07	85.69
342.298	92.69
342.526	88.69
342.754	75.69
342.981	106.69
343.209	82.69
343.437	93.69
343.665	90.69
343.893	83.69
344.12	93.69
344.348	89.69
344.576	103.69
344.804	96.69
345.031	109.69
345.259	93.69
345.487	106.69
345.714	94.69
345.942	100.69
346.17	92.69
346.397	98.69
346.625	96.69
346.853	89.69
347.08	93.69
347.308	86.69
347.535	117.69
347.763	101.69
347.99	109.69
348.218	103.69
348.445	140.69
348.673	122.69
348.9	107.69
349.128	94.69
349.355	97.69
349.583	99.69
349.81	103.69
350.037	107.69
350.265	108.69
350.492	92.69
350.72	107.69
350.947	109.69
351.174	120.69
351.402	146.69
351.629	109.69
351.856	107.69
352.083	130.69
352.311	130.69
352.538	149.69
352.765	112.69
352.992	121.69
353.22	116.69
353.447	86.69
353.674	100.69
353.901	88.69
354.128	91.69
354.355	95.69
354.583	107.69
354.81	87.69
355.037	97.69
355.264	80.69
355.491	87.69
355.718	91.69
355.945	89.69
356.172	93.69
356.399	93.69
356.626	84.69
356.853	91.69
357.08	80.69
357.307	101.69
357.534	80.69
357.761	87.69
357.988	102.69
358.215	92.69
358.441	95.69
358.668	87.69
358.895	92.69
359.122	92.69
359.349	83.69
359.576	84.69
359.802	110.69
360.029	148.69
360.256	170.69
360.483	125.69
360.709	86.69
360.936	104.69
361.163	105.69
361.39	112.69
361.616	106.69
361.843	85.69
362.07	103.69
362.296	118.69
362.523	108.69
362.749	111.69
362.976	90.69
363.203	92.69
363.429	90.69
363.656	97.69
363.882	84.69
364.109	92.69
364.335	89.69
364.562	83.69
364.788	108.69
365.015	99.69
365.241	111.69
365.468	130.69
365.694	135.69
365.92	122.69
366.147	101.69
366.373	105.69
366.599	92.69
366.826	95.69
367.052	95.69
367.278	101.69
367.505	81.69
367.731	96.69
367.957	86.69
368.184	102.69
368.41	111.69
368.636	136.69
368.862	153.69
369.089	144.69
369.315	111.69
369.541	95.69
369.767	102.69
369.993	107.69
370.219	90.69
370.445	96.69
370.672	89.69
370.898	82.69
371.124	82.69
371.35	63.69
371.576	78.69
371.802	83.69
372.028	85.69
372.254	77.69
372.48	91.69
372.706	83.69
372.932	90.69
373.158	88.69
373.384	108.69
373.61	106.69
373.835	88.69
374.061	84.69
374.287	102.69
374.513	79.69
374.739	98.69
374.965	79.69
375.191	93.69
375.416	75.69
375.642	85.69
375.868	77.69
376.094	85.69
376.319	88.69
376.545	87.69
376.771	80.69
376.997	84.69
377.222	87.69
377.448	87.69
377.674	91.69
377.899	74.69
378.125	80.69
378.35	81.69
378.576	92.69
378.802	79.69
379.027	96.69
379.253	92.69
379.478	95.69
379.704	73.69
379.929	102.69
380.155	105.69
380.38	90.69
380.606	91.69
380.831	79.69
381.057	85.69
381.282	80.69
381.507	87.69
381.733	91.69
381.958	86.69
382.184	92.69
382.409	102.69
382.634	108.69
382.86	90.69
383.085	94.69
383.31	83.69
383.535	100.69
383.761	90.69
383.986	91.69
384.211	90.69
384.436	103.69
384.662	92.69
384.887	90.69
385.112	91.69
385.337	94.69
385.562	78.69
385.787	112.69
386.013	120.69
386.238	123.69
386.463	88.69
386.688	112.69
386.913	93.69
387.138	97.69
387.363	100.69
387.588	88.69
387.813	78.69
388.038	93.69
388.263	107.69
388.488	109.69
388.713	86.69
388.938	98.69
389.163	76.69
389.387	102.69
389.612	79.69
389.837	94.69
390.062	111.69
390.287	107.69
390.512	105.69
390.736	83.69
390.961	86.69
391.186	92.69
391.411	95.69
391.636	79.69
391.86	93.69
392.085	85.69
392.31	79.69
392.534	96.69
392.759	88.69
392.984	96.69
393.208	88.69
393.433	82.69
393.658	87.69
393.882	82.69
394.107	72.69
394.331	86.69
394.556	82.69
394.78	88.69
395.005	80.69
395.229	70.69
395.454	88.69
395.678	87.69
395.903	84.69
396.127	87.69
396.352	72.69
396.576	95.69
396.801	81.69
397.025	84.69
397.249	94.69
397.474	91.69
397.698	93.69
397.922	87.69
398.147	82.69
398.371	85.69
398.595	85.69
398.82	77.69
399.044	83.69
399.268	74.69
399.492	84.69
399.717	100.69
399.941	98.69
400.165	87.69
400.389	90.69
400.613	80.69
400.837	84.69
401.062	82.69
401.286	82.69
401.51	91.69
401.734	108.69
401.958	119.69
402.182	164.69
402.406	235.69
402.63	172.69
402.854	107.69
403.078	91.69
403.302	89.69
403.526	96.69
403.75	88.69
403.974	75.69
404.198	84.69
404.422	84.69
404.645	97.69
404.869	98.69
405.093	124.69
405.317	166.69
405.541	164.69
405.765	130.69
405.988	148.69
406.212	268.69
406.436	411.69
406.66	261.69
406.883	137.69
407.107	115.69
407.331	97.69
407.555	112.69
407.778	101.69
408.002	93.69
408.226	98.69
408.449	103.69
408.673	87.69
408.896	90.69
409.12	101.69
409.344	93.69
409.567	87.69
409.791	78.69
410.014	107.69
410.238	104.69
410.461	93.69
410.685	100.69
410.908	100.69
411.132	105.69
411.355	115.69
411.578	95.69
411.802	94.69
412.025	98.69
412.249	98.69
412.472	133.69
412.695	166.69
412.919	123.69
413.142	83.69
413.365	106.69
413.589	87.69
413.812	87.69
414.035	95.69
414.258	86.69
414.482	82.69
414.705	86.69
414.928	80.69
415.151	84.69
415.374	96.69
415.597	95.69
415.821	81.69
416.044	104.69
416.267	104.69
416.49	76.69
416.713	85.69
416.936	86.69
417.159	100.69
417.382	92.69
417.605	104.69
417.828	118.69
418.051	105.69
418.274	92.69
418.497	87.69
418.72	77.69
418.943	83.69
419.166	93.69
419.389	91.69
419.611	90.69
419.834	85.69
420.057	96.69
420.28	85.69
420.503	82.69
420.726	89.69
420.948	95.69
421.171	107.69
421.394	102.69
421.617	98.69
421.839	98.69
422.062	86.69
422.285	95.69
422.507	100.69
422.73	110.69
422.953	118.69
423.175	84.69
423.398	88.69
423.621	87.69
423.843	90.69
424.066	80.69
424.288	89.69
424.511	96.69
424.733	104.69
424.956	134.69
425.178	130.69
425.401	123.69
425.623	115.69
425.846	100.69
426.068	111.69
426.291	102.69
426.513	94.69
426.735	100.69
426.958	109.69
427.18	148.69
427.402	192.69
427.625	338.69
427.847	292.69
428.069	242.69
428.292	135.69
428.514	99.69
428.736	80.69
428.958	78.69
429.181	82.69
429.403	87.69
429.625	83.69
429.847	103.69
430.069	103.69
430.292	109.69
430.514	87.69
430.736	88.69
430.958	89.69
431.18	80.69
431.402	83.69
431.624	91.69
431.846	86.69
432.068	84.69
432.29	85.69
432.512	90.69
432.734	93.69
432.956	94.69
433.178	91.69
433.4	107.69
433.622	88.69
433.844	82.69
434.066	99.69
434.287	88.69
434.509	82.69
434.731	96.69
434.953	96.69
435.175	88.69
435.397	87.69
435.618	99.69
435.84	111.69
436.062	152.69
436.284	152.69
436.505	124.69
436.727	113.69
436.949	100.69
437.17	76.69
437.392	102.69
437.614	102.69
437.835	139.69
438.057	189.69
438.278	164.69
438.5	130.69
438.721	173.69
438.943	115.69
439.165	90.69
439.386	87.69
439.608	81.69
439.829	114.69
440.05	173.69
440.272	216.69
440.493	118.69
440.715	94.69
440.936	85.69
441.158	97.69
441.379	96.69
441.6	88.69
441.822	103.69
442.043	109.69
442.264	134.69
442.486	123.69
442.707	106.69
442.928	136.69
443.149	204.69
443.371	207.69
443.592	148.69
443.813	149.69
444.034	135.69
444.255	100.69
444.476	93.69
444.698	80.69
444.919	84.69
445.14	123.69
445.361	125.69
445.582	154.69
445.803	240.69
446.024	210.69
446.245	194.69
446.466	145.69
446.687	111.69
446.908	102.69
447.129	94.69
447.35	101.69
447.571	96.69
447.792	96.69
448.013	105.69
448.234	133.69
448.455	114.69
448.675	137.69
448.896	157.69
449.117	106.69
449.338	120.69
449.559	156.69
449.779	177.69
450	87.69
450.221	94.69
450.442	96.69
450.662	102.69
450.883	131.69
451.104	158.69
451.324	106.69
451.545	109.69
451.766	86.69
451.986	91.69
452.207	96.69
452.428	94.69
452.648	132.69
452.869	128.69
453.089	169.69
453.31	174.69
453.53	120.69
453.751	101.69
453.971	147.69
454.192	163.69
454.412	109.69
454.633	84.69
454.853	85.69
455.073	92.69
455.294	95.69
455.514	105.69
455.734	104.69
455.955	104.69
456.175	90.69
456.395	87.69
456.616	86.69
456.836	76.69
457.056	90.69
457.276	79.69
457.497	105.69
457.717	89.69
457.937	90.69
458.157	102.69
458.377	90.69
458.598	137.69
458.818	264.69
459.038	286.69
459.258	180.69
459.478	110.69
459.698	84.69
459.918	99.69
460.138	88.69
460.358	92.69
460.578	87.69
460.798	94.69
461.018	94.69
461.238	102.69
461.458	78.69
461.678	93.69
461.898	93.69
462.118	92.69
462.338	87.69
462.558	83.69
462.777	93.69
462.997	107.69
463.217	113.69
463.437	111.69
463.657	93.69
463.876	98.69
464.096	89.69
464.316	118.69
464.536	106.69
464.755	118.69
464.975	142.69
465.195	297.69
465.414	313.69
465.634	108.69
465.854	84.69
466.073	87.69
466.293	84.69
466.512	88.69
466.732	87.69
466.951	82.69
467.171	94.69
467.391	124.69
467.61	172.69
467.829	262.69
468.049	806.69
468.268	1233.69
468.488	288.69
468.707	124.69
468.927	100.69
469.146	92.69
469.365	86.69
469.585	92.69
469.804	118.69
470.023	106.69
470.243	131.69
470.462	127.69
470.681	159.69
470.901	117.69
471.12	111.69
471.339	110.69
471.558	137.69
471.777	178.69
471.997	386.69
472.216	1580.69
472.435	3758.69
472.654	818.69
472.873	192.69
473.092	119.69
473.311	89.69
473.53	104.69
473.749	108.69
473.968	99.69
474.187	145.69
474.406	111.69
474.625	96.69
474.844	100.69
475.063	87.69
475.282	110.69
475.501	82.69
475.72	93.69
475.939	96.69
476.158	93.69
476.377	90.69
476.596	108.69
476.814	90.69
477.033	112.69
477.252	86.69
477.471	91.69
477.69	84.69
477.908	90.69
478.127	96.69
478.346	96.69
478.564	100.69
478.783	112.69
479.002	127.69
479.22	117.69
479.439	160.69
479.658	141.69
479.876	143.69
480.095	141.69
480.313	161.69
480.532	181.69
480.751	347.69
480.969	1363.69
481.188	6270.69
481.406	3469.69
481.624	463.69
481.843	148.69
482.061	124.69
482.28	102.69
482.498	103.69
482.717	95.69
482.935	87.69
483.153	83.69
483.372	106.69
483.59	108.69
483.808	89.69
484.027	88.69
484.245	94.69
484.463	103.69
484.681	101.69
484.9	90.69
485.118	92.69
485.336	98.69
485.554	84.69
485.772	101.69
485.99	109.69
486.209	103.69
486.427	102.69
486.645	120.69
486.863	133.69
487.081	115.69
487.299	100.69
487.517	94.69
487.735	107.69
487.953	108.69
488.171	89.69
488.389	93.69
488.607	111.69
488.825	102.69
489.043	86.69
489.261	107.69
489.479	92.69
489.696	91.69
489.914	84.69
490.132	86.69
490.35	90.69
490.568	98.69
490.786	83.69
491.003	92.69
491.221	95.69
491.439	112.69
491.657	93.69
491.874	95.69
492.092	91.69
492.31	90.69
492.527	87.69
492.745	103.69
492.963	88.69
493.18	90.69
493.398	103.69
493.615	89.69
493.833	100.69
494.05	93.69
494.268	98.69
494.485	89.69
494.703	87.69
494.92	84.69
495.138	88.69
495.355	97.69
495.573	96.69
495.79	87.69
496.008	94.69
496.225	82.69
496.442	93.69
496.66	95.69
496.877	93.69
497.094	86.69
497.312	91.69
497.529	95.69
497.746	87.69
497.963	94.69
498.181	100.69
498.398	108.69
498.615	117.69
498.832	115.69
499.049	87.69
499.267	109.69
499.484	100.69
499.701	84.69
499.918	94.69
500.135	85.69
500.352	100.69
500.569	97.69
500.786	107.69
501.003	85.69
501.22	83.69
501.437	91.69
501.654	119.69
501.871	135.69
502.088	93.69
502.305	102.69
502.522	101.69
502.739	75.69
502.956	79.69
503.172	85.69
503.389	107.69
503.606	150.69
503.823	125.69
504.04	95.69
504.256	96.69
504.473	91.69
504.69	85.69
504.907	99.69
505.123	85.69
505.34	86.69
505.557	90.69
505.773	92.69
505.99	106.69
506.207	80.69
506.423	89.69
506.64	88.69
506.856	90.69
507.073	89.69
507.289	92.69
507.506	107.69
507.722	148.69
507.939	169.69
508.155	107.69
508.372	111.69
508.588	87.69
508.805	104.69
509.021	105.69
509.238	96.69
509.454	115.69
509.67	102.69
509.887	127.69
510.103	145.69
510.319	272.69
510.536	1118.69
510.752	4104.69
510.968	1082.69
511.184	214.69
511.401	138.69
511.617	112.69
511.833	123.69
512.049	100.69
512.265	104.69
512.481	97.69
