Data from Circ_1997_H10_HRD10591_00049.txt Node
Date: Wed Jan 03 11:29:37 EST 2024
User: Yrep
Spectrometer: HR+D1059
Trigger mode: 1
Integration Time (sec): 1.000000E-1
Scans to average: 1
Electric dark correction enabled: true
Nonlinearity correction enabled: false
Boxcar width: 0
XAxis mode: Wavelengths
Number of Pixels in Spectrum: 2048
>>>>>Begin Spectral Data<<<<<
223.165	-16.31
223.4	-16.31
223.635	-16.31
223.869	-24.31
224.104	-15.31
224.338	-12.31
224.573	-4.31
224.808	-9.31
225.042	-19.31
225.277	-3.31
225.511	-5.31
225.746	-3.31
225.98	16.69
226.215	17.69
226.449	17.69
226.683	10.69
226.918	17.69
227.152	32.69
227.387	14.69
227.621	53.69
227.856	39.69
228.09	44.69
228.324	47.69
228.559	46.69
228.793	163.69
229.027	457.69
229.262	552.69
229.496	639.69
229.73	843.69
229.964	863.69
230.199	576.69
230.433	503.69
230.667	491.69
230.901	467.69
231.136	484.69
231.37	479.69
231.604	487.69
231.838	480.69
232.072	477.69
232.306	480.69
232.541	462.69
232.775	492.69
233.009	494.69
233.243	511.69
233.477	506.69
233.711	519.69
233.945	529.69
234.179	526.69
234.413	553.69
234.647	526.69
234.881	555.69
235.115	567.69
235.349	577.69
235.583	589.69
235.817	630.69
236.051	677.69
236.285	640.69
236.519	663.69
236.753	738.69
236.987	963.69
237.221	1439.69
237.455	1561.69
237.689	927.69
237.922	760.69
238.156	761.69
238.39	700.69
238.624	701.69
238.858	700.69
239.091	697.69
239.325	744.69
239.559	753.69
239.793	765.69
240.027	850.69
240.26	1003.69
240.494	1020.69
240.728	1003.69
240.961	929.69
241.195	887.69
241.429	865.69
241.662	829.69
241.896	845.69
242.13	863.69
242.363	861.69
242.597	902.69
242.83	921.69
243.064	945.69
243.298	939.69
243.531	935.69
243.765	946.69
243.998	934.69
244.232	982.69
244.465	999.69
244.699	1045.69
244.932	1004.69
245.166	1006.69
245.399	999.69
245.633	1020.69
245.866	1007.69
246.099	1027.69
246.333	1052.69
246.566	1061.69
246.8	1079.69
247.033	1107.69
247.266	1163.69
247.5	1217.69
247.733	1267.69
247.966	1254.69
248.2	1263.69
248.433	1267.69
248.666	1363.69
248.899	1512.69
249.133	1635.69
249.366	1673.69
249.599	1613.69
249.832	1613.69
250.066	1873.69
250.299	2517.69
250.532	3269.69
250.765	3067.69
250.998	2597.69
251.231	2115.69
251.465	1835.69
251.698	1736.69
251.931	1693.69
252.164	1637.69
252.397	1633.69
252.63	1631.69
252.863	1716.69
253.096	1859.69
253.329	1900.69
253.562	1823.69
253.795	1782.69
254.028	1795.69
254.261	1835.69
254.494	2032.69
254.727	2377.69
254.96	2466.69
255.193	2313.69
255.426	2448.69
255.659	2998.69
255.892	4531.69
256.124	5903.69
256.357	4853.69
256.59	3360.69
256.823	2737.69
257.056	2360.69
257.289	2193.69
257.521	2112.69
257.754	2030.69
257.987	1946.69
258.22	1910.69
258.452	1899.69
258.685	1876.69
258.918	1810.69
259.151	1878.69
259.383	1916.69
259.616	1904.69
259.849	1983.69
260.081	2180.69
260.314	2265.69
260.547	2216.69
260.779	2029.69
261.012	1985.69
261.244	1984.69
261.477	1919.69
261.71	1968.69
261.942	2002.69
262.175	2041.69
262.407	1943.69
262.64	1851.69
262.872	1854.69
263.105	1869.69
263.337	1877.69
263.57	1853.69
263.802	1873.69
264.035	1863.69
264.267	1861.69
264.499	1862.69
264.732	1901.69
264.964	1908.69
265.197	1905.69
265.429	1929.69
265.661	1924.69
265.894	1961.69
266.126	1968.69
266.358	1977.69
266.591	1974.69
266.823	2085.69
267.055	2069.69
267.287	2052.69
267.52	2011.69
267.752	2016.69
267.984	2090.69
268.216	2118.69
268.448	2148.69
268.681	2165.69
268.913	2315.69
269.145	2479.69
269.377	2549.69
269.609	2439.69
269.841	2414.69
270.073	2525.69
270.306	2800.69
270.538	2846.69
270.77	2743.69
271.002	2614.69
271.234	2614.69
271.466	2776.69
271.698	2910.69
271.93	2934.69
272.162	2887.69
272.394	2843.69
272.626	2665.69
272.858	2591.69
273.09	2511.69
273.322	2482.69
273.553	2497.69
273.785	2475.69
274.017	2496.69
274.249	2564.69
274.481	2593.69
274.713	2611.69
274.945	2652.69
275.176	2637.69
275.408	2676.69
275.64	2768.69
275.872	2797.69
276.104	2799.69
276.335	2841.69
276.567	3001.69
276.799	3183.69
277.031	3629.69
277.262	3857.69
277.494	3572.69
277.726	3252.69
277.957	3080.69
278.189	3002.69
278.421	2899.69
278.652	2890.69
278.884	2917.69
279.115	2861.69
279.347	2918.69
279.579	3022.69
279.81	3160.69
280.042	3438.69
280.273	3719.69
280.505	3523.69
280.736	3215.69
280.968	3054.69
281.199	2995.69
281.431	2967.69
281.662	2920.69
281.894	2894.69
282.125	2997.69
282.356	3193.69
282.588	3321.69
282.819	3073.69
283.051	2955.69
283.282	2841.69
283.513	2893.69
283.745	2982.69
283.976	2998.69
284.207	2991.69
284.439	2992.69
284.67	2965.69
284.901	2977.69
285.132	2991.69
285.364	2960.69
285.595	2990.69
285.826	3038.69
286.057	3085.69
286.288	3000.69
286.52	3055.69
286.751	3033.69
286.982	3049.69
287.213	3031.69
287.444	3064.69
287.675	3177.69
287.906	3238.69
288.138	3173.69
288.369	3281.69
288.6	3232.69
288.831	3203.69
289.062	3164.69
289.293	3175.69
289.524	3171.69
289.755	3152.69
289.986	3160.69
290.217	3149.69
290.448	3147.69
290.679	3144.69
290.91	3164.69
291.141	3115.69
291.371	3086.69
291.602	3116.69
291.833	3115.69
292.064	3077.69
292.295	3113.69
292.526	3101.69
292.757	3039.69
292.987	3099.69
293.218	3079.69
293.449	3091.69
293.68	3102.69
293.91	3091.69
294.141	3126.69
294.372	3105.69
294.603	3086.69
294.833	3170.69
295.064	3124.69
295.295	3167.69
295.525	3169.69
295.756	3225.69
295.987	3312.69
296.217	3537.69
296.448	3432.69
296.679	3244.69
296.909	3200.69
297.14	3222.69
297.37	3279.69
297.601	3339.69
297.831	3321.69
298.062	3343.69
298.292	3383.69
298.523	3400.69
298.753	3438.69
298.984	3361.69
299.214	3341.69
299.445	3392.69
299.675	3445.69
299.905	3456.69
300.136	3419.69
300.366	3469.69
300.597	3517.69
300.827	3542.69
301.057	3682.69
301.288	3667.69
301.518	3710.69
301.748	3715.69
301.979	3793.69
302.209	3771.69
302.439	3813.69
302.669	3686.69
302.9	3652.69
303.13	3644.69
303.36	3677.69
303.59	3817.69
303.82	3962.69
304.051	3836.69
304.281	3729.69
304.511	3602.69
304.741	3614.69
304.971	3642.69
305.201	3643.69
305.431	3603.69
305.661	3647.69
305.891	3565.69
306.121	3592.69
306.352	3656.69
306.582	3696.69
306.812	3578.69
307.042	3814.69
307.272	4020.69
307.502	4101.69
307.731	4007.69
307.961	3796.69
308.191	3768.69
308.421	3735.69
308.651	3780.69
308.881	3677.69
309.111	3709.69
309.341	3712.69
309.571	3851.69
309.8	3830.69
310.03	4050.69
310.26	4011.69
310.49	3993.69
310.72	4243.69
310.949	4278.69
311.179	4221.69
311.409	4099.69
311.639	4113.69
311.868	4103.69
312.098	4078.69
312.328	4277.69
312.557	4444.69
312.787	4585.69
313.017	4397.69
313.246	4223.69
313.476	4100.69
313.706	4118.69
313.935	4195.69
314.165	4431.69
314.394	4409.69
314.624	4384.69
314.853	4248.69
315.083	4168.69
315.312	4159.69
315.542	4137.69
315.771	4102.69
316.001	4038.69
316.23	4025.69
316.46	4092.69
316.689	4135.69
316.919	4197.69
317.148	4246.69
317.377	4238.69
317.607	4218.69
317.836	4207.69
318.065	4174.69
318.295	4149.69
318.524	4135.69
318.753	4167.69
318.983	4195.69
319.212	4150.69
319.441	4244.69
319.67	4281.69
319.9	4191.69
320.129	4158.69
320.358	4256.69
320.587	4209.69
320.816	4353.69
321.046	4352.69
321.275	4329.69
321.504	4389.69
321.733	4491.69
321.962	4494.69
322.191	4564.69
322.42	4725.69
322.649	4919.69
322.878	5029.69
323.108	5085.69
323.337	5457.69
323.566	5673.69
323.795	6067.69
324.024	6779.69
324.253	9225.69
324.482	13611.69
324.71	15617.69
324.939	15617.69
325.168	14617.69
325.397	7895.69
325.626	6450.69
325.855	5996.69
326.084	5860.69
326.313	5988.69
326.542	6251.69
326.77	7132.69
326.999	9273.69
327.228	13404.69
327.457	15617.69
327.686	15617.69
327.914	11833.69
328.143	11309.69
328.372	11989.69
328.6	9565.69
328.829	8136.69
329.058	8286.69
329.287	8404.69
329.515	8683.69
329.744	9939.69
329.972	12815.69
330.201	15380.69
330.43	15617.69
330.658	13364.69
330.887	10065.69
331.115	8439.69
331.344	7354.69
331.572	6988.69
331.801	7027.69
332.03	6899.69
332.258	6859.69
332.486	6917.69
332.715	7175.69
332.943	7473.69
333.172	7989.69
333.4	8624.69
333.629	9472.69
333.857	11359.69
334.085	13844.69
334.314	15617.69
334.542	15617.69
334.771	15617.69
334.999	13588.69
335.227	9562.69
335.455	8115.69
335.684	7299.69
335.912	6889.69
336.14	6575.69
336.369	6286.69
336.597	6355.69
336.825	6085.69
337.053	5981.69
337.281	5839.69
337.51	5660.69
337.738	5592.69
337.966	5608.69
338.194	5532.69
338.422	5387.69
338.65	5318.69
338.878	5219.69
339.106	5133.69
339.334	5172.69
339.562	5092.69
339.79	4936.69
340.018	5013.69
340.246	5022.69
340.474	5103.69
340.702	4998.69
340.93	4957.69
341.158	4893.69
341.386	4964.69
341.614	4956.69
341.842	4899.69
342.07	4830.69
342.298	4748.69
342.526	4775.69
342.754	4747.69
342.981	4766.69
343.209	4809.69
343.437	5108.69
343.665	5375.69
343.893	5555.69
344.12	5601.69
344.348	5390.69
344.576	5231.69
344.804	5148.69
345.031	5138.69
345.259	5044.69
345.487	4894.69
345.714	4842.69
345.942	4655.69
346.17	4711.69
346.397	4605.69
346.625	4616.69
346.853	4577.69
347.08	4596.69
347.308	4626.69
347.535	4798.69
347.763	4843.69
347.99	4767.69
348.218	4728.69
348.445	4862.69
348.673	4671.69
348.9	4597.69
349.128	4583.69
349.355	4448.69
349.583	4463.69
349.81	4483.69
350.037	4507.69
350.265	4461.69
350.492	4430.69
350.72	4476.69
350.947	4572.69
351.174	4634.69
351.402	4659.69
351.629	4599.69
351.856	4643.69
352.083	4769.69
352.311	4710.69
352.538	4759.69
352.765	4703.69
352.992	4671.69
353.22	4584.69
353.447	4497.69
353.674	4428.69
353.901	4378.69
354.128	4393.69
354.355	4338.69
354.583	4381.69
354.81	4278.69
355.037	4297.69
355.264	4293.69
355.491	4283.69
355.718	4270.69
355.945	4324.69
356.172	4273.69
356.399	4384.69
356.626	4294.69
356.853	4382.69
357.08	4231.69
357.307	4309.69
357.534	4285.69
357.761	4322.69
357.988	4346.69
358.215	4323.69
358.441	4372.69
358.668	4377.69
358.895	4417.69
359.122	4426.69
359.349	4551.69
359.576	4680.69
359.802	4972.69
360.029	5208.69
360.256	5215.69
360.483	4860.69
360.709	4631.69
360.936	4625.69
361.163	4607.69
361.39	4689.69
361.616	4592.69
361.843	4540.69
362.07	4589.69
362.296	4589.69
362.523	4537.69
362.749	4662.69
362.976	4594.69
363.203	4442.69
363.429	4407.69
363.656	4451.69
363.882	4434.69
364.109	4434.69
364.335	4422.69
364.562	4407.69
364.788	4357.69
365.015	4427.69
365.241	4442.69
365.468	4471.69
365.694	4509.69
365.92	4597.69
366.147	4508.69
366.373	4404.69
366.599	4407.69
366.826	4424.69
367.052	4352.69
367.278	4401.69
367.505	4365.69
367.731	4459.69
367.957	4402.69
368.184	4491.69
368.41	4525.69
368.636	4573.69
368.862	4616.69
369.089	4538.69
369.315	4477.69
369.541	4476.69
369.767	4534.69
369.993	4552.69
370.219	4596.69
370.445	4531.69
370.672	4584.69
370.898	4484.69
371.124	4608.69
371.35	4668.69
371.576	4619.69
371.802	4645.69
372.028	4578.69
372.254	4634.69
372.48	4592.69
372.706	4773.69
372.932	4768.69
373.158	4704.69
373.384	4656.69
373.61	4651.69
373.835	4725.69
374.061	4677.69
374.287	4759.69
374.513	4863.69
374.739	4933.69
374.965	5021.69
375.191	5037.69
375.416	4926.69
375.642	4795.69
375.868	4724.69
376.094	4691.69
376.319	4668.69
376.545	4668.69
376.771	4644.69
376.997	4655.69
377.222	4632.69
377.448	4606.69
377.674	4562.69
377.899	4525.69
378.125	4500.69
378.35	4519.69
378.576	4478.69
378.802	4604.69
379.027	4560.69
379.253	4545.69
379.478	4507.69
379.704	4532.69
379.929	4593.69
380.155	4659.69
380.38	4561.69
380.606	4640.69
380.831	4622.69
381.057	4676.69
381.282	4600.69
381.507	4611.69
381.733	4617.69
381.958	4729.69
382.184	4743.69
382.409	4751.69
382.634	4852.69
382.86	4877.69
383.085	4904.69
383.31	4977.69
383.535	5071.69
383.761	5099.69
383.986	5166.69
384.211	5280.69
384.436	5258.69
384.662	5355.69
384.887	5428.69
385.112	5455.69
385.337	5440.69
385.562	5502.69
385.787	5534.69
386.013	5607.69
386.238	5684.69
386.463	5706.69
386.688	5580.69
386.913	5481.69
387.138	5469.69
387.363	5447.69
387.588	5396.69
387.813	5495.69
388.038	5328.69
388.263	5507.69
388.488	5455.69
388.713	5471.69
388.938	5385.69
389.163	5434.69
389.387	5380.69
389.612	5351.69
389.837	5400.69
390.062	5358.69
390.287	5307.69
390.512	5500.69
390.736	5441.69
390.961	5605.69
391.186	5619.69
391.411	5832.69
391.636	6001.69
391.86	6083.69
392.085	6167.69
392.31	5980.69
392.534	5933.69
392.759	5853.69
392.984	5725.69
393.208	5681.69
393.433	5637.69
393.658	5585.69
393.882	5630.69
394.107	5789.69
394.331	5746.69
394.556	5723.69
394.78	5825.69
395.005	5875.69
395.229	5853.69
395.454	5991.69
395.678	6164.69
395.903	6088.69
396.127	6191.69
396.352	6024.69
396.576	5825.69
396.801	5754.69
397.025	5942.69
397.249	5987.69
397.474	6154.69
397.698	6207.69
397.922	6293.69
398.147	6436.69
398.371	6498.69
398.595	6732.69
398.82	6931.69
399.044	7551.69
399.268	8276.69
399.492	9324.69
399.717	9994.69
399.941	9791.69
400.165	9257.69
400.389	8531.69
400.613	7693.69
400.837	7132.69
401.062	7109.69
401.286	6931.69
401.51	6975.69
401.734	6949.69
401.958	6983.69
402.182	7214.69
402.406	7396.69
402.63	7375.69
402.854	7432.69
403.078	7511.69
403.302	7687.69
403.526	7849.69
403.75	7884.69
403.974	7989.69
404.198	8040.69
404.422	8271.69
404.645	8337.69
404.869	8744.69
405.093	9380.69
405.317	10038.69
405.541	9787.69
405.765	8824.69
405.988	8349.69
406.212	8270.69
406.436	8355.69
406.66	8438.69
406.883	8256.69
407.107	8881.69
407.331	9425.69
407.555	9889.69
407.778	9519.69
408.002	8731.69
408.226	8325.69
408.449	8323.69
408.673	8171.69
408.896	8272.69
409.12	8395.69
409.344	7962.69
409.567	7638.69
409.791	7604.69
410.014	7458.69
410.238	7427.69
410.461	7478.69
410.685	7527.69
410.908	7684.69
411.132	7865.69
411.355	7979.69
411.578	7543.69
411.802	7503.69
412.025	7813.69
412.249	8473.69
412.472	9127.69
412.695	10001.69
412.919	9047.69
413.142	8545.69
413.365	8088.69
413.589	7656.69
413.812	7341.69
414.035	7103.69
414.258	7224.69
414.482	7276.69
414.705	7083.69
414.928	7023.69
415.151	6946.69
415.374	7008.69
415.597	6989.69
415.821	6814.69
416.044	6847.69
416.267	6877.69
416.49	6773.69
416.713	6768.69
416.936	6893.69
417.159	6885.69
417.382	7134.69
417.605	7245.69
417.828	7482.69
418.051	7283.69
418.274	7071.69
418.497	6949.69
418.72	7092.69
418.943	7025.69
419.166	7539.69
419.389	8013.69
419.611	8027.69
419.834	7994.69
420.057	8254.69
420.28	8703.69
420.503	8454.69
420.726	8015.69
420.948	7851.69
421.171	8101.69
421.394	7773.69
421.617	7197.69
421.839	7109.69
422.062	7199.69
422.285	7337.69
422.507	7998.69
422.73	8477.69
422.953	7753.69
423.175	7527.69
423.398	7406.69
423.621	7399.69
423.843	7615.69
424.066	7623.69
424.288	7455.69
424.511	7726.69
424.733	8274.69
424.956	8758.69
425.178	8190.69
425.401	8413.69
425.623	8238.69
425.846	7177.69
426.068	7097.69
426.291	6991.69
426.513	7015.69
426.735	7150.69
426.958	7660.69
427.18	8454.69
427.402	10058.69
427.625	10603.69
427.847	10051.69
428.069	9913.69
428.292	8030.69
428.514	7018.69
428.736	6697.69
428.958	6489.69
429.181	6323.69
429.403	6202.69
429.625	6478.69
429.847	6796.69
430.069	7433.69
430.292	6737.69
430.514	6281.69
430.736	6150.69
430.958	6094.69
431.18	6034.69
431.402	5956.69
431.624	6038.69
431.846	6170.69
432.068	6077.69
432.29	6192.69
432.512	6051.69
432.734	6176.69
432.956	6112.69
433.178	6274.69
433.4	6273.69
433.622	6141.69
433.844	6142.69
434.066	6164.69
434.287	6278.69
434.509	6458.69
434.731	6689.69
434.953	6772.69
435.175	6911.69
435.397	7063.69
435.618	6926.69
435.84	7380.69
436.062	8445.69
436.284	8323.69
436.505	6876.69
436.727	6636.69
436.949	6288.69
437.17	6153.69
437.392	6090.69
437.614	6282.69
437.835	6831.69
438.057	7911.69
438.278	8465.69
438.5	8432.69
438.721	9230.69
438.943	7992.69
439.165	6648.69
439.386	6514.69
439.608	6628.69
439.829	6787.69
440.05	7267.69
440.272	7813.69
440.493	6891.69
440.715	6563.69
440.936	6440.69
441.158	6440.69
441.379	6604.69
441.6	6925.69
441.822	7254.69
442.043	7705.69
442.264	8540.69
442.486	8160.69
442.707	7229.69
442.928	7110.69
443.149	7387.69
443.371	7583.69
443.592	8176.69
443.813	9221.69
444.034	9123.69
444.255	7829.69
444.476	7664.69
444.698	7845.69
444.919	7937.69
445.14	7751.69
445.361	7751.69
445.582	8023.69
445.803	8794.69
446.024	9611.69
446.245	9109.69
446.466	7976.69
446.687	6750.69
446.908	6463.69
447.129	6120.69
447.35	6039.69
447.571	6039.69
447.792	5903.69
448.013	5991.69
448.234	6250.69
448.455	7022.69
448.675	8316.69
448.896	8772.69
449.117	7122.69
449.338	7237.69
449.559	8924.69
449.779	9068.69
450	6791.69
450.221	6067.69
450.442	5807.69
450.662	5835.69
450.883	5950.69
451.104	6113.69
451.324	5896.69
451.545	5750.69
451.766	5552.69
451.986	5356.69
452.207	5364.69
452.428	5411.69
452.648	5357.69
452.869	5427.69
453.089	5499.69
453.31	5623.69
453.53	5424.69
453.751	5368.69
453.971	5501.69
454.192	5645.69
454.412	5354.69
454.633	5230.69
454.853	5208.69
455.073	5272.69
455.294	5759.69
455.514	6339.69
455.734	5635.69
455.955	5113.69
456.175	5035.69
456.395	5042.69
456.616	4958.69
456.836	4964.69
457.056	4960.69
457.276	4925.69
457.497	5096.69
457.717	5124.69
457.937	5089.69
458.157	5255.69
458.377	5407.69
458.598	5847.69
458.818	6727.69
459.038	7547.69
459.258	7235.69
459.478	6428.69
459.698	6237.69
459.918	6260.69
460.138	6462.69
460.358	6646.69
460.578	6715.69
460.798	6747.69
461.018	6813.69
461.238	6664.69
461.458	6564.69
461.678	6543.69
461.898	6711.69
462.118	6785.69
462.338	7136.69
462.558	7309.69
462.777	7537.69
462.997	8216.69
463.217	8492.69
463.437	8413.69
463.657	7797.69
463.876	7673.69
464.096	7703.69
464.316	7728.69
464.536	7798.69
464.755	7471.69
464.975	7473.69
465.195	7920.69
465.414	8040.69
465.634	6922.69
465.854	6459.69
466.073	6179.69
466.293	5980.69
466.512	5870.69
466.732	5729.69
466.951	5767.69
467.171	5809.69
467.391	5932.69
467.61	6165.69
467.829	6639.69
468.049	8158.69
468.268	9924.69
468.488	7468.69
468.707	6382.69
468.927	6010.69
469.146	5869.69
469.365	5902.69
469.585	5855.69
469.804	6017.69
470.023	6236.69
470.243	6120.69
470.462	6269.69
470.681	6437.69
470.901	6229.69
471.12	6156.69
471.339	6192.69
471.558	6232.69
471.777	6511.69
471.997	7451.69
472.216	11500.69
472.435	15617.69
472.654	12503.69
472.873	8727.69
473.092	7503.69
473.311	6887.69
473.53	6527.69
473.749	6544.69
473.968	6949.69
474.187	7920.69
474.406	7279.69
474.625	6195.69
474.844	5884.69
475.063	5899.69
475.282	5842.69
475.501	5899.69
475.72	5872.69
475.939	5932.69
476.158	5854.69
476.377	5930.69
476.596	5967.69
476.814	6181.69
477.033	6201.69
477.252	6221.69
477.471	6350.69
477.69	6408.69
477.908	6521.69
478.127	6618.69
478.346	6696.69
478.564	6919.69
478.783	7000.69
479.002	7168.69
479.22	7197.69
479.439	7424.69
479.658	7633.69
479.876	7787.69
480.095	8037.69
480.313	8702.69
480.532	8959.69
480.751	9793.69
480.969	13370.69
481.188	15617.69
481.406	15617.69
481.624	14752.69
481.843	11359.69
482.061	9828.69
482.28	8911.69
482.498	8383.69
482.717	7987.69
482.935	7845.69
483.153	7548.69
483.372	7436.69
483.59	7254.69
483.808	7270.69
484.027	7154.69
484.245	7072.69
484.463	7096.69
484.681	7206.69
484.9	7211.69
485.118	7273.69
485.336	7267.69
485.554	7276.69
485.772	7369.69
485.99	7303.69
486.209	7392.69
486.427	7469.69
486.645	7546.69
486.863	7658.69
487.081	7511.69
487.299	7482.69
