Data from Circ_1997_H10_HRD10591_00017.txt Node
Date: Wed Jan 03 11:29:31 EST 2024
User: Yrep
Spectrometer: HR+D1059
Trigger mode: 1
Integration Time (sec): 1.000000E-1
Scans to average: 1
Electric dark correction enabled: true
Nonlinearity correction enabled: false
Boxcar width: 0
XAxis mode: Wavelengths
Number of Pixels in Spectrum: 2048
>>>>>Begin Spectral Data<<<<<
223.165	-14.12
223.4	-14.12
223.635	-14.12
223.869	-30.12
224.104	-22.12
224.338	-15.12
224.573	-7.12
224.808	-16.12
225.042	-8.12
225.277	-15.12
225.511	-11.12
225.746	10.88
225.98	1.88
226.215	16.88
226.449	13.88
226.683	31.88
226.918	28.88
227.152	34.88
227.387	28.88
227.621	33.88
227.856	34.88
228.09	36.88
228.324	72.88
228.559	53.88
228.793	53.88
229.027	56.88
229.262	66.88
229.496	62.88
229.73	76.88
229.964	78.88
230.199	81.88
230.433	71.88
230.667	79.88
230.901	75.88
231.136	80.88
231.37	75.88
231.604	77.88
231.838	89.88
232.072	78.88
232.306	89.88
232.541	87.88
232.775	64.88
233.009	74.88
233.243	73.88
233.477	79.88
233.711	70.88
233.945	81.88
234.179	81.88
234.413	76.88
234.647	85.88
234.881	93.88
235.115	66.88
235.349	68.88
235.583	77.88
235.817	74.88
236.051	82.88
236.285	68.88
236.519	80.88
236.753	79.88
236.987	92.88
237.221	85.88
237.455	73.88
237.689	71.88
237.922	69.88
238.156	69.88
238.39	79.88
238.624	73.88
238.858	76.88
239.091	77.88
239.325	70.88
239.559	81.88
239.793	79.88
240.027	73.88
240.26	71.88
240.494	69.88
240.728	65.88
240.961	79.88
241.195	86.88
241.429	82.88
241.662	78.88
241.896	77.88
242.13	75.88
242.363	78.88
242.597	64.88
242.83	68.88
243.064	89.88
243.298	74.88
243.531	71.88
243.765	72.88
243.998	64.88
244.232	74.88
244.465	73.88
244.699	65.88
244.932	76.88
245.166	76.88
245.399	78.88
245.633	73.88
245.866	85.88
246.099	88.88
246.333	75.88
246.566	88.88
246.8	80.88
247.033	82.88
247.266	92.88
247.5	84.88
247.733	74.88
247.966	69.88
248.2	71.88
248.433	64.88
248.666	67.88
248.899	72.88
249.133	89.88
249.366	101.88
249.599	82.88
249.832	84.88
250.066	93.88
250.299	90.88
250.532	87.88
250.765	78.88
250.998	79.88
251.231	71.88
251.465	88.88
251.698	84.88
251.931	87.88
252.164	90.88
252.397	78.88
252.63	84.88
252.863	71.88
253.096	76.88
253.329	92.88
253.562	75.88
253.795	90.88
254.028	82.88
254.261	86.88
254.494	85.88
254.727	78.88
254.96	73.88
255.193	83.88
255.426	78.88
255.659	63.88
255.892	85.88
256.124	65.88
256.357	86.88
256.59	90.88
256.823	86.88
257.056	72.88
257.289	81.88
257.521	88.88
257.754	77.88
257.987	92.88
258.22	81.88
258.452	81.88
258.685	80.88
258.918	90.88
259.151	88.88
259.383	81.88
259.616	86.88
259.849	86.88
260.081	82.88
260.314	77.88
260.547	83.88
260.779	72.88
261.012	87.88
261.244	84.88
261.477	85.88
261.71	87.88
261.942	104.88
262.175	118.88
262.407	85.88
262.64	95.88
262.872	86.88
263.105	68.88
263.337	84.88
263.57	80.88
263.802	87.88
264.035	66.88
264.267	64.88
264.499	89.88
264.732	87.88
264.964	66.88
265.197	88.88
265.429	84.88
265.661	95.88
265.894	92.88
266.126	90.88
266.358	74.88
266.591	93.88
266.823	69.88
267.055	72.88
267.287	92.88
267.52	76.88
267.752	76.88
267.984	73.88
268.216	62.88
268.448	78.88
268.681	87.88
268.913	70.88
269.145	75.88
269.377	86.88
269.609	94.88
269.841	72.88
270.073	92.88
270.306	90.88
270.538	89.88
270.77	81.88
271.002	87.88
271.234	70.88
271.466	92.88
271.698	90.88
271.93	85.88
272.162	73.88
272.394	80.88
272.626	75.88
272.858	72.88
273.09	93.88
273.322	78.88
273.553	80.88
273.785	77.88
274.017	75.88
274.249	77.88
274.481	78.88
274.713	86.88
274.945	69.88
275.176	92.88
275.408	91.88
275.64	95.88
275.872	87.88
276.104	79.88
276.335	79.88
276.567	89.88
276.799	92.88
277.031	113.88
277.262	105.88
277.494	103.88
277.726	89.88
277.957	89.88
278.189	98.88
278.421	91.88
278.652	95.88
278.884	85.88
279.115	86.88
279.347	81.88
279.579	86.88
279.81	99.88
280.042	106.88
280.273	137.88
280.505	88.88
280.736	89.88
280.968	97.88
281.199	80.88
281.431	86.88
281.662	88.88
281.894	86.88
282.125	109.88
282.356	97.88
282.588	116.88
282.819	104.88
283.051	93.88
283.282	81.88
283.513	83.88
283.745	81.88
283.976	80.88
284.207	89.88
284.439	99.88
284.67	99.88
284.901	92.88
285.132	78.88
285.364	96.88
285.595	92.88
285.826	88.88
286.057	79.88
286.288	88.88
286.52	92.88
286.751	89.88
286.982	72.88
287.213	80.88
287.444	66.88
287.675	70.88
287.906	77.88
288.138	90.88
288.369	90.88
288.6	90.88
288.831	86.88
289.062	85.88
289.293	77.88
289.524	80.88
289.755	83.88
289.986	104.88
290.217	67.88
290.448	80.88
290.679	82.88
290.91	88.88
291.141	85.88
291.371	82.88
291.602	83.88
291.833	86.88
292.064	84.88
292.295	87.88
292.526	82.88
292.757	89.88
292.987	74.88
293.218	83.88
293.449	85.88
293.68	88.88
293.91	82.88
294.141	99.88
294.372	93.88
294.603	90.88
294.833	76.88
295.064	94.88
295.295	87.88
295.525	100.88
295.756	103.88
295.987	113.88
296.217	133.88
296.448	108.88
296.679	94.88
296.909	92.88
297.14	93.88
297.37	81.88
297.601	94.88
297.831	86.88
298.062	88.88
298.292	96.88
298.523	88.88
298.753	77.88
298.984	88.88
299.214	90.88
299.445	91.88
299.675	75.88
299.905	85.88
300.136	83.88
300.366	83.88
300.597	85.88
300.827	86.88
301.057	92.88
301.288	101.88
301.518	96.88
301.748	82.88
301.979	101.88
302.209	98.88
302.439	94.88
302.669	88.88
302.9	86.88
303.13	87.88
303.36	92.88
303.59	111.88
303.82	110.88
304.051	96.88
304.281	95.88
304.511	105.88
304.741	82.88
304.971	73.88
305.201	86.88
305.431	73.88
305.661	94.88
305.891	76.88
306.121	97.88
306.352	93.88
306.582	98.88
306.812	93.88
307.042	98.88
307.272	104.88
307.502	137.88
307.731	125.88
307.961	112.88
308.191	90.88
308.421	82.88
308.651	80.88
308.881	88.88
309.111	84.88
309.341	93.88
309.571	89.88
309.8	79.88
310.03	95.88
310.26	88.88
310.49	90.88
310.72	93.88
310.949	105.88
311.179	106.88
311.409	91.88
311.639	87.88
311.868	92.88
312.098	94.88
312.328	90.88
312.557	104.88
312.787	81.88
313.017	90.88
313.246	78.88
313.476	93.88
313.706	93.88
313.935	99.88
314.165	103.88
314.394	89.88
314.624	73.88
314.853	97.88
315.083	78.88
315.312	93.88
315.542	69.88
315.771	92.88
316.001	91.88
316.23	74.88
316.46	74.88
316.689	87.88
316.919	75.88
317.148	90.88
317.377	87.88
317.607	93.88
317.836	96.88
318.065	94.88
318.295	84.88
318.524	103.88
318.753	95.88
318.983	80.88
319.212	96.88
319.441	103.88
319.67	100.88
319.9	85.88
320.129	106.88
320.358	95.88
320.587	105.88
320.816	102.88
321.046	103.88
321.275	92.88
321.504	96.88
321.733	97.88
321.962	105.88
322.191	93.88
322.42	107.88
322.649	109.88
322.878	103.88
323.108	114.88
323.337	125.88
323.566	124.88
323.795	152.88
324.024	215.88
324.253	444.88
324.482	984.88
324.71	2073.88
324.939	2804.88
325.168	959.88
325.397	282.88
325.626	171.88
325.855	145.88
326.084	145.88
326.313	133.88
326.542	168.88
326.77	254.88
326.999	529.88
327.228	1148.88
327.457	2200.88
327.686	1700.88
327.914	484.88
328.143	306.88
328.372	326.88
328.6	216.88
328.829	130.88
329.058	123.88
329.287	123.88
329.515	131.88
329.744	146.88
329.972	255.88
330.201	440.88
330.43	633.88
330.658	313.88
330.887	166.88
331.115	148.88
331.344	107.88
331.572	102.88
331.801	120.88
332.03	94.88
332.258	89.88
332.486	94.88
332.715	90.88
332.943	87.88
333.172	91.88
333.4	101.88
333.629	123.88
333.857	158.88
334.085	242.88
334.314	450.88
334.542	797.88
334.771	741.88
334.999	224.88
335.227	129.88
335.455	110.88
335.684	108.88
335.912	97.88
336.14	104.88
336.369	96.88
336.597	101.88
336.825	103.88
337.053	101.88
337.281	87.88
337.51	89.88
337.738	88.88
337.966	87.88
338.194	94.88
338.422	100.88
338.65	79.88
338.878	92.88
339.106	100.88
339.334	83.88
339.562	93.88
339.79	94.88
340.018	89.88
340.246	84.88
340.474	94.88
340.702	110.88
340.93	88.88
341.158	88.88
341.386	92.88
341.614	95.88
341.842	80.88
342.07	96.88
342.298	73.88
342.526	72.88
342.754	90.88
342.981	95.88
343.209	92.88
343.437	98.88
343.665	82.88
343.893	77.88
344.12	99.88
344.348	92.88
344.576	91.88
344.804	79.88
345.031	95.88
345.259	94.88
345.487	95.88
345.714	92.88
345.942	90.88
346.17	77.88
346.397	80.88
346.625	95.88
346.853	97.88
347.08	81.88
347.308	84.88
347.535	90.88
347.763	85.88
347.99	114.88
348.218	98.88
348.445	109.88
348.673	92.88
348.9	97.88
349.128	97.88
349.355	91.88
349.583	95.88
349.81	84.88
350.037	100.88
350.265	99.88
350.492	86.88
350.72	101.88
350.947	96.88
351.174	98.88
351.402	109.88
351.629	110.88
351.856	106.88
352.083	106.88
352.311	99.88
352.538	105.88
352.765	112.88
352.992	112.88
353.22	102.88
353.447	102.88
353.674	98.88
353.901	109.88
354.128	84.88
354.355	90.88
354.583	88.88
354.81	95.88
355.037	96.88
355.264	92.88
355.491	90.88
355.718	84.88
355.945	95.88
356.172	99.88
356.399	100.88
356.626	89.88
356.853	94.88
357.08	72.88
357.307	95.88
357.534	96.88
357.761	84.88
357.988	79.88
358.215	109.88
358.441	82.88
358.668	80.88
358.895	93.88
359.122	79.88
359.349	72.88
359.576	98.88
359.802	82.88
360.029	101.88
360.256	103.88
360.483	107.88
360.709	88.88
360.936	98.88
361.163	93.88
361.39	87.88
361.616	86.88
361.843	88.88
362.07	100.88
362.296	99.88
362.523	84.88
362.749	84.88
362.976	77.88
363.203	81.88
363.429	70.88
363.656	90.88
363.882	91.88
364.109	92.88
364.335	87.88
364.562	84.88
364.788	90.88
365.015	78.88
365.241	88.88
365.468	102.88
365.694	103.88
365.92	88.88
366.147	86.88
366.373	85.88
366.599	83.88
366.826	94.88
367.052	102.88
367.278	81.88
367.505	84.88
367.731	86.88
367.957	83.88
368.184	100.88
368.41	102.88
368.636	121.88
368.862	102.88
369.089	97.88
369.315	87.88
369.541	99.88
369.767	89.88
369.993	104.88
370.219	79.88
370.445	86.88
370.672	79.88
370.898	88.88
371.124	88.88
371.35	87.88
371.576	93.88
371.802	82.88
372.028	91.88
372.254	83.88
372.48	89.88
372.706	95.88
372.932	106.88
373.158	86.88
373.384	81.88
373.61	110.88
373.835	86.88
374.061	92.88
374.287	97.88
374.513	80.88
374.739	78.88
374.965	87.88
375.191	80.88
375.416	81.88
375.642	81.88
375.868	72.88
376.094	74.88
376.319	98.88
376.545	89.88
376.771	88.88
376.997	93.88
377.222	86.88
377.448	91.88
377.674	86.88
377.899	88.88
378.125	86.88
378.35	92.88
378.576	87.88
378.802	99.88
379.027	90.88
379.253	75.88
379.478	72.88
379.704	98.88
379.929	95.88
380.155	86.88
380.38	90.88
380.606	89.88
380.831	87.88
381.057	98.88
381.282	102.88
381.507	92.88
381.733	98.88
381.958	93.88
382.184	99.88
382.409	103.88
382.634	95.88
382.86	96.88
383.085	85.88
383.31	101.88
383.535	100.88
383.761	98.88
383.986	99.88
384.211	86.88
384.436	99.88
384.662	99.88
384.887	98.88
385.112	105.88
385.337	92.88
385.562	121.88
385.787	106.88
386.013	105.88
386.238	105.88
386.463	99.88
386.688	103.88
386.913	96.88
387.138	115.88
387.363	97.88
387.588	92.88
387.813	86.88
388.038	105.88
388.263	98.88
388.488	101.88
388.713	103.88
388.938	90.88
389.163	94.88
389.387	100.88
389.612	97.88
389.837	93.88
390.062	96.88
390.287	82.88
390.512	92.88
390.736	91.88
390.961	82.88
391.186	78.88
391.411	104.88
391.636	84.88
391.86	86.88
392.085	90.88
392.31	84.88
392.534	78.88
392.759	75.88
392.984	88.88
393.208	89.88
393.433	103.88
393.658	93.88
393.882	84.88
394.107	80.88
394.331	81.88
394.556	80.88
394.78	83.88
395.005	83.88
395.229	92.88
395.454	82.88
395.678	83.88
395.903	88.88
396.127	88.88
396.352	89.88
396.576	105.88
396.801	82.88
397.025	81.88
397.249	91.88
397.474	81.88
397.698	86.88
397.922	93.88
398.147	86.88
398.371	67.88
398.595	86.88
398.82	90.88
399.044	88.88
399.268	85.88
399.492	89.88
399.717	84.88
399.941	76.88
400.165	95.88
400.389	93.88
400.613	72.88
400.837	89.88
401.062	97.88
401.286	90.88
401.51	94.88
401.734	90.88
401.958	98.88
402.182	105.88
402.406	143.88
402.63	109.88
402.854	89.88
403.078	85.88
403.302	85.88
403.526	94.88
403.75	83.88
403.974	72.88
404.198	70.88
404.422	89.88
404.645	87.88
404.869	95.88
405.093	90.88
405.317	105.88
405.541	102.88
405.765	97.88
405.988	112.88
406.212	162.88
406.436	197.88
406.66	140.88
406.883	93.88
407.107	102.88
407.331	93.88
407.555	102.88
407.778	100.88
408.002	77.88
408.226	90.88
408.449	83.88
408.673	91.88
408.896	103.88
409.12	94.88
409.344	88.88
409.567	96.88
409.791	92.88
410.014	92.88
410.238	89.88
410.461	89.88
410.685	94.88
410.908	88.88
411.132	120.88
411.355	105.88
411.578	97.88
411.802	88.88
412.025	73.88
412.249	104.88
412.472	90.88
412.695	116.88
412.919	95.88
413.142	79.88
413.365	92.88
413.589	96.88
413.812	88.88
414.035	92.88
414.258	90.88
414.482	81.88
414.705	93.88
414.928	81.88
415.151	97.88
415.374	91.88
415.597	94.88
415.821	84.88
416.044	86.88
416.267	95.88
416.49	96.88
416.713	97.88
416.936	92.88
417.159	77.88
417.382	96.88
417.605	104.88
417.828	87.88
418.051	74.88
418.274	92.88
418.497	81.88
418.72	85.88
418.943	85.88
419.166	88.88
419.389	78.88
419.611	92.88
419.834	89.88
420.057	103.88
420.28	77.88
420.503	72.88
420.726	84.88
420.948	81.88
421.171	93.88
421.394	80.88
421.617	78.88
421.839	92.88
422.062	88.88
422.285	82.88
422.507	89.88
422.73	112.88
422.953	86.88
423.175	87.88
423.398	88.88
423.621	82.88
423.843	88.88
424.066	90.88
424.288	87.88
424.511	88.88
424.733	90.88
424.956	101.88
425.178	100.88
425.401	89.88
425.623	100.88
425.846	86.88
426.068	95.88
426.291	88.88
426.513	97.88
426.735	95.88
426.958	86.88
427.18	90.88
427.402	134.88
427.625	184.88
427.847	178.88
428.069	183.88
428.292	112.88
428.514	97.88
428.736	83.88
428.958	70.88
429.181	91.88
429.403	84.88
429.625	72.88
429.847	84.88
430.069	95.88
430.292	91.88
430.514	76.88
430.736	85.88
430.958	92.88
431.18	81.88
431.402	86.88
431.624	89.88
431.846	88.88
432.068	91.88
432.29	71.88
432.512	73.88
432.734	83.88
432.956	108.88
433.178	96.88
433.4	102.88
433.622	94.88
433.844	80.88
434.066	88.88
434.287	85.88
434.509	87.88
434.731	85.88
434.953	84.88
435.175	88.88
435.397	88.88
435.618	91.88
435.84	92.88
436.062	136.88
436.284	109.88
436.505	96.88
436.727	104.88
436.949	104.88
437.17	99.88
437.392	88.88
437.614	95.88
437.835	113.88
438.057	118.88
438.278	95.88
438.5	105.88
438.721	115.88
438.943	89.88
439.165	91.88
439.386	101.88
439.608	101.88
439.829	88.88
440.05	131.88
440.272	144.88
440.493	95.88
440.715	86.88
440.936	73.88
441.158	85.88
441.379	82.88
441.6	92.88
441.822	95.88
442.043	89.88
442.264	97.88
442.486	91.88
442.707	94.88
442.928	95.88
443.149	135.88
443.371	129.88
443.592	111.88
443.813	127.88
444.034	113.88
444.255	84.88
444.476	85.88
444.698	88.88
444.919	81.88
445.14	127.88
445.361	118.88
445.582	105.88
445.803	125.88
446.024	139.88
446.245	140.88
446.466	110.88
446.687	99.88
446.908	103.88
447.129	92.88
447.35	86.88
447.571	94.88
447.792	92.88
448.013	104.88
448.234	108.88
448.455	99.88
448.675	98.88
448.896	104.88
449.117	93.88
449.338	100.88
449.559	131.88
449.779	134.88
450	89.88
450.221	86.88
450.442	74.88
450.662	99.88
450.883	112.88
451.104	102.88
451.324	84.88
451.545	98.88
451.766	94.88
451.986	84.88
452.207	79.88
452.428	104.88
452.648	88.88
452.869	112.88
453.089	112.88
453.31	115.88
453.53	92.88
453.751	102.88
453.971	103.88
454.192	102.88
454.412	87.88
454.633	77.88
454.853	79.88
455.073	99.88
455.294	100.88
455.514	85.88
455.734	99.88
455.955	81.88
456.175	76.88
456.395	81.88
456.616	84.88
456.836	73.88
457.056	79.88
457.276	80.88
457.497	79.88
457.717	101.88
457.937	92.88
458.157	65.88
458.377	82.88
458.598	91.88
458.818	121.88
459.038	162.88
459.258	122.88
459.478	94.88
459.698	78.88
459.918	87.88
460.138	82.88
460.358	74.88
460.578	92.88
460.798	97.88
461.018	82.88
461.238	91.88
461.458	88.88
461.678	85.88
461.898	97.88
462.118	76.88
462.338	88.88
462.558	92.88
462.777	97.88
462.997	87.88
463.217	87.88
463.437	87.88
463.657	83.88
463.876	99.88
464.096	85.88
464.316	93.88
464.536	90.88
464.755	93.88
464.975	92.88
465.195	153.88
465.414	156.88
465.634	90.88
465.854	94.88
466.073	85.88
466.293	92.88
466.512	80.88
466.732	101.88
466.951	98.88
467.171	95.88
467.391	94.88
467.61	106.88
467.829	139.88
468.049	276.88
468.268	377.88
468.488	144.88
468.707	90.88
468.927	81.88
469.146	76.88
469.365	85.88
469.585	82.88
469.804	91.88
470.023	89.88
470.243	102.88
470.462	91.88
470.681	102.88
470.901	85.88
471.12	96.88
471.339	84.88
471.558	92.88
471.777	111.88
471.997	189.88
472.216	536.88
472.435	1114.88
472.654	294.88
472.873	106.88
473.092	106.88
473.311	92.88
473.53	90.88
473.749	88.88
473.968	94.88
474.187	101.88
474.406	94.88
474.625	96.88
474.844	77.88
475.063	87.88
475.282	98.88
475.501	79.88
475.72	94.88
475.939	79.88
476.158	81.88
476.377	89.88
476.596	87.88
476.814	89.88
477.033	106.88
477.252	90.88
477.471	93.88
477.69	92.88
477.908	75.88
478.127	97.88
478.346	82.88
478.564	96.88
478.783	80.88
479.002	90.88
479.22	94.88
479.439	92.88
479.658	102.88
479.876	104.88
480.095	104.88
480.313	122.88
480.532	128.88
480.751	172.88
480.969	499.88
481.188	1962.88
481.406	1154.88
481.624	199.88
481.843	116.88
482.061	92.88
482.28	81.88
482.498	92.88
482.717	81.88
482.935	84.88
483.153	89.88
483.372	83.88
483.59	82.88
483.808	82.88
484.027	81.88
484.245	89.88
484.463	85.88
484.681	89.88
484.9	87.88
485.118	89.88
485.336	87.88
485.554	92.88
485.772	109.88
485.99	109.88
486.209	102.88
486.427	97.88
486.645	115.88
486.863	103.88
487.081	96.88
487.299	88.88
487.517	82.88
487.735	88.88
487.953	93.88
488.171	96.88
488.389	99.88
488.607	96.88
488.825	79.88
489.043	83.88
489.261	81.88
489.479	80.88
489.696	82.88
489.914	72.88
490.132	89.88
490.35	97.88
490.568	79.88
490.786	97.88
491.003	94.88
491.221	89.88
491.439	93.88
491.657	95.88
491.874	97.88
492.092	90.88
492.31	98.88
492.527	92.88
492.745	75.88
492.963	93.88
493.18	99.88
493.398	88.88
493.615	103.88
493.833	93.88
494.05	95.88
494.268	84.88
494.485	104.88
494.703	83.88
494.92	93.88
495.138	91.88
495.355	81.88
495.573	85.88
495.79	92.88
496.008	83.88
496.225	78.88
496.442	92.88
496.66	88.88
496.877	81.88
497.094	100.88
497.312	80.88
497.529	93.88
497.746	72.88
497.963	84.88
498.181	88.88
498.398	100.88
498.615	109.88
498.832	101.88
499.049	96.88
499.267	71.88
499.484	77.88
499.701	79.88
499.918	70.88
500.135	85.88
500.352	89.88
500.569	80.88
500.786	86.88
501.003	93.88
501.22	89.88
501.437	84.88
501.654	97.88
501.871	111.88
502.088	90.88
502.305	104.88
502.522	93.88
502.739	76.88
502.956	95.88
503.172	81.88
503.389	98.88
503.606	117.88
503.823	86.88
504.04	97.88
504.256	89.88
504.473	81.88
504.69	90.88
504.907	96.88
505.123	104.88
505.34	88.88
505.557	85.88
505.773	96.88
505.99	64.88
506.207	84.88
506.423	79.88
506.64	80.88
506.856	89.88
507.073	88.88
507.289	80.88
507.506	86.88
507.722	102.88
507.939	101.88
508.155	112.88
508.372	93.88
508.588	100.88
508.805	92.88
509.021	89.88
509.238	86.88
509.454	77.88
509.67	84.88
509.887	82.88
510.103	112.88
510.319	182.88
510.536	617.88
510.752	2032.88
510.968	592.88
511.184	148.88
511.401	113.88
511.617	92.88
511.833	99.88
512.049	101.88
512.265	82.88
512.481	83.88
512.698	88.88
512.914	104.88
513.13	95.88
513.346	86.88
513.562	105.88
513.778	92.88
513.994	97.88
514.21	102.88
514.426	105.88
514.642	122.88
514.858	124.88
515.074	152.88
515.29	389.88
515.506	1330.88
515.721	473.88
515.937	132.88
