Data from Circ_1997_H10_HRD10591_00041.txt Node
Date: Wed Jan 03 11:29:35 EST 2024
User: Yrep
Spectrometer: HR+D1059
Trigger mode: 1
Integration Time (sec): 1.000000E-1
Scans to average: 1
Electric dark correction enabled: true
Nonlinearity correction enabled: false
Boxcar width: 0
XAxis mode: Wavelengths
Number of Pixels in Spectrum: 2048
>>>>>Begin Spectral Data<<<<<
223.165	-23.5
223.4	-23.5
223.635	-23.5
223.869	-13.5
224.104	-11.5
224.338	-24.5
224.573	-13.5
224.808	-15.5
225.042	-11.5
225.277	-6.5
225.511	-6.5
225.746	-4.5
225.98	10.5
226.215	8.5
226.449	15.5
226.683	18.5
226.918	36.5
227.152	41.5
227.387	32.5
227.621	56.5
227.856	46.5
228.09	54.5
228.324	54.5
228.559	56.5
228.793	71.5
229.027	82.5
229.262	69.5
229.496	79.5
229.73	99.5
229.964	104.5
230.199	82.5
230.433	80.5
230.667	67.5
230.901	77.5
231.136	68.5
231.37	89.5
231.604	98.5
231.838	75.5
232.072	86.5
232.306	90.5
232.541	81.5
232.775	78.5
233.009	72.5
233.243	71.5
233.477	96.5
233.711	72.5
233.945	85.5
234.179	82.5
234.413	92.5
234.647	79.5
234.881	78.5
235.115	76.5
235.349	90.5
235.583	80.5
235.817	88.5
236.051	90.5
236.285	86.5
236.519	64.5
236.753	90.5
236.987	91.5
237.221	100.5
237.455	103.5
237.689	86.5
237.922	68.5
238.156	100.5
238.39	82.5
238.624	84.5
238.858	92.5
239.091	88.5
239.325	79.5
239.559	76.5
239.793	79.5
240.027	91.5
240.26	78.5
240.494	78.5
240.728	65.5
240.961	70.5
241.195	69.5
241.429	93.5
241.662	69.5
241.896	58.5
242.13	66.5
242.363	87.5
242.597	80.5
242.83	86.5
243.064	76.5
243.298	94.5
243.531	86.5
243.765	83.5
243.998	85.5
244.232	77.5
244.465	99.5
244.699	86.5
244.932	80.5
245.166	84.5
245.399	84.5
245.633	88.5
245.866	67.5
246.099	82.5
246.333	72.5
246.566	90.5
246.8	90.5
247.033	78.5
247.266	93.5
247.5	92.5
247.733	93.5
247.966	96.5
248.2	87.5
248.433	75.5
248.666	82.5
248.899	79.5
249.133	96.5
249.366	99.5
249.599	117.5
249.832	91.5
250.066	67.5
250.299	90.5
250.532	83.5
250.765	66.5
250.998	83.5
251.231	76.5
251.465	91.5
251.698	89.5
251.931	98.5
252.164	87.5
252.397	83.5
252.63	81.5
252.863	83.5
253.096	80.5
253.329	92.5
253.562	74.5
253.795	72.5
254.028	95.5
254.261	97.5
254.494	90.5
254.727	98.5
254.96	82.5
255.193	80.5
255.426	91.5
255.659	76.5
255.892	94.5
256.124	88.5
256.357	74.5
256.59	90.5
256.823	74.5
257.056	97.5
257.289	104.5
257.521	96.5
257.754	71.5
257.987	81.5
258.22	101.5
258.452	112.5
258.685	94.5
258.918	87.5
259.151	80.5
259.383	73.5
259.616	101.5
259.849	84.5
260.081	98.5
260.314	98.5
260.547	88.5
260.779	106.5
261.012	97.5
261.244	122.5
261.477	108.5
261.71	116.5
261.942	144.5
262.175	153.5
262.407	116.5
262.64	79.5
262.872	92.5
263.105	92.5
263.337	89.5
263.57	81.5
263.802	92.5
264.035	80.5
264.267	82.5
264.499	74.5
264.732	83.5
264.964	81.5
265.197	81.5
265.429	98.5
265.661	85.5
265.894	79.5
266.126	103.5
266.358	73.5
266.591	86.5
266.823	93.5
267.055	77.5
267.287	75.5
267.52	88.5
267.752	88.5
267.984	82.5
268.216	82.5
268.448	107.5
268.681	90.5
268.913	88.5
269.145	74.5
269.377	81.5
269.609	77.5
269.841	83.5
270.073	84.5
270.306	86.5
270.538	83.5
270.77	91.5
271.002	89.5
271.234	96.5
271.466	95.5
271.698	82.5
271.93	100.5
272.162	74.5
272.394	91.5
272.626	116.5
272.858	78.5
273.09	105.5
273.322	89.5
273.553	77.5
273.785	99.5
274.017	100.5
274.249	99.5
274.481	84.5
274.713	92.5
274.945	97.5
275.176	98.5
275.408	98.5
275.64	125.5
275.872	136.5
276.104	116.5
276.335	113.5
276.567	127.5
276.799	164.5
277.031	188.5
277.262	220.5
277.494	155.5
277.726	87.5
277.957	86.5
278.189	90.5
278.421	93.5
278.652	96.5
278.884	92.5
279.115	96.5
279.347	94.5
279.579	101.5
279.81	130.5
280.042	220.5
280.273	278.5
280.505	192.5
280.736	107.5
280.968	89.5
281.199	81.5
281.431	95.5
281.662	91.5
281.894	96.5
282.125	106.5
282.356	141.5
282.588	204.5
282.819	139.5
283.051	102.5
283.282	74.5
283.513	89.5
283.745	94.5
283.976	88.5
284.207	80.5
284.439	95.5
284.67	103.5
284.901	88.5
285.132	83.5
285.364	91.5
285.595	80.5
285.826	91.5
286.057	89.5
286.288	84.5
286.52	82.5
286.751	84.5
286.982	98.5
287.213	96.5
287.444	89.5
287.675	100.5
287.906	99.5
288.138	95.5
288.369	98.5
288.6	86.5
288.831	80.5
289.062	98.5
289.293	91.5
289.524	91.5
289.755	92.5
289.986	89.5
290.217	92.5
290.448	90.5
290.679	103.5
290.91	92.5
291.141	91.5
291.371	86.5
291.602	86.5
291.833	80.5
292.064	93.5
292.295	88.5
292.526	87.5
292.757	99.5
292.987	88.5
293.218	76.5
293.449	85.5
293.68	82.5
293.91	82.5
294.141	89.5
294.372	90.5
294.603	88.5
294.833	93.5
295.064	77.5
295.295	81.5
295.525	87.5
295.756	111.5
295.987	128.5
296.217	182.5
296.448	152.5
296.679	94.5
296.909	92.5
297.14	86.5
297.37	85.5
297.601	86.5
297.831	93.5
298.062	97.5
298.292	96.5
298.523	97.5
298.753	78.5
298.984	100.5
299.214	99.5
299.445	99.5
299.675	98.5
299.905	95.5
300.136	94.5
300.366	86.5
300.597	100.5
300.827	97.5
301.057	107.5
301.288	115.5
301.518	96.5
301.748	122.5
301.979	116.5
302.209	97.5
302.439	87.5
302.669	104.5
302.9	88.5
303.13	110.5
303.36	109.5
303.59	145.5
303.82	152.5
304.051	115.5
304.281	95.5
304.511	90.5
304.741	88.5
304.971	68.5
305.201	96.5
305.431	99.5
305.661	96.5
305.891	103.5
306.121	103.5
306.352	110.5
306.582	126.5
306.812	106.5
307.042	123.5
307.272	182.5
307.502	186.5
307.731	181.5
307.961	144.5
308.191	87.5
308.421	87.5
308.651	100.5
308.881	91.5
309.111	104.5
309.341	111.5
309.571	107.5
309.8	103.5
310.03	123.5
310.26	123.5
310.49	116.5
310.72	106.5
310.949	143.5
311.179	106.5
311.409	112.5
311.639	103.5
311.868	107.5
312.098	104.5
312.328	104.5
312.557	120.5
312.787	126.5
313.017	121.5
313.246	126.5
313.476	106.5
313.706	108.5
313.935	118.5
314.165	122.5
314.394	138.5
314.624	113.5
314.853	107.5
315.083	101.5
315.312	100.5
315.542	86.5
315.771	88.5
316.001	93.5
316.23	94.5
316.46	96.5
316.689	94.5
316.919	92.5
317.148	123.5
317.377	93.5
317.607	108.5
317.836	90.5
318.065	85.5
318.295	98.5
318.524	107.5
318.753	91.5
318.983	108.5
319.212	103.5
319.441	109.5
319.67	128.5
319.9	99.5
320.129	100.5
320.358	110.5
320.587	107.5
320.816	112.5
321.046	110.5
321.275	112.5
321.504	98.5
321.733	93.5
321.962	95.5
322.191	113.5
322.42	122.5
322.649	127.5
322.878	146.5
323.108	150.5
323.337	179.5
323.566	188.5
323.795	222.5
324.024	308.5
324.253	646.5
324.482	1470.5
324.71	3150.5
324.939	4120.5
325.168	1376.5
325.397	368.5
325.626	216.5
325.855	174.5
326.084	164.5
326.313	187.5
326.542	222.5
326.77	335.5
326.999	750.5
327.228	1630.5
327.457	3092.5
327.686	2422.5
327.914	768.5
328.143	684.5
328.372	853.5
328.6	456.5
328.829	222.5
329.058	237.5
329.287	234.5
329.515	223.5
329.744	304.5
329.972	594.5
330.201	1299.5
330.43	1862.5
330.658	808.5
330.887	349.5
331.115	234.5
331.344	156.5
331.572	138.5
331.801	143.5
332.03	144.5
332.258	117.5
332.486	102.5
332.715	115.5
332.943	127.5
333.172	128.5
333.4	117.5
333.629	189.5
333.857	260.5
334.085	555.5
334.314	1202.5
334.542	2394.5
334.771	2151.5
334.999	530.5
335.227	208.5
335.455	146.5
335.684	117.5
335.912	120.5
336.14	109.5
336.369	120.5
336.597	120.5
336.825	112.5
337.053	108.5
337.281	107.5
337.51	93.5
337.738	98.5
337.966	103.5
338.194	113.5
338.422	108.5
338.65	103.5
338.878	107.5
339.106	95.5
339.334	94.5
339.562	102.5
339.79	97.5
340.018	96.5
340.246	97.5
340.474	112.5
340.702	112.5
340.93	102.5
341.158	101.5
341.386	101.5
341.614	115.5
341.842	100.5
342.07	95.5
342.298	104.5
342.526	103.5
342.754	111.5
342.981	93.5
343.209	84.5
343.437	95.5
343.665	82.5
343.893	89.5
344.12	97.5
344.348	86.5
344.576	96.5
344.804	90.5
345.031	120.5
345.259	115.5
345.487	105.5
345.714	118.5
345.942	109.5
346.17	90.5
346.397	101.5
346.625	102.5
346.853	104.5
347.08	103.5
347.308	105.5
347.535	106.5
347.763	111.5
347.99	108.5
348.218	127.5
348.445	119.5
348.673	116.5
348.9	112.5
349.128	105.5
349.355	93.5
349.583	89.5
349.81	86.5
350.037	97.5
350.265	108.5
350.492	81.5
350.72	96.5
350.947	115.5
351.174	129.5
351.402	141.5
351.629	115.5
351.856	116.5
352.083	108.5
352.311	119.5
352.538	134.5
352.765	123.5
352.992	138.5
353.22	103.5
353.447	96.5
353.674	105.5
353.901	103.5
354.128	106.5
354.355	114.5
354.583	105.5
354.81	106.5
355.037	107.5
355.264	77.5
355.491	81.5
355.718	102.5
355.945	93.5
356.172	94.5
356.399	105.5
356.626	104.5
356.853	91.5
357.08	84.5
357.307	108.5
357.534	85.5
357.761	105.5
357.988	87.5
358.215	88.5
358.441	101.5
358.668	89.5
358.895	86.5
359.122	80.5
359.349	102.5
359.576	104.5
359.802	123.5
360.029	152.5
360.256	149.5
360.483	115.5
360.709	91.5
360.936	87.5
361.163	104.5
361.39	93.5
361.616	94.5
361.843	90.5
362.07	96.5
362.296	116.5
362.523	108.5
362.749	91.5
362.976	110.5
363.203	90.5
363.429	78.5
363.656	104.5
363.882	108.5
364.109	103.5
364.335	102.5
364.562	84.5
364.788	107.5
365.015	96.5
365.241	115.5
365.468	123.5
365.694	121.5
365.92	106.5
366.147	101.5
366.373	90.5
366.599	104.5
366.826	85.5
367.052	89.5
367.278	104.5
367.505	96.5
367.731	98.5
367.957	109.5
368.184	99.5
368.41	121.5
368.636	130.5
368.862	145.5
369.089	125.5
369.315	112.5
369.541	86.5
369.767	103.5
369.993	89.5
370.219	99.5
370.445	93.5
370.672	103.5
370.898	84.5
371.124	82.5
371.35	98.5
371.576	95.5
371.802	86.5
372.028	85.5
372.254	84.5
372.48	81.5
372.706	86.5
372.932	99.5
373.158	83.5
373.384	97.5
373.61	85.5
373.835	92.5
374.061	93.5
374.287	102.5
374.513	86.5
374.739	108.5
374.965	87.5
375.191	77.5
375.416	85.5
375.642	87.5
375.868	94.5
376.094	91.5
376.319	92.5
376.545	93.5
376.771	86.5
376.997	90.5
377.222	110.5
377.448	95.5
377.674	85.5
377.899	93.5
378.125	97.5
378.35	102.5
378.576	88.5
378.802	86.5
379.027	90.5
379.253	92.5
379.478	96.5
379.704	88.5
379.929	91.5
380.155	97.5
380.38	103.5
380.606	90.5
380.831	94.5
381.057	92.5
381.282	91.5
381.507	91.5
381.733	105.5
381.958	97.5
382.184	111.5
382.409	91.5
382.634	101.5
382.86	106.5
383.085	96.5
383.31	100.5
383.535	92.5
383.761	104.5
383.986	97.5
384.211	88.5
384.436	105.5
384.662	90.5
384.887	93.5
385.112	109.5
385.337	92.5
385.562	99.5
385.787	90.5
386.013	120.5
386.238	123.5
386.463	118.5
386.688	98.5
386.913	106.5
387.138	98.5
387.363	97.5
387.588	103.5
387.813	88.5
388.038	102.5
388.263	103.5
388.488	114.5
388.713	112.5
388.938	90.5
389.163	107.5
389.387	92.5
389.612	96.5
389.837	100.5
390.062	97.5
390.287	89.5
390.512	82.5
390.736	83.5
390.961	91.5
391.186	95.5
391.411	86.5
391.636	82.5
391.86	87.5
392.085	87.5
392.31	91.5
392.534	96.5
392.759	99.5
392.984	84.5
393.208	99.5
393.433	100.5
393.658	82.5
393.882	82.5
394.107	85.5
394.331	99.5
394.556	82.5
394.78	104.5
395.005	86.5
395.229	88.5
395.454	92.5
395.678	97.5
395.903	81.5
396.127	100.5
396.352	100.5
396.576	83.5
396.801	82.5
397.025	94.5
397.249	89.5
397.474	89.5
397.698	90.5
397.922	97.5
398.147	104.5
398.371	97.5
398.595	72.5
398.82	67.5
399.044	91.5
399.268	79.5
399.492	95.5
399.717	99.5
399.941	87.5
400.165	99.5
400.389	107.5
400.613	88.5
400.837	95.5
401.062	87.5
401.286	86.5
401.51	88.5
401.734	85.5
401.958	112.5
402.182	164.5
402.406	230.5
402.63	161.5
402.854	109.5
403.078	110.5
403.302	90.5
403.526	95.5
403.75	93.5
403.974	99.5
404.198	87.5
404.422	103.5
404.645	95.5
404.869	108.5
405.093	122.5
405.317	160.5
405.541	157.5
405.765	148.5
405.988	161.5
406.212	258.5
406.436	356.5
406.66	224.5
406.883	114.5
407.107	90.5
407.331	113.5
407.555	123.5
407.778	125.5
408.002	110.5
408.226	96.5
408.449	94.5
408.673	95.5
408.896	116.5
409.12	107.5
409.344	111.5
409.567	86.5
409.791	95.5
410.014	101.5
410.238	88.5
410.461	92.5
410.685	100.5
410.908	112.5
411.132	113.5
411.355	116.5
411.578	83.5
411.802	102.5
412.025	86.5
412.249	114.5
412.472	124.5
412.695	152.5
412.919	127.5
413.142	107.5
413.365	98.5
413.589	115.5
413.812	95.5
414.035	104.5
414.258	100.5
414.482	100.5
414.705	94.5
414.928	97.5
415.151	92.5
415.374	104.5
415.597	90.5
415.821	102.5
416.044	102.5
416.267	97.5
416.49	90.5
416.713	89.5
416.936	89.5
417.159	99.5
417.382	103.5
417.605	104.5
417.828	116.5
418.051	105.5
418.274	87.5
418.497	93.5
418.72	93.5
418.943	87.5
419.166	85.5
419.389	98.5
419.611	97.5
419.834	104.5
420.057	110.5
420.28	86.5
420.503	77.5
420.726	88.5
420.948	93.5
421.171	116.5
421.394	107.5
421.617	94.5
421.839	92.5
422.062	77.5
422.285	103.5
422.507	108.5
422.73	128.5
422.953	102.5
423.175	100.5
423.398	95.5
423.621	83.5
423.843	80.5
424.066	74.5
424.288	77.5
424.511	91.5
424.733	112.5
424.956	139.5
425.178	129.5
425.401	120.5
425.623	121.5
425.846	102.5
426.068	107.5
426.291	91.5
426.513	106.5
426.735	99.5
426.958	95.5
427.18	137.5
427.402	216.5
427.625	325.5
427.847	297.5
428.069	292.5
428.292	145.5
428.514	105.5
428.736	108.5
428.958	87.5
429.181	101.5
429.403	97.5
429.625	85.5
429.847	91.5
430.069	106.5
430.292	119.5
430.514	90.5
430.736	83.5
430.958	91.5
431.18	81.5
431.402	103.5
431.624	86.5
431.846	89.5
432.068	91.5
432.29	87.5
432.512	88.5
432.734	109.5
432.956	105.5
433.178	119.5
433.4	99.5
433.622	99.5
433.844	84.5
434.066	88.5
434.287	100.5
434.509	91.5
434.731	84.5
434.953	89.5
435.175	90.5
435.397	89.5
435.618	103.5
435.84	135.5
436.062	174.5
436.284	157.5
436.505	128.5
436.727	116.5
436.949	101.5
437.17	112.5
437.392	107.5
437.614	105.5
437.835	140.5
438.057	174.5
438.278	144.5
438.5	132.5
438.721	157.5
438.943	133.5
439.165	95.5
439.386	95.5
439.608	90.5
439.829	116.5
440.05	183.5
440.272	246.5
440.493	136.5
440.715	98.5
440.936	105.5
441.158	108.5
441.379	90.5
441.6	115.5
441.822	108.5
442.043	109.5
442.264	139.5
442.486	114.5
442.707	112.5
442.928	142.5
443.149	195.5
443.371	186.5
443.592	145.5
443.813	138.5
444.034	139.5
444.255	104.5
444.476	95.5
444.698	86.5
444.919	100.5
445.14	141.5
445.361	156.5
445.582	174.5
445.803	230.5
446.024	209.5
446.245	209.5
446.466	158.5
446.687	95.5
446.908	87.5
447.129	94.5
447.35	96.5
447.571	105.5
447.792	93.5
448.013	110.5
448.234	144.5
448.455	132.5
448.675	139.5
448.896	159.5
449.117	124.5
449.338	112.5
449.559	184.5
449.779	193.5
450	107.5
450.221	80.5
450.442	100.5
450.662	103.5
450.883	141.5
451.104	169.5
451.324	121.5
451.545	96.5
451.766	82.5
451.986	89.5
452.207	97.5
452.428	97.5
452.648	125.5
452.869	149.5
453.089	142.5
453.31	137.5
453.53	106.5
453.751	110.5
453.971	134.5
454.192	147.5
454.412	117.5
454.633	96.5
454.853	94.5
455.073	95.5
455.294	110.5
455.514	141.5
455.734	103.5
455.955	83.5
456.175	100.5
456.395	85.5
456.616	98.5
456.836	104.5
457.056	109.5
457.276	92.5
457.497	108.5
457.717	91.5
457.937	92.5
458.157	95.5
458.377	94.5
458.598	141.5
458.818	246.5
459.038	286.5
459.258	162.5
459.478	97.5
459.698	88.5
459.918	98.5
460.138	94.5
460.358	100.5
460.578	95.5
460.798	98.5
461.018	117.5
461.238	102.5
461.458	92.5
461.678	89.5
461.898	87.5
462.118	90.5
462.338	83.5
462.558	99.5
462.777	102.5
462.997	105.5
463.217	118.5
463.437	99.5
463.657	99.5
463.876	94.5
464.096	102.5
464.316	100.5
464.536	93.5
464.755	97.5
464.975	136.5
465.195	291.5
465.414	290.5
465.634	120.5
465.854	96.5
466.073	88.5
466.293	91.5
466.512	85.5
466.732	96.5
466.951	106.5
467.171	102.5
467.391	113.5
467.61	182.5
467.829	244.5
468.049	678.5
468.268	1039.5
468.488	239.5
468.707	102.5
468.927	100.5
469.146	96.5
469.365	90.5
469.585	104.5
469.804	114.5
470.023	133.5
470.243	95.5
470.462	132.5
470.681	157.5
470.901	120.5
471.12	118.5
471.339	127.5
471.558	132.5
471.777	170.5
471.997	371.5
472.216	1395.5
472.435	3146.5
472.654	701.5
472.873	178.5
473.092	111.5
473.311	122.5
473.53	104.5
473.749	111.5
473.968	105.5
474.187	135.5
474.406	107.5
474.625	103.5
474.844	101.5
475.063	87.5
475.282	103.5
475.501	87.5
475.72	95.5
475.939	96.5
476.158	101.5
476.377	90.5
476.596	87.5
476.814	96.5
477.033	110.5
477.252	106.5
477.471	88.5
477.69	83.5
477.908	95.5
478.127	89.5
478.346	84.5
478.564	110.5
478.783	110.5
479.002	108.5
479.22	110.5
479.439	127.5
479.658	150.5
479.876	131.5
480.095	134.5
480.313	140.5
480.532	187.5
480.751	339.5
480.969	1288.5
481.188	5550.5
481.406	3087.5
481.624	428.5
481.843	155.5
482.061	118.5
482.28	109.5
482.498	111.5
482.717	109.5
482.935	97.5
483.153	100.5
483.372	96.5
483.59	100.5
483.808	92.5
484.027	94.5
484.245	113.5
484.463	86.5
484.681	100.5
484.9	93.5
485.118	101.5
485.336	96.5
485.554	103.5
485.772	97.5
485.99	116.5
486.209	97.5
486.427	112.5
486.645	150.5
486.863	142.5
487.081	110.5
487.299	92.5
487.517	100.5
487.735	94.5
487.953	88.5
488.171	100.5
488.389	110.5
488.607	106.5
488.825	88.5
489.043	90.5
489.261	97.5
489.479	91.5
489.696	88.5
489.914	90.5
490.132	106.5
490.35	91.5
490.568	88.5
490.786	93.5
491.003	90.5
491.221	94.5
491.439	93.5
491.657	82.5
491.874	91.5
492.092	104.5
492.31	106.5
492.527	106.5
492.745	108.5
492.963	107.5
493.18	96.5
493.398	104.5
493.615	96.5
493.833	95.5
494.05	90.5
494.268	95.5
494.485	99.5
494.703	80.5
494.92	95.5
495.138	108.5
495.355	101.5
495.573	86.5
495.79	98.5
496.008	90.5
496.225	101.5
496.442	110.5
496.66	87.5
496.877	98.5
497.094	100.5
497.312	83.5
497.529	97.5
497.746	94.5
497.963	91.5
498.181	85.5
498.398	109.5
498.615	118.5
498.832	117.5
499.049	105.5
499.267	82.5
499.484	78.5
499.701	86.5
499.918	93.5
500.135	94.5
500.352	109.5
500.569	91.5
500.786	112.5
501.003	95.5
501.22	92.5
501.437	111.5
501.654	107.5
501.871	123.5
502.088	113.5
502.305	90.5
502.522	87.5
502.739	95.5
502.956	97.5
503.172	119.5
503.389	107.5
503.606	146.5
503.823	115.5
504.04	103.5
504.256	101.5
504.473	90.5
504.69	97.5
504.907	90.5
505.123	90.5
505.34	82.5
505.557	91.5
505.773	91.5
505.99	87.5
506.207	103.5
506.423	86.5
506.64	86.5
506.856	96.5
507.073	91.5
507.289	89.5
507.506	102.5
507.722	154.5
507.939	152.5
508.155	101.5
508.372	112.5
508.588	110.5
508.805	124.5
509.021	90.5
509.238	88.5
509.454	120.5
509.67	119.5
509.887	123.5
510.103	157.5
510.319	280.5
510.536	1097.5
510.752	3831.5
510.968	996.5
511.184	204.5
511.401	128.5
511.617	119.5
511.833	115.5
512.049	107.5
512.265	93.5
512.481	112.5
512.698	109.5
512.914	96.5
513.13	101.5
513.346	107.5
513.562	109.5
513.778	109.5
513.994	100.5
514.21	119.5
514.426	163.5
514.642	204.5
514.858	182.5
515.074	264.5
515.29	870.5
515.506	3202.5
515.721	1078.5
515.937	243.5
516.153	150.5
516.369	122.5
516.585	111.5
516.801	119.5
517.016	115.5
517.232	114.5
517.448	91.5
517.664	99.5
517.879	95.5
518.095	106.5
518.311	113.5
518.527	119.5
518.742	94.5
518.958	103.5
519.173	94.5
519.389	116.5
519.605	97.5
519.82	108.5
520.036	116.5
520.251	180.5
520.467	136.5
520.682	135.5
520.898	140.5
521.113	162.5
521.329	201.5
521.544	346.5
521.76	1127.5
521.975	5400.5
522.19	3067.5
522.406	580.5
522.621	182.5
522.836	129.5
523.052	111.5
523.267	92.5
523.482	101.5
523.698	120.5
523.913	152.5
524.128	131.5
524.343	119.5
524.559	107.5
524.774	95.5
524.989	99.5
525.204	144.5
525.419	120.5
525.634	91.5
525.849	95.5
526.064	90.5
526.28	91.5
526.495	80.5
526.71	93.5
526.925	93.5
527.14	104.5
527.355	91.5
527.57	104.5
527.785	86.5
527.999	97.5
528.214	90.5
528.429	101.5
528.644	78.5
528.859	83.5
529.074	119.5
529.289	179.5
529.503	316.5
529.718	147.5
529.933	114.5
530.148	79.5
