Data from Circ_1997_H10_HRD10591_00010.txt Node
Date: Wed Jan 03 11:29:29 EST 2024
User: Yrep
Spectrometer: HR+D1059
Trigger mode: 1
Integration Time (sec): 1.000000E-1
Scans to average: 1
Electric dark correction enabled: true
Nonlinearity correction enabled: false
Boxcar width: 0
XAxis mode: Wavelengths
Number of Pixels in Spectrum: 2048
>>>>>Begin Spectral Data<<<<<
223.165	-12.31
223.4	-12.31
223.635	-12.31
223.869	-24.31
224.104	-24.31
224.338	-15.31
224.573	-16.31
224.808	-7.31
225.042	-19.31
225.277	-7.31
225.511	3.69
225.746	11.69
225.98	10.69
226.215	7.69
226.449	13.69
226.683	17.69
226.918	31.69
227.152	29.69
227.387	34.69
227.621	29.69
227.856	49.69
228.09	49.69
228.324	47.69
228.559	56.69
228.793	64.69
229.027	56.69
229.262	59.69
229.496	83.69
229.73	90.69
229.964	89.69
230.199	89.69
230.433	78.69
230.667	79.69
230.901	85.69
231.136	74.69
231.37	82.69
231.604	78.69
231.838	100.69
232.072	94.69
232.306	79.69
232.541	88.69
232.775	72.69
233.009	78.69
233.243	72.69
233.477	80.69
233.711	68.69
233.945	78.69
234.179	80.69
234.413	72.69
234.647	66.69
234.881	64.69
235.115	79.69
235.349	70.69
235.583	76.69
235.817	70.69
236.051	75.69
236.285	77.69
236.519	76.69
236.753	77.69
236.987	89.69
237.221	83.69
237.455	77.69
237.689	91.69
237.922	75.69
238.156	71.69
238.39	74.69
238.624	78.69
238.858	76.69
239.091	82.69
239.325	87.69
239.559	91.69
239.793	95.69
240.027	83.69
240.26	74.69
240.494	76.69
240.728	91.69
240.961	76.69
241.195	87.69
241.429	79.69
241.662	82.69
241.896	73.69
242.13	89.69
242.363	66.69
242.597	81.69
242.83	94.69
243.064	80.69
243.298	78.69
243.531	86.69
243.765	78.69
243.998	83.69
244.232	83.69
244.465	78.69
244.699	90.69
244.932	61.69
245.166	82.69
245.399	81.69
245.633	81.69
245.866	69.69
246.099	65.69
246.333	80.69
246.566	96.69
246.8	85.69
247.033	80.69
247.266	87.69
247.5	66.69
247.733	67.69
247.966	90.69
248.2	93.69
248.433	82.69
248.666	85.69
248.899	82.69
249.133	94.69
249.366	97.69
249.599	112.69
249.832	92.69
250.066	75.69
250.299	94.69
250.532	100.69
250.765	86.69
250.998	80.69
251.231	76.69
251.465	75.69
251.698	83.69
251.931	91.69
252.164	91.69
252.397	93.69
252.63	78.69
252.863	79.69
253.096	66.69
253.329	82.69
253.562	78.69
253.795	98.69
254.028	106.69
254.261	76.69
254.494	74.69
254.727	94.69
254.96	71.69
255.193	90.69
255.426	87.69
255.659	107.69
255.892	87.69
256.124	90.69
256.357	97.69
256.59	74.69
256.823	82.69
257.056	88.69
257.289	85.69
257.521	70.69
257.754	80.69
257.987	77.69
258.22	99.69
258.452	107.69
258.685	74.69
258.918	63.69
259.151	70.69
259.383	84.69
259.616	89.69
259.849	90.69
260.081	92.69
260.314	72.69
260.547	96.69
260.779	90.69
261.012	119.69
261.244	109.69
261.477	90.69
261.71	94.69
261.942	115.69
262.175	122.69
262.407	90.69
262.64	82.69
262.872	84.69
263.105	86.69
263.337	90.69
263.57	91.69
263.802	70.69
264.035	77.69
264.267	92.69
264.499	82.69
264.732	93.69
264.964	73.69
265.197	83.69
265.429	87.69
265.661	83.69
265.894	94.69
266.126	87.69
266.358	89.69
266.591	95.69
266.823	96.69
267.055	75.69
267.287	67.69
267.52	82.69
267.752	78.69
267.984	76.69
268.216	83.69
268.448	90.69
268.681	83.69
268.913	86.69
269.145	88.69
269.377	79.69
269.609	74.69
269.841	76.69
270.073	77.69
270.306	80.69
270.538	86.69
270.77	92.69
271.002	99.69
271.234	76.69
271.466	89.69
271.698	88.69
271.93	92.69
272.162	87.69
272.394	86.69
272.626	102.69
272.858	83.69
273.09	82.69
273.322	89.69
273.553	87.69
273.785	83.69
274.017	93.69
274.249	85.69
274.481	75.69
274.713	76.69
274.945	79.69
275.176	78.69
275.408	80.69
275.64	104.69
275.872	106.69
276.104	100.69
276.335	91.69
276.567	110.69
276.799	119.69
277.031	138.69
277.262	136.69
277.494	118.69
277.726	94.69
277.957	88.69
278.189	94.69
278.421	93.69
278.652	86.69
278.884	86.69
279.115	85.69
279.347	88.69
279.579	98.69
279.81	91.69
280.042	144.69
280.273	185.69
280.505	130.69
280.736	90.69
280.968	100.69
281.199	94.69
281.431	81.69
281.662	84.69
281.894	74.69
282.125	96.69
282.356	115.69
282.588	164.69
282.819	116.69
283.051	104.69
283.282	97.69
283.513	98.69
283.745	102.69
283.976	92.69
284.207	74.69
284.439	75.69
284.67	80.69
284.901	101.69
285.132	83.69
285.364	75.69
285.595	85.69
285.826	87.69
286.057	88.69
286.288	84.69
286.52	110.69
286.751	95.69
286.982	92.69
287.213	100.69
287.444	85.69
287.675	86.69
287.906	89.69
288.138	82.69
288.369	98.69
288.6	86.69
288.831	84.69
289.062	97.69
289.293	86.69
289.524	98.69
289.755	96.69
289.986	83.69
290.217	94.69
290.448	97.69
290.679	98.69
290.91	93.69
291.141	82.69
291.371	81.69
291.602	90.69
291.833	78.69
292.064	88.69
292.295	87.69
292.526	76.69
292.757	86.69
292.987	83.69
293.218	91.69
293.449	91.69
293.68	94.69
293.91	81.69
294.141	92.69
294.372	90.69
294.603	84.69
294.833	102.69
295.064	94.69
295.295	90.69
295.525	82.69
295.756	88.69
295.987	112.69
296.217	135.69
296.448	117.69
296.679	98.69
296.909	100.69
297.14	92.69
297.37	84.69
297.601	89.69
297.831	82.69
298.062	86.69
298.292	88.69
298.523	89.69
298.753	96.69
298.984	84.69
299.214	84.69
299.445	98.69
299.675	88.69
299.905	92.69
300.136	96.69
300.366	94.69
300.597	97.69
300.827	90.69
301.057	102.69
301.288	106.69
301.518	104.69
301.748	90.69
301.979	98.69
302.209	102.69
302.439	85.69
302.669	86.69
302.9	99.69
303.13	98.69
303.36	95.69
303.59	122.69
303.82	104.69
304.051	88.69
304.281	97.69
304.511	98.69
304.741	94.69
304.971	98.69
305.201	99.69
305.431	97.69
305.661	96.69
305.891	95.69
306.121	106.69
306.352	119.69
306.582	95.69
306.812	106.69
307.042	110.69
307.272	130.69
307.502	155.69
307.731	135.69
307.961	113.69
308.191	92.69
308.421	84.69
308.651	95.69
308.881	103.69
309.111	98.69
309.341	94.69
309.571	106.69
309.8	98.69
310.03	92.69
310.26	95.69
310.49	107.69
310.72	99.69
310.949	115.69
311.179	105.69
311.409	91.69
311.639	101.69
311.868	104.69
312.098	92.69
312.328	98.69
312.557	121.69
312.787	117.69
313.017	106.69
313.246	97.69
313.476	85.69
313.706	97.69
313.935	89.69
314.165	96.69
314.394	106.69
314.624	102.69
314.853	98.69
315.083	86.69
315.312	92.69
315.542	104.69
315.771	99.69
316.001	98.69
316.23	92.69
316.46	88.69
316.689	84.69
316.919	92.69
317.148	98.69
317.377	108.69
317.607	100.69
317.836	78.69
318.065	92.69
318.295	90.69
318.524	102.69
318.753	87.69
318.983	103.69
319.212	90.69
319.441	110.69
319.67	110.69
319.9	87.69
320.129	99.69
320.358	95.69
320.587	113.69
320.816	102.69
321.046	117.69
321.275	100.69
321.504	99.69
321.733	101.69
321.962	100.69
322.191	110.69
322.42	107.69
322.649	115.69
322.878	108.69
323.108	134.69
323.337	150.69
323.566	165.69
323.795	168.69
324.024	241.69
324.253	490.69
324.482	1106.69
324.71	2417.69
324.939	3244.69
325.168	1122.69
325.397	318.69
325.626	165.69
325.855	154.69
326.084	126.69
326.313	152.69
326.542	181.69
326.77	299.69
326.999	616.69
327.228	1332.69
327.457	2488.69
327.686	1922.69
327.914	538.69
328.143	376.69
328.372	415.69
328.6	258.69
328.829	137.69
329.058	158.69
329.287	156.69
329.515	156.69
329.744	185.69
329.972	318.69
330.201	582.69
330.43	824.69
330.658	402.69
330.887	226.69
331.115	154.69
331.344	117.69
331.572	117.69
331.801	105.69
332.03	123.69
332.258	96.69
332.486	106.69
332.715	108.69
332.943	106.69
333.172	99.69
333.4	116.69
333.629	149.69
333.857	176.69
334.085	295.69
334.314	572.69
334.542	1038.69
334.771	1006.69
334.999	298.69
335.227	140.69
335.455	116.69
335.684	99.69
335.912	103.69
336.14	106.69
336.369	110.69
336.597	97.69
336.825	93.69
337.053	99.69
337.281	89.69
337.51	93.69
337.738	93.69
337.966	95.69
338.194	95.69
338.422	84.69
338.65	97.69
338.878	95.69
339.106	102.69
339.334	92.69
339.562	86.69
339.79	92.69
340.018	83.69
340.246	97.69
340.474	88.69
340.702	95.69
340.93	98.69
341.158	101.69
341.386	96.69
341.614	87.69
341.842	98.69
342.07	92.69
342.298	102.69
342.526	92.69
342.754	76.69
342.981	87.69
343.209	90.69
343.437	100.69
343.665	87.69
343.893	90.69
344.12	91.69
344.348	79.69
344.576	111.69
344.804	95.69
345.031	96.69
345.259	106.69
345.487	93.69
345.714	97.69
345.942	103.69
346.17	87.69
346.397	103.69
346.625	96.69
346.853	96.69
347.08	80.69
347.308	100.69
347.535	95.69
347.763	98.69
347.99	107.69
348.218	116.69
348.445	109.69
348.673	105.69
348.9	97.69
349.128	105.69
349.355	97.69
349.583	96.69
349.81	86.69
350.037	91.69
350.265	95.69
350.492	89.69
350.72	95.69
350.947	96.69
351.174	112.69
351.402	118.69
351.629	98.69
351.856	95.69
352.083	98.69
352.311	103.69
352.538	118.69
352.765	134.69
352.992	122.69
353.22	120.69
353.447	105.69
353.674	87.69
353.901	112.69
354.128	93.69
354.355	93.69
354.583	109.69
354.81	105.69
355.037	97.69
355.264	105.69
355.491	98.69
355.718	88.69
355.945	107.69
356.172	90.69
356.399	89.69
356.626	112.69
356.853	99.69
357.08	94.69
357.307	103.69
357.534	93.69
357.761	98.69
357.988	115.69
358.215	86.69
358.441	97.69
358.668	106.69
358.895	91.69
359.122	95.69
359.349	93.69
359.576	95.69
359.802	103.69
360.029	126.69
360.256	118.69
360.483	101.69
360.709	87.69
360.936	109.69
361.163	110.69
361.39	108.69
361.616	98.69
361.843	100.69
362.07	97.69
362.296	109.69
362.523	89.69
362.749	106.69
362.976	108.69
363.203	99.69
363.429	80.69
363.656	80.69
363.882	96.69
364.109	90.69
364.335	88.69
364.562	95.69
364.788	86.69
365.015	105.69
365.241	93.69
365.468	106.69
365.694	106.69
365.92	111.69
366.147	96.69
366.373	86.69
366.599	87.69
366.826	93.69
367.052	97.69
367.278	82.69
367.505	92.69
367.731	91.69
367.957	105.69
368.184	81.69
368.41	107.69
368.636	117.69
368.862	142.69
369.089	110.69
369.315	107.69
369.541	98.69
369.767	96.69
369.993	84.69
370.219	99.69
370.445	97.69
370.672	115.69
370.898	94.69
371.124	90.69
371.35	93.69
371.576	89.69
371.802	79.69
372.028	80.69
372.254	90.69
372.48	85.69
372.706	100.69
372.932	93.69
373.158	88.69
373.384	87.69
373.61	79.69
373.835	85.69
374.061	94.69
374.287	106.69
374.513	98.69
374.739	87.69
374.965	91.69
375.191	102.69
375.416	82.69
375.642	82.69
375.868	94.69
376.094	90.69
376.319	93.69
376.545	107.69
376.771	94.69
376.997	99.69
377.222	100.69
377.448	66.69
377.674	73.69
377.899	108.69
378.125	81.69
378.35	92.69
378.576	91.69
378.802	102.69
379.027	84.69
379.253	96.69
379.478	87.69
379.704	103.69
379.929	81.69
380.155	103.69
380.38	110.69
380.606	99.69
380.831	100.69
381.057	109.69
381.282	107.69
381.507	115.69
381.733	100.69
381.958	101.69
382.184	104.69
382.409	111.69
382.634	100.69
382.86	81.69
383.085	97.69
383.31	110.69
383.535	100.69
383.761	98.69
383.986	94.69
384.211	95.69
384.436	94.69
384.662	113.69
384.887	106.69
385.112	109.69
385.337	109.69
385.562	108.69
385.787	108.69
386.013	107.69
386.238	111.69
386.463	124.69
386.688	111.69
386.913	89.69
387.138	110.69
387.363	100.69
387.588	98.69
387.813	92.69
388.038	110.69
388.263	109.69
388.488	111.69
388.713	118.69
388.938	101.69
389.163	89.69
389.387	101.69
389.612	102.69
389.837	101.69
390.062	106.69
390.287	94.69
390.512	84.69
390.736	89.69
390.961	83.69
391.186	93.69
391.411	85.69
391.636	78.69
391.86	75.69
392.085	87.69
392.31	91.69
392.534	91.69
392.759	97.69
392.984	90.69
393.208	94.69
393.433	103.69
393.658	102.69
393.882	81.69
394.107	82.69
394.331	84.69
394.556	82.69
394.78	84.69
395.005	83.69
395.229	76.69
395.454	89.69
395.678	88.69
395.903	88.69
396.127	91.69
396.352	93.69
396.576	82.69
396.801	91.69
397.025	106.69
397.249	64.69
397.474	83.69
397.698	91.69
397.922	92.69
398.147	83.69
398.371	93.69
398.595	76.69
398.82	93.69
399.044	93.69
399.268	94.69
399.492	81.69
399.717	96.69
399.941	103.69
400.165	105.69
400.389	83.69
400.613	98.69
400.837	83.69
401.062	82.69
401.286	81.69
401.51	96.69
401.734	100.69
401.958	98.69
402.182	130.69
402.406	170.69
402.63	116.69
402.854	97.69
403.078	93.69
403.302	82.69
403.526	72.69
403.75	85.69
403.974	103.69
404.198	100.69
404.422	99.69
404.645	102.69
404.869	94.69
405.093	118.69
405.317	119.69
405.541	129.69
405.765	102.69
405.988	130.69
406.212	191.69
406.436	266.69
406.66	166.69
406.883	102.69
407.107	107.69
407.331	111.69
407.555	112.69
407.778	96.69
408.002	92.69
408.226	96.69
408.449	96.69
408.673	79.69
408.896	90.69
409.12	103.69
409.344	97.69
409.567	105.69
409.791	102.69
410.014	96.69
410.238	92.69
410.461	85.69
410.685	98.69
410.908	86.69
411.132	105.69
411.355	115.69
411.578	91.69
411.802	71.69
412.025	95.69
412.249	93.69
412.472	116.69
412.695	121.69
412.919	99.69
413.142	92.69
413.365	94.69
413.589	95.69
413.812	78.69
414.035	100.69
414.258	99.69
414.482	99.69
414.705	87.69
414.928	92.69
415.151	97.69
415.374	80.69
415.597	84.69
415.821	82.69
416.044	101.69
416.267	80.69
416.49	92.69
416.713	92.69
416.936	84.69
417.159	80.69
417.382	98.69
417.605	98.69
417.828	103.69
418.051	98.69
418.274	86.69
418.497	83.69
418.72	88.69
418.943	88.69
419.166	89.69
419.389	100.69
419.611	105.69
419.834	91.69
420.057	93.69
420.28	100.69
420.503	98.69
420.726	86.69
420.948	95.69
421.171	94.69
421.394	92.69
421.617	89.69
421.839	81.69
422.062	110.69
422.285	100.69
422.507	92.69
422.73	107.69
422.953	91.69
423.175	89.69
423.398	73.69
423.621	95.69
423.843	90.69
424.066	97.69
424.288	89.69
424.511	94.69
424.733	110.69
424.956	116.69
425.178	110.69
425.401	98.69
425.623	112.69
425.846	100.69
426.068	97.69
426.291	92.69
426.513	78.69
426.735	91.69
426.958	106.69
427.18	119.69
427.402	157.69
427.625	220.69
427.847	210.69
428.069	193.69
428.292	127.69
428.514	104.69
428.736	81.69
428.958	84.69
429.181	81.69
429.403	82.69
429.625	99.69
429.847	103.69
430.069	123.69
430.292	97.69
430.514	90.69
430.736	88.69
430.958	93.69
431.18	76.69
431.402	92.69
431.624	86.69
431.846	75.69
432.068	89.69
432.29	91.69
432.512	97.69
432.734	82.69
432.956	92.69
433.178	111.69
433.4	90.69
433.622	95.69
433.844	97.69
434.066	92.69
434.287	81.69
434.509	101.69
434.731	85.69
434.953	91.69
435.175	85.69
435.397	100.69
435.618	99.69
435.84	108.69
436.062	155.69
436.284	115.69
436.505	109.69
436.727	100.69
436.949	101.69
437.17	104.69
437.392	81.69
437.614	94.69
437.835	100.69
438.057	126.69
438.278	125.69
438.5	115.69
438.721	146.69
438.943	107.69
439.165	101.69
439.386	74.69
439.608	96.69
439.829	113.69
440.05	132.69
440.272	178.69
440.493	96.69
440.715	100.69
440.936	101.69
441.158	97.69
441.379	83.69
441.6	114.69
441.822	98.69
442.043	105.69
442.264	112.69
442.486	113.69
442.707	91.69
442.928	107.69
443.149	160.69
443.371	162.69
443.592	123.69
443.813	131.69
444.034	103.69
444.255	88.69
444.476	80.69
444.698	81.69
444.919	97.69
445.14	144.69
445.361	125.69
445.582	140.69
445.803	164.69
446.024	169.69
446.245	176.69
446.466	139.69
446.687	99.69
446.908	86.69
447.129	89.69
447.35	86.69
447.571	91.69
447.792	80.69
448.013	101.69
448.234	108.69
448.455	112.69
448.675	135.69
448.896	142.69
449.117	102.69
449.338	117.69
449.559	155.69
449.779	162.69
450	106.69
450.221	97.69
450.442	103.69
450.662	106.69
450.883	118.69
451.104	106.69
451.324	94.69
451.545	91.69
451.766	84.69
451.986	83.69
452.207	81.69
452.428	95.69
452.648	105.69
452.869	100.69
453.089	126.69
453.31	123.69
453.53	104.69
453.751	86.69
453.971	106.69
454.192	112.69
454.412	101.69
454.633	91.69
454.853	83.69
455.073	83.69
455.294	79.69
455.514	109.69
455.734	95.69
455.955	89.69
456.175	82.69
456.395	83.69
456.616	86.69
456.836	85.69
457.056	87.69
457.276	93.69
457.497	83.69
457.717	82.69
457.937	81.69
458.157	88.69
458.377	90.69
458.598	116.69
458.818	168.69
459.038	187.69
459.258	143.69
459.478	95.69
459.698	103.69
459.918	88.69
460.138	88.69
460.358	87.69
460.578	88.69
460.798	96.69
461.018	97.69
461.238	86.69
461.458	82.69
461.678	83.69
461.898	95.69
462.118	80.69
462.338	84.69
462.558	98.69
462.777	73.69
462.997	82.69
463.217	102.69
463.437	100.69
463.657	92.69
463.876	96.69
464.096	88.69
464.316	100.69
464.536	107.69
464.755	98.69
464.975	116.69
465.195	196.69
465.414	180.69
465.634	109.69
465.854	98.69
466.073	92.69
466.293	95.69
466.512	91.69
466.732	90.69
466.951	81.69
467.171	80.69
467.391	95.69
467.61	123.69
467.829	158.69
468.049	337.69
468.268	481.69
468.488	160.69
468.707	97.69
468.927	91.69
469.146	93.69
469.365	102.69
469.585	97.69
469.804	106.69
470.023	115.69
470.243	98.69
470.462	97.69
470.681	120.69
470.901	95.69
471.12	90.69
471.339	103.69
471.558	106.69
471.777	120.69
471.997	208.69
472.216	643.69
472.435	1440.69
472.654	370.69
472.873	126.69
473.092	106.69
473.311	86.69
473.53	97.69
473.749	100.69
473.968	94.69
474.187	124.69
474.406	108.69
474.625	95.69
474.844	81.69
475.063	80.69
475.282	86.69
475.501	74.69
475.72	83.69
475.939	98.69
476.158	88.69
476.377	84.69
476.596	95.69
476.814	93.69
477.033	103.69
477.252	95.69
477.471	95.69
477.69	93.69
477.908	92.69
478.127	75.69
478.346	89.69
478.564	95.69
478.783	91.69
479.002	87.69
479.22	100.69
479.439	113.69
479.658	116.69
479.876	114.69
480.095	117.69
480.313	118.69
480.532	137.69
480.751	202.69
480.969	642.69
481.188	2462.69
481.406	1474.69
481.624	251.69
481.843	116.69
482.061	100.69
482.28	93.69
482.498	93.69
482.717	94.69
482.935	92.69
483.153	82.69
483.372	82.69
483.59	89.69
483.808	101.69
484.027	85.69
484.245	90.69
484.463	108.69
484.681	92.69
484.9	81.69
485.118	100.69
485.336	92.69
485.554	89.69
485.772	105.69
485.99	97.69
486.209	91.69
486.427	98.69
486.645	134.69
486.863	121.69
487.081	104.69
487.299	108.69
487.517	97.69
487.735	97.69
487.953	101.69
488.171	88.69
488.389	104.69
488.607	104.69
488.825	90.69
489.043	90.69
489.261	100.69
489.479	91.69
489.696	84.69
489.914	93.69
490.132	88.69
490.35	96.69
490.568	86.69
490.786	92.69
491.003	84.69
491.221	94.69
491.439	95.69
491.657	88.69
491.874	90.69
492.092	102.69
492.31	92.69
492.527	100.69
492.745	101.69
492.963	105.69
493.18	87.69
493.398	99.69
493.615	89.69
493.833	90.69
494.05	89.69
494.268	94.69
494.485	91.69
494.703	98.69
494.92	90.69
495.138	100.69
495.355	92.69
495.573	84.69
495.79	71.69
496.008	106.69
496.225	73.69
496.442	95.69
496.66	85.69
496.877	95.69
497.094	95.69
497.312	99.69
497.529	94.69
497.746	85.69
497.963	80.69
498.181	103.69
498.398	83.69
498.615	112.69
498.832	121.69
499.049	101.69
499.267	82.69
499.484	88.69
499.701	89.69
499.918	93.69
500.135	91.69
500.352	86.69
500.569	92.69
500.786	107.69
501.003	83.69
501.22	82.69
501.437	88.69
501.654	105.69
501.871	106.69
502.088	88.69
502.305	89.69
502.522	98.69
502.739	86.69
502.956	87.69
503.172	87.69
503.389	113.69
503.606	117.69
503.823	105.69
504.04	99.69
504.256	95.69
504.473	88.69
504.69	92.69
504.907	91.69
505.123	96.69
505.34	104.69
505.557	99.69
505.773	95.69
505.99	96.69
506.207	94.69
506.423	93.69
506.64	71.69
506.856	91.69
507.073	74.69
507.289	94.69
507.506	92.69
507.722	112.69
507.939	119.69
508.155	92.69
508.372	87.69
508.588	103.69
508.805	94.69
509.021	91.69
509.238	88.69
509.454	72.69
509.67	113.69
509.887	115.69
510.103	132.69
510.319	211.69
510.536	724.69
510.752	2488.69
510.968	689.69
511.184	154.69
511.401	120.69
511.617	114.69
511.833	104.69
512.049	92.69
512.265	82.69
512.481	78.69
512.698	94.69
512.914	92.69
513.13	101.69
513.346	96.69
513.562	89.69
