Data from Circ_1997_H10_HRD10591_00080.txt Node
Date: Wed Jan 03 11:29:43 EST 2024
User: Yrep
Spectrometer: HR+D1059
Trigger mode: 1
Integration Time (sec): 1.000000E-1
Scans to average: 1
Electric dark correction enabled: true
Nonlinearity correction enabled: false
Boxcar width: 0
XAxis mode: Wavelengths
Number of Pixels in Spectrum: 2048
>>>>>Begin Spectral Data<<<<<
223.165	-23.44
223.4	-23.44
223.635	-23.44
223.869	-18.44
224.104	-17.44
224.338	-10.44
224.573	-8.44
224.808	-18.44
225.042	0.56
225.277	-2.44
225.511	3.56
225.746	4.56
225.98	0.56
226.215	3.56
226.449	14.56
226.683	19.56
226.918	26.56
227.152	25.56
227.387	34.56
227.621	45.56
227.856	60.56
228.09	56.56
228.324	41.56
228.559	64.56
228.793	61.56
229.027	57.56
229.262	78.56
229.496	90.56
229.73	92.56
229.964	95.56
230.199	83.56
230.433	72.56
230.667	76.56
230.901	86.56
231.136	76.56
231.37	83.56
231.604	84.56
231.838	68.56
232.072	70.56
232.306	77.56
232.541	82.56
232.775	74.56
233.009	86.56
233.243	89.56
233.477	70.56
233.711	92.56
233.945	69.56
234.179	75.56
234.413	82.56
234.647	97.56
234.881	89.56
235.115	89.56
235.349	89.56
235.583	78.56
235.817	89.56
236.051	85.56
236.285	74.56
236.519	82.56
236.753	89.56
236.987	80.56
237.221	97.56
237.455	81.56
237.689	84.56
237.922	85.56
238.156	73.56
238.39	84.56
238.624	68.56
238.858	75.56
239.091	77.56
239.325	80.56
239.559	72.56
239.793	98.56
240.027	93.56
240.26	86.56
240.494	63.56
240.728	76.56
240.961	82.56
241.195	88.56
241.429	80.56
241.662	63.56
241.896	74.56
242.13	73.56
242.363	67.56
242.597	73.56
242.83	87.56
243.064	83.56
243.298	79.56
243.531	60.56
243.765	88.56
243.998	85.56
244.232	79.56
244.465	96.56
244.699	82.56
244.932	87.56
245.166	86.56
245.399	88.56
245.633	88.56
245.866	72.56
246.099	77.56
246.333	75.56
246.566	82.56
246.8	91.56
247.033	72.56
247.266	84.56
247.5	72.56
247.733	62.56
247.966	85.56
248.2	82.56
248.433	77.56
248.666	91.56
248.899	78.56
249.133	97.56
249.366	105.56
249.599	99.56
249.832	84.56
250.066	87.56
250.299	73.56
250.532	84.56
250.765	87.56
250.998	71.56
251.231	77.56
251.465	71.56
251.698	82.56
251.931	72.56
252.164	84.56
252.397	85.56
252.63	66.56
252.863	87.56
253.096	86.56
253.329	83.56
253.562	84.56
253.795	85.56
254.028	83.56
254.261	91.56
254.494	81.56
254.727	90.56
254.96	75.56
255.193	95.56
255.426	85.56
255.659	91.56
255.892	94.56
256.124	93.56
256.357	102.56
256.59	95.56
256.823	87.56
257.056	85.56
257.289	107.56
257.521	87.56
257.754	93.56
257.987	90.56
258.22	84.56
258.452	119.56
258.685	97.56
258.918	99.56
259.151	95.56
259.383	78.56
259.616	96.56
259.849	92.56
260.081	87.56
260.314	81.56
260.547	100.56
260.779	88.56
261.012	103.56
261.244	101.56
261.477	113.56
261.71	105.56
261.942	138.56
262.175	129.56
262.407	99.56
262.64	91.56
262.872	88.56
263.105	88.56
263.337	82.56
263.57	77.56
263.802	80.56
264.035	79.56
264.267	75.56
264.499	76.56
264.732	88.56
264.964	95.56
265.197	88.56
265.429	81.56
265.661	83.56
265.894	71.56
266.126	91.56
266.358	89.56
266.591	92.56
266.823	94.56
267.055	96.56
267.287	87.56
267.52	80.56
267.752	86.56
267.984	71.56
268.216	82.56
268.448	84.56
268.681	73.56
268.913	87.56
269.145	87.56
269.377	86.56
269.609	104.56
269.841	98.56
270.073	84.56
270.306	74.56
270.538	85.56
270.77	81.56
271.002	84.56
271.234	96.56
271.466	101.56
271.698	108.56
271.93	94.56
272.162	90.56
272.394	92.56
272.626	98.56
272.858	66.56
273.09	86.56
273.322	75.56
273.553	96.56
273.785	80.56
274.017	93.56
274.249	80.56
274.481	91.56
274.713	86.56
274.945	87.56
275.176	106.56
275.408	104.56
275.64	115.56
275.872	112.56
276.104	99.56
276.335	98.56
276.567	113.56
276.799	155.56
277.031	168.56
277.262	205.56
277.494	129.56
277.726	96.56
277.957	96.56
278.189	81.56
278.421	96.56
278.652	77.56
278.884	85.56
279.115	104.56
279.347	104.56
279.579	101.56
279.81	152.56
280.042	233.56
280.273	289.56
280.505	193.56
280.736	106.56
280.968	97.56
281.199	89.56
281.431	83.56
281.662	87.56
281.894	108.56
282.125	108.56
282.356	128.56
282.588	167.56
282.819	133.56
283.051	87.56
283.282	90.56
283.513	78.56
283.745	83.56
283.976	91.56
284.207	88.56
284.439	101.56
284.67	72.56
284.901	83.56
285.132	86.56
285.364	82.56
285.595	86.56
285.826	86.56
286.057	92.56
286.288	84.56
286.52	98.56
286.751	82.56
286.982	97.56
287.213	98.56
287.444	86.56
287.675	96.56
287.906	96.56
288.138	86.56
288.369	92.56
288.6	83.56
288.831	78.56
289.062	107.56
289.293	107.56
289.524	75.56
289.755	79.56
289.986	77.56
290.217	95.56
290.448	74.56
290.679	74.56
290.91	102.56
291.141	86.56
291.371	92.56
291.602	84.56
291.833	99.56
292.064	94.56
292.295	92.56
292.526	93.56
292.757	87.56
292.987	76.56
293.218	83.56
293.449	76.56
293.68	88.56
293.91	84.56
294.141	85.56
294.372	77.56
294.603	95.56
294.833	88.56
295.064	86.56
295.295	90.56
295.525	103.56
295.756	111.56
295.987	129.56
296.217	185.56
296.448	155.56
296.679	96.56
296.909	81.56
297.14	86.56
297.37	91.56
297.601	78.56
297.831	102.56
298.062	95.56
298.292	89.56
298.523	96.56
298.753	86.56
298.984	93.56
299.214	88.56
299.445	104.56
299.675	97.56
299.905	103.56
300.136	102.56
300.366	107.56
300.597	87.56
300.827	94.56
301.057	104.56
301.288	116.56
301.518	95.56
301.748	106.56
301.979	127.56
302.209	95.56
302.439	96.56
302.669	87.56
302.9	88.56
303.13	99.56
303.36	120.56
303.59	130.56
303.82	153.56
304.051	94.56
304.281	95.56
304.511	89.56
304.741	101.56
304.971	98.56
305.201	90.56
305.431	86.56
305.661	92.56
305.891	96.56
306.121	99.56
306.352	112.56
306.582	128.56
306.812	97.56
307.042	124.56
307.272	186.56
307.502	193.56
307.731	185.56
307.961	144.56
308.191	97.56
308.421	92.56
308.651	90.56
308.881	99.56
309.111	91.56
309.341	106.56
309.571	107.56
309.8	96.56
310.03	107.56
310.26	106.56
310.49	83.56
310.72	102.56
310.949	115.56
311.179	104.56
311.409	97.56
311.639	98.56
311.868	105.56
312.098	98.56
312.328	95.56
312.557	112.56
312.787	118.56
313.017	95.56
313.246	92.56
313.476	97.56
313.706	118.56
313.935	92.56
314.165	106.56
314.394	129.56
314.624	95.56
314.853	111.56
315.083	107.56
315.312	93.56
315.542	90.56
315.771	111.56
316.001	96.56
316.23	94.56
316.46	79.56
316.689	88.56
316.919	95.56
317.148	103.56
317.377	93.56
317.607	96.56
317.836	86.56
318.065	93.56
318.295	82.56
318.524	78.56
318.753	84.56
318.983	110.56
319.212	122.56
319.441	112.56
319.67	106.56
319.9	90.56
320.129	106.56
320.358	92.56
320.587	107.56
320.816	93.56
321.046	92.56
321.275	94.56
321.504	102.56
321.733	114.56
321.962	108.56
322.191	103.56
322.42	114.56
322.649	108.56
322.878	123.56
323.108	136.56
323.337	135.56
323.566	171.56
323.795	182.56
324.024	272.56
324.253	493.56
324.482	1096.56
324.71	2388.56
324.939	3074.56
325.168	1094.56
325.397	317.56
325.626	162.56
325.855	159.56
326.084	139.56
326.313	172.56
326.542	183.56
326.77	266.56
326.999	563.56
327.228	1182.56
327.457	2242.56
327.686	1777.56
327.914	626.56
328.143	604.56
328.372	754.56
328.6	406.56
328.829	214.56
329.058	193.56
329.287	206.56
329.515	200.56
329.744	287.56
329.972	582.56
330.201	1209.56
330.43	1738.56
330.658	744.56
330.887	288.56
331.115	185.56
331.344	126.56
331.572	119.56
331.801	129.56
332.03	123.56
332.258	119.56
332.486	102.56
332.715	128.56
332.943	95.56
333.172	131.56
333.4	135.56
333.629	181.56
333.857	264.56
334.085	524.56
334.314	1125.56
334.542	2206.56
334.771	2002.56
334.999	497.56
335.227	172.56
335.455	132.56
335.684	130.56
335.912	116.56
336.14	83.56
336.369	107.56
336.597	111.56
336.825	110.56
337.053	113.56
337.281	101.56
337.51	91.56
337.738	95.56
337.966	99.56
338.194	114.56
338.422	97.56
338.65	104.56
338.878	112.56
339.106	89.56
339.334	100.56
339.562	92.56
339.79	105.56
340.018	98.56
340.246	102.56
340.474	91.56
340.702	83.56
340.93	85.56
341.158	100.56
341.386	92.56
341.614	103.56
341.842	92.56
342.07	102.56
342.298	92.56
342.526	99.56
342.754	100.56
342.981	93.56
343.209	93.56
343.437	88.56
343.665	103.56
343.893	90.56
344.12	97.56
344.348	104.56
344.576	88.56
344.804	104.56
345.031	108.56
345.259	120.56
345.487	97.56
345.714	92.56
345.942	92.56
346.17	97.56
346.397	99.56
346.625	100.56
346.853	86.56
347.08	91.56
347.308	96.56
347.535	96.56
347.763	116.56
347.99	112.56
348.218	105.56
348.445	123.56
348.673	96.56
348.9	102.56
349.128	100.56
349.355	90.56
349.583	98.56
349.81	101.56
350.037	100.56
350.265	104.56
350.492	98.56
350.72	100.56
350.947	110.56
351.174	119.56
351.402	119.56
351.629	117.56
351.856	114.56
352.083	120.56
352.311	107.56
352.538	120.56
352.765	125.56
352.992	109.56
353.22	105.56
353.447	110.56
353.674	113.56
353.901	86.56
354.128	95.56
354.355	106.56
354.583	91.56
354.81	97.56
355.037	92.56
355.264	104.56
355.491	86.56
355.718	98.56
355.945	94.56
356.172	89.56
356.399	112.56
356.626	89.56
356.853	98.56
357.08	82.56
357.307	84.56
357.534	83.56
357.761	93.56
357.988	119.56
358.215	88.56
358.441	88.56
358.668	90.56
358.895	92.56
359.122	93.56
359.349	101.56
359.576	98.56
359.802	107.56
360.029	147.56
360.256	129.56
360.483	107.56
360.709	108.56
360.936	102.56
361.163	91.56
361.39	97.56
361.616	104.56
361.843	99.56
362.07	92.56
362.296	112.56
362.523	94.56
362.749	97.56
362.976	99.56
363.203	103.56
363.429	97.56
363.656	100.56
363.882	98.56
364.109	88.56
364.335	106.56
364.562	93.56
364.788	88.56
365.015	97.56
365.241	116.56
365.468	121.56
365.694	118.56
365.92	106.56
366.147	93.56
366.373	95.56
366.599	108.56
366.826	92.56
367.052	88.56
367.278	94.56
367.505	103.56
367.731	101.56
367.957	102.56
368.184	108.56
368.41	112.56
368.636	119.56
368.862	122.56
369.089	123.56
369.315	101.56
369.541	96.56
369.767	96.56
369.993	110.56
370.219	99.56
370.445	105.56
370.672	84.56
370.898	84.56
371.124	87.56
371.35	91.56
371.576	77.56
371.802	91.56
372.028	88.56
372.254	88.56
372.48	95.56
372.706	75.56
372.932	88.56
373.158	94.56
373.384	92.56
373.61	90.56
373.835	94.56
374.061	98.56
374.287	107.56
374.513	104.56
374.739	99.56
374.965	83.56
375.191	95.56
375.416	92.56
375.642	87.56
375.868	83.56
376.094	78.56
376.319	76.56
376.545	92.56
376.771	105.56
376.997	96.56
377.222	94.56
377.448	86.56
377.674	92.56
377.899	99.56
378.125	86.56
378.35	100.56
378.576	75.56
378.802	86.56
379.027	93.56
379.253	89.56
379.478	97.56
379.704	103.56
379.929	92.56
380.155	95.56
380.38	93.56
380.606	87.56
380.831	93.56
381.057	98.56
381.282	93.56
381.507	90.56
381.733	91.56
381.958	95.56
382.184	100.56
382.409	88.56
382.634	106.56
382.86	92.56
383.085	107.56
383.31	113.56
383.535	98.56
383.761	112.56
383.986	112.56
384.211	103.56
384.436	107.56
384.662	93.56
384.887	97.56
385.112	96.56
385.337	118.56
385.562	97.56
385.787	101.56
386.013	115.56
386.238	116.56
386.463	100.56
386.688	111.56
386.913	97.56
387.138	100.56
387.363	108.56
387.588	105.56
387.813	93.56
388.038	94.56
388.263	106.56
388.488	100.56
388.713	84.56
388.938	113.56
389.163	102.56
389.387	93.56
389.612	88.56
389.837	100.56
390.062	93.56
390.287	92.56
390.512	88.56
390.736	98.56
390.961	91.56
391.186	92.56
391.411	96.56
391.636	88.56
391.86	79.56
392.085	96.56
392.31	86.56
392.534	94.56
392.759	94.56
392.984	82.56
393.208	103.56
393.433	78.56
393.658	98.56
393.882	81.56
394.107	83.56
394.331	89.56
394.556	81.56
394.78	93.56
395.005	97.56
395.229	86.56
395.454	89.56
395.678	83.56
395.903	86.56
396.127	99.56
396.352	83.56
396.576	89.56
396.801	93.56
397.025	88.56
397.249	94.56
397.474	90.56
397.698	86.56
397.922	84.56
398.147	96.56
398.371	85.56
398.595	84.56
398.82	89.56
399.044	83.56
399.268	87.56
399.492	91.56
399.717	88.56
399.941	88.56
400.165	109.56
400.389	97.56
400.613	92.56
400.837	90.56
401.062	91.56
401.286	105.56
401.51	113.56
401.734	97.56
401.958	113.56
402.182	136.56
402.406	209.56
402.63	164.56
402.854	102.56
403.078	101.56
403.302	86.56
403.526	83.56
403.75	80.56
403.974	89.56
404.198	103.56
404.422	95.56
404.645	88.56
404.869	107.56
405.093	126.56
405.317	146.56
405.541	148.56
405.765	117.56
405.988	140.56
406.212	222.56
406.436	298.56
406.66	199.56
406.883	124.56
407.107	124.56
407.331	109.56
407.555	109.56
407.778	92.56
408.002	100.56
408.226	89.56
408.449	82.56
408.673	94.56
408.896	94.56
409.12	105.56
409.344	102.56
409.567	95.56
409.791	95.56
410.014	98.56
410.238	90.56
410.461	81.56
410.685	100.56
410.908	99.56
411.132	114.56
411.355	105.56
411.578	90.56
411.802	89.56
412.025	99.56
412.249	98.56
412.472	143.56
412.695	161.56
412.919	115.56
413.142	94.56
413.365	106.56
413.589	75.56
413.812	87.56
414.035	92.56
414.258	92.56
414.482	94.56
414.705	89.56
414.928	88.56
415.151	91.56
415.374	90.56
415.597	95.56
415.821	104.56
416.044	99.56
416.267	84.56
416.49	99.56
416.713	98.56
416.936	110.56
417.159	88.56
417.382	98.56
417.605	109.56
417.828	116.56
418.051	115.56
418.274	90.56
418.497	91.56
418.72	84.56
418.943	95.56
419.166	84.56
419.389	83.56
419.611	86.56
419.834	90.56
420.057	101.56
420.28	100.56
420.503	100.56
420.726	91.56
420.948	98.56
421.171	105.56
421.394	75.56
421.617	106.56
421.839	83.56
422.062	88.56
422.285	86.56
422.507	96.56
422.73	98.56
422.953	97.56
423.175	74.56
423.398	101.56
423.621	89.56
423.843	83.56
424.066	94.56
424.288	83.56
424.511	102.56
424.733	106.56
424.956	115.56
425.178	103.56
425.401	103.56
425.623	102.56
425.846	86.56
426.068	94.56
426.291	94.56
426.513	100.56
426.735	105.56
426.958	99.56
427.18	121.56
427.402	179.56
427.625	284.56
427.847	258.56
428.069	264.56
428.292	127.56
428.514	86.56
428.736	113.56
428.958	95.56
429.181	85.56
429.403	84.56
429.625	94.56
429.847	101.56
430.069	112.56
430.292	106.56
430.514	91.56
430.736	71.56
430.958	73.56
431.18	96.56
431.402	92.56
431.624	91.56
431.846	112.56
432.068	84.56
432.29	78.56
432.512	83.56
432.734	89.56
432.956	92.56
433.178	114.56
433.4	110.56
433.622	97.56
433.844	109.56
434.066	99.56
434.287	90.56
434.509	90.56
434.731	97.56
434.953	86.56
435.175	88.56
435.397	92.56
435.618	100.56
435.84	117.56
436.062	142.56
436.284	130.56
436.505	115.56
436.727	110.56
436.949	87.56
437.17	97.56
437.392	109.56
437.614	94.56
437.835	131.56
438.057	148.56
438.278	125.56
438.5	121.56
438.721	137.56
438.943	108.56
439.165	98.56
439.386	100.56
439.608	99.56
439.829	124.56
440.05	182.56
440.272	189.56
440.493	110.56
440.715	102.56
440.936	92.56
441.158	81.56
441.379	105.56
441.6	110.56
441.822	104.56
442.043	93.56
442.264	134.56
442.486	123.56
442.707	103.56
442.928	132.56
443.149	175.56
443.371	173.56
443.592	143.56
443.813	135.56
444.034	125.56
444.255	88.56
444.476	95.56
444.698	93.56
444.919	90.56
445.14	127.56
445.361	123.56
445.582	147.56
445.803	203.56
446.024	178.56
446.245	163.56
446.466	132.56
446.687	94.56
446.908	92.56
447.129	98.56
447.35	103.56
447.571	103.56
447.792	102.56
448.013	105.56
448.234	126.56
448.455	108.56
448.675	150.56
448.896	140.56
449.117	104.56
449.338	130.56
449.559	154.56
449.779	158.56
450	118.56
450.221	101.56
450.442	97.56
450.662	108.56
450.883	124.56
451.104	136.56
451.324	103.56
451.545	88.56
451.766	83.56
451.986	96.56
452.207	94.56
452.428	95.56
452.648	115.56
452.869	137.56
453.089	138.56
453.31	142.56
453.53	94.56
453.751	100.56
453.971	113.56
454.192	126.56
454.412	95.56
454.633	94.56
454.853	86.56
455.073	90.56
455.294	103.56
455.514	105.56
455.734	85.56
455.955	94.56
456.175	108.56
456.395	89.56
456.616	82.56
456.836	85.56
457.056	97.56
457.276	98.56
457.497	91.56
457.717	95.56
457.937	71.56
458.157	94.56
458.377	92.56
458.598	118.56
458.818	196.56
459.038	226.56
459.258	154.56
459.478	97.56
459.698	82.56
459.918	76.56
460.138	87.56
460.358	92.56
460.578	81.56
460.798	89.56
461.018	88.56
461.238	95.56
461.458	92.56
461.678	87.56
461.898	84.56
462.118	82.56
462.338	92.56
462.558	93.56
462.777	105.56
462.997	112.56
463.217	104.56
463.437	98.56
463.657	99.56
463.876	96.56
464.096	95.56
464.316	99.56
464.536	107.56
464.755	110.56
464.975	115.56
465.195	247.56
465.414	242.56
465.634	121.56
465.854	78.56
466.073	95.56
466.293	88.56
466.512	74.56
466.732	106.56
466.951	104.56
467.171	100.56
467.391	111.56
467.61	142.56
467.829	230.56
468.049	677.56
468.268	992.56
468.488	256.56
468.707	111.56
468.927	98.56
469.146	96.56
469.365	91.56
469.585	89.56
469.804	122.56
470.023	118.56
470.243	115.56
470.462	126.56
470.681	136.56
470.901	95.56
471.12	100.56
471.339	121.56
471.558	142.56
471.777	160.56
471.997	340.56
472.216	1339.56
472.435	2986.56
472.654	683.56
472.873	190.56
473.092	116.56
473.311	89.56
473.53	107.56
473.749	104.56
473.968	92.56
474.187	119.56
474.406	106.56
474.625	100.56
474.844	95.56
475.063	102.56
475.282	90.56
475.501	68.56
475.72	90.56
475.939	94.56
476.158	95.56
476.377	103.56
476.596	86.56
476.814	116.56
477.033	106.56
477.252	89.56
477.471	98.56
477.69	91.56
477.908	105.56
478.127	96.56
478.346	92.56
478.564	102.56
478.783	116.56
479.002	119.56
479.22	124.56
479.439	116.56
479.658	127.56
479.876	123.56
480.095	119.56
480.313	154.56
480.532	174.56
480.751	331.56
480.969	1222.56
481.188	5272.56
481.406	2934.56
481.624	400.56
481.843	147.56
482.061	103.56
482.28	103.56
482.498	98.56
482.717	105.56
482.935	82.56
483.153	87.56
483.372	101.56
483.59	86.56
483.808	89.56
484.027	93.56
484.245	121.56
484.463	96.56
484.681	97.56
484.9	95.56
485.118	96.56
485.336	104.56
485.554	110.56
485.772	95.56
485.99	98.56
486.209	103.56
486.427	121.56
486.645	114.56
486.863	136.56
487.081	102.56
487.299	92.56
487.517	102.56
487.735	93.56
487.953	103.56
488.171	101.56
488.389	116.56
488.607	107.56
488.825	90.56
489.043	107.56
489.261	82.56
489.479	98.56
489.696	106.56
489.914	87.56
490.132	98.56
490.35	85.56
490.568	83.56
490.786	81.56
491.003	84.56
491.221	90.56
491.439	98.56
491.657	102.56
491.874	95.56
492.092	96.56
492.31	112.56
492.527	107.56
492.745	103.56
492.963	91.56
493.18	95.56
493.398	93.56
493.615	99.56
493.833	96.56
494.05	78.56
494.268	95.56
494.485	83.56
494.703	87.56
494.92	90.56
495.138	101.56
495.355	97.56
495.573	86.56
495.79	96.56
496.008	98.56
496.225	104.56
496.442	72.56
496.66	95.56
496.877	88.56
497.094	93.56
497.312	95.56
497.529	88.56
497.746	84.56
497.963	95.56
498.181	100.56
498.398	111.56
498.615	129.56
498.832	112.56
499.049	91.56
499.267	80.56
499.484	95.56
499.701	106.56
499.918	109.56
500.135	75.56
500.352	98.56
500.569	92.56
500.786	94.56
501.003	91.56
501.22	99.56
501.437	82.56
501.654	99.56
501.871	124.56
502.088	84.56
502.305	95.56
502.522	91.56
502.739	98.56
502.956	96.56
503.172	99.56
503.389	99.56
503.606	114.56
503.823	115.56
504.04	98.56
504.256	97.56
504.473	85.56
504.69	99.56
504.907	98.56
505.123	74.56
505.34	97.56
505.557	98.56
505.773	96.56
505.99	99.56
506.207	80.56
506.423	99.56
506.64	92.56
506.856	94.56
507.073	90.56
507.289	104.56
507.506	102.56
507.722	127.56
507.939	124.56
508.155	112.56
508.372	81.56
508.588	101.56
508.805	108.56
509.021	98.56
509.238	99.56
509.454	106.56
509.67	106.56
509.887	119.56
510.103	138.56
510.319	257.56
510.536	888.56
510.752	3084.56
510.968	831.56
511.184	179.56
511.401	132.56
511.617	113.56
511.833	123.56
512.049	111.56
512.265	89.56
512.481	101.56
512.698	108.56
