Data from Circ_1997_H10_HRD10591_00053.txt Node
Date: Wed Jan 03 11:29:38 EST 2024
User: Yrep
Spectrometer: HR+D1059
Trigger mode: 1
Integration Time (sec): 1.000000E-1
Scans to average: 1
Electric dark correction enabled: true
Nonlinearity correction enabled: false
Boxcar width: 0
XAxis mode: Wavelengths
Number of Pixels in Spectrum: 2048
>>>>>Begin Spectral Data<<<<<
223.165	0.81
223.4	0.81
223.635	0.81
223.869	-14.19
224.104	-23.19
224.338	-17.19
224.573	-16.19
224.808	-7.19
225.042	-4.19
225.277	0.81
225.511	-8.19
225.746	-6.19
225.98	5.81
226.215	4.81
226.449	20.81
226.683	8.81
226.918	19.81
227.152	34.81
227.387	32.81
227.621	40.81
227.856	45.81
228.09	52.81
228.324	30.81
228.559	56.81
228.793	70.81
229.027	61.81
229.262	74.81
229.496	76.81
229.73	96.81
229.964	114.81
230.199	85.81
230.433	66.81
230.667	77.81
230.901	87.81
231.136	74.81
231.37	81.81
231.604	85.81
231.838	92.81
232.072	74.81
232.306	73.81
232.541	69.81
232.775	77.81
233.009	73.81
233.243	82.81
233.477	75.81
233.711	80.81
233.945	84.81
234.179	84.81
234.413	72.81
234.647	69.81
234.881	74.81
235.115	84.81
235.349	70.81
235.583	62.81
235.817	83.81
236.051	75.81
236.285	82.81
236.519	64.81
236.753	69.81
236.987	76.81
237.221	102.81
237.455	97.81
237.689	80.81
237.922	80.81
238.156	89.81
238.39	69.81
238.624	63.81
238.858	73.81
239.091	86.81
239.325	81.81
239.559	95.81
239.793	88.81
240.027	84.81
240.26	76.81
240.494	76.81
240.728	71.81
240.961	84.81
241.195	80.81
241.429	85.81
241.662	89.81
241.896	69.81
242.13	79.81
242.363	78.81
242.597	70.81
242.83	91.81
243.064	73.81
243.298	76.81
243.531	74.81
243.765	78.81
243.998	75.81
244.232	89.81
244.465	62.81
244.699	74.81
244.932	71.81
245.166	73.81
245.399	84.81
245.633	90.81
245.866	85.81
246.099	81.81
246.333	84.81
246.566	71.81
246.8	86.81
247.033	76.81
247.266	85.81
247.5	92.81
247.733	82.81
247.966	91.81
248.2	82.81
248.433	95.81
248.666	78.81
248.899	90.81
249.133	99.81
249.366	104.81
249.599	104.81
249.832	84.81
250.066	88.81
250.299	93.81
250.532	94.81
250.765	95.81
250.998	79.81
251.231	80.81
251.465	90.81
251.698	84.81
251.931	87.81
252.164	88.81
252.397	88.81
252.63	76.81
252.863	70.81
253.096	76.81
253.329	81.81
253.562	86.81
253.795	75.81
254.028	84.81
254.261	91.81
254.494	86.81
254.727	93.81
254.96	76.81
255.193	84.81
255.426	84.81
255.659	82.81
255.892	82.81
256.124	103.81
256.357	83.81
256.59	91.81
256.823	89.81
257.056	97.81
257.289	95.81
257.521	95.81
257.754	86.81
257.987	75.81
258.22	87.81
258.452	92.81
258.685	104.81
258.918	96.81
259.151	93.81
259.383	78.81
259.616	74.81
259.849	84.81
260.081	92.81
260.314	82.81
260.547	90.81
260.779	111.81
261.012	104.81
261.244	106.81
261.477	96.81
261.71	108.81
261.942	136.81
262.175	151.81
262.407	101.81
262.64	86.81
262.872	89.81
263.105	82.81
263.337	82.81
263.57	87.81
263.802	91.81
264.035	85.81
264.267	81.81
264.499	89.81
264.732	81.81
264.964	88.81
265.197	61.81
265.429	70.81
265.661	86.81
265.894	85.81
266.126	100.81
266.358	86.81
266.591	84.81
266.823	88.81
267.055	90.81
267.287	81.81
267.52	74.81
267.752	75.81
267.984	86.81
268.216	87.81
268.448	81.81
268.681	84.81
268.913	77.81
269.145	83.81
269.377	89.81
269.609	86.81
269.841	89.81
270.073	69.81
270.306	93.81
270.538	103.81
270.77	81.81
271.002	82.81
271.234	98.81
271.466	107.81
271.698	83.81
271.93	99.81
272.162	81.81
272.394	94.81
272.626	79.81
272.858	91.81
273.09	81.81
273.322	84.81
273.553	81.81
273.785	98.81
274.017	73.81
274.249	81.81
274.481	83.81
274.713	86.81
274.945	104.81
275.176	107.81
275.408	96.81
275.64	108.81
275.872	139.81
276.104	111.81
276.335	90.81
276.567	124.81
276.799	156.81
277.031	185.81
277.262	227.81
277.494	180.81
277.726	98.81
277.957	86.81
278.189	101.81
278.421	88.81
278.652	96.81
278.884	81.81
279.115	90.81
279.347	90.81
279.579	113.81
279.81	137.81
280.042	230.81
280.273	340.81
280.505	205.81
280.736	107.81
280.968	84.81
281.199	87.81
281.431	84.81
281.662	82.81
281.894	97.81
282.125	102.81
282.356	141.81
282.588	200.81
282.819	128.81
283.051	97.81
283.282	87.81
283.513	91.81
283.745	97.81
283.976	78.81
284.207	93.81
284.439	88.81
284.67	86.81
284.901	100.81
285.132	89.81
285.364	88.81
285.595	77.81
285.826	85.81
286.057	93.81
286.288	91.81
286.52	82.81
286.751	82.81
286.982	100.81
287.213	88.81
287.444	96.81
287.675	91.81
287.906	107.81
288.138	98.81
288.369	113.81
288.6	100.81
288.831	84.81
289.062	85.81
289.293	98.81
289.524	90.81
289.755	78.81
289.986	106.81
290.217	82.81
290.448	85.81
290.679	79.81
290.91	92.81
291.141	82.81
291.371	75.81
291.602	97.81
291.833	90.81
292.064	79.81
292.295	105.81
292.526	96.81
292.757	99.81
292.987	92.81
293.218	94.81
293.449	85.81
293.68	75.81
293.91	82.81
294.141	83.81
294.372	85.81
294.603	67.81
294.833	77.81
295.064	96.81
295.295	109.81
295.525	97.81
295.756	110.81
295.987	133.81
296.217	173.81
296.448	146.81
296.679	103.81
296.909	92.81
297.14	90.81
297.37	93.81
297.601	86.81
297.831	104.81
298.062	99.81
298.292	97.81
298.523	97.81
298.753	86.81
298.984	82.81
299.214	95.81
299.445	95.81
299.675	104.81
299.905	103.81
300.136	91.81
300.366	88.81
300.597	102.81
300.827	95.81
301.057	101.81
301.288	118.81
301.518	109.81
301.748	108.81
301.979	129.81
302.209	95.81
302.439	118.81
302.669	99.81
302.9	102.81
303.13	105.81
303.36	101.81
303.59	137.81
303.82	155.81
304.051	104.81
304.281	105.81
304.511	79.81
304.741	106.81
304.971	75.81
305.201	92.81
305.431	97.81
305.661	105.81
305.891	93.81
306.121	105.81
306.352	125.81
306.582	119.81
306.812	106.81
307.042	121.81
307.272	175.81
307.502	194.81
307.731	192.81
307.961	131.81
308.191	90.81
308.421	88.81
308.651	78.81
308.881	98.81
309.111	99.81
309.341	95.81
309.571	94.81
309.8	105.81
310.03	93.81
310.26	104.81
310.49	111.81
310.72	105.81
310.949	129.81
311.179	108.81
311.409	98.81
311.639	97.81
311.868	101.81
312.098	105.81
312.328	108.81
312.557	118.81
312.787	120.81
313.017	112.81
313.246	112.81
313.476	109.81
313.706	102.81
313.935	111.81
314.165	117.81
314.394	106.81
314.624	105.81
314.853	105.81
315.083	95.81
315.312	86.81
315.542	90.81
315.771	89.81
316.001	91.81
316.23	94.81
316.46	96.81
316.689	91.81
316.919	94.81
317.148	118.81
317.377	98.81
317.607	106.81
317.836	110.81
318.065	108.81
318.295	98.81
318.524	103.81
318.753	109.81
318.983	107.81
319.212	103.81
319.441	123.81
319.67	124.81
319.9	93.81
320.129	90.81
320.358	94.81
320.587	93.81
320.816	115.81
321.046	102.81
321.275	110.81
321.504	107.81
321.733	106.81
321.962	121.81
322.191	112.81
322.42	119.81
322.649	117.81
322.878	135.81
323.108	132.81
323.337	155.81
323.566	174.81
323.795	208.81
324.024	301.81
324.253	612.81
324.482	1341.81
324.71	2884.81
324.939	3761.81
325.168	1324.81
325.397	366.81
325.626	193.81
325.855	155.81
326.084	156.81
326.313	167.81
326.542	204.81
326.77	304.81
326.999	662.81
327.228	1447.81
327.457	2822.81
327.686	2153.81
327.914	706.81
328.143	672.81
328.372	858.81
328.6	436.81
328.829	221.81
329.058	213.81
329.287	209.81
329.515	205.81
329.744	311.81
329.972	620.81
330.201	1277.81
330.43	1871.81
330.658	814.81
330.887	351.81
331.115	215.81
331.344	143.81
331.572	136.81
331.801	133.81
332.03	132.81
332.258	117.81
332.486	103.81
332.715	111.81
332.943	118.81
333.172	119.81
333.4	135.81
333.629	180.81
333.857	259.81
334.085	544.81
334.314	1204.81
334.542	2360.81
334.771	2216.81
334.999	546.81
335.227	202.81
335.455	153.81
335.684	125.81
335.912	114.81
336.14	103.81
336.369	114.81
336.597	110.81
336.825	107.81
337.053	97.81
337.281	104.81
337.51	112.81
337.738	104.81
337.966	107.81
338.194	113.81
338.422	118.81
338.65	97.81
338.878	106.81
339.106	94.81
339.334	102.81
339.562	93.81
339.79	96.81
340.018	91.81
340.246	103.81
340.474	103.81
340.702	94.81
340.93	92.81
341.158	103.81
341.386	114.81
341.614	117.81
341.842	105.81
342.07	93.81
342.298	89.81
342.526	98.81
342.754	89.81
342.981	97.81
343.209	89.81
343.437	107.81
343.665	94.81
343.893	84.81
344.12	92.81
344.348	81.81
344.576	96.81
344.804	96.81
345.031	110.81
345.259	125.81
345.487	99.81
345.714	102.81
345.942	103.81
346.17	93.81
346.397	98.81
346.625	99.81
346.853	108.81
347.08	86.81
347.308	110.81
347.535	112.81
347.763	106.81
347.99	106.81
348.218	109.81
348.445	124.81
348.673	115.81
348.9	105.81
349.128	83.81
349.355	91.81
349.583	97.81
349.81	102.81
350.037	98.81
350.265	105.81
350.492	78.81
350.72	88.81
350.947	102.81
351.174	123.81
351.402	134.81
351.629	111.81
351.856	118.81
352.083	109.81
352.311	121.81
352.538	126.81
352.765	124.81
352.992	114.81
353.22	122.81
353.447	112.81
353.674	97.81
353.901	80.81
354.128	95.81
354.355	81.81
354.583	97.81
354.81	88.81
355.037	98.81
355.264	104.81
355.491	93.81
355.718	86.81
355.945	96.81
356.172	94.81
356.399	92.81
356.626	80.81
356.853	94.81
357.08	87.81
357.307	90.81
357.534	83.81
357.761	89.81
357.988	80.81
358.215	89.81
358.441	110.81
358.668	95.81
358.895	91.81
359.122	91.81
359.349	92.81
359.576	89.81
359.802	108.81
360.029	157.81
360.256	153.81
360.483	123.81
360.709	96.81
360.936	108.81
361.163	113.81
361.39	113.81
361.616	116.81
361.843	97.81
362.07	102.81
362.296	101.81
362.523	105.81
362.749	107.81
362.976	101.81
363.203	98.81
363.429	100.81
363.656	93.81
363.882	98.81
364.109	98.81
364.335	95.81
364.562	94.81
364.788	99.81
365.015	115.81
365.241	105.81
365.468	119.81
365.694	119.81
365.92	97.81
366.147	113.81
366.373	114.81
366.599	92.81
366.826	101.81
367.052	95.81
367.278	94.81
367.505	93.81
367.731	101.81
367.957	103.81
368.184	86.81
368.41	106.81
368.636	130.81
368.862	135.81
369.089	106.81
369.315	109.81
369.541	88.81
369.767	92.81
369.993	95.81
370.219	106.81
370.445	79.81
370.672	94.81
370.898	70.81
371.124	92.81
371.35	85.81
371.576	97.81
371.802	88.81
372.028	79.81
372.254	85.81
372.48	95.81
372.706	80.81
372.932	95.81
373.158	80.81
373.384	85.81
373.61	78.81
373.835	95.81
374.061	89.81
374.287	93.81
374.513	97.81
374.739	87.81
374.965	103.81
375.191	82.81
375.416	86.81
375.642	92.81
375.868	87.81
376.094	96.81
376.319	80.81
376.545	93.81
376.771	92.81
376.997	91.81
377.222	102.81
377.448	95.81
377.674	93.81
377.899	73.81
378.125	86.81
378.35	83.81
378.576	81.81
378.802	92.81
379.027	91.81
379.253	89.81
379.478	90.81
379.704	96.81
379.929	101.81
380.155	107.81
380.38	102.81
380.606	91.81
380.831	93.81
381.057	91.81
381.282	102.81
381.507	97.81
381.733	91.81
381.958	104.81
382.184	104.81
382.409	83.81
382.634	95.81
382.86	94.81
383.085	102.81
383.31	74.81
383.535	96.81
383.761	95.81
383.986	94.81
384.211	89.81
384.436	92.81
384.662	112.81
384.887	85.81
385.112	90.81
385.337	116.81
385.562	107.81
385.787	112.81
386.013	109.81
386.238	106.81
386.463	110.81
386.688	107.81
386.913	112.81
387.138	96.81
387.363	86.81
387.588	105.81
387.813	104.81
388.038	104.81
388.263	106.81
388.488	107.81
388.713	96.81
388.938	99.81
389.163	96.81
389.387	90.81
389.612	83.81
389.837	79.81
390.062	104.81
390.287	102.81
390.512	82.81
390.736	83.81
390.961	99.81
391.186	89.81
391.411	88.81
391.636	91.81
391.86	89.81
392.085	95.81
392.31	94.81
392.534	92.81
392.759	75.81
392.984	85.81
393.208	102.81
393.433	86.81
393.658	91.81
393.882	78.81
394.107	89.81
394.331	88.81
394.556	84.81
394.78	100.81
395.005	94.81
395.229	95.81
395.454	85.81
395.678	89.81
395.903	98.81
396.127	94.81
396.352	99.81
396.576	101.81
396.801	91.81
397.025	105.81
397.249	92.81
397.474	80.81
397.698	92.81
397.922	97.81
398.147	88.81
398.371	95.81
398.595	94.81
398.82	96.81
399.044	92.81
399.268	77.81
399.492	79.81
399.717	97.81
399.941	84.81
400.165	98.81
400.389	110.81
400.613	96.81
400.837	91.81
401.062	96.81
401.286	105.81
401.51	94.81
401.734	95.81
401.958	117.81
402.182	162.81
402.406	218.81
402.63	148.81
402.854	102.81
403.078	95.81
403.302	96.81
403.526	92.81
403.75	84.81
403.974	86.81
404.198	85.81
404.422	91.81
404.645	99.81
404.869	105.81
405.093	137.81
405.317	157.81
405.541	156.81
405.765	137.81
405.988	156.81
406.212	243.81
406.436	326.81
406.66	243.81
406.883	127.81
407.107	110.81
407.331	110.81
407.555	106.81
407.778	111.81
408.002	109.81
408.226	106.81
408.449	89.81
408.673	91.81
408.896	100.81
409.12	105.81
409.344	95.81
409.567	98.81
409.791	88.81
410.014	97.81
410.238	91.81
410.461	77.81
410.685	92.81
410.908	92.81
411.132	103.81
411.355	103.81
411.578	82.81
411.802	96.81
412.025	99.81
412.249	118.81
412.472	122.81
412.695	161.81
412.919	115.81
413.142	93.81
413.365	90.81
413.589	95.81
413.812	91.81
414.035	99.81
414.258	105.81
414.482	93.81
414.705	90.81
414.928	88.81
415.151	87.81
415.374	86.81
415.597	70.81
415.821	83.81
416.044	91.81
416.267	81.81
416.49	91.81
416.713	107.81
416.936	95.81
417.159	102.81
417.382	92.81
417.605	118.81
417.828	115.81
418.051	97.81
418.274	81.81
418.497	89.81
418.72	82.81
418.943	87.81
419.166	101.81
419.389	91.81
419.611	89.81
419.834	96.81
420.057	103.81
420.28	105.81
420.503	90.81
420.726	95.81
420.948	97.81
421.171	96.81
421.394	94.81
421.617	91.81
421.839	90.81
422.062	88.81
422.285	100.81
422.507	105.81
422.73	102.81
422.953	106.81
423.175	84.81
423.398	95.81
423.621	90.81
423.843	85.81
424.066	85.81
424.288	99.81
424.511	109.81
424.733	116.81
424.956	119.81
425.178	120.81
425.401	112.81
425.623	101.81
425.846	99.81
426.068	109.81
426.291	105.81
426.513	103.81
426.735	91.81
426.958	105.81
427.18	126.81
427.402	203.81
427.625	297.81
427.847	308.81
428.069	282.81
428.292	149.81
428.514	100.81
428.736	92.81
428.958	104.81
429.181	97.81
429.403	102.81
429.625	94.81
429.847	96.81
430.069	115.81
430.292	105.81
430.514	92.81
430.736	90.81
430.958	96.81
431.18	105.81
431.402	82.81
431.624	82.81
431.846	83.81
432.068	86.81
432.29	90.81
432.512	102.81
432.734	81.81
432.956	102.81
433.178	112.81
433.4	104.81
433.622	94.81
433.844	72.81
434.066	72.81
434.287	97.81
434.509	90.81
434.731	96.81
434.953	89.81
435.175	99.81
435.397	96.81
435.618	117.81
435.84	126.81
436.062	146.81
436.284	157.81
436.505	117.81
436.727	123.81
436.949	96.81
437.17	85.81
437.392	99.81
437.614	99.81
437.835	128.81
438.057	166.81
438.278	135.81
438.5	126.81
438.721	154.81
438.943	117.81
439.165	96.81
439.386	107.81
439.608	103.81
439.829	120.81
440.05	170.81
440.272	225.81
440.493	109.81
440.715	96.81
440.936	80.81
441.158	97.81
441.379	86.81
441.6	102.81
441.822	104.81
442.043	116.81
442.264	115.81
442.486	121.81
442.707	104.81
442.928	138.81
443.149	193.81
443.371	205.81
443.592	145.81
443.813	143.81
444.034	125.81
444.255	99.81
444.476	92.81
444.698	72.81
444.919	103.81
445.14	136.81
445.361	144.81
445.582	163.81
445.803	219.81
446.024	219.81
446.245	199.81
446.466	141.81
446.687	100.81
446.908	93.81
447.129	89.81
447.35	100.81
447.571	99.81
447.792	95.81
448.013	103.81
448.234	127.81
448.455	117.81
448.675	146.81
448.896	152.81
449.117	126.81
449.338	120.81
449.559	173.81
449.779	185.81
450	113.81
450.221	98.81
450.442	96.81
450.662	109.81
450.883	131.81
451.104	144.81
451.324	97.81
451.545	93.81
451.766	98.81
451.986	90.81
452.207	80.81
452.428	104.81
452.648	110.81
452.869	122.81
453.089	144.81
453.31	140.81
453.53	92.81
453.751	98.81
453.971	128.81
454.192	157.81
454.412	108.81
454.633	95.81
454.853	81.81
455.073	85.81
455.294	101.81
455.514	128.81
455.734	104.81
455.955	87.81
456.175	96.81
456.395	94.81
456.616	103.81
456.836	76.81
457.056	79.81
457.276	81.81
457.497	80.81
457.717	80.81
457.937	87.81
458.157	102.81
458.377	109.81
458.598	148.81
458.818	232.81
459.038	260.81
459.258	169.81
459.478	112.81
459.698	84.81
459.918	86.81
460.138	91.81
460.358	64.81
460.578	104.81
460.798	92.81
461.018	94.81
461.238	88.81
461.458	86.81
461.678	91.81
461.898	90.81
462.118	86.81
462.338	97.81
462.558	89.81
462.777	93.81
462.997	98.81
463.217	112.81
463.437	96.81
463.657	89.81
463.876	91.81
464.096	99.81
464.316	101.81
464.536	110.81
464.755	107.81
464.975	141.81
465.195	272.81
465.414	273.81
465.634	127.81
465.854	110.81
466.073	96.81
466.293	89.81
466.512	84.81
466.732	89.81
466.951	95.81
467.171	107.81
467.391	123.81
467.61	161.81
467.829	237.81
468.049	691.81
468.268	1038.81
468.488	253.81
468.707	130.81
468.927	84.81
469.146	87.81
469.365	89.81
469.585	108.81
469.804	116.81
470.023	114.81
470.243	109.81
470.462	129.81
470.681	145.81
470.901	109.81
471.12	107.81
471.339	102.81
471.558	126.81
471.777	184.81
471.997	366.81
472.216	1360.81
472.435	3228.81
472.654	716.81
472.873	180.81
473.092	121.81
473.311	109.81
473.53	91.81
473.749	89.81
473.968	102.81
474.187	113.81
474.406	126.81
474.625	91.81
474.844	94.81
475.063	88.81
475.282	89.81
475.501	93.81
475.72	99.81
475.939	91.81
476.158	95.81
476.377	75.81
476.596	87.81
476.814	105.81
477.033	97.81
477.252	105.81
477.471	87.81
477.69	105.81
477.908	105.81
478.127	81.81
478.346	104.81
478.564	117.81
478.783	128.81
479.002	105.81
479.22	111.81
479.439	138.81
479.658	129.81
479.876	125.81
480.095	143.81
480.313	152.81
480.532	191.81
480.751	347.81
480.969	1242.81
481.188	5570.81
481.406	3182.81
481.624	428.81
481.843	157.81
482.061	119.81
482.28	111.81
482.498	93.81
482.717	93.81
482.935	95.81
483.153	109.81
483.372	95.81
483.59	87.81
483.808	81.81
484.027	97.81
484.245	109.81
484.463	100.81
484.681	85.81
484.9	104.81
485.118	96.81
485.336	104.81
485.554	88.81
485.772	100.81
485.99	90.81
486.209	111.81
486.427	111.81
486.645	120.81
486.863	137.81
487.081	104.81
487.299	109.81
487.517	92.81
487.735	94.81
487.953	99.81
488.171	95.81
488.389	92.81
488.607	105.81
488.825	89.81
489.043	89.81
489.261	85.81
489.479	84.81
489.696	69.81
489.914	90.81
490.132	89.81
490.35	85.81
490.568	83.81
490.786	88.81
491.003	90.81
491.221	102.81
491.439	108.81
491.657	101.81
491.874	88.81
492.092	94.81
492.31	101.81
492.527	106.81
492.745	100.81
492.963	95.81
493.18	97.81
493.398	100.81
493.615	81.81
493.833	91.81
494.05	96.81
494.268	87.81
494.485	86.81
494.703	82.81
494.92	95.81
495.138	84.81
495.355	87.81
495.573	84.81
495.79	89.81
496.008	69.81
496.225	95.81
496.442	97.81
496.66	85.81
496.877	86.81
497.094	96.81
497.312	90.81
497.529	92.81
497.746	94.81
497.963	98.81
498.181	98.81
498.398	101.81
498.615	131.81
498.832	121.81
499.049	95.81
499.267	87.81
499.484	86.81
499.701	97.81
499.918	99.81
500.135	91.81
500.352	104.81
500.569	85.81
500.786	106.81
501.003	94.81
501.22	98.81
501.437	92.81
501.654	106.81
501.871	128.81
502.088	96.81
502.305	81.81
502.522	91.81
502.739	97.81
502.956	74.81
503.172	104.81
503.389	98.81
503.606	136.81
503.823	118.81
504.04	91.81
504.256	99.81
504.473	74.81
504.69	85.81
504.907	102.81
505.123	94.81
505.34	103.81
505.557	101.81
505.773	89.81
505.99	84.81
506.207	68.81
506.423	89.81
506.64	91.81
506.856	96.81
507.073	76.81
507.289	86.81
507.506	118.81
507.722	136.81
507.939	141.81
508.155	105.81
508.372	89.81
508.588	101.81
508.805	97.81
509.021	106.81
509.238	91.81
509.454	104.81
509.67	116.81
509.887	129.81
510.103	157.81
510.319	252.81
510.536	982.81
510.752	3543.81
510.968	920.81
511.184	188.81
511.401	142.81
511.617	102.81
511.833	124.81
512.049	99.81
512.265	101.81
