Data from Circ_1997_H10_HRD10591_00061.txt Node
Date: Wed Jan 03 11:29:39 EST 2024
User: Yrep
Spectrometer: HR+D1059
Trigger mode: 1
Integration Time (sec): 1.000000E-1
Scans to average: 1
Electric dark correction enabled: true
Nonlinearity correction enabled: false
Boxcar width: 0
XAxis mode: Wavelengths
Number of Pixels in Spectrum: 2048
>>>>>Begin Spectral Data<<<<<
223.165	-12.44
223.4	-12.44
223.635	-12.44
223.869	-12.44
224.104	-30.44
224.338	-21.44
224.573	-9.44
224.808	-10.44
225.042	2.56
225.277	-17.44
225.511	-12.44
225.746	0.56
225.98	7.56
226.215	6.56
226.449	23.56
226.683	23.56
226.918	26.56
227.152	35.56
227.387	27.56
227.621	30.56
227.856	49.56
228.09	37.56
228.324	51.56
228.559	43.56
228.793	60.56
229.027	66.56
229.262	75.56
229.496	86.56
229.73	104.56
229.964	120.56
230.199	73.56
230.433	65.56
230.667	73.56
230.901	87.56
231.136	89.56
231.37	78.56
231.604	64.56
231.838	82.56
232.072	65.56
232.306	80.56
232.541	81.56
232.775	82.56
233.009	72.56
233.243	99.56
233.477	83.56
233.711	82.56
233.945	87.56
234.179	82.56
234.413	85.56
234.647	62.56
234.881	75.56
235.115	82.56
235.349	71.56
235.583	90.56
235.817	107.56
236.051	76.56
236.285	93.56
236.519	89.56
236.753	94.56
236.987	82.56
237.221	105.56
237.455	105.56
237.689	78.56
237.922	81.56
238.156	78.56
238.39	83.56
238.624	78.56
238.858	86.56
239.091	79.56
239.325	63.56
239.559	99.56
239.793	73.56
240.027	97.56
240.26	98.56
240.494	76.56
240.728	85.56
240.961	81.56
241.195	81.56
241.429	79.56
241.662	78.56
241.896	90.56
242.13	80.56
242.363	97.56
242.597	80.56
242.83	72.56
243.064	82.56
243.298	85.56
243.531	85.56
243.765	90.56
243.998	86.56
244.232	88.56
244.465	82.56
244.699	82.56
244.932	94.56
245.166	81.56
245.399	83.56
245.633	80.56
245.866	98.56
246.099	81.56
246.333	78.56
246.566	85.56
246.8	84.56
247.033	99.56
247.266	82.56
247.5	71.56
247.733	71.56
247.966	67.56
248.2	88.56
248.433	81.56
248.666	85.56
248.899	88.56
249.133	104.56
249.366	127.56
249.599	137.56
249.832	94.56
250.066	82.56
250.299	90.56
250.532	93.56
250.765	82.56
250.998	80.56
251.231	87.56
251.465	81.56
251.698	85.56
251.931	93.56
252.164	83.56
252.397	75.56
252.63	91.56
252.863	86.56
253.096	89.56
253.329	90.56
253.562	86.56
253.795	82.56
254.028	99.56
254.261	84.56
254.494	75.56
254.727	97.56
254.96	79.56
255.193	73.56
255.426	92.56
255.659	95.56
255.892	110.56
256.124	105.56
256.357	98.56
256.59	105.56
256.823	95.56
257.056	100.56
257.289	97.56
257.521	87.56
257.754	104.56
257.987	86.56
258.22	87.56
258.452	106.56
258.685	96.56
258.918	81.56
259.151	76.56
259.383	81.56
259.616	77.56
259.849	93.56
260.081	84.56
260.314	83.56
260.547	95.56
260.779	98.56
261.012	124.56
261.244	133.56
261.477	106.56
261.71	112.56
261.942	159.56
262.175	178.56
262.407	98.56
262.64	94.56
262.872	94.56
263.105	67.56
263.337	89.56
263.57	82.56
263.802	96.56
264.035	90.56
264.267	99.56
264.499	78.56
264.732	89.56
264.964	75.56
265.197	85.56
265.429	91.56
265.661	77.56
265.894	79.56
266.126	82.56
266.358	86.56
266.591	94.56
266.823	92.56
267.055	78.56
267.287	84.56
267.52	85.56
267.752	82.56
267.984	81.56
268.216	91.56
268.448	93.56
268.681	95.56
268.913	102.56
269.145	90.56
269.377	83.56
269.609	80.56
269.841	80.56
270.073	109.56
270.306	90.56
270.538	89.56
270.77	82.56
271.002	78.56
271.234	92.56
271.466	98.56
271.698	103.56
271.93	90.56
272.162	87.56
272.394	93.56
272.626	88.56
272.858	89.56
273.09	64.56
273.322	79.56
273.553	85.56
273.785	99.56
274.017	88.56
274.249	88.56
274.481	101.56
274.713	98.56
274.945	92.56
275.176	97.56
275.408	110.56
275.64	159.56
275.872	155.56
276.104	126.56
276.335	115.56
276.567	149.56
276.799	201.56
277.031	232.56
277.262	282.56
277.494	201.56
277.726	127.56
277.957	95.56
278.189	90.56
278.421	107.56
278.652	95.56
278.884	106.56
279.115	91.56
279.347	113.56
279.579	115.56
279.81	173.56
280.042	279.56
280.273	385.56
280.505	261.56
280.736	154.56
280.968	108.56
281.199	91.56
281.431	88.56
281.662	87.56
281.894	106.56
282.125	114.56
282.356	158.56
282.588	219.56
282.819	155.56
283.051	85.56
283.282	90.56
283.513	87.56
283.745	94.56
283.976	98.56
284.207	98.56
284.439	88.56
284.67	110.56
284.901	83.56
285.132	94.56
285.364	82.56
285.595	91.56
285.826	89.56
286.057	98.56
286.288	80.56
286.52	90.56
286.751	95.56
286.982	85.56
287.213	77.56
287.444	112.56
287.675	101.56
287.906	82.56
288.138	93.56
288.369	103.56
288.6	101.56
288.831	99.56
289.062	97.56
289.293	82.56
289.524	85.56
289.755	89.56
289.986	99.56
290.217	96.56
290.448	94.56
290.679	99.56
290.91	88.56
291.141	86.56
291.371	88.56
291.602	79.56
291.833	97.56
292.064	94.56
292.295	96.56
292.526	107.56
292.757	96.56
292.987	95.56
293.218	82.56
293.449	87.56
293.68	82.56
293.91	104.56
294.141	93.56
294.372	96.56
294.603	95.56
294.833	89.56
295.064	98.56
295.295	92.56
295.525	75.56
295.756	101.56
295.987	147.56
296.217	213.56
296.448	158.56
296.679	103.56
296.909	92.56
297.14	85.56
297.37	102.56
297.601	84.56
297.831	106.56
298.062	92.56
298.292	89.56
298.523	88.56
298.753	101.56
298.984	97.56
299.214	95.56
299.445	104.56
299.675	110.56
299.905	106.56
300.136	99.56
300.366	89.56
300.597	98.56
300.827	112.56
301.057	115.56
301.288	121.56
301.518	128.56
301.748	108.56
301.979	130.56
302.209	112.56
302.439	103.56
302.669	89.56
302.9	82.56
303.13	91.56
303.36	112.56
303.59	159.56
303.82	181.56
304.051	118.56
304.281	85.56
304.511	80.56
304.741	107.56
304.971	101.56
305.201	99.56
305.431	75.56
305.661	102.56
305.891	89.56
306.121	103.56
306.352	127.56
306.582	131.56
306.812	111.56
307.042	140.56
307.272	225.56
307.502	239.56
307.731	207.56
307.961	165.56
308.191	113.56
308.421	95.56
308.651	101.56
308.881	93.56
309.111	91.56
309.341	108.56
309.571	114.56
309.8	101.56
310.03	110.56
310.26	107.56
310.49	106.56
310.72	112.56
310.949	137.56
311.179	123.56
311.409	119.56
311.639	118.56
311.868	124.56
312.098	97.56
312.328	122.56
312.557	118.56
312.787	149.56
313.017	127.56
313.246	114.56
313.476	99.56
313.706	95.56
313.935	119.56
314.165	129.56
314.394	145.56
314.624	122.56
314.853	126.56
315.083	109.56
315.312	99.56
315.542	90.56
315.771	102.56
316.001	102.56
316.23	90.56
316.46	87.56
316.689	90.56
316.919	103.56
317.148	113.56
317.377	109.56
317.607	107.56
317.836	100.56
318.065	99.56
318.295	94.56
318.524	90.56
318.753	99.56
318.983	112.56
319.212	123.56
319.441	129.56
319.67	131.56
319.9	103.56
320.129	107.56
320.358	106.56
320.587	115.56
320.816	106.56
321.046	126.56
321.275	111.56
321.504	99.56
321.733	112.56
321.962	118.56
322.191	127.56
322.42	136.56
322.649	142.56
322.878	144.56
323.108	145.56
323.337	181.56
323.566	204.56
323.795	230.56
324.024	336.56
324.253	767.56
324.482	1719.56
324.71	3796.56
324.939	4993.56
325.168	1701.56
325.397	445.56
325.626	231.56
325.855	195.56
326.084	173.56
326.313	188.56
326.542	240.56
326.77	397.56
326.999	861.56
327.228	1944.56
327.457	3643.56
327.686	2863.56
327.914	937.56
328.143	897.56
328.372	1147.56
328.6	586.56
328.829	281.56
329.058	265.56
329.287	277.56
329.515	262.56
329.744	404.56
329.972	878.56
330.201	1860.56
330.43	2684.56
330.658	1076.56
330.887	461.56
331.115	290.56
331.344	157.56
331.572	158.56
331.801	163.56
332.03	157.56
332.258	143.56
332.486	116.56
332.715	135.56
332.943	146.56
333.172	145.56
333.4	177.56
333.629	231.56
333.857	361.56
334.085	752.56
334.314	1723.56
334.542	3433.56
334.771	3111.56
334.999	722.56
335.227	263.56
335.455	175.56
335.684	143.56
335.912	120.56
336.14	116.56
336.369	113.56
336.597	136.56
336.825	133.56
337.053	95.56
337.281	112.56
337.51	99.56
337.738	118.56
337.966	124.56
338.194	122.56
338.422	96.56
338.65	106.56
338.878	101.56
339.106	96.56
339.334	94.56
339.562	101.56
339.79	89.56
340.018	99.56
340.246	116.56
340.474	118.56
340.702	107.56
340.93	97.56
341.158	97.56
341.386	118.56
341.614	104.56
341.842	106.56
342.07	97.56
342.298	114.56
342.526	113.56
342.754	89.56
342.981	89.56
343.209	85.56
343.437	94.56
343.665	88.56
343.893	94.56
344.12	94.56
344.348	101.56
344.576	105.56
344.804	97.56
345.031	125.56
345.259	121.56
345.487	120.56
345.714	109.56
345.942	99.56
346.17	98.56
346.397	100.56
346.625	105.56
346.853	92.56
347.08	91.56
347.308	111.56
347.535	112.56
347.763	138.56
347.99	114.56
348.218	119.56
348.445	126.56
348.673	119.56
348.9	102.56
349.128	95.56
349.355	93.56
349.583	77.56
349.81	108.56
350.037	98.56
350.265	89.56
350.492	115.56
350.72	98.56
350.947	105.56
351.174	131.56
351.402	125.56
351.629	129.56
351.856	120.56
352.083	118.56
352.311	121.56
352.538	154.56
352.765	142.56
352.992	128.56
353.22	122.56
353.447	113.56
353.674	109.56
353.901	96.56
354.128	96.56
354.355	80.56
354.583	96.56
354.81	107.56
355.037	102.56
355.264	99.56
355.491	85.56
355.718	88.56
355.945	83.56
356.172	107.56
356.399	105.56
356.626	104.56
356.853	96.56
357.08	94.56
357.307	96.56
357.534	94.56
357.761	94.56
357.988	95.56
358.215	105.56
358.441	72.56
358.668	105.56
358.895	95.56
359.122	94.56
359.349	94.56
359.576	107.56
359.802	126.56
360.029	177.56
360.256	169.56
360.483	134.56
360.709	106.56
360.936	113.56
361.163	100.56
361.39	118.56
361.616	111.56
361.843	113.56
362.07	99.56
362.296	118.56
362.523	103.56
362.749	114.56
362.976	100.56
363.203	97.56
363.429	99.56
363.656	110.56
363.882	95.56
364.109	107.56
364.335	90.56
364.562	100.56
364.788	109.56
365.015	104.56
365.241	99.56
365.468	136.56
365.694	153.56
365.92	112.56
366.147	119.56
366.373	105.56
366.599	108.56
366.826	102.56
367.052	98.56
367.278	102.56
367.505	109.56
367.731	110.56
367.957	89.56
368.184	102.56
368.41	113.56
368.636	139.56
368.862	153.56
369.089	126.56
369.315	109.56
369.541	99.56
369.767	105.56
369.993	99.56
370.219	104.56
370.445	107.56
370.672	80.56
370.898	99.56
371.124	82.56
371.35	99.56
371.576	96.56
371.802	80.56
372.028	78.56
372.254	83.56
372.48	92.56
372.706	83.56
372.932	86.56
373.158	92.56
373.384	99.56
373.61	97.56
373.835	93.56
374.061	85.56
374.287	113.56
374.513	113.56
374.739	89.56
374.965	78.56
375.191	97.56
375.416	91.56
375.642	83.56
375.868	96.56
376.094	93.56
376.319	98.56
376.545	98.56
376.771	105.56
376.997	84.56
377.222	83.56
377.448	94.56
377.674	91.56
377.899	87.56
378.125	90.56
378.35	89.56
378.576	93.56
378.802	88.56
379.027	88.56
379.253	94.56
379.478	93.56
379.704	82.56
379.929	97.56
380.155	91.56
380.38	90.56
380.606	97.56
380.831	102.56
381.057	91.56
381.282	91.56
381.507	104.56
381.733	101.56
381.958	92.56
382.184	97.56
382.409	94.56
382.634	98.56
382.86	89.56
383.085	73.56
383.31	95.56
383.535	114.56
383.761	92.56
383.986	86.56
384.211	90.56
384.436	89.56
384.662	89.56
384.887	98.56
385.112	96.56
385.337	103.56
385.562	87.56
385.787	98.56
386.013	126.56
386.238	121.56
386.463	103.56
386.688	109.56
386.913	103.56
387.138	113.56
387.363	101.56
387.588	103.56
387.813	91.56
388.038	107.56
388.263	119.56
388.488	108.56
388.713	97.56
388.938	99.56
389.163	87.56
389.387	93.56
389.612	99.56
389.837	91.56
390.062	115.56
390.287	95.56
390.512	82.56
390.736	91.56
390.961	97.56
391.186	89.56
391.411	96.56
391.636	106.56
391.86	89.56
392.085	82.56
392.31	94.56
392.534	84.56
392.759	87.56
392.984	80.56
393.208	92.56
393.433	84.56
393.658	94.56
393.882	88.56
394.107	89.56
394.331	88.56
394.556	75.56
394.78	96.56
395.005	94.56
395.229	94.56
395.454	97.56
395.678	92.56
395.903	95.56
396.127	87.56
396.352	92.56
396.576	86.56
396.801	83.56
397.025	94.56
397.249	96.56
397.474	89.56
397.698	88.56
397.922	95.56
398.147	89.56
398.371	107.56
398.595	97.56
398.82	79.56
399.044	75.56
399.268	83.56
399.492	90.56
399.717	89.56
399.941	100.56
400.165	107.56
400.389	110.56
400.613	92.56
400.837	90.56
401.062	91.56
401.286	99.56
401.51	117.56
401.734	116.56
401.958	129.56
402.182	185.56
402.406	261.56
402.63	174.56
402.854	101.56
403.078	91.56
403.302	102.56
403.526	103.56
403.75	100.56
403.974	91.56
404.198	97.56
404.422	98.56
404.645	101.56
404.869	114.56
405.093	153.56
405.317	181.56
405.541	193.56
405.765	137.56
405.988	163.56
406.212	270.56
406.436	406.56
406.66	267.56
406.883	162.56
407.107	119.56
407.331	110.56
407.555	137.56
407.778	115.56
408.002	102.56
408.226	100.56
408.449	96.56
408.673	108.56
408.896	108.56
409.12	113.56
409.344	99.56
409.567	92.56
409.791	99.56
410.014	99.56
410.238	83.56
410.461	96.56
410.685	79.56
410.908	105.56
411.132	119.56
411.355	105.56
411.578	92.56
411.802	103.56
412.025	100.56
412.249	118.56
412.472	149.56
412.695	180.56
412.919	137.56
413.142	108.56
413.365	88.56
413.589	81.56
413.812	90.56
414.035	94.56
414.258	91.56
414.482	80.56
414.705	102.56
414.928	75.56
415.151	85.56
415.374	99.56
415.597	87.56
415.821	90.56
416.044	105.56
416.267	103.56
416.49	90.56
416.713	80.56
416.936	87.56
417.159	97.56
417.382	108.56
417.605	118.56
417.828	142.56
418.051	110.56
418.274	111.56
418.497	88.56
418.72	77.56
418.943	112.56
419.166	87.56
419.389	95.56
419.611	95.56
419.834	110.56
420.057	98.56
420.28	101.56
420.503	111.56
420.726	98.56
420.948	103.56
421.171	143.56
421.394	107.56
421.617	82.56
421.839	96.56
422.062	94.56
422.285	100.56
422.507	113.56
422.73	125.56
422.953	115.56
423.175	95.56
423.398	84.56
423.621	75.56
423.843	78.56
424.066	89.56
424.288	93.56
424.511	108.56
424.733	111.56
424.956	147.56
425.178	127.56
425.401	144.56
425.623	128.56
425.846	109.56
426.068	102.56
426.291	95.56
426.513	93.56
426.735	113.56
426.958	104.56
427.18	150.56
427.402	246.56
427.625	403.56
427.847	395.56
428.069	337.56
428.292	169.56
428.514	112.56
428.736	93.56
428.958	93.56
429.181	95.56
429.403	102.56
429.625	85.56
429.847	85.56
430.069	123.56
430.292	105.56
430.514	95.56
430.736	92.56
430.958	91.56
431.18	86.56
431.402	95.56
431.624	82.56
431.846	75.56
432.068	98.56
432.29	92.56
432.512	94.56
432.734	98.56
432.956	95.56
433.178	118.56
433.4	120.56
433.622	93.56
433.844	98.56
434.066	97.56
434.287	82.56
434.509	75.56
434.731	98.56
434.953	104.56
435.175	90.56
435.397	100.56
435.618	105.56
435.84	145.56
436.062	176.56
436.284	156.56
436.505	137.56
436.727	129.56
436.949	110.56
437.17	99.56
437.392	105.56
437.614	113.56
437.835	152.56
438.057	184.56
438.278	168.56
438.5	131.56
438.721	174.56
438.943	126.56
439.165	106.56
439.386	93.56
439.608	105.56
439.829	133.56
440.05	215.56
440.272	285.56
440.493	130.56
440.715	91.56
440.936	91.56
441.158	98.56
441.379	96.56
441.6	120.56
441.822	127.56
442.043	120.56
442.264	155.56
442.486	126.56
442.707	111.56
442.928	148.56
443.149	233.56
443.371	239.56
443.592	169.56
443.813	163.56
444.034	144.56
444.255	106.56
444.476	107.56
444.698	91.56
444.919	97.56
445.14	139.56
445.361	165.56
445.582	192.56
445.803	279.56
446.024	250.56
446.245	238.56
446.466	171.56
446.687	107.56
446.908	90.56
447.129	97.56
447.35	96.56
447.571	91.56
447.792	98.56
448.013	121.56
448.234	131.56
448.455	145.56
448.675	166.56
448.896	191.56
449.117	120.56
449.338	133.56
449.559	185.56
449.779	203.56
450	107.56
450.221	87.56
450.442	106.56
450.662	140.56
450.883	173.56
451.104	168.56
451.324	121.56
451.545	108.56
451.766	85.56
451.986	96.56
452.207	101.56
452.428	117.56
452.648	113.56
452.869	140.56
453.089	166.56
453.31	176.56
453.53	125.56
453.751	110.56
453.971	150.56
454.192	185.56
454.412	118.56
454.633	95.56
454.853	91.56
455.073	82.56
455.294	106.56
455.514	120.56
455.734	108.56
455.955	94.56
456.175	93.56
456.395	91.56
456.616	88.56
456.836	86.56
457.056	93.56
457.276	86.56
457.497	94.56
457.717	100.56
457.937	88.56
458.157	95.56
458.377	103.56
458.598	169.56
458.818	283.56
459.038	333.56
459.258	198.56
459.478	114.56
459.698	99.56
459.918	99.56
460.138	89.56
460.358	84.56
460.578	96.56
460.798	99.56
461.018	103.56
461.238	79.56
461.458	95.56
461.678	86.56
461.898	95.56
462.118	87.56
462.338	103.56
462.558	83.56
462.777	96.56
462.997	105.56
463.217	137.56
463.437	113.56
463.657	102.56
463.876	88.56
464.096	126.56
464.316	127.56
464.536	98.56
464.755	126.56
464.975	161.56
465.195	336.56
465.414	321.56
465.634	135.56
465.854	108.56
466.073	103.56
466.293	102.56
466.512	81.56
466.732	106.56
466.951	106.56
467.171	108.56
467.391	138.56
467.61	172.56
467.829	306.56
468.049	930.56
468.268	1407.56
468.488	325.56
468.707	136.56
468.927	85.56
469.146	95.56
469.365	103.56
469.585	110.56
469.804	118.56
470.023	123.56
470.243	118.56
470.462	147.56
470.681	167.56
470.901	122.56
471.12	113.56
471.339	95.56
471.558	135.56
471.777	195.56
471.997	482.56
472.216	1917.56
472.435	4362.56
472.654	925.56
472.873	226.56
473.092	139.56
473.311	117.56
473.53	118.56
473.749	100.56
473.968	129.56
474.187	155.56
474.406	129.56
474.625	89.56
474.844	98.56
475.063	78.56
475.282	94.56
475.501	103.56
475.72	101.56
475.939	83.56
476.158	96.56
476.377	98.56
476.596	91.56
476.814	103.56
477.033	113.56
477.252	103.56
477.471	105.56
477.69	90.56
477.908	102.56
478.127	98.56
478.346	104.56
478.564	101.56
478.783	116.56
479.002	124.56
479.22	136.56
479.439	155.56
479.658	189.56
479.876	149.56
480.095	143.56
480.313	182.56
480.532	239.56
480.751	447.56
480.969	1719.56
481.188	7636.56
481.406	4290.56
481.624	569.56
481.843	188.56
482.061	131.56
482.28	111.56
482.498	111.56
482.717	110.56
482.935	109.56
483.153	98.56
483.372	105.56
483.59	120.56
483.808	118.56
484.027	96.56
484.245	102.56
484.463	113.56
484.681	100.56
484.9	99.56
485.118	97.56
485.336	93.56
485.554	96.56
485.772	102.56
485.99	109.56
486.209	114.56
486.427	112.56
486.645	153.56
486.863	155.56
487.081	129.56
487.299	103.56
487.517	109.56
487.735	99.56
487.953	106.56
488.171	98.56
488.389	129.56
488.607	111.56
488.825	98.56
489.043	80.56
489.261	85.56
489.479	113.56
489.696	100.56
489.914	89.56
490.132	94.56
490.35	103.56
490.568	99.56
490.786	97.56
491.003	85.56
491.221	104.56
491.439	110.56
491.657	120.56
491.874	101.56
492.092	108.56
492.31	103.56
492.527	114.56
492.745	119.56
492.963	101.56
493.18	96.56
493.398	98.56
493.615	110.56
493.833	98.56
494.05	117.56
494.268	86.56
494.485	106.56
494.703	91.56
494.92	110.56
495.138	85.56
495.355	101.56
495.573	103.56
495.79	91.56
496.008	101.56
496.225	107.56
496.442	93.56
496.66	93.56
496.877	97.56
497.094	106.56
497.312	94.56
497.529	94.56
497.746	97.56
497.963	93.56
498.181	104.56
498.398	113.56
498.615	138.56
498.832	134.56
499.049	91.56
499.267	87.56
499.484	92.56
499.701	89.56
499.918	94.56
500.135	98.56
500.352	85.56
500.569	101.56
500.786	106.56
501.003	100.56
501.22	94.56
501.437	88.56
501.654	108.56
501.871	151.56
502.088	107.56
502.305	83.56
502.522	110.56
502.739	99.56
502.956	99.56
503.172	92.56
503.389	117.56
503.606	153.56
503.823	127.56
504.04	103.56
504.256	99.56
504.473	90.56
504.69	88.56
504.907	95.56
505.123	97.56
505.34	97.56
505.557	102.56
505.773	99.56
505.99	99.56
506.207	99.56
506.423	90.56
506.64	102.56
506.856	90.56
507.073	98.56
507.289	117.56
507.506	128.56
507.722	168.56
507.939	170.56
508.155	116.56
508.372	102.56
508.588	107.56
508.805	105.56
509.021	104.56
509.238	113.56
509.454	116.56
509.67	108.56
509.887	113.56
510.103	163.56
510.319	307.56
510.536	1173.56
510.752	4288.56
