Data from Circ_1997_H10_HRD10591_00006.txt Node
Date: Wed Jan 03 11:29:28 EST 2024
User: Yrep
Spectrometer: HR+D1059
Trigger mode: 1
Integration Time (sec): 1.000000E-1
Scans to average: 1
Electric dark correction enabled: true
Nonlinearity correction enabled: false
Boxcar width: 0
XAxis mode: Wavelengths
Number of Pixels in Spectrum: 2048
>>>>>Begin Spectral Data<<<<<
223.165	-19.56
223.4	-19.56
223.635	-19.56
223.869	-22.56
224.104	-7.56
224.338	-20.56
224.573	-8.56
224.808	-15.56
225.042	-9.56
225.277	7.44
225.511	-5.56
225.746	3.44
225.98	9.44
226.215	3.44
226.449	15.44
226.683	22.44
226.918	24.44
227.152	23.44
227.387	40.44
227.621	37.44
227.856	37.44
228.09	44.44
228.324	45.44
228.559	59.44
228.793	55.44
229.027	53.44
229.262	77.44
229.496	75.44
229.73	87.44
229.964	86.44
230.199	66.44
230.433	71.44
230.667	76.44
230.901	71.44
231.136	91.44
231.37	75.44
231.604	74.44
231.838	73.44
232.072	90.44
232.306	75.44
232.541	71.44
232.775	80.44
233.009	73.44
233.243	91.44
233.477	75.44
233.711	71.44
233.945	77.44
234.179	84.44
234.413	77.44
234.647	63.44
234.881	80.44
235.115	79.44
235.349	76.44
235.583	81.44
235.817	81.44
236.051	75.44
236.285	91.44
236.519	84.44
236.753	93.44
236.987	91.44
237.221	88.44
237.455	77.44
237.689	79.44
237.922	85.44
238.156	70.44
238.39	58.44
238.624	87.44
238.858	62.44
239.091	80.44
239.325	93.44
239.559	76.44
239.793	71.44
240.027	79.44
240.26	74.44
240.494	83.44
240.728	54.44
240.961	71.44
241.195	84.44
241.429	87.44
241.662	70.44
241.896	96.44
242.13	86.44
242.363	84.44
242.597	79.44
242.83	75.44
243.064	75.44
243.298	77.44
243.531	65.44
243.765	74.44
243.998	77.44
244.232	69.44
244.465	83.44
244.699	101.44
244.932	70.44
245.166	70.44
245.399	72.44
245.633	68.44
245.866	85.44
246.099	81.44
246.333	82.44
246.566	77.44
246.8	78.44
247.033	77.44
247.266	63.44
247.5	70.44
247.733	76.44
247.966	72.44
248.2	78.44
248.433	60.44
248.666	72.44
248.899	73.44
249.133	83.44
249.366	97.44
249.599	87.44
249.832	88.44
250.066	70.44
250.299	73.44
250.532	83.44
250.765	87.44
250.998	76.44
251.231	75.44
251.465	92.44
251.698	67.44
251.931	81.44
252.164	84.44
252.397	79.44
252.63	72.44
252.863	81.44
253.096	79.44
253.329	85.44
253.562	85.44
253.795	80.44
254.028	88.44
254.261	85.44
254.494	82.44
254.727	80.44
254.96	79.44
255.193	67.44
255.426	81.44
255.659	71.44
255.892	104.44
256.124	92.44
256.357	90.44
256.59	84.44
256.823	84.44
257.056	80.44
257.289	84.44
257.521	82.44
257.754	88.44
257.987	78.44
258.22	81.44
258.452	81.44
258.685	87.44
258.918	83.44
259.151	79.44
259.383	88.44
259.616	67.44
259.849	77.44
260.081	84.44
260.314	73.44
260.547	87.44
260.779	86.44
261.012	92.44
261.244	98.44
261.477	100.44
261.71	88.44
261.942	104.44
262.175	117.44
262.407	91.44
262.64	84.44
262.872	69.44
263.105	75.44
263.337	90.44
263.57	71.44
263.802	86.44
264.035	82.44
264.267	79.44
264.499	78.44
264.732	91.44
264.964	78.44
265.197	96.44
265.429	88.44
265.661	70.44
265.894	88.44
266.126	90.44
266.358	72.44
266.591	73.44
266.823	64.44
267.055	85.44
267.287	78.44
267.52	75.44
267.752	79.44
267.984	68.44
268.216	72.44
268.448	92.44
268.681	88.44
268.913	79.44
269.145	69.44
269.377	75.44
269.609	91.44
269.841	88.44
270.073	94.44
270.306	84.44
270.538	82.44
270.77	86.44
271.002	63.44
271.234	82.44
271.466	83.44
271.698	88.44
271.93	83.44
272.162	88.44
272.394	84.44
272.626	64.44
272.858	67.44
273.09	87.44
273.322	97.44
273.553	83.44
273.785	91.44
274.017	86.44
274.249	88.44
274.481	76.44
274.713	70.44
274.945	81.44
275.176	92.44
275.408	74.44
275.64	87.44
275.872	99.44
276.104	90.44
276.335	97.44
276.567	93.44
276.799	127.44
277.031	116.44
277.262	127.44
277.494	110.44
277.726	97.44
277.957	79.44
278.189	82.44
278.421	92.44
278.652	98.44
278.884	83.44
279.115	88.44
279.347	85.44
279.579	79.44
279.81	105.44
280.042	147.44
280.273	153.44
280.505	119.44
280.736	93.44
280.968	92.44
281.199	83.44
281.431	88.44
281.662	85.44
281.894	94.44
282.125	99.44
282.356	114.44
282.588	142.44
282.819	115.44
283.051	83.44
283.282	74.44
283.513	85.44
283.745	79.44
283.976	68.44
284.207	81.44
284.439	93.44
284.67	87.44
284.901	88.44
285.132	92.44
285.364	80.44
285.595	81.44
285.826	100.44
286.057	84.44
286.288	80.44
286.52	94.44
286.751	76.44
286.982	87.44
287.213	76.44
287.444	81.44
287.675	83.44
287.906	94.44
288.138	110.44
288.369	90.44
288.6	96.44
288.831	90.44
289.062	96.44
289.293	80.44
289.524	76.44
289.755	76.44
289.986	80.44
290.217	82.44
290.448	97.44
290.679	88.44
290.91	87.44
291.141	72.44
291.371	91.44
291.602	90.44
291.833	83.44
292.064	87.44
292.295	85.44
292.526	96.44
292.757	96.44
292.987	95.44
293.218	90.44
293.449	88.44
293.68	72.44
293.91	87.44
294.141	80.44
294.372	84.44
294.603	92.44
294.833	97.44
295.064	80.44
295.295	80.44
295.525	67.44
295.756	96.44
295.987	115.44
296.217	140.44
296.448	124.44
296.679	87.44
296.909	88.44
297.14	88.44
297.37	79.44
297.601	89.44
297.831	78.44
298.062	90.44
298.292	96.44
298.523	88.44
298.753	84.44
298.984	75.44
299.214	89.44
299.445	85.44
299.675	94.44
299.905	91.44
300.136	104.44
300.366	77.44
300.597	92.44
300.827	80.44
301.057	98.44
301.288	91.44
301.518	81.44
301.748	105.44
301.979	103.44
302.209	93.44
302.439	91.44
302.669	87.44
302.9	78.44
303.13	93.44
303.36	103.44
303.59	112.44
303.82	118.44
304.051	98.44
304.281	91.44
304.511	87.44
304.741	84.44
304.971	84.44
305.201	87.44
305.431	82.44
305.661	84.44
305.891	88.44
306.121	82.44
306.352	91.44
306.582	98.44
306.812	105.44
307.042	90.44
307.272	121.44
307.502	123.44
307.731	129.44
307.961	111.44
308.191	94.44
308.421	96.44
308.651	90.44
308.881	80.44
309.111	79.44
309.341	101.44
309.571	89.44
309.8	88.44
310.03	89.44
310.26	94.44
310.49	89.44
310.72	117.44
310.949	103.44
311.179	110.44
311.409	103.44
311.639	99.44
311.868	88.44
312.098	91.44
312.328	91.44
312.557	113.44
312.787	104.44
313.017	102.44
313.246	76.44
313.476	100.44
313.706	93.44
313.935	108.44
314.165	99.44
314.394	92.44
314.624	96.44
314.853	96.44
315.083	97.44
315.312	93.44
315.542	91.44
315.771	84.44
316.001	77.44
316.23	87.44
316.46	77.44
316.689	73.44
316.919	88.44
317.148	79.44
317.377	92.44
317.607	94.44
317.836	83.44
318.065	100.44
318.295	101.44
318.524	98.44
318.753	102.44
318.983	97.44
319.212	98.44
319.441	100.44
319.67	117.44
319.9	101.44
320.129	97.44
320.358	97.44
320.587	107.44
320.816	91.44
321.046	110.44
321.275	105.44
321.504	97.44
321.733	94.44
321.962	106.44
322.191	109.44
322.42	110.44
322.649	125.44
322.878	115.44
323.108	135.44
323.337	141.44
323.566	140.44
323.795	173.44
324.024	241.44
324.253	501.44
324.482	1106.44
324.71	2442.44
324.939	3308.44
325.168	1144.44
325.397	318.44
325.626	173.44
325.855	129.44
326.084	131.44
326.313	139.44
326.542	167.44
326.77	286.44
326.999	618.44
327.228	1295.44
327.457	2511.44
327.686	1955.44
327.914	541.44
328.143	346.44
328.372	396.44
328.6	235.44
328.829	146.44
329.058	144.44
329.287	134.44
329.515	139.44
329.744	159.44
329.972	279.44
330.201	556.44
330.43	792.44
330.658	391.44
330.887	211.44
331.115	170.44
331.344	116.44
331.572	99.44
331.801	111.44
332.03	108.44
332.258	92.44
332.486	91.44
332.715	97.44
332.943	89.44
333.172	100.44
333.4	103.44
333.629	131.44
333.857	170.44
334.085	293.44
334.314	495.44
334.542	1007.44
334.771	945.44
334.999	263.44
335.227	132.44
335.455	122.44
335.684	116.44
335.912	105.44
336.14	116.44
336.369	97.44
336.597	96.44
336.825	90.44
337.053	81.44
337.281	85.44
337.51	75.44
337.738	88.44
337.966	102.44
338.194	116.44
338.422	88.44
338.65	96.44
338.878	95.44
339.106	78.44
339.334	105.44
339.562	93.44
339.79	82.44
340.018	85.44
340.246	86.44
340.474	84.44
340.702	88.44
340.93	75.44
341.158	83.44
341.386	97.44
341.614	99.44
341.842	101.44
342.07	95.44
342.298	86.44
342.526	85.44
342.754	88.44
342.981	101.44
343.209	83.44
343.437	99.44
343.665	111.44
343.893	89.44
344.12	80.44
344.348	101.44
344.576	102.44
344.804	100.44
345.031	114.44
345.259	106.44
345.487	88.44
345.714	91.44
345.942	78.44
346.17	90.44
346.397	104.44
346.625	87.44
346.853	86.44
347.08	77.44
347.308	96.44
347.535	89.44
347.763	102.44
347.99	79.44
348.218	95.44
348.445	93.44
348.673	108.44
348.9	81.44
349.128	90.44
349.355	99.44
349.583	85.44
349.81	110.44
350.037	82.44
350.265	97.44
350.492	100.44
350.72	80.44
350.947	99.44
351.174	111.44
351.402	113.44
351.629	104.44
351.856	93.44
352.083	86.44
352.311	104.44
352.538	102.44
352.765	103.44
352.992	100.44
353.22	96.44
353.447	103.44
353.674	94.44
353.901	90.44
354.128	89.44
354.355	95.44
354.583	93.44
354.81	97.44
355.037	87.44
355.264	96.44
355.491	88.44
355.718	102.44
355.945	102.44
356.172	92.44
356.399	87.44
356.626	93.44
356.853	79.44
357.08	94.44
357.307	90.44
357.534	82.44
357.761	97.44
357.988	95.44
358.215	97.44
358.441	93.44
358.668	98.44
358.895	87.44
359.122	83.44
359.349	90.44
359.576	100.44
359.802	97.44
360.029	124.44
360.256	134.44
360.483	101.44
360.709	83.44
360.936	105.44
361.163	91.44
361.39	103.44
361.616	109.44
361.843	89.44
362.07	98.44
362.296	90.44
362.523	90.44
362.749	102.44
362.976	112.44
363.203	94.44
363.429	84.44
363.656	95.44
363.882	91.44
364.109	83.44
364.335	95.44
364.562	89.44
364.788	93.44
365.015	91.44
365.241	99.44
365.468	101.44
365.694	100.44
365.92	104.44
366.147	89.44
366.373	87.44
366.599	88.44
366.826	80.44
367.052	76.44
367.278	92.44
367.505	75.44
367.731	99.44
367.957	87.44
368.184	93.44
368.41	112.44
368.636	106.44
368.862	104.44
369.089	112.44
369.315	94.44
369.541	108.44
369.767	100.44
369.993	93.44
370.219	81.44
370.445	79.44
370.672	72.44
370.898	90.44
371.124	95.44
371.35	85.44
371.576	70.44
371.802	93.44
372.028	88.44
372.254	85.44
372.48	93.44
372.706	69.44
372.932	75.44
373.158	72.44
373.384	79.44
373.61	86.44
373.835	91.44
374.061	87.44
374.287	87.44
374.513	83.44
374.739	97.44
374.965	92.44
375.191	63.44
375.416	101.44
375.642	90.44
375.868	83.44
376.094	90.44
376.319	91.44
376.545	76.44
376.771	95.44
376.997	79.44
377.222	104.44
377.448	78.44
377.674	87.44
377.899	86.44
378.125	95.44
378.35	99.44
378.576	88.44
378.802	78.44
379.027	84.44
379.253	94.44
379.478	94.44
379.704	102.44
379.929	102.44
380.155	92.44
380.38	95.44
380.606	85.44
380.831	98.44
381.057	81.44
381.282	92.44
381.507	96.44
381.733	97.44
381.958	91.44
382.184	94.44
382.409	91.44
382.634	90.44
382.86	101.44
383.085	85.44
383.31	101.44
383.535	91.44
383.761	109.44
383.986	103.44
384.211	90.44
384.436	109.44
384.662	95.44
384.887	94.44
385.112	100.44
385.337	97.44
385.562	108.44
385.787	103.44
386.013	110.44
386.238	120.44
386.463	109.44
386.688	95.44
386.913	104.44
387.138	112.44
387.363	106.44
387.588	93.44
387.813	102.44
388.038	91.44
388.263	117.44
388.488	120.44
388.713	85.44
388.938	87.44
389.163	91.44
389.387	93.44
389.612	84.44
389.837	92.44
390.062	84.44
390.287	100.44
390.512	80.44
390.736	90.44
390.961	92.44
391.186	77.44
391.411	88.44
391.636	91.44
391.86	75.44
392.085	71.44
392.31	79.44
392.534	86.44
392.759	90.44
392.984	95.44
393.208	106.44
393.433	96.44
393.658	96.44
393.882	89.44
394.107	84.44
394.331	72.44
394.556	80.44
394.78	87.44
395.005	77.44
395.229	86.44
395.454	99.44
395.678	90.44
395.903	87.44
396.127	88.44
396.352	94.44
396.576	73.44
396.801	85.44
397.025	101.44
397.249	75.44
397.474	89.44
397.698	80.44
397.922	74.44
398.147	84.44
398.371	93.44
398.595	95.44
398.82	84.44
399.044	82.44
399.268	71.44
399.492	81.44
399.717	88.44
399.941	83.44
400.165	109.44
400.389	75.44
400.613	84.44
400.837	84.44
401.062	90.44
401.286	88.44
401.51	99.44
401.734	95.44
401.958	93.44
402.182	135.44
402.406	159.44
402.63	115.44
402.854	91.44
403.078	84.44
403.302	89.44
403.526	85.44
403.75	79.44
403.974	82.44
404.198	89.44
404.422	86.44
404.645	77.44
404.869	86.44
405.093	111.44
405.317	122.44
405.541	116.44
405.765	108.44
405.988	109.44
406.212	181.44
406.436	235.44
406.66	141.44
406.883	93.44
407.107	116.44
407.331	102.44
407.555	109.44
407.778	115.44
408.002	83.44
408.226	89.44
408.449	96.44
408.673	86.44
408.896	101.44
409.12	90.44
409.344	90.44
409.567	100.44
409.791	98.44
410.014	86.44
410.238	98.44
410.461	97.44
410.685	86.44
410.908	93.44
411.132	97.44
411.355	90.44
411.578	87.44
411.802	98.44
412.025	96.44
412.249	91.44
412.472	106.44
412.695	126.44
412.919	119.44
413.142	97.44
413.365	100.44
413.589	79.44
413.812	87.44
414.035	94.44
414.258	77.44
414.482	94.44
414.705	91.44
414.928	91.44
415.151	92.44
415.374	92.44
415.597	79.44
415.821	81.44
416.044	84.44
416.267	99.44
416.49	87.44
416.713	87.44
416.936	93.44
417.159	93.44
417.382	107.44
417.605	94.44
417.828	99.44
418.051	107.44
418.274	93.44
418.497	91.44
418.72	90.44
418.943	90.44
419.166	83.44
419.389	93.44
419.611	90.44
419.834	95.44
420.057	91.44
420.28	90.44
420.503	100.44
420.726	80.44
420.948	88.44
421.171	103.44
421.394	88.44
421.617	91.44
421.839	93.44
422.062	100.44
422.285	104.44
422.507	107.44
422.73	113.44
422.953	76.44
423.175	81.44
423.398	95.44
423.621	75.44
423.843	96.44
424.066	95.44
424.288	85.44
424.511	94.44
424.733	107.44
424.956	112.44
425.178	102.44
425.401	110.44
425.623	91.44
425.846	86.44
426.068	100.44
426.291	75.44
426.513	86.44
426.735	84.44
426.958	92.44
427.18	115.44
427.402	170.44
427.625	215.44
427.847	193.44
428.069	202.44
428.292	107.44
428.514	97.44
428.736	99.44
428.958	89.44
429.181	95.44
429.403	86.44
429.625	69.44
429.847	97.44
430.069	91.44
430.292	92.44
430.514	86.44
430.736	86.44
430.958	96.44
431.18	94.44
431.402	69.44
431.624	88.44
431.846	89.44
432.068	103.44
432.29	79.44
432.512	91.44
432.734	91.44
432.956	93.44
433.178	90.44
433.4	86.44
433.622	86.44
433.844	74.44
434.066	99.44
434.287	79.44
434.509	88.44
434.731	96.44
434.953	88.44
435.175	86.44
435.397	99.44
435.618	101.44
435.84	118.44
436.062	149.44
436.284	131.44
436.505	112.44
436.727	105.44
436.949	102.44
437.17	84.44
437.392	91.44
437.614	83.44
437.835	109.44
438.057	128.44
438.278	105.44
438.5	106.44
438.721	141.44
438.943	104.44
439.165	95.44
439.386	84.44
439.608	95.44
439.829	117.44
440.05	136.44
440.272	179.44
440.493	111.44
440.715	75.44
440.936	94.44
441.158	82.44
441.379	83.44
441.6	92.44
441.822	110.44
442.043	100.44
442.264	121.44
442.486	110.44
442.707	86.44
442.928	111.44
443.149	160.44
443.371	149.44
443.592	112.44
443.813	105.44
444.034	120.44
444.255	95.44
444.476	92.44
444.698	92.44
444.919	87.44
445.14	132.44
445.361	124.44
445.582	124.44
445.803	161.44
446.024	157.44
446.245	146.44
446.466	116.44
446.687	85.44
446.908	84.44
447.129	84.44
447.35	77.44
447.571	90.44
447.792	85.44
448.013	95.44
448.234	117.44
448.455	108.44
448.675	113.44
448.896	125.44
449.117	98.44
449.338	110.44
449.559	157.44
449.779	148.44
450	101.44
450.221	95.44
450.442	85.44
450.662	94.44
450.883	117.44
451.104	108.44
451.324	89.44
451.545	83.44
451.766	72.44
451.986	73.44
452.207	81.44
452.428	105.44
452.648	103.44
452.869	98.44
453.089	102.44
453.31	113.44
453.53	102.44
453.751	93.44
453.971	99.44
454.192	104.44
454.412	94.44
454.633	91.44
454.853	85.44
455.073	98.44
455.294	104.44
455.514	110.44
455.734	91.44
455.955	80.44
456.175	75.44
456.395	82.44
456.616	84.44
456.836	92.44
457.056	80.44
457.276	79.44
457.497	77.44
457.717	89.44
457.937	76.44
458.157	88.44
458.377	112.44
458.598	114.44
458.818	166.44
459.038	188.44
459.258	112.44
459.478	93.44
459.698	90.44
459.918	79.44
460.138	98.44
460.358	84.44
460.578	88.44
460.798	95.44
461.018	80.44
461.238	86.44
461.458	68.44
461.678	101.44
461.898	69.44
462.118	88.44
462.338	80.44
462.558	86.44
462.777	79.44
462.997	75.44
463.217	82.44
463.437	84.44
463.657	92.44
463.876	87.44
464.096	80.44
464.316	85.44
464.536	92.44
464.755	90.44
464.975	109.44
465.195	185.44
465.414	180.44
465.634	81.44
465.854	86.44
466.073	89.44
466.293	89.44
466.512	92.44
466.732	89.44
466.951	95.44
467.171	82.44
467.391	108.44
467.61	111.44
467.829	144.44
468.049	299.44
468.268	444.44
468.488	159.44
468.707	95.44
468.927	85.44
469.146	89.44
469.365	76.44
469.585	91.44
469.804	100.44
470.023	95.44
470.243	89.44
470.462	92.44
470.681	101.44
470.901	86.44
471.12	86.44
471.339	101.44
471.558	97.44
471.777	129.44
471.997	207.44
472.216	581.44
472.435	1298.44
472.654	337.44
472.873	134.44
473.092	110.44
473.311	83.44
473.53	81.44
473.749	91.44
473.968	102.44
474.187	116.44
474.406	114.44
474.625	89.44
474.844	77.44
475.063	86.44
475.282	75.44
475.501	75.44
475.72	78.44
475.939	89.44
476.158	85.44
476.377	78.44
476.596	82.44
476.814	99.44
477.033	90.44
477.252	82.44
477.471	79.44
477.69	86.44
477.908	86.44
478.127	77.44
478.346	81.44
478.564	93.44
478.783	92.44
479.002	105.44
479.22	109.44
479.439	108.44
479.658	121.44
479.876	114.44
480.095	108.44
480.313	121.44
480.532	119.44
480.751	188.44
480.969	577.44
481.188	2270.44
481.406	1336.44
481.624	227.44
481.843	122.44
482.061	92.44
482.28	92.44
482.498	89.44
482.717	80.44
482.935	87.44
483.153	87.44
483.372	88.44
483.59	87.44
483.808	87.44
484.027	83.44
484.245	85.44
484.463	96.44
484.681	87.44
484.9	93.44
485.118	93.44
485.336	73.44
485.554	92.44
485.772	88.44
485.99	100.44
486.209	97.44
486.427	112.44
486.645	117.44
486.863	124.44
487.081	103.44
487.299	76.44
487.517	99.44
487.735	90.44
487.953	93.44
488.171	96.44
488.389	95.44
488.607	90.44
488.825	87.44
489.043	95.44
489.261	89.44
489.479	89.44
489.696	94.44
489.914	98.44
490.132	90.44
490.35	85.44
490.568	87.44
490.786	85.44
491.003	77.44
491.221	83.44
491.439	92.44
491.657	88.44
491.874	83.44
492.092	79.44
492.31	85.44
492.527	96.44
492.745	75.44
492.963	79.44
493.18	78.44
493.398	67.44
493.615	94.44
493.833	89.44
494.05	106.44
494.268	86.44
494.485	88.44
494.703	91.44
494.92	89.44
495.138	77.44
495.355	100.44
495.573	95.44
495.79	91.44
496.008	92.44
496.225	89.44
496.442	92.44
496.66	83.44
496.877	79.44
497.094	79.44
497.312	80.44
497.529	111.44
497.746	86.44
497.963	83.44
498.181	89.44
498.398	85.44
498.615	90.44
498.832	94.44
499.049	87.44
499.267	79.44
499.484	91.44
499.701	86.44
499.918	80.44
500.135	82.44
500.352	93.44
500.569	67.44
500.786	95.44
501.003	96.44
501.22	77.44
501.437	90.44
501.654	93.44
501.871	107.44
502.088	90.44
502.305	87.44
502.522	88.44
502.739	92.44
502.956	96.44
503.172	94.44
503.389	94.44
503.606	107.44
503.823	97.44
504.04	103.44
504.256	96.44
504.473	94.44
504.69	95.44
504.907	88.44
505.123	82.44
505.34	87.44
505.557	101.44
505.773	87.44
505.99	92.44
506.207	79.44
506.423	93.44
506.64	94.44
506.856	87.44
507.073	87.44
507.289	109.44
507.506	90.44
507.722	99.44
507.939	104.44
508.155	96.44
508.372	87.44
508.588	83.44
508.805	90.44
509.021	80.44
509.238	91.44
509.454	94.44
509.67	103.44
509.887	101.44
510.103	117.44
510.319	205.44
510.536	663.44
510.752	2204.44
510.968	625.44
511.184	161.44
511.401	109.44
511.617	100.44
511.833	103.44
512.049	91.44
512.265	89.44
512.481	71.44
512.698	102.44
512.914	75.44
513.13	77.44
513.346	90.44
513.562	92.44
513.778	89.44
513.994	100.44
514.21	106.44
514.426	109.44
514.642	160.44
514.858	151.44
515.074	181.44
