Data from Circ_1997_H10_HRD10591_00063.txt Node
Date: Wed Jan 03 11:29:40 EST 2024
User: Yrep
Spectrometer: HR+D1059
Trigger mode: 1
Integration Time (sec): 1.000000E-1
Scans to average: 1
Electric dark correction enabled: true
Nonlinearity correction enabled: false
Boxcar width: 0
XAxis mode: Wavelengths
Number of Pixels in Spectrum: 2048
>>>>>Begin Spectral Data<<<<<
223.165	-20.06
223.4	-20.06
223.635	-20.06
223.869	-30.06
224.104	-16.06
224.338	-16.06
224.573	-5.06
224.808	-14.06
225.042	-6.06
225.277	-15.06
225.511	2.94
225.746	4.94
225.98	15.94
226.215	12.94
226.449	9.94
226.683	26.94
226.918	22.94
227.152	25.94
227.387	35.94
227.621	31.94
227.856	55.94
228.09	44.94
228.324	70.94
228.559	52.94
228.793	79.94
229.027	83.94
229.262	87.94
229.496	75.94
229.73	95.94
229.964	96.94
230.199	79.94
230.433	79.94
230.667	75.94
230.901	83.94
231.136	90.94
231.37	85.94
231.604	91.94
231.838	81.94
232.072	83.94
232.306	95.94
232.541	99.94
232.775	84.94
233.009	87.94
233.243	90.94
233.477	83.94
233.711	99.94
233.945	82.94
234.179	83.94
234.413	91.94
234.647	81.94
234.881	88.94
235.115	89.94
235.349	87.94
235.583	82.94
235.817	96.94
236.051	91.94
236.285	89.94
236.519	76.94
236.753	92.94
236.987	92.94
237.221	94.94
237.455	106.94
237.689	105.94
237.922	79.94
238.156	74.94
238.39	81.94
238.624	79.94
238.858	79.94
239.091	70.94
239.325	77.94
239.559	77.94
239.793	84.94
240.027	74.94
240.26	92.94
240.494	103.94
240.728	85.94
240.961	83.94
241.195	97.94
241.429	89.94
241.662	81.94
241.896	69.94
242.13	74.94
242.363	77.94
242.597	98.94
242.83	85.94
243.064	89.94
243.298	78.94
243.531	85.94
243.765	91.94
243.998	77.94
244.232	93.94
244.465	96.94
244.699	86.94
244.932	76.94
245.166	80.94
245.399	66.94
245.633	72.94
245.866	95.94
246.099	87.94
246.333	75.94
246.566	91.94
246.8	98.94
247.033	83.94
247.266	85.94
247.5	83.94
247.733	91.94
247.966	87.94
248.2	86.94
248.433	82.94
248.666	77.94
248.899	93.94
249.133	111.94
249.366	110.94
249.599	91.94
249.832	99.94
250.066	93.94
250.299	76.94
250.532	81.94
250.765	79.94
250.998	98.94
251.231	90.94
251.465	85.94
251.698	90.94
251.931	93.94
252.164	91.94
252.397	88.94
252.63	85.94
252.863	82.94
253.096	85.94
253.329	71.94
253.562	89.94
253.795	77.94
254.028	93.94
254.261	84.94
254.494	82.94
254.727	85.94
254.96	75.94
255.193	84.94
255.426	83.94
255.659	95.94
255.892	87.94
256.124	106.94
256.357	98.94
256.59	78.94
256.823	91.94
257.056	82.94
257.289	111.94
257.521	96.94
257.754	91.94
257.987	82.94
258.22	103.94
258.452	95.94
258.685	96.94
258.918	102.94
259.151	96.94
259.383	81.94
259.616	92.94
259.849	89.94
260.081	99.94
260.314	90.94
260.547	92.94
260.779	109.94
261.012	106.94
261.244	104.94
261.477	94.94
261.71	109.94
261.942	131.94
262.175	134.94
262.407	113.94
262.64	86.94
262.872	83.94
263.105	90.94
263.337	103.94
263.57	82.94
263.802	79.94
264.035	83.94
264.267	78.94
264.499	79.94
264.732	87.94
264.964	89.94
265.197	89.94
265.429	79.94
265.661	101.94
265.894	101.94
266.126	84.94
266.358	90.94
266.591	94.94
266.823	94.94
267.055	85.94
267.287	103.94
267.52	89.94
267.752	90.94
267.984	94.94
268.216	97.94
268.448	89.94
268.681	90.94
268.913	89.94
269.145	105.94
269.377	77.94
269.609	78.94
269.841	96.94
270.073	94.94
270.306	84.94
270.538	113.94
270.77	79.94
271.002	100.94
271.234	93.94
271.466	106.94
271.698	92.94
271.93	94.94
272.162	90.94
272.394	98.94
272.626	89.94
272.858	84.94
273.09	83.94
273.322	101.94
273.553	82.94
273.785	91.94
274.017	95.94
274.249	87.94
274.481	87.94
274.713	80.94
274.945	94.94
275.176	99.94
275.408	108.94
275.64	125.94
275.872	136.94
276.104	111.94
276.335	100.94
276.567	123.94
276.799	145.94
277.031	162.94
277.262	189.94
277.494	153.94
277.726	108.94
277.957	98.94
278.189	106.94
278.421	97.94
278.652	88.94
278.884	101.94
279.115	93.94
279.347	94.94
279.579	102.94
279.81	149.94
280.042	215.94
280.273	272.94
280.505	185.94
280.736	98.94
280.968	86.94
281.199	92.94
281.431	98.94
281.662	90.94
281.894	85.94
282.125	97.94
282.356	154.94
282.588	189.94
282.819	130.94
283.051	95.94
283.282	91.94
283.513	87.94
283.745	95.94
283.976	94.94
284.207	98.94
284.439	103.94
284.67	95.94
284.901	95.94
285.132	88.94
285.364	99.94
285.595	101.94
285.826	80.94
286.057	90.94
286.288	93.94
286.52	87.94
286.751	90.94
286.982	86.94
287.213	88.94
287.444	79.94
287.675	89.94
287.906	100.94
288.138	102.94
288.369	90.94
288.6	91.94
288.831	92.94
289.062	102.94
289.293	94.94
289.524	99.94
289.755	93.94
289.986	93.94
290.217	90.94
290.448	95.94
290.679	96.94
290.91	82.94
291.141	77.94
291.371	86.94
291.602	85.94
291.833	101.94
292.064	97.94
292.295	99.94
292.526	101.94
292.757	102.94
292.987	95.94
293.218	85.94
293.449	110.94
293.68	97.94
293.91	89.94
294.141	101.94
294.372	92.94
294.603	89.94
294.833	110.94
295.064	102.94
295.295	101.94
295.525	106.94
295.756	105.94
295.987	130.94
296.217	153.94
296.448	153.94
296.679	106.94
296.909	102.94
297.14	100.94
297.37	85.94
297.601	90.94
297.831	87.94
298.062	92.94
298.292	91.94
298.523	99.94
298.753	87.94
298.984	99.94
299.214	101.94
299.445	97.94
299.675	81.94
299.905	95.94
300.136	99.94
300.366	94.94
300.597	91.94
300.827	102.94
301.057	113.94
301.288	109.94
301.518	106.94
301.748	104.94
301.979	114.94
302.209	104.94
302.439	114.94
302.669	95.94
302.9	95.94
303.13	109.94
303.36	113.94
303.59	141.94
303.82	161.94
304.051	122.94
304.281	100.94
304.511	93.94
304.741	91.94
304.971	95.94
305.201	97.94
305.431	94.94
305.661	97.94
305.891	93.94
306.121	103.94
306.352	130.94
306.582	122.94
306.812	102.94
307.042	124.94
307.272	167.94
307.502	179.94
307.731	177.94
307.961	127.94
308.191	104.94
308.421	106.94
308.651	117.94
308.881	91.94
309.111	101.94
309.341	103.94
309.571	98.94
309.8	112.94
310.03	113.94
310.26	104.94
310.49	106.94
310.72	119.94
310.949	124.94
311.179	130.94
311.409	110.94
311.639	110.94
311.868	107.94
312.098	99.94
312.328	101.94
312.557	111.94
312.787	119.94
313.017	119.94
313.246	112.94
313.476	109.94
313.706	95.94
313.935	103.94
314.165	119.94
314.394	116.94
314.624	102.94
314.853	120.94
315.083	109.94
315.312	95.94
315.542	101.94
315.771	99.94
316.001	87.94
316.23	100.94
316.46	93.94
316.689	98.94
316.919	102.94
317.148	105.94
317.377	106.94
317.607	115.94
317.836	112.94
318.065	105.94
318.295	109.94
318.524	102.94
318.753	102.94
318.983	107.94
319.212	107.94
319.441	133.94
319.67	114.94
319.9	100.94
320.129	102.94
320.358	95.94
320.587	93.94
320.816	110.94
321.046	118.94
321.275	108.94
321.504	93.94
321.733	101.94
321.962	111.94
322.191	119.94
322.42	123.94
322.649	118.94
322.878	138.94
323.108	132.94
323.337	140.94
323.566	166.94
323.795	193.94
324.024	270.94
324.253	537.94
324.482	1239.94
324.71	2559.94
324.939	3349.94
325.168	1143.94
325.397	317.94
325.626	174.94
325.855	155.94
326.084	129.94
326.313	165.94
326.542	210.94
326.77	309.94
326.999	623.94
327.228	1331.94
327.457	2540.94
327.686	1930.94
327.914	623.94
328.143	596.94
328.372	763.94
328.6	407.94
328.829	205.94
329.058	218.94
329.287	230.94
329.515	202.94
329.744	291.94
329.972	560.94
330.201	1138.94
330.43	1609.94
330.658	704.94
330.887	310.94
331.115	176.94
331.344	125.94
331.572	137.94
331.801	150.94
332.03	147.94
332.258	116.94
332.486	102.94
332.715	112.94
332.943	113.94
333.172	124.94
333.4	135.94
333.629	158.94
333.857	252.94
334.085	518.94
334.314	1115.94
334.542	2101.94
334.771	1858.94
334.999	468.94
335.227	179.94
335.455	134.94
335.684	118.94
335.912	121.94
336.14	107.94
336.369	121.94
336.597	122.94
336.825	98.94
337.053	103.94
337.281	100.94
337.51	99.94
337.738	123.94
337.966	106.94
338.194	103.94
338.422	107.94
338.65	112.94
338.878	99.94
339.106	105.94
339.334	99.94
339.562	93.94
339.79	94.94
340.018	98.94
340.246	102.94
340.474	102.94
340.702	98.94
340.93	105.94
341.158	95.94
341.386	107.94
341.614	111.94
341.842	119.94
342.07	108.94
342.298	89.94
342.526	96.94
342.754	98.94
342.981	103.94
343.209	100.94
343.437	106.94
343.665	98.94
343.893	106.94
344.12	100.94
344.348	94.94
344.576	95.94
344.804	104.94
345.031	109.94
345.259	117.94
345.487	94.94
345.714	97.94
345.942	111.94
346.17	97.94
346.397	100.94
346.625	97.94
346.853	101.94
347.08	97.94
347.308	105.94
347.535	120.94
347.763	117.94
347.99	109.94
348.218	120.94
348.445	119.94
348.673	96.94
348.9	100.94
349.128	105.94
349.355	101.94
349.583	95.94
349.81	91.94
350.037	91.94
350.265	110.94
350.492	94.94
350.72	107.94
350.947	118.94
351.174	141.94
351.402	134.94
351.629	101.94
351.856	107.94
352.083	111.94
352.311	118.94
352.538	134.94
352.765	140.94
352.992	131.94
353.22	137.94
353.447	117.94
353.674	103.94
353.901	101.94
354.128	92.94
354.355	113.94
354.583	86.94
354.81	92.94
355.037	99.94
355.264	99.94
355.491	101.94
355.718	104.94
355.945	101.94
356.172	91.94
356.399	97.94
356.626	86.94
356.853	86.94
357.08	108.94
357.307	99.94
357.534	99.94
357.761	98.94
357.988	100.94
358.215	102.94
358.441	99.94
358.668	93.94
358.895	97.94
359.122	92.94
359.349	94.94
359.576	111.94
359.802	112.94
360.029	157.94
360.256	165.94
360.483	118.94
360.709	97.94
360.936	97.94
361.163	112.94
361.39	112.94
361.616	100.94
361.843	98.94
362.07	106.94
362.296	117.94
362.523	109.94
362.749	109.94
362.976	88.94
363.203	99.94
363.429	97.94
363.656	101.94
363.882	92.94
364.109	115.94
364.335	108.94
364.562	108.94
364.788	90.94
365.015	110.94
365.241	114.94
365.468	128.94
365.694	117.94
365.92	103.94
366.147	110.94
366.373	93.94
366.599	103.94
366.826	94.94
367.052	86.94
367.278	122.94
367.505	95.94
367.731	111.94
367.957	94.94
368.184	108.94
368.41	105.94
368.636	111.94
368.862	147.94
369.089	113.94
369.315	102.94
369.541	91.94
369.767	106.94
369.993	93.94
370.219	107.94
370.445	110.94
370.672	92.94
370.898	78.94
371.124	85.94
371.35	84.94
371.576	94.94
371.802	102.94
372.028	90.94
372.254	103.94
372.48	99.94
372.706	85.94
372.932	97.94
373.158	96.94
373.384	86.94
373.61	111.94
373.835	103.94
374.061	94.94
374.287	96.94
374.513	91.94
374.739	98.94
374.965	85.94
375.191	88.94
375.416	89.94
375.642	84.94
375.868	98.94
376.094	89.94
376.319	90.94
376.545	79.94
376.771	82.94
376.997	86.94
377.222	95.94
377.448	86.94
377.674	105.94
377.899	111.94
378.125	87.94
378.35	87.94
378.576	103.94
378.802	89.94
379.027	96.94
379.253	94.94
379.478	83.94
379.704	78.94
379.929	95.94
380.155	98.94
380.38	106.94
380.606	103.94
380.831	90.94
381.057	97.94
381.282	95.94
381.507	100.94
381.733	101.94
381.958	94.94
382.184	103.94
382.409	109.94
382.634	99.94
382.86	100.94
383.085	116.94
383.31	113.94
383.535	89.94
383.761	107.94
383.986	93.94
384.211	95.94
384.436	81.94
384.662	95.94
384.887	95.94
385.112	111.94
385.337	95.94
385.562	102.94
385.787	118.94
386.013	114.94
386.238	123.94
386.463	97.94
386.688	101.94
386.913	78.94
387.138	91.94
387.363	102.94
387.588	101.94
387.813	95.94
388.038	111.94
388.263	105.94
388.488	97.94
388.713	96.94
388.938	111.94
389.163	98.94
389.387	97.94
389.612	98.94
389.837	95.94
390.062	107.94
390.287	97.94
390.512	83.94
390.736	93.94
390.961	90.94
391.186	102.94
391.411	93.94
391.636	88.94
391.86	100.94
392.085	101.94
392.31	76.94
392.534	92.94
392.759	96.94
392.984	82.94
393.208	101.94
393.433	93.94
393.658	80.94
393.882	93.94
394.107	84.94
394.331	91.94
394.556	95.94
394.78	96.94
395.005	92.94
395.229	98.94
395.454	90.94
395.678	106.94
395.903	103.94
396.127	106.94
396.352	88.94
396.576	85.94
396.801	84.94
397.025	96.94
397.249	82.94
397.474	106.94
397.698	99.94
397.922	93.94
398.147	89.94
398.371	109.94
398.595	98.94
398.82	90.94
399.044	93.94
399.268	84.94
399.492	81.94
399.717	89.94
399.941	84.94
400.165	101.94
400.389	111.94
400.613	92.94
400.837	85.94
401.062	89.94
401.286	85.94
401.51	98.94
401.734	94.94
401.958	115.94
402.182	143.94
402.406	206.94
402.63	152.94
402.854	96.94
403.078	91.94
403.302	107.94
403.526	97.94
403.75	102.94
403.974	94.94
404.198	97.94
404.422	100.94
404.645	102.94
404.869	115.94
405.093	136.94
405.317	170.94
405.541	154.94
405.765	112.94
405.988	130.94
406.212	242.94
406.436	315.94
406.66	201.94
406.883	124.94
407.107	121.94
407.331	118.94
407.555	132.94
407.778	112.94
408.002	95.94
408.226	97.94
408.449	100.94
408.673	111.94
408.896	103.94
409.12	122.94
409.344	115.94
409.567	89.94
409.791	92.94
410.014	95.94
410.238	102.94
410.461	105.94
410.685	98.94
410.908	109.94
411.132	114.94
411.355	111.94
411.578	96.94
411.802	102.94
412.025	92.94
412.249	90.94
412.472	128.94
412.695	143.94
412.919	118.94
413.142	112.94
413.365	107.94
413.589	95.94
413.812	97.94
414.035	104.94
414.258	101.94
414.482	94.94
414.705	93.94
414.928	94.94
415.151	101.94
415.374	98.94
415.597	106.94
415.821	80.94
416.044	91.94
416.267	95.94
416.49	91.94
416.713	94.94
416.936	85.94
417.159	99.94
417.382	120.94
417.605	107.94
417.828	120.94
418.051	95.94
418.274	105.94
418.497	88.94
418.72	90.94
418.943	95.94
419.166	85.94
419.389	92.94
419.611	112.94
419.834	100.94
420.057	87.94
420.28	93.94
420.503	112.94
420.726	103.94
420.948	99.94
421.171	110.94
421.394	105.94
421.617	93.94
421.839	95.94
422.062	106.94
422.285	90.94
422.507	101.94
422.73	113.94
422.953	101.94
423.175	107.94
423.398	98.94
423.621	89.94
423.843	81.94
424.066	91.94
424.288	115.94
424.511	104.94
424.733	122.94
424.956	129.94
425.178	133.94
425.401	108.94
425.623	123.94
425.846	89.94
426.068	108.94
426.291	87.94
426.513	94.94
426.735	104.94
426.958	107.94
427.18	147.94
427.402	201.94
427.625	313.94
427.847	273.94
428.069	246.94
428.292	140.94
428.514	114.94
428.736	100.94
428.958	104.94
429.181	91.94
429.403	87.94
429.625	98.94
429.847	102.94
430.069	134.94
430.292	114.94
430.514	100.94
430.736	103.94
430.958	96.94
431.18	97.94
431.402	90.94
431.624	88.94
431.846	94.94
432.068	79.94
432.29	97.94
432.512	98.94
432.734	102.94
432.956	92.94
433.178	112.94
433.4	112.94
433.622	98.94
433.844	103.94
434.066	113.94
434.287	99.94
434.509	102.94
434.731	93.94
434.953	100.94
435.175	80.94
435.397	80.94
435.618	101.94
435.84	117.94
436.062	166.94
436.284	149.94
436.505	124.94
436.727	116.94
436.949	99.94
437.17	101.94
437.392	101.94
437.614	106.94
437.835	123.94
438.057	152.94
438.278	149.94
438.5	129.94
438.721	162.94
438.943	125.94
439.165	87.94
439.386	84.94
439.608	97.94
439.829	119.94
440.05	159.94
440.272	211.94
440.493	123.94
440.715	107.94
440.936	99.94
441.158	85.94
441.379	102.94
441.6	119.94
441.822	122.94
442.043	113.94
442.264	123.94
442.486	137.94
442.707	108.94
442.928	135.94
443.149	184.94
443.371	191.94
443.592	150.94
443.813	143.94
444.034	130.94
444.255	95.94
444.476	107.94
444.698	106.94
444.919	83.94
445.14	126.94
445.361	151.94
445.582	154.94
445.803	223.94
446.024	202.94
446.245	201.94
446.466	163.94
446.687	99.94
446.908	90.94
447.129	97.94
447.35	96.94
447.571	110.94
447.792	106.94
448.013	115.94
448.234	133.94
448.455	130.94
448.675	150.94
448.896	159.94
449.117	125.94
449.338	125.94
449.559	179.94
449.779	173.94
450	109.94
450.221	93.94
450.442	102.94
450.662	109.94
450.883	143.94
451.104	138.94
451.324	113.94
451.545	100.94
451.766	100.94
451.986	93.94
452.207	103.94
452.428	111.94
452.648	107.94
452.869	130.94
453.089	130.94
453.31	137.94
453.53	113.94
453.751	115.94
453.971	134.94
454.192	137.94
454.412	121.94
454.633	90.94
454.853	102.94
455.073	95.94
455.294	107.94
455.514	111.94
455.734	107.94
455.955	98.94
456.175	89.94
456.395	103.94
456.616	91.94
456.836	101.94
457.056	85.94
457.276	101.94
457.497	96.94
457.717	103.94
457.937	96.94
458.157	89.94
458.377	97.94
458.598	123.94
458.818	206.94
459.038	251.94
459.258	153.94
459.478	96.94
459.698	88.94
459.918	101.94
460.138	94.94
460.358	102.94
460.578	89.94
460.798	95.94
461.018	110.94
461.238	91.94
461.458	107.94
461.678	81.94
461.898	91.94
462.118	85.94
462.338	99.94
462.558	93.94
462.777	100.94
462.997	100.94
463.217	113.94
463.437	113.94
463.657	87.94
463.876	97.94
464.096	106.94
464.316	97.94
464.536	113.94
464.755	118.94
464.975	132.94
465.195	238.94
465.414	249.94
465.634	117.94
465.854	96.94
466.073	93.94
466.293	81.94
466.512	95.94
466.732	101.94
466.951	107.94
467.171	112.94
467.391	111.94
467.61	161.94
467.829	212.94
468.049	627.94
468.268	915.94
468.488	237.94
468.707	110.94
468.927	105.94
469.146	100.94
469.365	105.94
469.585	104.94
469.804	124.94
470.023	130.94
470.243	115.94
470.462	141.94
470.681	164.94
470.901	111.94
471.12	112.94
471.339	119.94
471.558	128.94
471.777	155.94
471.997	325.94
472.216	1263.94
472.435	2765.94
472.654	630.94
472.873	174.94
473.092	122.94
473.311	102.94
473.53	88.94
473.749	110.94
473.968	127.94
474.187	152.94
474.406	119.94
474.625	108.94
474.844	91.94
475.063	78.94
475.282	107.94
475.501	92.94
475.72	93.94
475.939	92.94
476.158	83.94
476.377	109.94
476.596	87.94
476.814	91.94
477.033	91.94
477.252	98.94
477.471	90.94
477.69	97.94
477.908	103.94
478.127	101.94
478.346	107.94
478.564	111.94
478.783	118.94
479.002	99.94
479.22	109.94
479.439	134.94
479.658	145.94
479.876	129.94
480.095	124.94
480.313	137.94
480.532	171.94
480.751	303.94
480.969	1200.94
481.188	5006.94
481.406	2684.94
481.624	385.94
481.843	148.94
482.061	97.94
482.28	116.94
482.498	101.94
482.717	95.94
482.935	111.94
483.153	101.94
483.372	91.94
483.59	96.94
483.808	95.94
484.027	92.94
484.245	99.94
484.463	103.94
484.681	102.94
484.9	108.94
485.118	102.94
485.336	108.94
485.554	106.94
485.772	103.94
485.99	111.94
486.209	111.94
486.427	105.94
486.645	139.94
486.863	120.94
487.081	100.94
487.299	118.94
487.517	105.94
487.735	101.94
487.953	87.94
488.171	93.94
488.389	113.94
488.607	111.94
488.825	90.94
489.043	102.94
489.261	95.94
489.479	83.94
489.696	81.94
489.914	103.94
490.132	94.94
490.35	96.94
490.568	107.94
490.786	109.94
491.003	99.94
491.221	107.94
491.439	117.94
491.657	96.94
491.874	105.94
492.092	92.94
492.31	107.94
492.527	119.94
492.745	107.94
492.963	86.94
493.18	92.94
493.398	96.94
493.615	90.94
493.833	113.94
494.05	94.94
494.268	99.94
494.485	98.94
494.703	97.94
494.92	96.94
495.138	105.94
495.355	94.94
495.573	95.94
495.79	90.94
496.008	99.94
496.225	101.94
496.442	97.94
496.66	90.94
496.877	91.94
497.094	101.94
497.312	94.94
497.529	109.94
497.746	106.94
497.963	101.94
498.181	112.94
498.398	108.94
498.615	130.94
498.832	106.94
499.049	113.94
499.267	100.94
499.484	97.94
499.701	101.94
499.918	102.94
500.135	94.94
500.352	91.94
500.569	107.94
500.786	103.94
501.003	98.94
501.22	99.94
501.437	109.94
501.654	102.94
501.871	133.94
502.088	107.94
502.305	85.94
502.522	99.94
502.739	91.94
502.956	103.94
503.172	99.94
503.389	112.94
503.606	124.94
503.823	95.94
504.04	117.94
504.256	81.94
504.473	88.94
504.69	91.94
504.907	102.94
505.123	102.94
505.34	101.94
505.557	92.94
505.773	113.94
505.99	91.94
506.207	76.94
506.423	109.94
506.64	89.94
506.856	95.94
507.073	93.94
507.289	91.94
507.506	113.94
507.722	137.94
507.939	152.94
508.155	123.94
508.372	89.94
508.588	106.94
508.805	103.94
509.021	103.94
509.238	129.94
509.454	113.94
509.67	113.94
509.887	130.94
510.103	155.94
510.319	269.94
510.536	946.94
