Data from Circ_1997_H10_HRD10591_00044.txt Node
Date: Wed Jan 03 11:29:36 EST 2024
User: Yrep
Spectrometer: HR+D1059
Trigger mode: 1
Integration Time (sec): 1.000000E-1
Scans to average: 1
Electric dark correction enabled: true
Nonlinearity correction enabled: false
Boxcar width: 0
XAxis mode: Wavelengths
Number of Pixels in Spectrum: 2048
>>>>>Begin Spectral Data<<<<<
223.165	-19.12
223.4	-19.12
223.635	-19.12
223.869	-15.12
224.104	-10.12
224.338	-16.12
224.573	-17.12
224.808	-18.12
225.042	-16.12
225.277	-11.12
225.511	11.88
225.746	12.88
225.98	1.88
226.215	7.88
226.449	10.88
226.683	23.88
226.918	21.88
227.152	31.88
227.387	31.88
227.621	36.88
227.856	37.88
228.09	43.88
228.324	55.88
228.559	49.88
228.793	49.88
229.027	56.88
229.262	79.88
229.496	80.88
229.73	92.88
229.964	105.88
230.199	79.88
230.433	76.88
230.667	93.88
230.901	87.88
231.136	79.88
231.37	64.88
231.604	83.88
231.838	69.88
232.072	92.88
232.306	84.88
232.541	87.88
232.775	84.88
233.009	90.88
233.243	95.88
233.477	80.88
233.711	79.88
233.945	83.88
234.179	98.88
234.413	84.88
234.647	85.88
234.881	85.88
235.115	72.88
235.349	89.88
235.583	88.88
235.817	87.88
236.051	76.88
236.285	74.88
236.519	85.88
236.753	67.88
236.987	94.88
237.221	94.88
237.455	78.88
237.689	72.88
237.922	81.88
238.156	75.88
238.39	80.88
238.624	77.88
238.858	80.88
239.091	77.88
239.325	88.88
239.559	92.88
239.793	93.88
240.027	84.88
240.26	87.88
240.494	89.88
240.728	92.88
240.961	85.88
241.195	76.88
241.429	74.88
241.662	80.88
241.896	89.88
242.13	84.88
242.363	100.88
242.597	69.88
242.83	75.88
243.064	66.88
243.298	79.88
243.531	88.88
243.765	80.88
243.998	78.88
244.232	96.88
244.465	93.88
244.699	86.88
244.932	75.88
245.166	72.88
245.399	75.88
245.633	88.88
245.866	89.88
246.099	80.88
246.333	87.88
246.566	89.88
246.8	78.88
247.033	74.88
247.266	86.88
247.5	83.88
247.733	88.88
247.966	78.88
248.2	105.88
248.433	70.88
248.666	86.88
248.899	102.88
249.133	93.88
249.366	103.88
249.599	112.88
249.832	74.88
250.066	89.88
250.299	81.88
250.532	108.88
250.765	78.88
250.998	68.88
251.231	93.88
251.465	82.88
251.698	84.88
251.931	83.88
252.164	85.88
252.397	87.88
252.63	88.88
252.863	82.88
253.096	84.88
253.329	82.88
253.562	85.88
253.795	90.88
254.028	85.88
254.261	83.88
254.494	83.88
254.727	89.88
254.96	85.88
255.193	89.88
255.426	76.88
255.659	88.88
255.892	111.88
256.124	83.88
256.357	79.88
256.59	88.88
256.823	77.88
257.056	95.88
257.289	102.88
257.521	79.88
257.754	87.88
257.987	80.88
258.22	88.88
258.452	96.88
258.685	84.88
258.918	76.88
259.151	87.88
259.383	90.88
259.616	88.88
259.849	83.88
260.081	89.88
260.314	90.88
260.547	76.88
260.779	87.88
261.012	115.88
261.244	99.88
261.477	91.88
261.71	101.88
261.942	121.88
262.175	146.88
262.407	103.88
262.64	97.88
262.872	79.88
263.105	75.88
263.337	92.88
263.57	83.88
263.802	92.88
264.035	84.88
264.267	81.88
264.499	80.88
264.732	87.88
264.964	81.88
265.197	73.88
265.429	91.88
265.661	67.88
265.894	79.88
266.126	96.88
266.358	80.88
266.591	75.88
266.823	84.88
267.055	100.88
267.287	89.88
267.52	86.88
267.752	83.88
267.984	91.88
268.216	89.88
268.448	84.88
268.681	70.88
268.913	81.88
269.145	81.88
269.377	86.88
269.609	81.88
269.841	102.88
270.073	93.88
270.306	93.88
270.538	78.88
270.77	80.88
271.002	88.88
271.234	85.88
271.466	89.88
271.698	103.88
271.93	106.88
272.162	97.88
272.394	88.88
272.626	90.88
272.858	88.88
273.09	65.88
273.322	80.88
273.553	94.88
273.785	78.88
274.017	87.88
274.249	84.88
274.481	95.88
274.713	99.88
274.945	97.88
275.176	100.88
275.408	96.88
275.64	100.88
275.872	109.88
276.104	95.88
276.335	89.88
276.567	136.88
276.799	143.88
277.031	170.88
277.262	178.88
277.494	137.88
277.726	111.88
277.957	86.88
278.189	75.88
278.421	77.88
278.652	96.88
278.884	99.88
279.115	96.88
279.347	96.88
279.579	89.88
279.81	121.88
280.042	179.88
280.273	233.88
280.505	171.88
280.736	111.88
280.968	90.88
281.199	94.88
281.431	86.88
281.662	101.88
281.894	103.88
282.125	104.88
282.356	141.88
282.588	171.88
282.819	130.88
283.051	97.88
283.282	110.88
283.513	96.88
283.745	92.88
283.976	99.88
284.207	79.88
284.439	83.88
284.67	84.88
284.901	80.88
285.132	91.88
285.364	94.88
285.595	77.88
285.826	91.88
286.057	104.88
286.288	75.88
286.52	84.88
286.751	92.88
286.982	82.88
287.213	98.88
287.444	99.88
287.675	95.88
287.906	107.88
288.138	92.88
288.369	105.88
288.6	100.88
288.831	89.88
289.062	82.88
289.293	95.88
289.524	99.88
289.755	78.88
289.986	69.88
290.217	89.88
290.448	90.88
290.679	88.88
290.91	84.88
291.141	92.88
291.371	84.88
291.602	83.88
291.833	84.88
292.064	82.88
292.295	90.88
292.526	97.88
292.757	103.88
292.987	97.88
293.218	88.88
293.449	88.88
293.68	91.88
293.91	101.88
294.141	100.88
294.372	101.88
294.603	83.88
294.833	94.88
295.064	88.88
295.295	100.88
295.525	96.88
295.756	111.88
295.987	116.88
296.217	173.88
296.448	152.88
296.679	96.88
296.909	82.88
297.14	100.88
297.37	106.88
297.601	99.88
297.831	83.88
298.062	114.88
298.292	90.88
298.523	93.88
298.753	87.88
298.984	96.88
299.214	95.88
299.445	109.88
299.675	114.88
299.905	111.88
300.136	99.88
300.366	87.88
300.597	98.88
300.827	93.88
301.057	105.88
301.288	111.88
301.518	111.88
301.748	92.88
301.979	123.88
302.209	96.88
302.439	80.88
302.669	94.88
302.9	87.88
303.13	98.88
303.36	101.88
303.59	129.88
303.82	140.88
304.051	120.88
304.281	96.88
304.511	101.88
304.741	89.88
304.971	79.88
305.201	96.88
305.431	101.88
305.661	92.88
305.891	93.88
306.121	89.88
306.352	109.88
306.582	128.88
306.812	113.88
307.042	114.88
307.272	144.88
307.502	154.88
307.731	158.88
307.961	133.88
308.191	101.88
308.421	96.88
308.651	90.88
308.881	104.88
309.111	102.88
309.341	99.88
309.571	99.88
309.8	97.88
310.03	91.88
310.26	122.88
310.49	105.88
310.72	109.88
310.949	129.88
311.179	115.88
311.409	103.88
311.639	109.88
311.868	111.88
312.098	110.88
312.328	85.88
312.557	113.88
312.787	122.88
313.017	112.88
313.246	107.88
313.476	105.88
313.706	91.88
313.935	103.88
314.165	116.88
314.394	116.88
314.624	119.88
314.853	107.88
315.083	104.88
315.312	108.88
315.542	104.88
315.771	94.88
316.001	89.88
316.23	93.88
316.46	96.88
316.689	89.88
316.919	92.88
317.148	111.88
317.377	111.88
317.607	94.88
317.836	103.88
318.065	81.88
318.295	101.88
318.524	104.88
318.753	97.88
318.983	106.88
319.212	107.88
319.441	119.88
319.67	126.88
319.9	108.88
320.129	104.88
320.358	94.88
320.587	94.88
320.816	116.88
321.046	103.88
321.275	97.88
321.504	98.88
321.733	109.88
321.962	109.88
322.191	103.88
322.42	130.88
322.649	116.88
322.878	127.88
323.108	132.88
323.337	151.88
323.566	161.88
323.795	208.88
324.024	271.88
324.253	568.88
324.482	1235.88
324.71	2648.88
324.939	3441.88
325.168	1195.88
325.397	316.88
325.626	173.88
325.855	163.88
326.084	153.88
326.313	137.88
326.542	199.88
326.77	290.88
326.999	649.88
327.228	1419.88
327.457	2584.88
327.686	2012.88
327.914	618.88
328.143	519.88
328.372	615.88
328.6	352.88
328.829	205.88
329.058	195.88
329.287	207.88
329.515	174.88
329.744	257.88
329.972	465.88
330.201	940.88
330.43	1375.88
330.658	611.88
330.887	273.88
331.115	197.88
331.344	142.88
331.572	130.88
331.801	131.88
332.03	139.88
332.258	115.88
332.486	105.88
332.715	120.88
332.943	115.88
333.172	127.88
333.4	125.88
333.629	178.88
333.857	229.88
334.085	425.88
334.314	885.88
334.542	1730.88
334.771	1594.88
334.999	417.88
335.227	180.88
335.455	123.88
335.684	135.88
335.912	110.88
336.14	115.88
336.369	126.88
336.597	107.88
336.825	119.88
337.053	107.88
337.281	100.88
337.51	94.88
337.738	101.88
337.966	106.88
338.194	108.88
338.422	132.88
338.65	89.88
338.878	93.88
339.106	110.88
339.334	96.88
339.562	108.88
339.79	104.88
340.018	97.88
340.246	100.88
340.474	101.88
340.702	108.88
340.93	90.88
341.158	91.88
341.386	110.88
341.614	96.88
341.842	92.88
342.07	92.88
342.298	97.88
342.526	107.88
342.754	91.88
342.981	90.88
343.209	89.88
343.437	101.88
343.665	91.88
343.893	94.88
344.12	103.88
344.348	83.88
344.576	88.88
344.804	96.88
345.031	105.88
345.259	111.88
345.487	109.88
345.714	106.88
345.942	96.88
346.17	103.88
346.397	98.88
346.625	99.88
346.853	104.88
347.08	91.88
347.308	100.88
347.535	116.88
347.763	110.88
347.99	111.88
348.218	117.88
348.445	122.88
348.673	119.88
348.9	116.88
349.128	97.88
349.355	85.88
349.583	99.88
349.81	95.88
350.037	103.88
350.265	97.88
350.492	103.88
350.72	107.88
350.947	99.88
351.174	106.88
351.402	126.88
351.629	120.88
351.856	114.88
352.083	116.88
352.311	111.88
352.538	128.88
352.765	122.88
352.992	131.88
353.22	113.88
353.447	119.88
353.674	95.88
353.901	96.88
354.128	80.88
354.355	96.88
354.583	89.88
354.81	94.88
355.037	89.88
355.264	90.88
355.491	91.88
355.718	88.88
355.945	98.88
356.172	85.88
356.399	99.88
356.626	96.88
356.853	84.88
357.08	95.88
357.307	106.88
357.534	110.88
357.761	102.88
357.988	81.88
358.215	79.88
358.441	101.88
358.668	86.88
358.895	92.88
359.122	84.88
359.349	99.88
359.576	91.88
359.802	109.88
360.029	150.88
360.256	141.88
360.483	123.88
360.709	88.88
360.936	95.88
361.163	113.88
361.39	110.88
361.616	112.88
361.843	102.88
362.07	107.88
362.296	109.88
362.523	97.88
362.749	93.88
362.976	88.88
363.203	88.88
363.429	83.88
363.656	84.88
363.882	101.88
364.109	101.88
364.335	95.88
364.562	97.88
364.788	97.88
365.015	98.88
365.241	107.88
365.468	115.88
365.694	122.88
365.92	120.88
366.147	96.88
366.373	85.88
366.599	94.88
366.826	81.88
367.052	88.88
367.278	92.88
367.505	102.88
367.731	91.88
367.957	97.88
368.184	113.88
368.41	106.88
368.636	124.88
368.862	127.88
369.089	116.88
369.315	91.88
369.541	99.88
369.767	97.88
369.993	84.88
370.219	109.88
370.445	99.88
370.672	104.88
370.898	96.88
371.124	96.88
371.35	76.88
371.576	80.88
371.802	96.88
372.028	89.88
372.254	93.88
372.48	80.88
372.706	99.88
372.932	97.88
373.158	95.88
373.384	95.88
373.61	108.88
373.835	98.88
374.061	99.88
374.287	88.88
374.513	95.88
374.739	75.88
374.965	99.88
375.191	98.88
375.416	105.88
375.642	81.88
375.868	106.88
376.094	83.88
376.319	95.88
376.545	94.88
376.771	88.88
376.997	99.88
377.222	90.88
377.448	91.88
377.674	87.88
377.899	105.88
378.125	97.88
378.35	86.88
378.576	96.88
378.802	86.88
379.027	87.88
379.253	99.88
379.478	93.88
379.704	82.88
379.929	107.88
380.155	95.88
380.38	100.88
380.606	99.88
380.831	94.88
381.057	101.88
381.282	96.88
381.507	97.88
381.733	102.88
381.958	97.88
382.184	93.88
382.409	101.88
382.634	110.88
382.86	98.88
383.085	94.88
383.31	97.88
383.535	96.88
383.761	112.88
383.986	96.88
384.211	88.88
384.436	89.88
384.662	89.88
384.887	91.88
385.112	101.88
385.337	101.88
385.562	110.88
385.787	87.88
386.013	103.88
386.238	105.88
386.463	120.88
386.688	112.88
386.913	109.88
387.138	105.88
387.363	92.88
387.588	106.88
387.813	97.88
388.038	94.88
388.263	92.88
388.488	105.88
388.713	95.88
388.938	101.88
389.163	90.88
389.387	99.88
389.612	98.88
389.837	85.88
390.062	99.88
390.287	104.88
390.512	89.88
390.736	79.88
390.961	77.88
391.186	87.88
391.411	81.88
391.636	98.88
391.86	85.88
392.085	92.88
392.31	103.88
392.534	86.88
392.759	98.88
392.984	88.88
393.208	90.88
393.433	103.88
393.658	95.88
393.882	83.88
394.107	68.88
394.331	84.88
394.556	100.88
394.78	102.88
395.005	86.88
395.229	77.88
395.454	84.88
395.678	87.88
395.903	87.88
396.127	94.88
396.352	90.88
396.576	101.88
396.801	89.88
397.025	92.88
397.249	92.88
397.474	92.88
397.698	101.88
397.922	92.88
398.147	97.88
398.371	83.88
398.595	105.88
398.82	84.88
399.044	86.88
399.268	96.88
399.492	98.88
399.717	88.88
399.941	96.88
400.165	100.88
400.389	103.88
400.613	89.88
400.837	95.88
401.062	93.88
401.286	100.88
401.51	96.88
401.734	99.88
401.958	94.88
402.182	146.88
402.406	191.88
402.63	158.88
402.854	104.88
403.078	91.88
403.302	95.88
403.526	89.88
403.75	89.88
403.974	91.88
404.198	92.88
404.422	109.88
404.645	111.88
404.869	108.88
405.093	115.88
405.317	151.88
405.541	153.88
405.765	118.88
405.988	139.88
406.212	217.88
406.436	289.88
406.66	195.88
406.883	122.88
407.107	95.88
407.331	116.88
407.555	115.88
407.778	111.88
408.002	85.88
408.226	95.88
408.449	91.88
408.673	94.88
408.896	106.88
409.12	93.88
409.344	100.88
409.567	90.88
409.791	89.88
410.014	107.88
410.238	88.88
410.461	111.88
410.685	97.88
410.908	99.88
411.132	104.88
411.355	124.88
411.578	80.88
411.802	88.88
412.025	107.88
412.249	108.88
412.472	116.88
412.695	132.88
412.919	122.88
413.142	77.88
413.365	93.88
413.589	87.88
413.812	93.88
414.035	91.88
414.258	100.88
414.482	91.88
414.705	88.88
414.928	93.88
415.151	97.88
415.374	106.88
415.597	89.88
415.821	71.88
416.044	108.88
416.267	98.88
416.49	83.88
416.713	82.88
416.936	95.88
417.159	88.88
417.382	94.88
417.605	109.88
417.828	114.88
418.051	100.88
418.274	83.88
418.497	85.88
418.72	90.88
418.943	80.88
419.166	84.88
419.389	95.88
419.611	96.88
419.834	93.88
420.057	101.88
420.28	111.88
420.503	91.88
420.726	96.88
420.948	86.88
421.171	107.88
421.394	118.88
421.617	104.88
421.839	89.88
422.062	87.88
422.285	105.88
422.507	101.88
422.73	112.88
422.953	85.88
423.175	88.88
423.398	85.88
423.621	91.88
423.843	90.88
424.066	94.88
424.288	83.88
424.511	95.88
424.733	111.88
424.956	120.88
425.178	110.88
425.401	121.88
425.623	119.88
425.846	116.88
426.068	96.88
426.291	108.88
426.513	101.88
426.735	95.88
426.958	102.88
427.18	125.88
427.402	175.88
427.625	271.88
427.847	253.88
428.069	229.88
428.292	145.88
428.514	105.88
428.736	99.88
428.958	100.88
429.181	80.88
429.403	84.88
429.625	87.88
429.847	91.88
430.069	115.88
430.292	110.88
430.514	95.88
430.736	88.88
430.958	89.88
431.18	91.88
431.402	74.88
431.624	97.88
431.846	91.88
432.068	79.88
432.29	89.88
432.512	84.88
432.734	96.88
432.956	98.88
433.178	108.88
433.4	110.88
433.622	110.88
433.844	99.88
434.066	88.88
434.287	107.88
434.509	93.88
434.731	102.88
434.953	95.88
435.175	99.88
435.397	91.88
435.618	101.88
435.84	127.88
436.062	159.88
436.284	140.88
436.505	121.88
436.727	118.88
436.949	99.88
437.17	92.88
437.392	92.88
437.614	95.88
437.835	130.88
438.057	159.88
438.278	131.88
438.5	123.88
438.721	139.88
438.943	111.88
439.165	89.88
439.386	87.88
439.608	108.88
439.829	113.88
440.05	170.88
440.272	205.88
440.493	112.88
440.715	99.88
440.936	89.88
441.158	104.88
441.379	99.88
441.6	114.88
441.822	105.88
442.043	109.88
442.264	122.88
442.486	121.88
442.707	97.88
442.928	135.88
443.149	182.88
443.371	184.88
443.592	141.88
443.813	152.88
444.034	127.88
444.255	83.88
444.476	83.88
444.698	106.88
444.919	101.88
445.14	143.88
445.361	152.88
445.582	158.88
445.803	183.88
446.024	176.88
446.245	191.88
446.466	146.88
446.687	113.88
446.908	84.88
447.129	98.88
447.35	100.88
447.571	106.88
447.792	97.88
448.013	113.88
448.234	124.88
448.455	108.88
448.675	136.88
448.896	163.88
449.117	122.88
449.338	131.88
449.559	154.88
449.779	162.88
450	111.88
450.221	92.88
450.442	97.88
450.662	101.88
450.883	123.88
451.104	130.88
451.324	102.88
451.545	103.88
451.766	97.88
451.986	101.88
452.207	97.88
452.428	110.88
452.648	127.88
452.869	122.88
453.089	144.88
453.31	154.88
453.53	107.88
453.751	87.88
453.971	96.88
454.192	125.88
454.412	106.88
454.633	89.88
454.853	92.88
455.073	86.88
455.294	98.88
455.514	113.88
455.734	102.88
455.955	97.88
456.175	84.88
456.395	78.88
456.616	81.88
456.836	84.88
457.056	100.88
457.276	94.88
457.497	93.88
457.717	87.88
457.937	92.88
458.157	89.88
458.377	108.88
458.598	141.88
458.818	212.88
459.038	227.88
459.258	152.88
459.478	104.88
459.698	77.88
459.918	88.88
460.138	95.88
460.358	87.88
460.578	93.88
460.798	98.88
461.018	101.88
461.238	95.88
461.458	95.88
461.678	86.88
461.898	96.88
462.118	101.88
462.338	108.88
462.558	92.88
462.777	93.88
462.997	84.88
463.217	107.88
463.437	104.88
463.657	92.88
463.876	96.88
464.096	110.88
464.316	103.88
464.536	89.88
464.755	108.88
464.975	136.88
465.195	232.88
465.414	232.88
465.634	99.88
465.854	89.88
466.073	90.88
466.293	96.88
466.512	97.88
466.732	99.88
466.951	91.88
467.171	96.88
467.391	113.88
467.61	136.88
467.829	203.88
468.049	530.88
468.268	741.88
468.488	226.88
468.707	93.88
468.927	99.88
469.146	102.88
469.365	99.88
469.585	91.88
469.804	101.88
470.023	110.88
470.243	115.88
470.462	124.88
470.681	131.88
470.901	111.88
471.12	105.88
471.339	111.88
471.558	124.88
471.777	157.88
471.997	280.88
472.216	1022.88
472.435	2270.88
472.654	556.88
472.873	151.88
473.092	126.88
473.311	108.88
473.53	106.88
473.749	101.88
473.968	108.88
474.187	151.88
474.406	112.88
474.625	84.88
474.844	78.88
475.063	92.88
475.282	86.88
475.501	97.88
475.72	105.88
475.939	89.88
476.158	93.88
476.377	95.88
476.596	96.88
476.814	89.88
477.033	95.88
477.252	100.88
477.471	94.88
477.69	95.88
477.908	94.88
478.127	109.88
478.346	91.88
478.564	92.88
478.783	113.88
479.002	116.88
479.22	99.88
479.439	127.88
479.658	143.88
479.876	116.88
480.095	112.88
480.313	142.88
480.532	169.88
480.751	289.88
480.969	952.88
481.188	4129.88
481.406	2285.88
481.624	322.88
481.843	138.88
482.061	119.88
482.28	97.88
482.498	98.88
482.717	89.88
482.935	95.88
483.153	92.88
483.372	107.88
483.59	107.88
483.808	95.88
484.027	109.88
484.245	111.88
484.463	104.88
484.681	106.88
484.9	83.88
485.118	103.88
485.336	100.88
485.554	100.88
485.772	114.88
485.99	104.88
486.209	102.88
486.427	113.88
486.645	119.88
486.863	132.88
487.081	106.88
487.299	105.88
487.517	91.88
487.735	109.88
487.953	103.88
488.171	93.88
488.389	103.88
488.607	123.88
488.825	100.88
489.043	107.88
489.261	97.88
489.479	100.88
489.696	102.88
489.914	95.88
490.132	107.88
490.35	102.88
490.568	106.88
490.786	107.88
491.003	100.88
491.221	93.88
491.439	104.88
491.657	106.88
491.874	86.88
492.092	95.88
492.31	96.88
492.527	100.88
492.745	94.88
492.963	104.88
493.18	94.88
493.398	111.88
493.615	100.88
493.833	97.88
494.05	96.88
494.268	83.88
494.485	95.88
494.703	101.88
494.92	88.88
495.138	91.88
495.355	88.88
495.573	96.88
495.79	95.88
496.008	103.88
496.225	91.88
496.442	101.88
496.66	76.88
496.877	94.88
497.094	113.88
497.312	99.88
497.529	95.88
497.746	86.88
497.963	81.88
498.181	99.88
498.398	101.88
498.615	116.88
498.832	128.88
499.049	85.88
499.267	95.88
499.484	105.88
499.701	90.88
499.918	89.88
500.135	103.88
500.352	99.88
500.569	96.88
500.786	102.88
501.003	94.88
501.22	97.88
501.437	94.88
501.654	104.88
501.871	111.88
502.088	99.88
502.305	107.88
502.522	107.88
502.739	101.88
502.956	108.88
503.172	87.88
503.389	117.88
503.606	121.88
503.823	112.88
504.04	98.88
504.256	96.88
504.473	104.88
504.69	101.88
504.907	107.88
505.123	94.88
505.34	93.88
505.557	92.88
505.773	90.88
505.99	95.88
506.207	116.88
506.423	87.88
506.64	95.88
506.856	92.88
507.073	98.88
507.289	97.88
507.506	103.88
507.722	138.88
507.939	133.88
508.155	95.88
508.372	99.88
508.588	97.88
508.805	110.88
509.021	113.88
509.238	102.88
509.454	110.88
509.67	112.88
509.887	111.88
510.103	141.88
510.319	243.88
510.536	923.88
510.752	3142.88
510.968	859.88
511.184	187.88
511.401	139.88
511.617	114.88
511.833	104.88
