Data from Circ_1997_H10_HRD10591_00011.txt Node
Date: Wed Jan 03 11:29:29 EST 2024
User: Yrep
Spectrometer: HR+D1059
Trigger mode: 1
Integration Time (sec): 1.000000E-1
Scans to average: 1
Electric dark correction enabled: true
Nonlinearity correction enabled: false
Boxcar width: 0
XAxis mode: Wavelengths
Number of Pixels in Spectrum: 2048
>>>>>Begin Spectral Data<<<<<
223.165	-12.25
223.4	-12.25
223.635	-12.25
223.869	-12.25
224.104	-11.25
224.338	-16.25
224.573	-23.25
224.808	-13.25
225.042	-10.25
225.277	-8.25
225.511	-6.25
225.746	8.75
225.98	-5.25
226.215	7.75
226.449	17.75
226.683	22.75
226.918	35.75
227.152	25.75
227.387	26.75
227.621	39.75
227.856	31.75
228.09	43.75
228.324	50.75
228.559	58.75
228.793	58.75
229.027	56.75
229.262	64.75
229.496	85.75
229.73	87.75
229.964	85.75
230.199	67.75
230.433	70.75
230.667	66.75
230.901	73.75
231.136	76.75
231.37	81.75
231.604	72.75
231.838	84.75
232.072	80.75
232.306	82.75
232.541	65.75
232.775	70.75
233.009	83.75
233.243	85.75
233.477	71.75
233.711	84.75
233.945	78.75
234.179	78.75
234.413	94.75
234.647	81.75
234.881	84.75
235.115	76.75
235.349	71.75
235.583	76.75
235.817	84.75
236.051	63.75
236.285	74.75
236.519	79.75
236.753	78.75
236.987	84.75
237.221	84.75
237.455	90.75
237.689	69.75
237.922	62.75
238.156	87.75
238.39	80.75
238.624	61.75
238.858	79.75
239.091	73.75
239.325	81.75
239.559	80.75
239.793	81.75
240.027	76.75
240.26	72.75
240.494	74.75
240.728	73.75
240.961	54.75
241.195	64.75
241.429	56.75
241.662	94.75
241.896	85.75
242.13	68.75
242.363	79.75
242.597	101.75
242.83	82.75
243.064	71.75
243.298	75.75
243.531	78.75
243.765	75.75
243.998	84.75
244.232	82.75
244.465	92.75
244.699	88.75
244.932	91.75
245.166	75.75
245.399	82.75
245.633	72.75
245.866	72.75
246.099	87.75
246.333	71.75
246.566	85.75
246.8	90.75
247.033	98.75
247.266	81.75
247.5	76.75
247.733	84.75
247.966	87.75
248.2	66.75
248.433	80.75
248.666	70.75
248.899	88.75
249.133	98.75
249.366	98.75
249.599	105.75
249.832	87.75
250.066	76.75
250.299	75.75
250.532	75.75
250.765	82.75
250.998	86.75
251.231	78.75
251.465	81.75
251.698	88.75
251.931	79.75
252.164	88.75
252.397	89.75
252.63	67.75
252.863	81.75
253.096	82.75
253.329	78.75
253.562	66.75
253.795	85.75
254.028	102.75
254.261	81.75
254.494	78.75
254.727	75.75
254.96	85.75
255.193	73.75
255.426	86.75
255.659	86.75
255.892	87.75
256.124	87.75
256.357	72.75
256.59	80.75
256.823	86.75
257.056	72.75
257.289	98.75
257.521	83.75
257.754	91.75
257.987	94.75
258.22	87.75
258.452	92.75
258.685	85.75
258.918	79.75
259.151	74.75
259.383	92.75
259.616	71.75
259.849	94.75
260.081	81.75
260.314	72.75
260.547	82.75
260.779	90.75
261.012	93.75
261.244	96.75
261.477	97.75
261.71	89.75
261.942	106.75
262.175	115.75
262.407	91.75
262.64	75.75
262.872	91.75
263.105	83.75
263.337	94.75
263.57	80.75
263.802	81.75
264.035	86.75
264.267	82.75
264.499	86.75
264.732	88.75
264.964	91.75
265.197	78.75
265.429	85.75
265.661	68.75
265.894	76.75
266.126	80.75
266.358	81.75
266.591	86.75
266.823	85.75
267.055	99.75
267.287	75.75
267.52	92.75
267.752	87.75
267.984	82.75
268.216	80.75
268.448	90.75
268.681	84.75
268.913	79.75
269.145	98.75
269.377	83.75
269.609	84.75
269.841	80.75
270.073	92.75
270.306	79.75
270.538	95.75
270.77	79.75
271.002	72.75
271.234	75.75
271.466	104.75
271.698	94.75
271.93	88.75
272.162	95.75
272.394	97.75
272.626	102.75
272.858	90.75
273.09	87.75
273.322	69.75
273.553	77.75
273.785	88.75
274.017	70.75
274.249	84.75
274.481	90.75
274.713	84.75
274.945	88.75
275.176	79.75
275.408	90.75
275.64	76.75
275.872	102.75
276.104	87.75
276.335	80.75
276.567	101.75
276.799	114.75
277.031	121.75
277.262	140.75
277.494	124.75
277.726	94.75
277.957	96.75
278.189	106.75
278.421	91.75
278.652	93.75
278.884	93.75
279.115	90.75
279.347	75.75
279.579	78.75
279.81	98.75
280.042	124.75
280.273	156.75
280.505	133.75
280.736	109.75
280.968	89.75
281.199	98.75
281.431	93.75
281.662	90.75
281.894	84.75
282.125	90.75
282.356	122.75
282.588	147.75
282.819	105.75
283.051	75.75
283.282	84.75
283.513	78.75
283.745	79.75
283.976	86.75
284.207	94.75
284.439	99.75
284.67	96.75
284.901	80.75
285.132	72.75
285.364	80.75
285.595	88.75
285.826	103.75
286.057	87.75
286.288	86.75
286.52	99.75
286.751	85.75
286.982	85.75
287.213	86.75
287.444	95.75
287.675	92.75
287.906	98.75
288.138	93.75
288.369	91.75
288.6	81.75
288.831	96.75
289.062	106.75
289.293	95.75
289.524	85.75
289.755	89.75
289.986	89.75
290.217	80.75
290.448	94.75
290.679	86.75
290.91	95.75
291.141	87.75
291.371	84.75
291.602	88.75
291.833	94.75
292.064	95.75
292.295	91.75
292.526	92.75
292.757	85.75
292.987	96.75
293.218	88.75
293.449	89.75
293.68	99.75
293.91	94.75
294.141	91.75
294.372	83.75
294.603	91.75
294.833	89.75
295.064	100.75
295.295	89.75
295.525	81.75
295.756	91.75
295.987	101.75
296.217	143.75
296.448	123.75
296.679	98.75
296.909	76.75
297.14	76.75
297.37	94.75
297.601	90.75
297.831	92.75
298.062	93.75
298.292	73.75
298.523	93.75
298.753	86.75
298.984	96.75
299.214	85.75
299.445	86.75
299.675	93.75
299.905	92.75
300.136	84.75
300.366	88.75
300.597	100.75
300.827	90.75
301.057	107.75
301.288	116.75
301.518	88.75
301.748	101.75
301.979	100.75
302.209	89.75
302.439	99.75
302.669	95.75
302.9	77.75
303.13	89.75
303.36	103.75
303.59	111.75
303.82	118.75
304.051	100.75
304.281	98.75
304.511	89.75
304.741	90.75
304.971	102.75
305.201	81.75
305.431	102.75
305.661	80.75
305.891	85.75
306.121	94.75
306.352	90.75
306.582	91.75
306.812	95.75
307.042	103.75
307.272	108.75
307.502	127.75
307.731	120.75
307.961	106.75
308.191	91.75
308.421	86.75
308.651	84.75
308.881	85.75
309.111	78.75
309.341	89.75
309.571	110.75
309.8	98.75
310.03	90.75
310.26	102.75
310.49	97.75
310.72	106.75
310.949	95.75
311.179	99.75
311.409	94.75
311.639	84.75
311.868	90.75
312.098	102.75
312.328	96.75
312.557	103.75
312.787	116.75
313.017	92.75
313.246	109.75
313.476	90.75
313.706	98.75
313.935	96.75
314.165	97.75
314.394	105.75
314.624	106.75
314.853	102.75
315.083	108.75
315.312	102.75
315.542	94.75
315.771	91.75
316.001	88.75
316.23	90.75
316.46	94.75
316.689	85.75
316.919	95.75
317.148	105.75
317.377	97.75
317.607	97.75
317.836	85.75
318.065	88.75
318.295	82.75
318.524	87.75
318.753	91.75
318.983	103.75
319.212	115.75
319.441	103.75
319.67	116.75
319.9	89.75
320.129	95.75
320.358	88.75
320.587	95.75
320.816	92.75
321.046	105.75
321.275	105.75
321.504	92.75
321.733	86.75
321.962	102.75
322.191	97.75
322.42	111.75
322.649	126.75
322.878	119.75
323.108	117.75
323.337	138.75
323.566	138.75
323.795	182.75
324.024	249.75
324.253	498.75
324.482	1108.75
324.71	2356.75
324.939	3178.75
325.168	1105.75
325.397	314.75
325.626	176.75
325.855	144.75
326.084	148.75
326.313	141.75
326.542	171.75
326.77	262.75
326.999	609.75
327.228	1302.75
327.457	2453.75
327.686	1929.75
327.914	530.75
328.143	368.75
328.372	419.75
328.6	248.75
328.829	158.75
329.058	160.75
329.287	173.75
329.515	139.75
329.744	185.75
329.972	295.75
330.201	571.75
330.43	796.75
330.658	379.75
330.887	208.75
331.115	136.75
331.344	102.75
331.572	102.75
331.801	126.75
332.03	117.75
332.258	102.75
332.486	107.75
332.715	111.75
332.943	112.75
333.172	118.75
333.4	116.75
333.629	158.75
333.857	171.75
334.085	275.75
334.314	546.75
334.542	1015.75
334.771	959.75
334.999	288.75
335.227	141.75
335.455	128.75
335.684	108.75
335.912	91.75
336.14	108.75
336.369	101.75
336.597	94.75
336.825	105.75
337.053	96.75
337.281	90.75
337.51	91.75
337.738	109.75
337.966	97.75
338.194	107.75
338.422	92.75
338.65	101.75
338.878	97.75
339.106	94.75
339.334	95.75
339.562	89.75
339.79	81.75
340.018	82.75
340.246	92.75
340.474	99.75
340.702	95.75
340.93	92.75
341.158	87.75
341.386	87.75
341.614	102.75
341.842	100.75
342.07	87.75
342.298	102.75
342.526	96.75
342.754	93.75
342.981	87.75
343.209	86.75
343.437	101.75
343.665	72.75
343.893	78.75
344.12	94.75
344.348	104.75
344.576	96.75
344.804	95.75
345.031	93.75
345.259	94.75
345.487	82.75
345.714	87.75
345.942	95.75
346.17	90.75
346.397	86.75
346.625	84.75
346.853	91.75
347.08	93.75
347.308	90.75
347.535	110.75
347.763	99.75
347.99	97.75
348.218	76.75
348.445	123.75
348.673	117.75
348.9	89.75
349.128	96.75
349.355	94.75
349.583	81.75
349.81	96.75
350.037	100.75
350.265	100.75
350.492	105.75
350.72	94.75
350.947	106.75
351.174	106.75
351.402	95.75
351.629	101.75
351.856	94.75
352.083	99.75
352.311	100.75
352.538	105.75
352.765	109.75
352.992	122.75
353.22	109.75
353.447	120.75
353.674	98.75
353.901	98.75
354.128	97.75
354.355	101.75
354.583	100.75
354.81	111.75
355.037	92.75
355.264	75.75
355.491	102.75
355.718	107.75
355.945	90.75
356.172	87.75
356.399	101.75
356.626	100.75
356.853	98.75
357.08	89.75
357.307	100.75
357.534	92.75
357.761	99.75
357.988	98.75
358.215	105.75
358.441	92.75
358.668	90.75
358.895	73.75
359.122	87.75
359.349	80.75
359.576	90.75
359.802	98.75
360.029	124.75
360.256	127.75
360.483	106.75
360.709	87.75
360.936	96.75
361.163	97.75
361.39	98.75
361.616	90.75
361.843	85.75
362.07	80.75
362.296	98.75
362.523	88.75
362.749	96.75
362.976	94.75
363.203	97.75
363.429	84.75
363.656	85.75
363.882	89.75
364.109	95.75
364.335	81.75
364.562	81.75
364.788	90.75
365.015	90.75
365.241	82.75
365.468	109.75
365.694	103.75
365.92	97.75
366.147	85.75
366.373	93.75
366.599	84.75
366.826	77.75
367.052	93.75
367.278	89.75
367.505	96.75
367.731	89.75
367.957	86.75
368.184	90.75
368.41	87.75
368.636	115.75
368.862	118.75
369.089	101.75
369.315	100.75
369.541	91.75
369.767	82.75
369.993	88.75
370.219	84.75
370.445	88.75
370.672	85.75
370.898	87.75
371.124	111.75
371.35	87.75
371.576	81.75
371.802	93.75
372.028	84.75
372.254	76.75
372.48	87.75
372.706	80.75
372.932	78.75
373.158	100.75
373.384	101.75
373.61	90.75
373.835	99.75
374.061	85.75
374.287	97.75
374.513	90.75
374.739	88.75
374.965	79.75
375.191	84.75
375.416	99.75
375.642	90.75
375.868	96.75
376.094	95.75
376.319	88.75
376.545	109.75
376.771	78.75
376.997	96.75
377.222	91.75
377.448	99.75
377.674	88.75
377.899	84.75
378.125	85.75
378.35	85.75
378.576	87.75
378.802	97.75
379.027	85.75
379.253	96.75
379.478	84.75
379.704	98.75
379.929	72.75
380.155	80.75
380.38	88.75
380.606	84.75
380.831	96.75
381.057	101.75
381.282	102.75
381.507	92.75
381.733	98.75
381.958	98.75
382.184	89.75
382.409	96.75
382.634	109.75
382.86	100.75
383.085	100.75
383.31	99.75
383.535	89.75
383.761	98.75
383.986	88.75
384.211	95.75
384.436	97.75
384.662	92.75
384.887	96.75
385.112	101.75
385.337	98.75
385.562	96.75
385.787	104.75
386.013	116.75
386.238	123.75
386.463	84.75
386.688	111.75
386.913	107.75
387.138	112.75
387.363	109.75
387.588	106.75
387.813	103.75
388.038	86.75
388.263	112.75
388.488	106.75
388.713	99.75
388.938	77.75
389.163	96.75
389.387	75.75
389.612	103.75
389.837	95.75
390.062	98.75
390.287	95.75
390.512	95.75
390.736	87.75
390.961	88.75
391.186	78.75
391.411	104.75
391.636	82.75
391.86	88.75
392.085	90.75
392.31	76.75
392.534	86.75
392.759	82.75
392.984	85.75
393.208	88.75
393.433	101.75
393.658	82.75
393.882	74.75
394.107	84.75
394.331	90.75
394.556	100.75
394.78	81.75
395.005	81.75
395.229	77.75
395.454	80.75
395.678	82.75
395.903	82.75
396.127	102.75
396.352	88.75
396.576	79.75
396.801	94.75
397.025	88.75
397.249	74.75
397.474	79.75
397.698	82.75
397.922	79.75
398.147	90.75
398.371	88.75
398.595	91.75
398.82	83.75
399.044	93.75
399.268	80.75
399.492	94.75
399.717	89.75
399.941	89.75
400.165	97.75
400.389	89.75
400.613	84.75
400.837	91.75
401.062	94.75
401.286	75.75
401.51	82.75
401.734	91.75
401.958	100.75
402.182	112.75
402.406	160.75
402.63	134.75
402.854	85.75
403.078	95.75
403.302	89.75
403.526	92.75
403.75	82.75
403.974	90.75
404.198	91.75
404.422	81.75
404.645	87.75
404.869	107.75
405.093	110.75
405.317	139.75
405.541	108.75
405.765	115.75
405.988	111.75
406.212	179.75
406.436	245.75
406.66	158.75
406.883	125.75
407.107	102.75
407.331	103.75
407.555	101.75
407.778	113.75
408.002	114.75
408.226	96.75
408.449	103.75
408.673	100.75
408.896	101.75
409.12	110.75
409.344	88.75
409.567	92.75
409.791	75.75
410.014	93.75
410.238	78.75
410.461	88.75
410.685	95.75
410.908	88.75
411.132	97.75
411.355	108.75
411.578	97.75
411.802	82.75
412.025	102.75
412.249	102.75
412.472	106.75
412.695	114.75
412.919	121.75
413.142	87.75
413.365	93.75
413.589	77.75
413.812	83.75
414.035	90.75
414.258	101.75
414.482	98.75
414.705	83.75
414.928	94.75
415.151	89.75
415.374	96.75
415.597	86.75
415.821	96.75
416.044	85.75
416.267	84.75
416.49	92.75
416.713	83.75
416.936	93.75
417.159	91.75
417.382	84.75
417.605	93.75
417.828	98.75
418.051	102.75
418.274	100.75
418.497	85.75
418.72	105.75
418.943	82.75
419.166	77.75
419.389	80.75
419.611	81.75
419.834	90.75
420.057	95.75
420.28	91.75
420.503	86.75
420.726	96.75
420.948	88.75
421.171	100.75
421.394	100.75
421.617	96.75
421.839	80.75
422.062	87.75
422.285	94.75
422.507	104.75
422.73	104.75
422.953	105.75
423.175	95.75
423.398	90.75
423.621	84.75
423.843	92.75
424.066	88.75
424.288	95.75
424.511	102.75
424.733	105.75
424.956	106.75
425.178	99.75
425.401	118.75
425.623	121.75
425.846	90.75
426.068	105.75
426.291	96.75
426.513	102.75
426.735	99.75
426.958	87.75
427.18	123.75
427.402	181.75
427.625	226.75
427.847	212.75
428.069	226.75
428.292	104.75
428.514	82.75
428.736	83.75
428.958	86.75
429.181	88.75
429.403	89.75
429.625	89.75
429.847	97.75
430.069	128.75
430.292	91.75
430.514	92.75
430.736	87.75
430.958	96.75
431.18	85.75
431.402	87.75
431.624	61.75
431.846	79.75
432.068	95.75
432.29	80.75
432.512	88.75
432.734	92.75
432.956	81.75
433.178	103.75
433.4	100.75
433.622	83.75
433.844	78.75
434.066	103.75
434.287	88.75
434.509	98.75
434.731	85.75
434.953	78.75
435.175	82.75
435.397	88.75
435.618	80.75
435.84	117.75
436.062	136.75
436.284	128.75
436.505	114.75
436.727	119.75
436.949	93.75
437.17	92.75
437.392	77.75
437.614	96.75
437.835	122.75
438.057	135.75
438.278	125.75
438.5	115.75
438.721	140.75
438.943	116.75
439.165	88.75
439.386	92.75
439.608	89.75
439.829	120.75
440.05	147.75
440.272	183.75
440.493	107.75
440.715	83.75
440.936	103.75
441.158	87.75
441.379	85.75
441.6	87.75
441.822	108.75
442.043	90.75
442.264	120.75
442.486	110.75
442.707	92.75
442.928	122.75
443.149	154.75
443.371	141.75
443.592	110.75
443.813	124.75
444.034	120.75
444.255	104.75
444.476	92.75
444.698	83.75
444.919	84.75
445.14	126.75
445.361	134.75
445.582	129.75
445.803	198.75
446.024	186.75
446.245	175.75
446.466	134.75
446.687	98.75
446.908	77.75
447.129	89.75
447.35	102.75
447.571	93.75
447.792	94.75
448.013	95.75
448.234	108.75
448.455	117.75
448.675	130.75
448.896	152.75
449.117	114.75
449.338	105.75
449.559	167.75
449.779	161.75
450	103.75
450.221	81.75
450.442	94.75
450.662	107.75
450.883	115.75
451.104	101.75
451.324	85.75
451.545	82.75
451.766	94.75
451.986	63.75
452.207	97.75
452.428	93.75
452.648	99.75
452.869	111.75
453.089	120.75
453.31	125.75
453.53	103.75
453.751	86.75
453.971	99.75
454.192	114.75
454.412	91.75
454.633	92.75
454.853	82.75
455.073	84.75
455.294	95.75
455.514	107.75
455.734	92.75
455.955	86.75
456.175	78.75
456.395	81.75
456.616	84.75
456.836	87.75
457.056	99.75
457.276	75.75
457.497	92.75
457.717	84.75
457.937	84.75
458.157	87.75
458.377	107.75
458.598	115.75
458.818	175.75
459.038	206.75
459.258	144.75
459.478	91.75
459.698	90.75
459.918	79.75
460.138	88.75
460.358	83.75
460.578	80.75
460.798	84.75
461.018	99.75
461.238	77.75
461.458	88.75
461.678	80.75
461.898	79.75
462.118	84.75
462.338	99.75
462.558	94.75
462.777	76.75
462.997	80.75
463.217	90.75
463.437	97.75
463.657	91.75
463.876	89.75
464.096	103.75
464.316	83.75
464.536	102.75
464.755	89.75
464.975	113.75
465.195	179.75
465.414	184.75
465.634	101.75
465.854	93.75
466.073	103.75
466.293	86.75
466.512	97.75
466.732	75.75
466.951	94.75
467.171	94.75
467.391	93.75
467.61	120.75
467.829	168.75
468.049	348.75
468.268	480.75
468.488	148.75
468.707	94.75
468.927	84.75
469.146	77.75
469.365	82.75
469.585	79.75
469.804	97.75
470.023	118.75
470.243	104.75
470.462	110.75
470.681	113.75
470.901	95.75
471.12	97.75
471.339	87.75
471.558	100.75
471.777	112.75
471.997	191.75
472.216	637.75
472.435	1333.75
472.654	340.75
472.873	114.75
473.092	106.75
473.311	92.75
473.53	91.75
473.749	91.75
473.968	103.75
474.187	108.75
474.406	98.75
474.625	84.75
474.844	92.75
475.063	95.75
475.282	87.75
475.501	95.75
475.72	98.75
475.939	82.75
476.158	73.75
476.377	92.75
476.596	93.75
476.814	100.75
477.033	110.75
477.252	89.75
477.471	103.75
477.69	100.75
477.908	98.75
478.127	93.75
478.346	89.75
478.564	89.75
478.783	88.75
479.002	102.75
479.22	92.75
479.439	99.75
479.658	113.75
479.876	94.75
480.095	97.75
480.313	124.75
480.532	112.75
480.751	201.75
480.969	601.75
481.188	2385.75
481.406	1389.75
481.624	232.75
481.843	112.75
482.061	114.75
482.28	97.75
482.498	86.75
482.717	87.75
482.935	90.75
483.153	87.75
483.372	89.75
483.59	97.75
483.808	81.75
484.027	80.75
484.245	96.75
484.463	94.75
484.681	93.75
484.9	96.75
485.118	112.75
485.336	84.75
485.554	94.75
485.772	102.75
485.99	107.75
486.209	108.75
486.427	116.75
486.645	100.75
486.863	112.75
487.081	99.75
487.299	88.75
487.517	90.75
487.735	96.75
487.953	83.75
488.171	104.75
488.389	89.75
488.607	94.75
488.825	113.75
489.043	87.75
489.261	80.75
489.479	82.75
489.696	94.75
489.914	88.75
490.132	79.75
490.35	89.75
490.568	89.75
490.786	95.75
491.003	97.75
491.221	94.75
491.439	81.75
491.657	97.75
491.874	82.75
492.092	87.75
492.31	97.75
492.527	85.75
492.745	102.75
492.963	85.75
493.18	83.75
493.398	93.75
493.615	102.75
493.833	83.75
494.05	76.75
494.268	85.75
494.485	111.75
494.703	104.75
494.92	80.75
495.138	97.75
495.355	98.75
495.573	95.75
495.79	93.75
496.008	92.75
496.225	80.75
496.442	92.75
496.66	100.75
496.877	93.75
497.094	89.75
497.312	96.75
497.529	90.75
497.746	81.75
497.963	85.75
498.181	87.75
498.398	82.75
498.615	107.75
498.832	108.75
499.049	96.75
499.267	84.75
499.484	89.75
499.701	81.75
499.918	95.75
500.135	108.75
500.352	103.75
500.569	85.75
500.786	90.75
501.003	87.75
501.22	88.75
501.437	80.75
501.654	88.75
501.871	101.75
502.088	81.75
502.305	87.75
502.522	79.75
502.739	85.75
502.956	84.75
503.172	85.75
503.389	93.75
503.606	105.75
503.823	92.75
504.04	94.75
504.256	92.75
504.473	91.75
504.69	90.75
504.907	97.75
505.123	70.75
505.34	76.75
505.557	90.75
505.773	88.75
505.99	86.75
506.207	77.75
506.423	87.75
506.64	86.75
506.856	93.75
507.073	87.75
507.289	89.75
507.506	109.75
507.722	113.75
507.939	117.75
508.155	102.75
508.372	80.75
508.588	87.75
508.805	96.75
509.021	90.75
509.238	90.75
509.454	86.75
509.67	93.75
509.887	98.75
510.103	124.75
510.319	204.75
510.536	719.75
510.752	2325.75
510.968	655.75
511.184	153.75
511.401	94.75
511.617	91.75
511.833	91.75
512.049	87.75
512.265	86.75
512.481	87.75
512.698	86.75
512.914	105.75
513.13	85.75
513.346	96.75
513.562	70.75
513.778	101.75
513.994	88.75
514.21	108.75
514.426	114.75
514.642	133.75
