Data from Circ_1997_H10_HRD10591_00018.txt Node
Date: Wed Jan 03 11:29:31 EST 2024
User: Yrep
Spectrometer: HR+D1059
Trigger mode: 1
Integration Time (sec): 1.000000E-1
Scans to average: 1
Electric dark correction enabled: true
Nonlinearity correction enabled: false
Boxcar width: 0
XAxis mode: Wavelengths
Number of Pixels in Spectrum: 2048
>>>>>Begin Spectral Data<<<<<
223.165	-22.94
223.4	-22.94
223.635	-22.94
223.869	-20.94
224.104	-26.94
224.338	-21.94
224.573	-41.94
224.808	-15.94
225.042	3.06
225.277	-1.94
225.511	5.06
225.746	1.06
225.98	14.06
226.215	15.06
226.449	17.06
226.683	26.06
226.918	29.06
227.152	42.06
227.387	20.06
227.621	27.06
227.856	47.06
228.09	56.06
228.324	51.06
228.559	56.06
228.793	56.06
229.027	62.06
229.262	51.06
229.496	62.06
229.73	109.06
229.964	100.06
230.199	88.06
230.433	68.06
230.667	72.06
230.901	72.06
231.136	77.06
231.37	66.06
231.604	93.06
231.838	82.06
232.072	85.06
232.306	81.06
232.541	81.06
232.775	74.06
233.009	98.06
233.243	85.06
233.477	74.06
233.711	83.06
233.945	87.06
234.179	89.06
234.413	80.06
234.647	92.06
234.881	90.06
235.115	82.06
235.349	89.06
235.583	75.06
235.817	93.06
236.051	92.06
236.285	88.06
236.519	84.06
236.753	85.06
236.987	97.06
237.221	88.06
237.455	94.06
237.689	89.06
237.922	86.06
238.156	92.06
238.39	77.06
238.624	74.06
238.858	79.06
239.091	92.06
239.325	82.06
239.559	92.06
239.793	83.06
240.027	76.06
240.26	79.06
240.494	76.06
240.728	82.06
240.961	64.06
241.195	98.06
241.429	83.06
241.662	96.06
241.896	88.06
242.13	76.06
242.363	80.06
242.597	81.06
242.83	73.06
243.064	77.06
243.298	78.06
243.531	72.06
243.765	92.06
243.998	85.06
244.232	99.06
244.465	79.06
244.699	93.06
244.932	97.06
245.166	82.06
245.399	90.06
245.633	89.06
245.866	78.06
246.099	89.06
246.333	86.06
246.566	93.06
246.8	79.06
247.033	83.06
247.266	89.06
247.5	83.06
247.733	86.06
247.966	83.06
248.2	85.06
248.433	74.06
248.666	89.06
248.899	90.06
249.133	98.06
249.366	101.06
249.599	110.06
249.832	90.06
250.066	92.06
250.299	83.06
250.532	85.06
250.765	83.06
250.998	81.06
251.231	76.06
251.465	95.06
251.698	97.06
251.931	97.06
252.164	83.06
252.397	85.06
252.63	90.06
252.863	78.06
253.096	72.06
253.329	90.06
253.562	80.06
253.795	82.06
254.028	74.06
254.261	80.06
254.494	91.06
254.727	95.06
254.96	85.06
255.193	84.06
255.426	80.06
255.659	88.06
255.892	93.06
256.124	98.06
256.357	86.06
256.59	80.06
256.823	87.06
257.056	84.06
257.289	85.06
257.521	77.06
257.754	92.06
257.987	86.06
258.22	105.06
258.452	103.06
258.685	118.06
258.918	90.06
259.151	76.06
259.383	103.06
259.616	83.06
259.849	82.06
260.081	87.06
260.314	90.06
260.547	86.06
260.779	98.06
261.012	117.06
261.244	106.06
261.477	92.06
261.71	111.06
261.942	136.06
262.175	152.06
262.407	101.06
262.64	85.06
262.872	81.06
263.105	85.06
263.337	104.06
263.57	96.06
263.802	102.06
264.035	84.06
264.267	77.06
264.499	84.06
264.732	76.06
264.964	91.06
265.197	82.06
265.429	85.06
265.661	87.06
265.894	78.06
266.126	91.06
266.358	86.06
266.591	81.06
266.823	76.06
267.055	91.06
267.287	84.06
267.52	76.06
267.752	82.06
267.984	93.06
268.216	89.06
268.448	102.06
268.681	91.06
268.913	83.06
269.145	94.06
269.377	102.06
269.609	94.06
269.841	95.06
270.073	93.06
270.306	95.06
270.538	82.06
270.77	73.06
271.002	92.06
271.234	73.06
271.466	89.06
271.698	90.06
271.93	90.06
272.162	90.06
272.394	99.06
272.626	98.06
272.858	92.06
273.09	76.06
273.322	91.06
273.553	84.06
273.785	82.06
274.017	95.06
274.249	100.06
274.481	80.06
274.713	88.06
274.945	83.06
275.176	92.06
275.408	97.06
275.64	109.06
275.872	115.06
276.104	114.06
276.335	102.06
276.567	120.06
276.799	146.06
277.031	160.06
277.262	174.06
277.494	136.06
277.726	88.06
277.957	88.06
278.189	93.06
278.421	91.06
278.652	86.06
278.884	90.06
279.115	82.06
279.347	100.06
279.579	102.06
279.81	126.06
280.042	171.06
280.273	212.06
280.505	161.06
280.736	96.06
280.968	84.06
281.199	93.06
281.431	92.06
281.662	98.06
281.894	95.06
282.125	108.06
282.356	129.06
282.588	170.06
282.819	129.06
283.051	79.06
283.282	92.06
283.513	79.06
283.745	86.06
283.976	100.06
284.207	88.06
284.439	93.06
284.67	78.06
284.901	100.06
285.132	83.06
285.364	90.06
285.595	99.06
285.826	86.06
286.057	97.06
286.288	72.06
286.52	90.06
286.751	88.06
286.982	90.06
287.213	98.06
287.444	108.06
287.675	93.06
287.906	100.06
288.138	96.06
288.369	98.06
288.6	98.06
288.831	90.06
289.062	104.06
289.293	94.06
289.524	106.06
289.755	81.06
289.986	89.06
290.217	83.06
290.448	88.06
290.679	98.06
290.91	94.06
291.141	91.06
291.371	94.06
291.602	85.06
291.833	91.06
292.064	98.06
292.295	98.06
292.526	85.06
292.757	101.06
292.987	98.06
293.218	81.06
293.449	87.06
293.68	103.06
293.91	83.06
294.141	77.06
294.372	88.06
294.603	90.06
294.833	106.06
295.064	105.06
295.295	99.06
295.525	95.06
295.756	112.06
295.987	113.06
296.217	164.06
296.448	160.06
296.679	108.06
296.909	82.06
297.14	90.06
297.37	101.06
297.601	93.06
297.831	101.06
298.062	97.06
298.292	97.06
298.523	97.06
298.753	101.06
298.984	101.06
299.214	92.06
299.445	90.06
299.675	101.06
299.905	105.06
300.136	100.06
300.366	85.06
300.597	89.06
300.827	87.06
301.057	94.06
301.288	109.06
301.518	94.06
301.748	99.06
301.979	118.06
302.209	93.06
302.439	98.06
302.669	98.06
302.9	97.06
303.13	112.06
303.36	108.06
303.59	124.06
303.82	127.06
304.051	102.06
304.281	95.06
304.511	92.06
304.741	96.06
304.971	97.06
305.201	91.06
305.431	94.06
305.661	92.06
305.891	108.06
306.121	93.06
306.352	114.06
306.582	120.06
306.812	111.06
307.042	129.06
307.272	138.06
307.502	148.06
307.731	150.06
307.961	114.06
308.191	100.06
308.421	77.06
308.651	104.06
308.881	108.06
309.111	104.06
309.341	102.06
309.571	117.06
309.8	100.06
310.03	108.06
310.26	109.06
310.49	95.06
310.72	118.06
310.949	123.06
311.179	129.06
311.409	104.06
311.639	100.06
311.868	112.06
312.098	97.06
312.328	93.06
312.557	115.06
312.787	136.06
313.017	117.06
313.246	97.06
313.476	99.06
313.706	113.06
313.935	114.06
314.165	110.06
314.394	124.06
314.624	113.06
314.853	130.06
315.083	102.06
315.312	105.06
315.542	106.06
315.771	97.06
316.001	106.06
316.23	99.06
316.46	94.06
316.689	94.06
316.919	101.06
317.148	111.06
317.377	110.06
317.607	99.06
317.836	97.06
318.065	115.06
318.295	83.06
318.524	105.06
318.753	93.06
318.983	99.06
319.212	104.06
319.441	115.06
319.67	126.06
319.9	102.06
320.129	111.06
320.358	101.06
320.587	101.06
320.816	93.06
321.046	115.06
321.275	118.06
321.504	98.06
321.733	97.06
321.962	110.06
322.191	104.06
322.42	132.06
322.649	129.06
322.878	136.06
323.108	150.06
323.337	145.06
323.566	165.06
323.795	209.06
324.024	278.06
324.253	610.06
324.482	1373.06
324.71	2983.06
324.939	4029.06
325.168	1363.06
325.397	374.06
325.626	197.06
325.855	163.06
326.084	161.06
326.313	162.06
326.542	206.06
326.77	309.06
326.999	709.06
327.228	1578.06
327.457	3068.06
327.686	2326.06
327.914	658.06
328.143	482.06
328.372	533.06
328.6	342.06
328.829	179.06
329.058	182.06
329.287	203.06
329.515	167.06
329.744	227.06
329.972	428.06
330.201	819.06
330.43	1147.06
330.658	544.06
330.887	270.06
331.115	194.06
331.344	131.06
331.572	117.06
331.801	121.06
332.03	126.06
332.258	107.06
332.486	109.06
332.715	98.06
332.943	122.06
333.172	111.06
333.4	132.06
333.629	160.06
333.857	221.06
334.085	373.06
334.314	782.06
334.542	1509.06
334.771	1409.06
334.999	390.06
335.227	175.06
335.455	131.06
335.684	115.06
335.912	99.06
336.14	107.06
336.369	106.06
336.597	123.06
336.825	115.06
337.053	106.06
337.281	108.06
337.51	109.06
337.738	106.06
337.966	95.06
338.194	115.06
338.422	102.06
338.65	90.06
338.878	98.06
339.106	102.06
339.334	89.06
339.562	94.06
339.79	88.06
340.018	91.06
340.246	101.06
340.474	110.06
340.702	96.06
340.93	111.06
341.158	95.06
341.386	106.06
341.614	99.06
341.842	97.06
342.07	90.06
342.298	93.06
342.526	106.06
342.754	95.06
342.981	100.06
343.209	100.06
343.437	85.06
343.665	84.06
343.893	95.06
344.12	105.06
344.348	94.06
344.576	98.06
344.804	101.06
345.031	104.06
345.259	108.06
345.487	119.06
345.714	88.06
345.942	98.06
346.17	91.06
346.397	104.06
346.625	93.06
346.853	91.06
347.08	106.06
347.308	110.06
347.535	92.06
347.763	121.06
347.99	101.06
348.218	122.06
348.445	118.06
348.673	105.06
348.9	94.06
349.128	96.06
349.355	93.06
349.583	95.06
349.81	76.06
350.037	112.06
350.265	109.06
350.492	105.06
350.72	97.06
350.947	107.06
351.174	116.06
351.402	127.06
351.629	118.06
351.856	113.06
352.083	106.06
352.311	126.06
352.538	125.06
352.765	108.06
352.992	111.06
353.22	117.06
353.447	113.06
353.674	113.06
353.901	92.06
354.128	95.06
354.355	92.06
354.583	110.06
354.81	113.06
355.037	104.06
355.264	97.06
355.491	69.06
355.718	90.06
355.945	85.06
356.172	98.06
356.399	102.06
356.626	111.06
356.853	94.06
357.08	79.06
357.307	111.06
357.534	98.06
357.761	98.06
357.988	92.06
358.215	101.06
358.441	92.06
358.668	98.06
358.895	109.06
359.122	95.06
359.349	107.06
359.576	85.06
359.802	112.06
360.029	140.06
360.256	129.06
360.483	111.06
360.709	100.06
360.936	90.06
361.163	113.06
361.39	104.06
361.616	103.06
361.843	112.06
362.07	95.06
362.296	97.06
362.523	102.06
362.749	116.06
362.976	100.06
363.203	101.06
363.429	93.06
363.656	95.06
363.882	96.06
364.109	82.06
364.335	101.06
364.562	114.06
364.788	88.06
365.015	106.06
365.241	113.06
365.468	115.06
365.694	123.06
365.92	106.06
366.147	105.06
366.373	90.06
366.599	97.06
366.826	88.06
367.052	85.06
367.278	97.06
367.505	83.06
367.731	94.06
367.957	96.06
368.184	72.06
368.41	114.06
368.636	117.06
368.862	146.06
369.089	123.06
369.315	117.06
369.541	110.06
369.767	88.06
369.993	97.06
370.219	97.06
370.445	97.06
370.672	99.06
370.898	82.06
371.124	94.06
371.35	96.06
371.576	94.06
371.802	84.06
372.028	70.06
372.254	97.06
372.48	98.06
372.706	103.06
372.932	97.06
373.158	102.06
373.384	77.06
373.61	102.06
373.835	103.06
374.061	101.06
374.287	88.06
374.513	98.06
374.739	93.06
374.965	106.06
375.191	84.06
375.416	92.06
375.642	95.06
375.868	104.06
376.094	100.06
376.319	104.06
376.545	101.06
376.771	86.06
376.997	92.06
377.222	96.06
377.448	98.06
377.674	83.06
377.899	94.06
378.125	98.06
378.35	90.06
378.576	82.06
378.802	109.06
379.027	109.06
379.253	94.06
379.478	90.06
379.704	96.06
379.929	94.06
380.155	91.06
380.38	87.06
380.606	98.06
380.831	101.06
381.057	100.06
381.282	102.06
381.507	99.06
381.733	102.06
381.958	102.06
382.184	87.06
382.409	104.06
382.634	104.06
382.86	100.06
383.085	96.06
383.31	112.06
383.535	105.06
383.761	97.06
383.986	118.06
384.211	94.06
384.436	110.06
384.662	101.06
384.887	92.06
385.112	101.06
385.337	115.06
385.562	88.06
385.787	122.06
386.013	138.06
386.238	117.06
386.463	106.06
386.688	106.06
386.913	106.06
387.138	108.06
387.363	108.06
387.588	103.06
387.813	97.06
388.038	127.06
388.263	122.06
388.488	121.06
388.713	92.06
388.938	85.06
389.163	84.06
389.387	94.06
389.612	93.06
389.837	100.06
390.062	77.06
390.287	99.06
390.512	90.06
390.736	80.06
390.961	79.06
391.186	94.06
391.411	101.06
391.636	99.06
391.86	88.06
392.085	88.06
392.31	82.06
392.534	95.06
392.759	100.06
392.984	97.06
393.208	103.06
393.433	110.06
393.658	104.06
393.882	85.06
394.107	81.06
394.331	96.06
394.556	102.06
394.78	94.06
395.005	79.06
395.229	65.06
395.454	81.06
395.678	88.06
395.903	91.06
396.127	90.06
396.352	96.06
396.576	91.06
396.801	93.06
397.025	95.06
397.249	86.06
397.474	98.06
397.698	113.06
397.922	90.06
398.147	105.06
398.371	85.06
398.595	84.06
398.82	96.06
399.044	86.06
399.268	86.06
399.492	97.06
399.717	95.06
399.941	93.06
400.165	113.06
400.389	104.06
400.613	96.06
400.837	93.06
401.062	79.06
401.286	87.06
401.51	92.06
401.734	97.06
401.958	116.06
402.182	158.06
402.406	206.06
402.63	133.06
402.854	92.06
403.078	104.06
403.302	99.06
403.526	85.06
403.75	106.06
403.974	103.06
404.198	90.06
404.422	97.06
404.645	100.06
404.869	93.06
405.093	132.06
405.317	136.06
405.541	146.06
405.765	125.06
405.988	139.06
406.212	209.06
406.436	296.06
406.66	203.06
406.883	123.06
407.107	97.06
407.331	110.06
407.555	110.06
407.778	116.06
408.002	103.06
408.226	95.06
408.449	82.06
408.673	91.06
408.896	95.06
409.12	105.06
409.344	92.06
409.567	94.06
409.791	96.06
410.014	105.06
410.238	88.06
410.461	96.06
410.685	101.06
410.908	98.06
411.132	120.06
411.355	124.06
411.578	102.06
411.802	100.06
412.025	106.06
412.249	106.06
412.472	114.06
412.695	154.06
412.919	105.06
413.142	99.06
413.365	100.06
413.589	109.06
413.812	92.06
414.035	104.06
414.258	84.06
414.482	95.06
414.705	92.06
414.928	96.06
415.151	102.06
415.374	84.06
415.597	107.06
415.821	90.06
416.044	86.06
416.267	96.06
416.49	91.06
416.713	86.06
416.936	83.06
417.159	94.06
417.382	87.06
417.605	99.06
417.828	112.06
418.051	95.06
418.274	108.06
418.497	93.06
418.72	96.06
418.943	93.06
419.166	84.06
419.389	107.06
419.611	93.06
419.834	101.06
420.057	98.06
420.28	86.06
420.503	92.06
420.726	104.06
420.948	100.06
421.171	117.06
421.394	101.06
421.617	93.06
421.839	99.06
422.062	79.06
422.285	75.06
422.507	100.06
422.73	118.06
422.953	106.06
423.175	89.06
423.398	87.06
423.621	94.06
423.843	94.06
424.066	83.06
424.288	94.06
424.511	98.06
424.733	118.06
424.956	129.06
425.178	100.06
425.401	127.06
425.623	110.06
425.846	99.06
426.068	101.06
426.291	95.06
426.513	84.06
426.735	97.06
426.958	96.06
427.18	137.06
427.402	188.06
427.625	280.06
427.847	257.06
428.069	266.06
428.292	134.06
428.514	95.06
428.736	90.06
428.958	90.06
429.181	93.06
429.403	89.06
429.625	89.06
429.847	95.06
430.069	108.06
430.292	101.06
430.514	93.06
430.736	97.06
430.958	87.06
431.18	81.06
431.402	95.06
431.624	86.06
431.846	90.06
432.068	85.06
432.29	108.06
432.512	99.06
432.734	101.06
432.956	89.06
433.178	110.06
433.4	114.06
433.622	96.06
433.844	93.06
434.066	83.06
434.287	92.06
434.509	92.06
434.731	84.06
434.953	101.06
435.175	99.06
435.397	99.06
435.618	99.06
435.84	124.06
436.062	173.06
436.284	129.06
436.505	120.06
436.727	126.06
436.949	88.06
437.17	94.06
437.392	95.06
437.614	103.06
437.835	148.06
438.057	144.06
438.278	132.06
438.5	124.06
438.721	154.06
438.943	122.06
439.165	92.06
439.386	101.06
439.608	109.06
439.829	128.06
440.05	176.06
440.272	229.06
440.493	128.06
440.715	83.06
440.936	105.06
441.158	105.06
441.379	92.06
441.6	99.06
441.822	105.06
442.043	106.06
442.264	112.06
442.486	120.06
442.707	96.06
442.928	119.06
443.149	200.06
443.371	158.06
443.592	141.06
443.813	132.06
444.034	140.06
444.255	84.06
444.476	97.06
444.698	96.06
444.919	88.06
445.14	138.06
445.361	142.06
445.582	153.06
445.803	202.06
446.024	206.06
446.245	206.06
446.466	157.06
446.687	94.06
446.908	82.06
447.129	99.06
447.35	94.06
447.571	98.06
447.792	96.06
448.013	115.06
448.234	126.06
448.455	114.06
448.675	162.06
448.896	150.06
449.117	112.06
449.338	119.06
449.559	182.06
449.779	170.06
450	103.06
450.221	104.06
450.442	102.06
450.662	99.06
450.883	129.06
451.104	156.06
451.324	101.06
451.545	109.06
451.766	84.06
451.986	88.06
452.207	99.06
452.428	101.06
452.648	117.06
452.869	116.06
453.089	134.06
453.31	140.06
453.53	95.06
453.751	105.06
453.971	127.06
454.192	124.06
454.412	113.06
454.633	84.06
454.853	88.06
455.073	106.06
455.294	86.06
455.514	120.06
455.734	104.06
455.955	77.06
456.175	81.06
456.395	99.06
456.616	101.06
456.836	92.06
457.056	84.06
457.276	98.06
457.497	88.06
457.717	82.06
457.937	86.06
458.157	85.06
458.377	99.06
458.598	133.06
458.818	222.06
459.038	238.06
459.258	165.06
459.478	92.06
459.698	86.06
459.918	81.06
460.138	95.06
460.358	89.06
460.578	101.06
460.798	101.06
461.018	94.06
461.238	81.06
461.458	99.06
461.678	84.06
461.898	85.06
462.118	90.06
462.338	91.06
462.558	97.06
462.777	89.06
462.997	100.06
463.217	112.06
463.437	94.06
463.657	101.06
463.876	93.06
464.096	90.06
464.316	100.06
464.536	96.06
464.755	102.06
464.975	130.06
465.195	235.06
465.414	242.06
465.634	110.06
465.854	97.06
466.073	83.06
466.293	102.06
466.512	98.06
466.732	76.06
466.951	88.06
467.171	96.06
467.391	109.06
467.61	140.06
467.829	190.06
468.049	449.06
468.268	672.06
468.488	205.06
468.707	106.06
468.927	91.06
469.146	88.06
469.365	98.06
469.585	95.06
469.804	108.06
470.023	121.06
470.243	120.06
470.462	101.06
470.681	130.06
470.901	91.06
471.12	101.06
471.339	101.06
471.558	96.06
471.777	129.06
471.997	245.06
472.216	868.06
472.435	1972.06
472.654	483.06
472.873	148.06
473.092	111.06
473.311	98.06
473.53	88.06
473.749	119.06
473.968	117.06
474.187	143.06
474.406	115.06
474.625	94.06
474.844	76.06
475.063	89.06
475.282	88.06
475.501	88.06
475.72	96.06
475.939	100.06
476.158	88.06
476.377	92.06
476.596	89.06
476.814	102.06
477.033	105.06
477.252	94.06
477.471	90.06
477.69	88.06
477.908	86.06
478.127	86.06
478.346	94.06
478.564	112.06
478.783	99.06
479.002	101.06
479.22	108.06
479.439	128.06
479.658	126.06
479.876	128.06
480.095	115.06
480.313	129.06
480.532	149.06
480.751	259.06
480.969	849.06
481.188	3479.06
481.406	2039.06
481.624	316.06
481.843	133.06
482.061	115.06
482.28	111.06
482.498	106.06
482.717	101.06
482.935	101.06
483.153	108.06
483.372	93.06
483.59	96.06
483.808	84.06
484.027	110.06
484.245	83.06
484.463	94.06
484.681	102.06
484.9	88.06
485.118	95.06
485.336	102.06
485.554	108.06
485.772	112.06
485.99	97.06
486.209	96.06
486.427	119.06
486.645	125.06
486.863	131.06
487.081	106.06
487.299	113.06
487.517	107.06
487.735	94.06
487.953	100.06
488.171	99.06
488.389	106.06
488.607	114.06
488.825	88.06
489.043	91.06
489.261	99.06
489.479	92.06
489.696	89.06
489.914	81.06
490.132	89.06
490.35	116.06
490.568	96.06
490.786	104.06
491.003	101.06
491.221	92.06
491.439	100.06
491.657	97.06
491.874	97.06
492.092	109.06
492.31	98.06
492.527	113.06
492.745	102.06
492.963	91.06
493.18	98.06
493.398	85.06
493.615	88.06
493.833	102.06
494.05	75.06
494.268	82.06
494.485	99.06
494.703	96.06
494.92	89.06
495.138	88.06
495.355	89.06
495.573	100.06
495.79	98.06
496.008	97.06
496.225	94.06
496.442	100.06
496.66	101.06
496.877	94.06
497.094	102.06
497.312	102.06
497.529	100.06
497.746	97.06
497.963	102.06
498.181	93.06
498.398	97.06
498.615	124.06
498.832	115.06
499.049	102.06
499.267	99.06
499.484	80.06
499.701	93.06
499.918	79.06
500.135	88.06
500.352	81.06
500.569	87.06
500.786	96.06
501.003	106.06
501.22	96.06
501.437	88.06
501.654	105.06
501.871	133.06
502.088	102.06
502.305	107.06
502.522	101.06
502.739	97.06
502.956	103.06
503.172	106.06
503.389	110.06
503.606	136.06
503.823	109.06
504.04	98.06
504.256	87.06
504.473	92.06
504.69	91.06
504.907	99.06
505.123	96.06
505.34	111.06
505.557	99.06
505.773	92.06
505.99	88.06
506.207	102.06
506.423	96.06
506.64	97.06
506.856	90.06
507.073	100.06
507.289	94.06
507.506	115.06
507.722	130.06
507.939	110.06
508.155	96.06
508.372	102.06
508.588	110.06
508.805	114.06
509.021	102.06
509.238	108.06
509.454	96.06
509.67	108.06
509.887	118.06
510.103	163.06
510.319	250.06
510.536	891.06
510.752	3157.06
510.968	863.06
511.184	185.06
511.401	130.06
511.617	126.06
