Data from Circ_1997_H10_HRD10591_00098.txt Node
Date: Wed Jan 03 11:29:47 EST 2024
User: Yrep
Spectrometer: HR+D1059
Trigger mode: 1
Integration Time (sec): 1.000000E-1
Scans to average: 1
Electric dark correction enabled: true
Nonlinearity correction enabled: false
Boxcar width: 0
XAxis mode: Wavelengths
Number of Pixels in Spectrum: 2048
>>>>>Begin Spectral Data<<<<<
223.165	-17.31
223.4	-17.31
223.635	-17.31
223.869	-12.31
224.104	-10.31
224.338	-23.31
224.573	-22.31
224.808	-8.31
225.042	0.69
225.277	-2.31
225.511	-18.31
225.746	-6.31
225.98	15.69
226.215	-1.31
226.449	21.69
226.683	22.69
226.918	25.69
227.152	35.69
227.387	47.69
227.621	38.69
227.856	42.69
228.09	60.69
228.324	65.69
228.559	66.69
228.793	73.69
229.027	68.69
229.262	73.69
229.496	87.69
229.73	108.69
229.964	109.69
230.199	81.69
230.433	71.69
230.667	81.69
230.901	89.69
231.136	85.69
231.37	71.69
231.604	84.69
231.838	96.69
232.072	78.69
232.306	75.69
232.541	90.69
232.775	82.69
233.009	77.69
233.243	80.69
233.477	93.69
233.711	92.69
233.945	86.69
234.179	82.69
234.413	95.69
234.647	81.69
234.881	92.69
235.115	90.69
235.349	98.69
235.583	85.69
235.817	77.69
236.051	80.69
236.285	62.69
236.519	87.69
236.753	84.69
236.987	81.69
237.221	90.69
237.455	96.69
237.689	81.69
237.922	77.69
238.156	84.69
238.39	77.69
238.624	82.69
238.858	71.69
239.091	77.69
239.325	86.69
239.559	75.69
239.793	86.69
240.027	86.69
240.26	70.69
240.494	86.69
240.728	65.69
240.961	78.69
241.195	88.69
241.429	78.69
241.662	90.69
241.896	81.69
242.13	85.69
242.363	100.69
242.597	84.69
242.83	73.69
243.064	90.69
243.298	78.69
243.531	81.69
243.765	96.69
243.998	80.69
244.232	84.69
244.465	90.69
244.699	93.69
244.932	96.69
245.166	73.69
245.399	98.69
245.633	72.69
245.866	74.69
246.099	83.69
246.333	82.69
246.566	92.69
246.8	85.69
247.033	78.69
247.266	87.69
247.5	79.69
247.733	80.69
247.966	81.69
248.2	77.69
248.433	66.69
248.666	77.69
248.899	83.69
249.133	99.69
249.366	113.69
249.599	113.69
249.832	93.69
250.066	89.69
250.299	85.69
250.532	92.69
250.765	75.69
250.998	87.69
251.231	79.69
251.465	84.69
251.698	69.69
251.931	107.69
252.164	89.69
252.397	83.69
252.63	95.69
252.863	89.69
253.096	86.69
253.329	86.69
253.562	94.69
253.795	85.69
254.028	85.69
254.261	77.69
254.494	84.69
254.727	84.69
254.96	78.69
255.193	95.69
255.426	87.69
255.659	103.69
255.892	113.69
256.124	91.69
256.357	79.69
256.59	102.69
256.823	83.69
257.056	99.69
257.289	94.69
257.521	79.69
257.754	77.69
257.987	98.69
258.22	89.69
258.452	109.69
258.685	90.69
258.918	95.69
259.151	95.69
259.383	90.69
259.616	94.69
259.849	89.69
260.081	92.69
260.314	93.69
260.547	83.69
260.779	90.69
261.012	119.69
261.244	115.69
261.477	92.69
261.71	96.69
261.942	134.69
262.175	135.69
262.407	106.69
262.64	94.69
262.872	102.69
263.105	92.69
263.337	98.69
263.57	75.69
263.802	112.69
264.035	88.69
264.267	93.69
264.499	88.69
264.732	90.69
264.964	96.69
265.197	74.69
265.429	99.69
265.661	85.69
265.894	86.69
266.126	85.69
266.358	94.69
266.591	88.69
266.823	71.69
267.055	82.69
267.287	91.69
267.52	102.69
267.752	89.69
267.984	102.69
268.216	83.69
268.448	89.69
268.681	94.69
268.913	83.69
269.145	93.69
269.377	91.69
269.609	84.69
269.841	87.69
270.073	89.69
270.306	92.69
270.538	102.69
270.77	81.69
271.002	98.69
271.234	105.69
271.466	100.69
271.698	94.69
271.93	89.69
272.162	98.69
272.394	83.69
272.626	93.69
272.858	94.69
273.09	91.69
273.322	88.69
273.553	98.69
273.785	98.69
274.017	85.69
274.249	105.69
274.481	90.69
274.713	94.69
274.945	99.69
275.176	104.69
275.408	108.69
275.64	115.69
275.872	144.69
276.104	111.69
276.335	108.69
276.567	128.69
276.799	155.69
277.031	198.69
277.262	197.69
277.494	152.69
277.726	111.69
277.957	101.69
278.189	94.69
278.421	97.69
278.652	75.69
278.884	97.69
279.115	109.69
279.347	109.69
279.579	119.69
279.81	142.69
280.042	229.69
280.273	286.69
280.505	172.69
280.736	122.69
280.968	101.69
281.199	93.69
281.431	92.69
281.662	82.69
281.894	107.69
282.125	112.69
282.356	146.69
282.588	178.69
282.819	139.69
283.051	86.69
283.282	93.69
283.513	96.69
283.745	99.69
283.976	94.69
284.207	93.69
284.439	88.69
284.67	85.69
284.901	97.69
285.132	88.69
285.364	81.69
285.595	91.69
285.826	93.69
286.057	101.69
286.288	98.69
286.52	87.69
286.751	94.69
286.982	89.69
287.213	86.69
287.444	99.69
287.675	82.69
287.906	98.69
288.138	110.69
288.369	97.69
288.6	99.69
288.831	99.69
289.062	99.69
289.293	103.69
289.524	88.69
289.755	119.69
289.986	89.69
290.217	95.69
290.448	91.69
290.679	90.69
290.91	93.69
291.141	84.69
291.371	100.69
291.602	95.69
291.833	88.69
292.064	91.69
292.295	93.69
292.526	89.69
292.757	101.69
292.987	95.69
293.218	82.69
293.449	97.69
293.68	81.69
293.91	93.69
294.141	102.69
294.372	103.69
294.603	93.69
294.833	95.69
295.064	86.69
295.295	102.69
295.525	98.69
295.756	102.69
295.987	130.69
296.217	167.69
296.448	150.69
296.679	97.69
296.909	102.69
297.14	87.69
297.37	94.69
297.601	91.69
297.831	77.69
298.062	108.69
298.292	91.69
298.523	105.69
298.753	86.69
298.984	102.69
299.214	91.69
299.445	106.69
299.675	98.69
299.905	99.69
300.136	92.69
300.366	105.69
300.597	85.69
300.827	95.69
301.057	116.69
301.288	118.69
301.518	107.69
301.748	118.69
301.979	129.69
302.209	112.69
302.439	104.69
302.669	83.69
302.9	100.69
303.13	96.69
303.36	111.69
303.59	132.69
303.82	151.69
304.051	123.69
304.281	103.69
304.511	94.69
304.741	101.69
304.971	76.69
305.201	98.69
305.431	76.69
305.661	98.69
305.891	104.69
306.121	105.69
306.352	113.69
306.582	134.69
306.812	113.69
307.042	139.69
307.272	171.69
307.502	211.69
307.731	168.69
307.961	122.69
308.191	102.69
308.421	89.69
308.651	101.69
308.881	108.69
309.111	95.69
309.341	96.69
309.571	97.69
309.8	113.69
310.03	105.69
310.26	110.69
310.49	103.69
310.72	112.69
310.949	126.69
311.179	102.69
311.409	102.69
311.639	109.69
311.868	105.69
312.098	114.69
312.328	107.69
312.557	126.69
312.787	125.69
313.017	101.69
313.246	102.69
313.476	100.69
313.706	111.69
313.935	97.69
314.165	107.69
314.394	121.69
314.624	125.69
314.853	101.69
315.083	94.69
315.312	100.69
315.542	96.69
315.771	115.69
316.001	96.69
316.23	83.69
316.46	102.69
316.689	102.69
316.919	103.69
317.148	127.69
317.377	114.69
317.607	115.69
317.836	108.69
318.065	97.69
318.295	105.69
318.524	107.69
318.753	102.69
318.983	91.69
319.212	107.69
319.441	106.69
319.67	113.69
319.9	109.69
320.129	108.69
320.358	112.69
320.587	109.69
320.816	112.69
321.046	110.69
321.275	109.69
321.504	111.69
321.733	97.69
321.962	109.69
322.191	106.69
322.42	110.69
322.649	138.69
322.878	130.69
323.108	125.69
323.337	150.69
323.566	179.69
323.795	210.69
324.024	246.69
324.253	506.69
324.482	1074.69
324.71	2241.69
324.939	2912.69
325.168	1062.69
325.397	308.69
325.626	185.69
325.855	161.69
326.084	159.69
326.313	153.69
326.542	185.69
326.77	276.69
326.999	559.69
327.228	1168.69
327.457	2124.69
327.686	1745.69
327.914	611.69
328.143	601.69
328.372	800.69
328.6	412.69
328.829	204.69
329.058	201.69
329.287	204.69
329.515	200.69
329.744	317.69
329.972	588.69
330.201	1225.69
330.43	1764.69
330.658	752.69
330.887	329.69
331.115	215.69
331.344	129.69
331.572	121.69
331.801	137.69
332.03	151.69
332.258	126.69
332.486	126.69
332.715	116.69
332.943	115.69
333.172	133.69
333.4	128.69
333.629	165.69
333.857	279.69
334.085	538.69
334.314	1147.69
334.542	2254.69
334.771	2036.69
334.999	508.69
335.227	197.69
335.455	155.69
335.684	129.69
335.912	129.69
336.14	103.69
336.369	105.69
336.597	128.69
336.825	122.69
337.053	103.69
337.281	106.69
337.51	103.69
337.738	99.69
337.966	93.69
338.194	113.69
338.422	103.69
338.65	103.69
338.878	93.69
339.106	121.69
339.334	92.69
339.562	81.69
339.79	96.69
340.018	106.69
340.246	107.69
340.474	124.69
340.702	102.69
340.93	95.69
341.158	98.69
341.386	92.69
341.614	109.69
341.842	110.69
342.07	102.69
342.298	109.69
342.526	91.69
342.754	85.69
342.981	96.69
343.209	80.69
343.437	110.69
343.665	95.69
343.893	93.69
344.12	97.69
344.348	95.69
344.576	93.69
344.804	95.69
345.031	107.69
345.259	121.69
345.487	100.69
345.714	101.69
345.942	113.69
346.17	96.69
346.397	94.69
346.625	109.69
346.853	86.69
347.08	96.69
347.308	97.69
347.535	112.69
347.763	104.69
347.99	123.69
348.218	115.69
348.445	132.69
348.673	111.69
348.9	122.69
349.128	104.69
349.355	99.69
349.583	98.69
349.81	98.69
350.037	103.69
350.265	107.69
350.492	101.69
350.72	106.69
350.947	109.69
351.174	125.69
351.402	136.69
351.629	113.69
351.856	99.69
352.083	117.69
352.311	117.69
352.538	129.69
352.765	112.69
352.992	130.69
353.22	109.69
353.447	107.69
353.674	119.69
353.901	102.69
354.128	95.69
354.355	99.69
354.583	105.69
354.81	102.69
355.037	109.69
355.264	91.69
355.491	87.69
355.718	93.69
355.945	67.69
356.172	106.69
356.399	88.69
356.626	108.69
356.853	109.69
357.08	82.69
357.307	105.69
357.534	102.69
357.761	100.69
357.988	104.69
358.215	95.69
358.441	111.69
358.668	92.69
358.895	86.69
359.122	81.69
359.349	95.69
359.576	108.69
359.802	125.69
360.029	157.69
360.256	134.69
360.483	120.69
360.709	103.69
360.936	112.69
361.163	106.69
361.39	95.69
361.616	109.69
361.843	108.69
362.07	113.69
362.296	109.69
362.523	102.69
362.749	99.69
362.976	96.69
363.203	86.69
363.429	99.69
363.656	94.69
363.882	98.69
364.109	107.69
364.335	113.69
364.562	101.69
364.788	83.69
365.015	102.69
365.241	103.69
365.468	120.69
365.694	140.69
365.92	117.69
366.147	103.69
366.373	94.69
366.599	102.69
366.826	93.69
367.052	91.69
367.278	88.69
367.505	98.69
367.731	95.69
367.957	97.69
368.184	89.69
368.41	119.69
368.636	137.69
368.862	136.69
369.089	124.69
369.315	97.69
369.541	98.69
369.767	90.69
369.993	94.69
370.219	107.69
370.445	90.69
370.672	86.69
370.898	94.69
371.124	101.69
371.35	102.69
371.576	101.69
371.802	94.69
372.028	107.69
372.254	96.69
372.48	92.69
372.706	86.69
372.932	77.69
373.158	95.69
373.384	92.69
373.61	85.69
373.835	92.69
374.061	90.69
374.287	92.69
374.513	89.69
374.739	89.69
374.965	87.69
375.191	92.69
375.416	100.69
375.642	95.69
375.868	95.69
376.094	93.69
376.319	113.69
376.545	101.69
376.771	103.69
376.997	90.69
377.222	86.69
377.448	100.69
377.674	82.69
377.899	85.69
378.125	87.69
378.35	86.69
378.576	103.69
378.802	91.69
379.027	93.69
379.253	87.69
379.478	85.69
379.704	88.69
379.929	87.69
380.155	99.69
380.38	107.69
380.606	96.69
380.831	98.69
381.057	101.69
381.282	99.69
381.507	94.69
381.733	110.69
381.958	107.69
382.184	98.69
382.409	107.69
382.634	91.69
382.86	103.69
383.085	90.69
383.31	95.69
383.535	109.69
383.761	97.69
383.986	91.69
384.211	99.69
384.436	104.69
384.662	91.69
384.887	89.69
385.112	113.69
385.337	105.69
385.562	113.69
385.787	98.69
386.013	118.69
386.238	113.69
386.463	116.69
386.688	108.69
386.913	91.69
387.138	107.69
387.363	95.69
387.588	106.69
387.813	100.69
388.038	82.69
388.263	98.69
388.488	112.69
388.713	100.69
388.938	110.69
389.163	89.69
389.387	85.69
389.612	102.69
389.837	93.69
390.062	81.69
390.287	102.69
390.512	89.69
390.736	84.69
390.961	87.69
391.186	100.69
391.411	101.69
391.636	103.69
391.86	98.69
392.085	98.69
392.31	84.69
392.534	93.69
392.759	84.69
392.984	82.69
393.208	82.69
393.433	98.69
393.658	69.69
393.882	80.69
394.107	102.69
394.331	93.69
394.556	87.69
394.78	107.69
395.005	85.69
395.229	83.69
395.454	100.69
395.678	92.69
395.903	98.69
396.127	98.69
396.352	76.69
396.576	92.69
396.801	98.69
397.025	90.69
397.249	99.69
397.474	98.69
397.698	87.69
397.922	95.69
398.147	85.69
398.371	98.69
398.595	96.69
398.82	81.69
399.044	99.69
399.268	80.69
399.492	75.69
399.717	102.69
399.941	93.69
400.165	114.69
400.389	105.69
400.613	89.69
400.837	94.69
401.062	105.69
401.286	82.69
401.51	119.69
401.734	94.69
401.958	128.69
402.182	149.69
402.406	196.69
402.63	158.69
402.854	92.69
403.078	91.69
403.302	89.69
403.526	102.69
403.75	93.69
403.974	94.69
404.198	103.69
404.422	93.69
404.645	106.69
404.869	108.69
405.093	128.69
405.317	144.69
405.541	167.69
405.765	109.69
405.988	130.69
406.212	228.69
406.436	316.69
406.66	204.69
406.883	128.69
407.107	111.69
407.331	112.69
407.555	122.69
407.778	116.69
408.002	98.69
408.226	93.69
408.449	101.69
408.673	101.69
408.896	107.69
409.12	107.69
409.344	92.69
409.567	98.69
409.791	102.69
410.014	80.69
410.238	97.69
410.461	99.69
410.685	108.69
410.908	115.69
411.132	133.69
411.355	109.69
411.578	115.69
411.802	102.69
412.025	95.69
412.249	121.69
412.472	131.69
412.695	152.69
412.919	106.69
413.142	94.69
413.365	85.69
413.589	93.69
413.812	87.69
414.035	102.69
414.258	97.69
414.482	82.69
414.705	91.69
414.928	107.69
415.151	107.69
415.374	89.69
415.597	89.69
415.821	102.69
416.044	102.69
416.267	87.69
416.49	86.69
416.713	91.69
416.936	106.69
417.159	107.69
417.382	109.69
417.605	107.69
417.828	120.69
418.051	104.69
418.274	100.69
418.497	94.69
418.72	94.69
418.943	101.69
419.166	110.69
419.389	89.69
419.611	104.69
419.834	95.69
420.057	104.69
420.28	113.69
420.503	98.69
420.726	97.69
420.948	102.69
421.171	118.69
421.394	115.69
421.617	97.69
421.839	91.69
422.062	91.69
422.285	100.69
422.507	105.69
422.73	125.69
422.953	104.69
423.175	97.69
423.398	86.69
423.621	89.69
423.843	96.69
424.066	89.69
424.288	100.69
424.511	98.69
424.733	116.69
424.956	117.69
425.178	114.69
425.401	123.69
425.623	113.69
425.846	83.69
426.068	100.69
426.291	109.69
426.513	115.69
426.735	102.69
426.958	101.69
427.18	138.69
427.402	197.69
427.625	272.69
427.847	250.69
428.069	247.69
428.292	142.69
428.514	113.69
428.736	100.69
428.958	98.69
429.181	89.69
429.403	81.69
429.625	83.69
429.847	99.69
430.069	124.69
430.292	107.69
430.514	103.69
430.736	78.69
430.958	96.69
431.18	75.69
431.402	89.69
431.624	97.69
431.846	84.69
432.068	79.69
432.29	89.69
432.512	106.69
432.734	99.69
432.956	114.69
433.178	114.69
433.4	101.69
433.622	87.69
433.844	98.69
434.066	90.69
434.287	101.69
434.509	98.69
434.731	99.69
434.953	85.69
435.175	93.69
435.397	101.69
435.618	96.69
435.84	123.69
436.062	142.69
436.284	138.69
436.505	118.69
436.727	109.69
436.949	97.69
437.17	83.69
437.392	99.69
437.614	112.69
437.835	126.69
438.057	153.69
438.278	147.69
438.5	112.69
438.721	156.69
438.943	125.69
439.165	119.69
439.386	96.69
439.608	99.69
439.829	115.69
440.05	155.69
440.272	211.69
440.493	117.69
440.715	98.69
440.936	77.69
441.158	86.69
441.379	107.69
441.6	110.69
441.822	115.69
442.043	102.69
442.264	133.69
442.486	109.69
442.707	109.69
442.928	126.69
443.149	174.69
443.371	179.69
443.592	138.69
443.813	132.69
444.034	134.69
444.255	101.69
444.476	87.69
444.698	85.69
444.919	109.69
445.14	126.69
445.361	140.69
445.582	148.69
445.803	213.69
446.024	190.69
446.245	183.69
446.466	150.69
446.687	97.69
446.908	105.69
447.129	100.69
447.35	100.69
447.571	99.69
447.792	92.69
448.013	101.69
448.234	115.69
448.455	117.69
448.675	136.69
448.896	153.69
449.117	115.69
449.338	120.69
449.559	159.69
449.779	168.69
450	116.69
450.221	94.69
450.442	97.69
450.662	122.69
450.883	148.69
451.104	141.69
451.324	115.69
451.545	103.69
451.766	95.69
451.986	95.69
452.207	94.69
452.428	104.69
452.648	114.69
452.869	126.69
453.089	140.69
453.31	158.69
453.53	98.69
453.751	86.69
453.971	114.69
454.192	142.69
454.412	109.69
454.633	89.69
454.853	90.69
455.073	84.69
455.294	102.69
455.514	121.69
455.734	92.69
455.955	89.69
456.175	93.69
456.395	90.69
456.616	77.69
456.836	93.69
457.056	111.69
457.276	93.69
457.497	88.69
457.717	88.69
457.937	89.69
458.157	102.69
458.377	104.69
458.598	132.69
458.818	204.69
459.038	234.69
459.258	170.69
459.478	112.69
459.698	98.69
459.918	84.69
460.138	79.69
460.358	80.69
460.578	85.69
460.798	112.69
461.018	89.69
461.238	97.69
461.458	97.69
461.678	102.69
461.898	97.69
462.118	94.69
462.338	98.69
462.558	81.69
462.777	100.69
462.997	102.69
463.217	124.69
463.437	99.69
463.657	93.69
463.876	109.69
464.096	98.69
464.316	107.69
464.536	107.69
464.755	111.69
464.975	134.69
465.195	238.69
465.414	231.69
465.634	109.69
465.854	103.69
466.073	95.69
466.293	99.69
466.512	99.69
466.732	90.69
466.951	110.69
467.171	130.69
467.391	137.69
467.61	158.69
467.829	229.69
468.049	685.69
468.268	1042.69
468.488	247.69
468.707	113.69
468.927	99.69
469.146	100.69
469.365	91.69
469.585	89.69
469.804	108.69
470.023	102.69
470.243	103.69
470.462	123.69
470.681	135.69
470.901	114.69
471.12	104.69
471.339	110.69
471.558	131.69
471.777	178.69
471.997	358.69
472.216	1409.69
472.435	3086.69
472.654	704.69
472.873	186.69
473.092	111.69
473.311	102.69
473.53	101.69
473.749	119.69
473.968	99.69
474.187	139.69
474.406	112.69
474.625	108.69
474.844	81.69
475.063	101.69
475.282	96.69
475.501	94.69
475.72	87.69
475.939	97.69
476.158	95.69
476.377	120.69
476.596	115.69
476.814	106.69
477.033	109.69
477.252	107.69
477.471	104.69
477.69	100.69
477.908	103.69
478.127	101.69
478.346	107.69
478.564	106.69
478.783	104.69
479.002	116.69
479.22	118.69
479.439	138.69
479.658	148.69
479.876	139.69
480.095	125.69
480.313	155.69
480.532	182.69
480.751	332.69
480.969	1283.69
481.188	5478.69
481.406	3018.69
481.624	435.69
481.843	165.69
482.061	123.69
482.28	115.69
482.498	110.69
482.717	99.69
482.935	108.69
483.153	115.69
483.372	95.69
483.59	94.69
483.808	97.69
484.027	102.69
484.245	87.69
484.463	91.69
484.681	102.69
484.9	96.69
485.118	103.69
485.336	108.69
485.554	102.69
485.772	112.69
485.99	103.69
486.209	122.69
486.427	121.69
486.645	111.69
486.863	125.69
487.081	122.69
487.299	99.69
487.517	87.69
487.735	93.69
487.953	99.69
488.171	100.69
488.389	108.69
488.607	116.69
488.825	92.69
489.043	90.69
489.261	99.69
489.479	82.69
489.696	104.69
489.914	92.69
490.132	94.69
490.35	104.69
490.568	98.69
490.786	100.69
491.003	104.69
491.221	94.69
491.439	109.69
491.657	100.69
491.874	104.69
492.092	100.69
492.31	113.69
492.527	118.69
492.745	117.69
492.963	91.69
493.18	98.69
493.398	109.69
493.615	108.69
493.833	101.69
494.05	92.69
494.268	101.69
494.485	99.69
494.703	98.69
494.92	78.69
495.138	99.69
495.355	102.69
495.573	106.69
495.79	100.69
496.008	96.69
496.225	115.69
496.442	90.69
496.66	99.69
496.877	110.69
497.094	89.69
497.312	73.69
497.529	89.69
497.746	87.69
497.963	100.69
498.181	102.69
498.398	105.69
498.615	111.69
498.832	111.69
499.049	99.69
499.267	89.69
499.484	101.69
499.701	114.69
499.918	98.69
500.135	93.69
500.352	107.69
500.569	98.69
500.786	113.69
501.003	102.69
501.22	94.69
501.437	99.69
501.654	98.69
501.871	128.69
502.088	112.69
502.305	97.69
502.522	91.69
502.739	88.69
502.956	86.69
503.172	107.69
503.389	111.69
503.606	126.69
503.823	109.69
504.04	86.69
504.256	104.69
504.473	89.69
504.69	107.69
504.907	94.69
505.123	96.69
505.34	85.69
505.557	92.69
505.773	101.69
505.99	103.69
506.207	106.69
506.423	101.69
506.64	89.69
506.856	98.69
507.073	103.69
507.289	93.69
507.506	122.69
507.722	160.69
507.939	132.69
508.155	97.69
508.372	101.69
508.588	101.69
508.805	96.69
509.021	97.69
509.238	98.69
509.454	100.69
509.67	104.69
509.887	118.69
510.103	155.69
510.319	258.69
510.536	993.69
