Data from Circ_1997_H10_HRD10591_00062.txt Node
Date: Wed Jan 03 11:29:40 EST 2024
User: Yrep
Spectrometer: HR+D1059
Trigger mode: 1
Integration Time (sec): 1.000000E-1
Scans to average: 1
Electric dark correction enabled: true
Nonlinearity correction enabled: false
Boxcar width: 0
XAxis mode: Wavelengths
Number of Pixels in Spectrum: 2048
>>>>>Begin Spectral Data<<<<<
223.165	-34.06
223.4	-34.06
223.635	-34.06
223.869	-2.06
224.104	-22.06
224.338	-19.06
224.573	-17.06
224.808	-8.06
225.042	-6.06
225.277	4.94
225.511	-12.06
225.746	2.94
225.98	9.94
226.215	5.94
226.449	27.94
226.683	25.94
226.918	13.94
227.152	28.94
227.387	28.94
227.621	33.94
227.856	59.94
228.09	40.94
228.324	48.94
228.559	60.94
228.793	60.94
229.027	68.94
229.262	70.94
229.496	81.94
229.73	106.94
229.964	102.94
230.199	67.94
230.433	81.94
230.667	82.94
230.901	89.94
231.136	80.94
231.37	83.94
231.604	82.94
231.838	86.94
232.072	83.94
232.306	85.94
232.541	90.94
232.775	85.94
233.009	80.94
233.243	87.94
233.477	88.94
233.711	89.94
233.945	86.94
234.179	80.94
234.413	87.94
234.647	77.94
234.881	81.94
235.115	96.94
235.349	94.94
235.583	80.94
235.817	76.94
236.051	89.94
236.285	81.94
236.519	84.94
236.753	85.94
236.987	93.94
237.221	110.94
237.455	116.94
237.689	89.94
237.922	76.94
238.156	79.94
238.39	82.94
238.624	65.94
238.858	75.94
239.091	73.94
239.325	94.94
239.559	77.94
239.793	93.94
240.027	93.94
240.26	81.94
240.494	84.94
240.728	91.94
240.961	81.94
241.195	82.94
241.429	96.94
241.662	76.94
241.896	74.94
242.13	86.94
242.363	67.94
242.597	80.94
242.83	94.94
243.064	88.94
243.298	69.94
243.531	79.94
243.765	77.94
243.998	84.94
244.232	81.94
244.465	93.94
244.699	96.94
244.932	86.94
245.166	79.94
245.399	69.94
245.633	81.94
245.866	72.94
246.099	90.94
246.333	94.94
246.566	69.94
246.8	95.94
247.033	88.94
247.266	80.94
247.5	78.94
247.733	80.94
247.966	79.94
248.2	80.94
248.433	91.94
248.666	87.94
248.899	89.94
249.133	96.94
249.366	122.94
249.599	108.94
249.832	94.94
250.066	96.94
250.299	93.94
250.532	92.94
250.765	93.94
250.998	88.94
251.231	90.94
251.465	105.94
251.698	93.94
251.931	91.94
252.164	77.94
252.397	82.94
252.63	93.94
252.863	81.94
253.096	95.94
253.329	86.94
253.562	74.94
253.795	92.94
254.028	80.94
254.261	81.94
254.494	94.94
254.727	103.94
254.96	82.94
255.193	88.94
255.426	80.94
255.659	92.94
255.892	106.94
256.124	113.94
256.357	105.94
256.59	85.94
256.823	93.94
257.056	85.94
257.289	95.94
257.521	85.94
257.754	93.94
257.987	85.94
258.22	110.94
258.452	105.94
258.685	84.94
258.918	88.94
259.151	85.94
259.383	84.94
259.616	84.94
259.849	90.94
260.081	85.94
260.314	91.94
260.547	94.94
260.779	110.94
261.012	135.94
261.244	129.94
261.477	107.94
261.71	125.94
261.942	145.94
262.175	160.94
262.407	99.94
262.64	90.94
262.872	91.94
263.105	91.94
263.337	96.94
263.57	97.94
263.802	90.94
264.035	89.94
264.267	94.94
264.499	84.94
264.732	94.94
264.964	75.94
265.197	84.94
265.429	80.94
265.661	96.94
265.894	91.94
266.126	82.94
266.358	94.94
266.591	93.94
266.823	91.94
267.055	107.94
267.287	99.94
267.52	84.94
267.752	86.94
267.984	96.94
268.216	90.94
268.448	102.94
268.681	90.94
268.913	98.94
269.145	84.94
269.377	93.94
269.609	92.94
269.841	97.94
270.073	96.94
270.306	103.94
270.538	104.94
270.77	92.94
271.002	93.94
271.234	95.94
271.466	91.94
271.698	88.94
271.93	92.94
272.162	91.94
272.394	78.94
272.626	93.94
272.858	93.94
273.09	86.94
273.322	84.94
273.553	85.94
273.785	90.94
274.017	87.94
274.249	96.94
274.481	80.94
274.713	91.94
274.945	92.94
275.176	103.94
275.408	118.94
275.64	121.94
275.872	128.94
276.104	117.94
276.335	106.94
276.567	116.94
276.799	163.94
277.031	212.94
277.262	236.94
277.494	178.94
277.726	122.94
277.957	99.94
278.189	109.94
278.421	110.94
278.652	95.94
278.884	89.94
279.115	97.94
279.347	92.94
279.579	98.94
279.81	136.94
280.042	235.94
280.273	322.94
280.505	208.94
280.736	128.94
280.968	105.94
281.199	107.94
281.431	90.94
281.662	104.94
281.894	91.94
282.125	118.94
282.356	150.94
282.588	187.94
282.819	166.94
283.051	96.94
283.282	77.94
283.513	97.94
283.745	96.94
283.976	100.94
284.207	100.94
284.439	88.94
284.67	105.94
284.901	88.94
285.132	84.94
285.364	91.94
285.595	83.94
285.826	92.94
286.057	102.94
286.288	101.94
286.52	95.94
286.751	90.94
286.982	93.94
287.213	94.94
287.444	93.94
287.675	100.94
287.906	93.94
288.138	105.94
288.369	106.94
288.6	96.94
288.831	99.94
289.062	94.94
289.293	89.94
289.524	83.94
289.755	98.94
289.986	85.94
290.217	87.94
290.448	106.94
290.679	89.94
290.91	91.94
291.141	87.94
291.371	82.94
291.602	108.94
291.833	97.94
292.064	99.94
292.295	89.94
292.526	100.94
292.757	85.94
292.987	94.94
293.218	92.94
293.449	92.94
293.68	102.94
293.91	89.94
294.141	92.94
294.372	106.94
294.603	99.94
294.833	93.94
295.064	97.94
295.295	94.94
295.525	104.94
295.756	114.94
295.987	135.94
296.217	174.94
296.448	180.94
296.679	107.94
296.909	87.94
297.14	99.94
297.37	92.94
297.601	97.94
297.831	91.94
298.062	106.94
298.292	100.94
298.523	113.94
298.753	93.94
298.984	98.94
299.214	95.94
299.445	101.94
299.675	107.94
299.905	106.94
300.136	89.94
300.366	92.94
300.597	87.94
300.827	89.94
301.057	109.94
301.288	114.94
301.518	111.94
301.748	109.94
301.979	119.94
302.209	105.94
302.439	96.94
302.669	101.94
302.9	99.94
303.13	108.94
303.36	115.94
303.59	158.94
303.82	178.94
304.051	116.94
304.281	94.94
304.511	88.94
304.741	91.94
304.971	94.94
305.201	92.94
305.431	97.94
305.661	96.94
305.891	88.94
306.121	100.94
306.352	112.94
306.582	112.94
306.812	112.94
307.042	130.94
307.272	185.94
307.502	222.94
307.731	182.94
307.961	138.94
308.191	104.94
308.421	95.94
308.651	113.94
308.881	96.94
309.111	102.94
309.341	97.94
309.571	118.94
309.8	112.94
310.03	121.94
310.26	120.94
310.49	109.94
310.72	124.94
310.949	136.94
311.179	120.94
311.409	106.94
311.639	119.94
311.868	113.94
312.098	94.94
312.328	103.94
312.557	119.94
312.787	145.94
313.017	137.94
313.246	103.94
313.476	105.94
313.706	105.94
313.935	100.94
314.165	110.94
314.394	119.94
314.624	119.94
314.853	98.94
315.083	90.94
315.312	96.94
315.542	99.94
315.771	96.94
316.001	90.94
316.23	102.94
316.46	88.94
316.689	105.94
316.919	105.94
317.148	103.94
317.377	111.94
317.607	117.94
317.836	103.94
318.065	94.94
318.295	108.94
318.524	94.94
318.753	99.94
318.983	106.94
319.212	109.94
319.441	123.94
319.67	120.94
319.9	108.94
320.129	97.94
320.358	101.94
320.587	97.94
320.816	111.94
321.046	113.94
321.275	107.94
321.504	102.94
321.733	109.94
321.962	105.94
322.191	109.94
322.42	126.94
322.649	142.94
322.878	134.94
323.108	150.94
323.337	173.94
323.566	190.94
323.795	200.94
324.024	306.94
324.253	615.94
324.482	1323.94
324.71	2750.94
324.939	3594.94
325.168	1288.94
325.397	355.94
325.626	192.94
325.855	160.94
326.084	153.94
326.313	166.94
326.542	195.94
326.77	317.94
326.999	642.94
327.228	1392.94
327.457	2632.94
327.686	2067.94
327.914	682.94
328.143	696.94
328.372	877.94
328.6	486.94
328.829	237.94
329.058	248.94
329.287	244.94
329.515	202.94
329.744	318.94
329.972	635.94
330.201	1386.94
330.43	1954.94
330.658	826.94
330.887	387.94
331.115	219.94
331.344	140.94
331.572	149.94
331.801	157.94
332.03	144.94
332.258	126.94
332.486	127.94
332.715	111.94
332.943	141.94
333.172	138.94
333.4	157.94
333.629	196.94
333.857	290.94
334.085	595.94
334.314	1281.94
334.542	2534.94
334.771	2213.94
334.999	581.94
335.227	212.94
335.455	156.94
335.684	132.94
335.912	122.94
336.14	115.94
336.369	122.94
336.597	125.94
336.825	130.94
337.053	95.94
337.281	107.94
337.51	99.94
337.738	113.94
337.966	114.94
338.194	110.94
338.422	125.94
338.65	102.94
338.878	97.94
339.106	102.94
339.334	91.94
339.562	93.94
339.79	101.94
340.018	107.94
340.246	93.94
340.474	117.94
340.702	113.94
340.93	99.94
341.158	102.94
341.386	112.94
341.614	109.94
341.842	109.94
342.07	97.94
342.298	108.94
342.526	98.94
342.754	102.94
342.981	94.94
343.209	100.94
343.437	93.94
343.665	105.94
343.893	93.94
344.12	102.94
344.348	100.94
344.576	81.94
344.804	100.94
345.031	119.94
345.259	129.94
345.487	100.94
345.714	109.94
345.942	103.94
346.17	107.94
346.397	113.94
346.625	100.94
346.853	100.94
347.08	93.94
347.308	109.94
347.535	116.94
347.763	123.94
347.99	122.94
348.218	111.94
348.445	130.94
348.673	115.94
348.9	106.94
349.128	91.94
349.355	112.94
349.583	100.94
349.81	107.94
350.037	82.94
350.265	112.94
350.492	106.94
350.72	107.94
350.947	116.94
351.174	146.94
351.402	141.94
351.629	117.94
351.856	110.94
352.083	118.94
352.311	128.94
352.538	140.94
352.765	124.94
352.992	131.94
353.22	125.94
353.447	118.94
353.674	105.94
353.901	108.94
354.128	101.94
354.355	101.94
354.583	106.94
354.81	98.94
355.037	101.94
355.264	101.94
355.491	96.94
355.718	92.94
355.945	100.94
356.172	102.94
356.399	94.94
356.626	86.94
356.853	89.94
357.08	98.94
357.307	90.94
357.534	102.94
357.761	85.94
357.988	92.94
358.215	99.94
358.441	92.94
358.668	97.94
358.895	95.94
359.122	86.94
359.349	84.94
359.576	87.94
359.802	139.94
360.029	184.94
360.256	145.94
360.483	128.94
360.709	97.94
360.936	110.94
361.163	117.94
361.39	105.94
361.616	111.94
361.843	107.94
362.07	115.94
362.296	123.94
362.523	102.94
362.749	117.94
362.976	97.94
363.203	100.94
363.429	97.94
363.656	97.94
363.882	102.94
364.109	86.94
364.335	102.94
364.562	108.94
364.788	93.94
365.015	94.94
365.241	105.94
365.468	111.94
365.694	130.94
365.92	119.94
366.147	103.94
366.373	98.94
366.599	101.94
366.826	108.94
367.052	109.94
367.278	96.94
367.505	102.94
367.731	102.94
367.957	97.94
368.184	112.94
368.41	117.94
368.636	133.94
368.862	146.94
369.089	128.94
369.315	96.94
369.541	95.94
369.767	87.94
369.993	96.94
370.219	95.94
370.445	102.94
370.672	94.94
370.898	93.94
371.124	93.94
371.35	102.94
371.576	96.94
371.802	89.94
372.028	98.94
372.254	99.94
372.48	84.94
372.706	93.94
372.932	87.94
373.158	96.94
373.384	90.94
373.61	84.94
373.835	96.94
374.061	81.94
374.287	106.94
374.513	100.94
374.739	105.94
374.965	98.94
375.191	102.94
375.416	97.94
375.642	106.94
375.868	101.94
376.094	97.94
376.319	88.94
376.545	89.94
376.771	99.94
376.997	83.94
377.222	106.94
377.448	94.94
377.674	92.94
377.899	86.94
378.125	96.94
378.35	94.94
378.576	102.94
378.802	100.94
379.027	95.94
379.253	96.94
379.478	109.94
379.704	84.94
379.929	93.94
380.155	102.94
380.38	92.94
380.606	93.94
380.831	111.94
381.057	97.94
381.282	107.94
381.507	95.94
381.733	106.94
381.958	101.94
382.184	90.94
382.409	86.94
382.634	103.94
382.86	112.94
383.085	96.94
383.31	111.94
383.535	116.94
383.761	106.94
383.986	100.94
384.211	112.94
384.436	91.94
384.662	106.94
384.887	104.94
385.112	102.94
385.337	93.94
385.562	95.94
385.787	95.94
386.013	95.94
386.238	114.94
386.463	118.94
386.688	100.94
386.913	107.94
387.138	101.94
387.363	94.94
387.588	96.94
387.813	107.94
388.038	105.94
388.263	125.94
388.488	113.94
388.713	96.94
388.938	98.94
389.163	109.94
389.387	90.94
389.612	97.94
389.837	88.94
390.062	82.94
390.287	102.94
390.512	90.94
390.736	98.94
390.961	84.94
391.186	101.94
391.411	100.94
391.636	97.94
391.86	87.94
392.085	99.94
392.31	89.94
392.534	85.94
392.759	104.94
392.984	95.94
393.208	107.94
393.433	94.94
393.658	84.94
393.882	91.94
394.107	86.94
394.331	93.94
394.556	84.94
394.78	85.94
395.005	90.94
395.229	89.94
395.454	88.94
395.678	92.94
395.903	89.94
396.127	97.94
396.352	98.94
396.576	93.94
396.801	83.94
397.025	94.94
397.249	94.94
397.474	96.94
397.698	101.94
397.922	105.94
398.147	100.94
398.371	87.94
398.595	85.94
398.82	90.94
399.044	98.94
399.268	107.94
399.492	90.94
399.717	92.94
399.941	112.94
400.165	110.94
400.389	117.94
400.613	92.94
400.837	93.94
401.062	98.94
401.286	99.94
401.51	100.94
401.734	114.94
401.958	120.94
402.182	167.94
402.406	235.94
402.63	172.94
402.854	104.94
403.078	113.94
403.302	86.94
403.526	94.94
403.75	81.94
403.974	107.94
404.198	90.94
404.422	96.94
404.645	88.94
404.869	107.94
405.093	141.94
405.317	171.94
405.541	154.94
405.765	140.94
405.988	154.94
406.212	253.94
406.436	380.94
406.66	248.94
406.883	142.94
407.107	96.94
407.331	112.94
407.555	127.94
407.778	132.94
408.002	93.94
408.226	108.94
408.449	74.94
408.673	96.94
408.896	98.94
409.12	106.94
409.344	98.94
409.567	96.94
409.791	92.94
410.014	99.94
410.238	92.94
410.461	98.94
410.685	109.94
410.908	90.94
411.132	123.94
411.355	115.94
411.578	97.94
411.802	100.94
412.025	83.94
412.249	97.94
412.472	142.94
412.695	140.94
412.919	124.94
413.142	100.94
413.365	96.94
413.589	95.94
413.812	99.94
414.035	103.94
414.258	101.94
414.482	101.94
414.705	94.94
414.928	107.94
415.151	95.94
415.374	96.94
415.597	84.94
415.821	96.94
416.044	88.94
416.267	97.94
416.49	90.94
416.713	103.94
416.936	100.94
417.159	102.94
417.382	95.94
417.605	92.94
417.828	126.94
418.051	121.94
418.274	98.94
418.497	85.94
418.72	91.94
418.943	94.94
419.166	93.94
419.389	89.94
419.611	100.94
419.834	98.94
420.057	105.94
420.28	101.94
420.503	100.94
420.726	101.94
420.948	111.94
421.171	115.94
421.394	114.94
421.617	98.94
421.839	91.94
422.062	84.94
422.285	97.94
422.507	98.94
422.73	110.94
422.953	86.94
423.175	90.94
423.398	105.94
423.621	93.94
423.843	91.94
424.066	81.94
424.288	91.94
424.511	108.94
424.733	102.94
424.956	137.94
425.178	118.94
425.401	112.94
425.623	112.94
425.846	115.94
426.068	111.94
426.291	105.94
426.513	96.94
426.735	99.94
426.958	91.94
427.18	132.94
427.402	209.94
427.625	319.94
427.847	284.94
428.069	270.94
428.292	127.94
428.514	106.94
428.736	101.94
428.958	84.94
429.181	94.94
429.403	91.94
429.625	102.94
429.847	101.94
430.069	113.94
430.292	105.94
430.514	106.94
430.736	94.94
430.958	88.94
431.18	93.94
431.402	88.94
431.624	79.94
431.846	96.94
432.068	99.94
432.29	83.94
432.512	96.94
432.734	90.94
432.956	98.94
433.178	103.94
433.4	109.94
433.622	98.94
433.844	92.94
434.066	88.94
434.287	101.94
434.509	113.94
434.731	105.94
434.953	102.94
435.175	72.94
435.397	102.94
435.618	112.94
435.84	115.94
436.062	159.94
436.284	144.94
436.505	120.94
436.727	121.94
436.949	100.94
437.17	101.94
437.392	95.94
437.614	119.94
437.835	142.94
438.057	190.94
438.278	155.94
438.5	142.94
438.721	156.94
438.943	119.94
439.165	112.94
439.386	93.94
439.608	109.94
439.829	144.94
440.05	174.94
440.272	233.94
440.493	139.94
440.715	98.94
440.936	102.94
441.158	116.94
441.379	115.94
441.6	117.94
441.822	115.94
442.043	116.94
442.264	129.94
442.486	142.94
442.707	108.94
442.928	144.94
443.149	203.94
443.371	206.94
443.592	152.94
443.813	152.94
444.034	140.94
444.255	105.94
444.476	96.94
444.698	108.94
444.919	106.94
445.14	162.94
445.361	165.94
445.582	159.94
445.803	230.94
446.024	229.94
446.245	204.94
446.466	152.94
446.687	102.94
446.908	90.94
447.129	98.94
447.35	106.94
447.571	102.94
447.792	104.94
448.013	114.94
448.234	148.94
448.455	120.94
448.675	161.94
448.896	164.94
449.117	125.94
449.338	128.94
449.559	178.94
449.779	178.94
450	124.94
450.221	95.94
450.442	98.94
450.662	110.94
450.883	137.94
451.104	163.94
451.324	124.94
451.545	95.94
451.766	103.94
451.986	86.94
452.207	107.94
452.428	112.94
452.648	120.94
452.869	144.94
453.089	152.94
453.31	148.94
453.53	121.94
453.751	108.94
453.971	131.94
454.192	160.94
454.412	123.94
454.633	97.94
454.853	96.94
455.073	98.94
455.294	106.94
455.514	129.94
455.734	97.94
455.955	87.94
456.175	83.94
456.395	78.94
456.616	95.94
456.836	97.94
457.056	93.94
457.276	85.94
457.497	99.94
457.717	97.94
457.937	106.94
458.157	100.94
458.377	96.94
458.598	162.94
458.818	267.94
459.038	280.94
459.258	167.94
459.478	103.94
459.698	102.94
459.918	101.94
460.138	97.94
460.358	93.94
460.578	92.94
460.798	102.94
461.018	105.94
461.238	94.94
461.458	90.94
461.678	76.94
461.898	96.94
462.118	93.94
462.338	83.94
462.558	100.94
462.777	86.94
462.997	113.94
463.217	117.94
463.437	114.94
463.657	101.94
463.876	105.94
464.096	98.94
464.316	100.94
464.536	108.94
464.755	104.94
464.975	140.94
465.195	294.94
465.414	282.94
465.634	108.94
465.854	105.94
466.073	97.94
466.293	87.94
466.512	101.94
466.732	98.94
466.951	106.94
467.171	108.94
467.391	127.94
467.61	172.94
467.829	255.94
468.049	722.94
468.268	1065.94
468.488	250.94
468.707	108.94
468.927	105.94
469.146	86.94
469.365	96.94
469.585	102.94
469.804	126.94
470.023	139.94
470.243	111.94
470.462	132.94
470.681	168.94
470.901	120.94
471.12	108.94
471.339	110.94
471.558	148.94
471.777	178.94
471.997	359.94
472.216	1504.94
472.435	3318.94
472.654	732.94
472.873	193.94
473.092	120.94
473.311	110.94
473.53	100.94
473.749	94.94
473.968	103.94
474.187	148.94
474.406	135.94
474.625	94.94
474.844	98.94
475.063	81.94
475.282	100.94
475.501	109.94
475.72	109.94
475.939	93.94
476.158	88.94
476.377	93.94
476.596	84.94
476.814	98.94
477.033	107.94
477.252	110.94
477.471	98.94
477.69	116.94
477.908	89.94
478.127	99.94
478.346	104.94
478.564	106.94
478.783	107.94
479.002	105.94
479.22	112.94
479.439	146.94
479.658	163.94
479.876	152.94
480.095	138.94
480.313	153.94
480.532	184.94
480.751	346.94
480.969	1379.94
481.188	5967.94
481.406	3165.94
481.624	440.94
481.843	148.94
482.061	132.94
482.28	106.94
482.498	102.94
482.717	104.94
482.935	97.94
483.153	88.94
483.372	93.94
483.59	99.94
483.808	107.94
484.027	110.94
484.245	97.94
484.463	93.94
484.681	107.94
484.9	96.94
485.118	113.94
485.336	91.94
485.554	111.94
485.772	89.94
485.99	104.94
486.209	105.94
486.427	102.94
486.645	130.94
486.863	149.94
487.081	111.94
487.299	106.94
487.517	92.94
487.735	111.94
487.953	96.94
488.171	99.94
488.389	108.94
488.607	127.94
488.825	110.94
489.043	99.94
489.261	91.94
489.479	89.94
489.696	96.94
489.914	101.94
490.132	101.94
490.35	90.94
490.568	100.94
490.786	88.94
491.003	97.94
491.221	103.94
491.439	109.94
491.657	99.94
491.874	94.94
492.092	101.94
492.31	115.94
492.527	120.94
492.745	101.94
492.963	102.94
493.18	94.94
493.398	117.94
493.615	94.94
493.833	100.94
494.05	98.94
494.268	85.94
494.485	105.94
494.703	93.94
494.92	109.94
495.138	94.94
495.355	97.94
495.573	106.94
495.79	97.94
496.008	88.94
496.225	90.94
496.442	94.94
496.66	99.94
496.877	95.94
497.094	89.94
497.312	94.94
497.529	96.94
497.746	94.94
497.963	110.94
498.181	112.94
498.398	100.94
498.615	145.94
498.832	140.94
499.049	105.94
499.267	85.94
499.484	96.94
499.701	82.94
499.918	94.94
500.135	101.94
500.352	110.94
500.569	106.94
500.786	107.94
501.003	96.94
501.22	88.94
501.437	102.94
501.654	101.94
501.871	126.94
502.088	102.94
502.305	80.94
502.522	95.94
502.739	87.94
502.956	80.94
503.172	101.94
503.389	107.94
503.606	149.94
503.823	109.94
504.04	103.94
504.256	97.94
504.473	88.94
504.69	93.94
504.907	114.94
505.123	88.94
505.34	106.94
505.557	94.94
505.773	93.94
505.99	87.94
506.207	96.94
506.423	95.94
506.64	91.94
506.856	102.94
507.073	97.94
507.289	106.94
507.506	107.94
507.722	144.94
507.939	137.94
508.155	112.94
508.372	98.94
508.588	111.94
508.805	106.94
509.021	100.94
509.238	111.94
509.454	120.94
509.67	130.94
509.887	128.94
510.103	163.94
510.319	283.94
