Data from Circ_1997_H10_HRD10591_00004.txt Node
Date: Wed Jan 03 11:29:28 EST 2024
User: Yrep
Spectrometer: HR+D1059
Trigger mode: 1
Integration Time (sec): 1.000000E-1
Scans to average: 1
Electric dark correction enabled: true
Nonlinearity correction enabled: false
Boxcar width: 0
XAxis mode: Wavelengths
Number of Pixels in Spectrum: 2048
>>>>>Begin Spectral Data<<<<<
223.165	-20.56
223.4	-20.56
223.635	-20.56
223.869	-16.56
224.104	-9.56
224.338	-6.56
224.573	-16.56
224.808	-16.56
225.042	-13.56
225.277	-0.56
225.511	-12.56
225.746	4.44
225.98	17.44
226.215	18.44
226.449	16.44
226.683	17.44
226.918	17.44
227.152	21.44
227.387	26.44
227.621	36.44
227.856	32.44
228.09	50.44
228.324	35.44
228.559	43.44
228.793	53.44
229.027	57.44
229.262	76.44
229.496	61.44
229.73	89.44
229.964	89.44
230.199	80.44
230.433	73.44
230.667	78.44
230.901	78.44
231.136	72.44
231.37	82.44
231.604	85.44
231.838	78.44
232.072	65.44
232.306	83.44
232.541	85.44
232.775	76.44
233.009	81.44
233.243	76.44
233.477	75.44
233.711	85.44
233.945	81.44
234.179	71.44
234.413	93.44
234.647	68.44
234.881	86.44
235.115	78.44
235.349	86.44
235.583	86.44
235.817	72.44
236.051	68.44
236.285	90.44
236.519	52.44
236.753	81.44
236.987	82.44
237.221	76.44
237.455	73.44
237.689	76.44
237.922	79.44
238.156	80.44
238.39	92.44
238.624	68.44
238.858	77.44
239.091	84.44
239.325	80.44
239.559	92.44
239.793	79.44
240.027	85.44
240.26	81.44
240.494	77.44
240.728	73.44
240.961	81.44
241.195	76.44
241.429	71.44
241.662	79.44
241.896	60.44
242.13	74.44
242.363	60.44
242.597	66.44
242.83	60.44
243.064	79.44
243.298	72.44
243.531	71.44
243.765	75.44
243.998	85.44
244.232	86.44
244.465	81.44
244.699	77.44
244.932	86.44
245.166	80.44
245.399	73.44
245.633	72.44
245.866	72.44
246.099	83.44
246.333	78.44
246.566	78.44
246.8	69.44
247.033	75.44
247.266	83.44
247.5	79.44
247.733	88.44
247.966	59.44
248.2	93.44
248.433	74.44
248.666	70.44
248.899	85.44
249.133	77.44
249.366	95.44
249.599	113.44
249.832	78.44
250.066	97.44
250.299	74.44
250.532	72.44
250.765	78.44
250.998	82.44
251.231	68.44
251.465	75.44
251.698	88.44
251.931	82.44
252.164	78.44
252.397	79.44
252.63	90.44
252.863	68.44
253.096	72.44
253.329	85.44
253.562	75.44
253.795	82.44
254.028	77.44
254.261	74.44
254.494	77.44
254.727	77.44
254.96	74.44
255.193	78.44
255.426	81.44
255.659	88.44
255.892	83.44
256.124	86.44
256.357	62.44
256.59	85.44
256.823	87.44
257.056	90.44
257.289	82.44
257.521	75.44
257.754	75.44
257.987	81.44
258.22	94.44
258.452	91.44
258.685	76.44
258.918	85.44
259.151	68.44
259.383	65.44
259.616	83.44
259.849	79.44
260.081	86.44
260.314	72.44
260.547	85.44
260.779	89.44
261.012	81.44
261.244	94.44
261.477	101.44
261.71	102.44
261.942	116.44
262.175	129.44
262.407	86.44
262.64	84.44
262.872	79.44
263.105	82.44
263.337	88.44
263.57	73.44
263.802	71.44
264.035	81.44
264.267	93.44
264.499	85.44
264.732	75.44
264.964	76.44
265.197	87.44
265.429	75.44
265.661	91.44
265.894	87.44
266.126	74.44
266.358	78.44
266.591	80.44
266.823	89.44
267.055	97.44
267.287	82.44
267.52	95.44
267.752	74.44
267.984	88.44
268.216	92.44
268.448	85.44
268.681	87.44
268.913	85.44
269.145	79.44
269.377	91.44
269.609	84.44
269.841	82.44
270.073	90.44
270.306	70.44
270.538	76.44
270.77	77.44
271.002	78.44
271.234	90.44
271.466	88.44
271.698	93.44
271.93	69.44
272.162	96.44
272.394	100.44
272.626	93.44
272.858	90.44
273.09	84.44
273.322	81.44
273.553	88.44
273.785	76.44
274.017	72.44
274.249	95.44
274.481	82.44
274.713	69.44
274.945	84.44
275.176	90.44
275.408	114.44
275.64	102.44
275.872	94.44
276.104	81.44
276.335	79.44
276.567	103.44
276.799	110.44
277.031	121.44
277.262	133.44
277.494	110.44
277.726	96.44
277.957	95.44
278.189	80.44
278.421	93.44
278.652	88.44
278.884	85.44
279.115	99.44
279.347	86.44
279.579	97.44
279.81	101.44
280.042	125.44
280.273	146.44
280.505	121.44
280.736	97.44
280.968	70.44
281.199	91.44
281.431	110.44
281.662	80.44
281.894	85.44
282.125	93.44
282.356	117.44
282.588	161.44
282.819	122.44
283.051	84.44
283.282	80.44
283.513	88.44
283.745	85.44
283.976	99.44
284.207	72.44
284.439	75.44
284.67	75.44
284.901	76.44
285.132	98.44
285.364	90.44
285.595	88.44
285.826	83.44
286.057	88.44
286.288	87.44
286.52	70.44
286.751	80.44
286.982	74.44
287.213	78.44
287.444	92.44
287.675	85.44
287.906	80.44
288.138	95.44
288.369	89.44
288.6	97.44
288.831	81.44
289.062	92.44
289.293	85.44
289.524	90.44
289.755	98.44
289.986	91.44
290.217	89.44
290.448	74.44
290.679	81.44
290.91	87.44
291.141	77.44
291.371	79.44
291.602	91.44
291.833	80.44
292.064	88.44
292.295	105.44
292.526	87.44
292.757	90.44
292.987	78.44
293.218	96.44
293.449	87.44
293.68	94.44
293.91	99.44
294.141	88.44
294.372	76.44
294.603	72.44
294.833	96.44
295.064	85.44
295.295	81.44
295.525	86.44
295.756	93.44
295.987	103.44
296.217	144.44
296.448	123.44
296.679	102.44
296.909	92.44
297.14	98.44
297.37	93.44
297.601	84.44
297.831	77.44
298.062	90.44
298.292	80.44
298.523	95.44
298.753	81.44
298.984	104.44
299.214	93.44
299.445	86.44
299.675	91.44
299.905	104.44
300.136	99.44
300.366	96.44
300.597	93.44
300.827	94.44
301.057	90.44
301.288	98.44
301.518	88.44
301.748	100.44
301.979	95.44
302.209	87.44
302.439	85.44
302.669	76.44
302.9	87.44
303.13	89.44
303.36	108.44
303.59	109.44
303.82	104.44
304.051	105.44
304.281	107.44
304.511	82.44
304.741	83.44
304.971	77.44
305.201	104.44
305.431	81.44
305.661	79.44
305.891	90.44
306.121	92.44
306.352	94.44
306.582	97.44
306.812	100.44
307.042	89.44
307.272	109.44
307.502	122.44
307.731	134.44
307.961	88.44
308.191	81.44
308.421	82.44
308.651	91.44
308.881	90.44
309.111	87.44
309.341	98.44
309.571	98.44
309.8	97.44
310.03	95.44
310.26	106.44
310.49	92.44
310.72	90.44
310.949	110.44
311.179	104.44
311.409	90.44
311.639	99.44
311.868	82.44
312.098	92.44
312.328	102.44
312.557	110.44
312.787	102.44
313.017	105.44
313.246	87.44
313.476	83.44
313.706	94.44
313.935	110.44
314.165	98.44
314.394	101.44
314.624	104.44
314.853	92.44
315.083	86.44
315.312	98.44
315.542	84.44
315.771	82.44
316.001	94.44
316.23	92.44
316.46	82.44
316.689	88.44
316.919	98.44
317.148	96.44
317.377	93.44
317.607	91.44
317.836	73.44
318.065	88.44
318.295	84.44
318.524	80.44
318.753	86.44
318.983	89.44
319.212	95.44
319.441	92.44
319.67	111.44
319.9	87.44
320.129	85.44
320.358	95.44
320.587	90.44
320.816	101.44
321.046	101.44
321.275	97.44
321.504	97.44
321.733	92.44
321.962	102.44
322.191	99.44
322.42	104.44
322.649	109.44
322.878	121.44
323.108	113.44
323.337	113.44
323.566	136.44
323.795	172.44
324.024	246.44
324.253	526.44
324.482	1116.44
324.71	2444.44
324.939	3288.44
325.168	1124.44
325.397	290.44
325.626	161.44
325.855	154.44
326.084	137.44
326.313	153.44
326.542	170.44
326.77	272.44
326.999	584.44
327.228	1316.44
327.457	2478.44
327.686	1958.44
327.914	516.44
328.143	340.44
328.372	373.44
328.6	250.44
328.829	141.44
329.058	150.44
329.287	148.44
329.515	130.44
329.744	141.44
329.972	268.44
330.201	481.44
330.43	723.44
330.658	346.44
330.887	178.44
331.115	156.44
331.344	108.44
331.572	101.44
331.801	118.44
332.03	113.44
332.258	93.44
332.486	90.44
332.715	105.44
332.943	103.44
333.172	89.44
333.4	108.44
333.629	129.44
333.857	163.44
334.085	246.44
334.314	479.44
334.542	859.44
334.771	834.44
334.999	245.44
335.227	126.44
335.455	104.44
335.684	107.44
335.912	102.44
336.14	113.44
336.369	102.44
336.597	116.44
336.825	101.44
337.053	86.44
337.281	80.44
337.51	93.44
337.738	91.44
337.966	89.44
338.194	98.44
338.422	113.44
338.65	90.44
338.878	106.44
339.106	94.44
339.334	84.44
339.562	90.44
339.79	88.44
340.018	94.44
340.246	99.44
340.474	110.44
340.702	85.44
340.93	93.44
341.158	85.44
341.386	103.44
341.614	103.44
341.842	88.44
342.07	76.44
342.298	104.44
342.526	91.44
342.754	95.44
342.981	95.44
343.209	78.44
343.437	105.44
343.665	75.44
343.893	72.44
344.12	89.44
344.348	90.44
344.576	99.44
344.804	87.44
345.031	89.44
345.259	95.44
345.487	92.44
345.714	102.44
345.942	83.44
346.17	95.44
346.397	92.44
346.625	92.44
346.853	93.44
347.08	83.44
347.308	96.44
347.535	92.44
347.763	111.44
347.99	105.44
348.218	117.44
348.445	116.44
348.673	105.44
348.9	95.44
349.128	76.44
349.355	81.44
349.583	90.44
349.81	87.44
350.037	94.44
350.265	84.44
350.492	86.44
350.72	93.44
350.947	95.44
351.174	106.44
351.402	125.44
351.629	97.44
351.856	105.44
352.083	97.44
352.311	99.44
352.538	95.44
352.765	105.44
352.992	115.44
353.22	107.44
353.447	110.44
353.674	98.44
353.901	97.44
354.128	107.44
354.355	97.44
354.583	98.44
354.81	92.44
355.037	99.44
355.264	98.44
355.491	89.44
355.718	81.44
355.945	97.44
356.172	97.44
356.399	97.44
356.626	103.44
356.853	93.44
357.08	103.44
357.307	87.44
357.534	86.44
357.761	85.44
357.988	99.44
358.215	99.44
358.441	89.44
358.668	98.44
358.895	104.44
359.122	80.44
359.349	96.44
359.576	78.44
359.802	104.44
360.029	109.44
360.256	135.44
360.483	104.44
360.709	94.44
360.936	98.44
361.163	89.44
361.39	101.44
361.616	97.44
361.843	103.44
362.07	93.44
362.296	100.44
362.523	93.44
362.749	78.44
362.976	100.44
363.203	90.44
363.429	82.44
363.656	83.44
363.882	84.44
364.109	91.44
364.335	89.44
364.562	89.44
364.788	95.44
365.015	89.44
365.241	102.44
365.468	99.44
365.694	107.44
365.92	106.44
366.147	102.44
366.373	95.44
366.599	102.44
366.826	92.44
367.052	84.44
367.278	82.44
367.505	90.44
367.731	94.44
367.957	99.44
368.184	94.44
368.41	105.44
368.636	97.44
368.862	120.44
369.089	114.44
369.315	92.44
369.541	90.44
369.767	65.44
369.993	88.44
370.219	94.44
370.445	83.44
370.672	84.44
370.898	87.44
371.124	84.44
371.35	100.44
371.576	74.44
371.802	93.44
372.028	98.44
372.254	88.44
372.48	82.44
372.706	102.44
372.932	88.44
373.158	81.44
373.384	88.44
373.61	89.44
373.835	85.44
374.061	87.44
374.287	87.44
374.513	77.44
374.739	92.44
374.965	93.44
375.191	86.44
375.416	91.44
375.642	89.44
375.868	89.44
376.094	88.44
376.319	92.44
376.545	97.44
376.771	88.44
376.997	98.44
377.222	89.44
377.448	100.44
377.674	88.44
377.899	90.44
378.125	91.44
378.35	78.44
378.576	95.44
378.802	106.44
379.027	90.44
379.253	95.44
379.478	84.44
379.704	98.44
379.929	100.44
380.155	106.44
380.38	94.44
380.606	89.44
380.831	95.44
381.057	82.44
381.282	94.44
381.507	111.44
381.733	104.44
381.958	105.44
382.184	106.44
382.409	101.44
382.634	106.44
382.86	93.44
383.085	96.44
383.31	95.44
383.535	84.44
383.761	106.44
383.986	104.44
384.211	106.44
384.436	99.44
384.662	91.44
384.887	104.44
385.112	107.44
385.337	108.44
385.562	118.44
385.787	107.44
386.013	112.44
386.238	114.44
386.463	109.44
386.688	124.44
386.913	103.44
387.138	116.44
387.363	101.44
387.588	97.44
387.813	113.44
388.038	108.44
388.263	113.44
388.488	117.44
388.713	99.44
388.938	105.44
389.163	97.44
389.387	80.44
389.612	85.44
389.837	88.44
390.062	88.44
390.287	86.44
390.512	68.44
390.736	74.44
390.961	89.44
391.186	101.44
391.411	86.44
391.636	83.44
391.86	88.44
392.085	91.44
392.31	97.44
392.534	85.44
392.759	89.44
392.984	80.44
393.208	101.44
393.433	94.44
393.658	95.44
393.882	106.44
394.107	81.44
394.331	88.44
394.556	99.44
394.78	85.44
395.005	84.44
395.229	89.44
395.454	87.44
395.678	89.44
395.903	100.44
396.127	85.44
396.352	98.44
396.576	76.44
396.801	92.44
397.025	89.44
397.249	101.44
397.474	88.44
397.698	89.44
397.922	85.44
398.147	85.44
398.371	95.44
398.595	95.44
398.82	79.44
399.044	69.44
399.268	81.44
399.492	98.44
399.717	82.44
399.941	88.44
400.165	81.44
400.389	93.44
400.613	92.44
400.837	90.44
401.062	83.44
401.286	92.44
401.51	75.44
401.734	85.44
401.958	101.44
402.182	112.44
402.406	159.44
402.63	138.44
402.854	88.44
403.078	88.44
403.302	71.44
403.526	100.44
403.75	81.44
403.974	82.44
404.198	90.44
404.422	97.44
404.645	105.44
404.869	98.44
405.093	108.44
405.317	129.44
405.541	127.44
405.765	117.44
405.988	126.44
406.212	171.44
406.436	248.44
406.66	178.44
406.883	126.44
407.107	100.44
407.331	102.44
407.555	99.44
407.778	101.44
408.002	83.44
408.226	95.44
408.449	79.44
408.673	92.44
408.896	100.44
409.12	90.44
409.344	91.44
409.567	94.44
409.791	89.44
410.014	96.44
410.238	108.44
410.461	103.44
410.685	80.44
410.908	93.44
411.132	111.44
411.355	108.44
411.578	98.44
411.802	107.44
412.025	93.44
412.249	97.44
412.472	119.44
412.695	117.44
412.919	113.44
413.142	99.44
413.365	91.44
413.589	88.44
413.812	91.44
414.035	89.44
414.258	95.44
414.482	96.44
414.705	82.44
414.928	96.44
415.151	88.44
415.374	102.44
415.597	91.44
415.821	85.44
416.044	87.44
416.267	89.44
416.49	74.44
416.713	84.44
416.936	89.44
417.159	100.44
417.382	90.44
417.605	99.44
417.828	109.44
418.051	92.44
418.274	84.44
418.497	77.44
418.72	88.44
418.943	76.44
419.166	84.44
419.389	101.44
419.611	84.44
419.834	83.44
420.057	87.44
420.28	88.44
420.503	86.44
420.726	79.44
420.948	97.44
421.171	89.44
421.394	102.44
421.617	102.44
421.839	90.44
422.062	80.44
422.285	103.44
422.507	108.44
422.73	110.44
422.953	96.44
423.175	94.44
423.398	86.44
423.621	89.44
423.843	100.44
424.066	95.44
424.288	106.44
424.511	86.44
424.733	101.44
424.956	105.44
425.178	101.44
425.401	98.44
425.623	102.44
425.846	91.44
426.068	87.44
426.291	88.44
426.513	88.44
426.735	95.44
426.958	80.44
427.18	121.44
427.402	156.44
427.625	231.44
427.847	209.44
428.069	197.44
428.292	114.44
428.514	89.44
428.736	85.44
428.958	94.44
429.181	90.44
429.403	79.44
429.625	85.44
429.847	97.44
430.069	102.44
430.292	97.44
430.514	101.44
430.736	97.44
430.958	89.44
431.18	87.44
431.402	90.44
431.624	89.44
431.846	84.44
432.068	91.44
432.29	87.44
432.512	102.44
432.734	89.44
432.956	95.44
433.178	105.44
433.4	101.44
433.622	86.44
433.844	96.44
434.066	77.44
434.287	90.44
434.509	90.44
434.731	100.44
434.953	88.44
435.175	84.44
435.397	92.44
435.618	75.44
435.84	113.44
436.062	138.44
436.284	102.44
436.505	118.44
436.727	112.44
436.949	102.44
437.17	96.44
437.392	89.44
437.614	93.44
437.835	104.44
438.057	135.44
438.278	109.44
438.5	116.44
438.721	124.44
438.943	106.44
439.165	82.44
439.386	90.44
439.608	84.44
439.829	121.44
440.05	136.44
440.272	182.44
440.493	94.44
440.715	94.44
440.936	91.44
441.158	100.44
441.379	94.44
441.6	104.44
441.822	86.44
442.043	97.44
442.264	111.44
442.486	125.44
442.707	104.44
442.928	119.44
443.149	155.44
443.371	153.44
443.592	116.44
443.813	137.44
444.034	116.44
444.255	104.44
444.476	86.44
444.698	94.44
444.919	98.44
445.14	127.44
445.361	126.44
445.582	120.44
445.803	148.44
446.024	165.44
446.245	167.44
446.466	124.44
446.687	86.44
446.908	97.44
447.129	93.44
447.35	100.44
447.571	93.44
447.792	102.44
448.013	107.44
448.234	106.44
448.455	108.44
448.675	126.44
448.896	127.44
449.117	106.44
449.338	117.44
449.559	148.44
449.779	145.44
450	108.44
450.221	96.44
450.442	90.44
450.662	106.44
450.883	124.44
451.104	125.44
451.324	96.44
451.545	94.44
451.766	94.44
451.986	91.44
452.207	80.44
452.428	104.44
452.648	94.44
452.869	125.44
453.089	127.44
453.31	114.44
453.53	91.44
453.751	96.44
453.971	111.44
454.192	116.44
454.412	83.44
454.633	99.44
454.853	87.44
455.073	79.44
455.294	91.44
455.514	98.44
455.734	91.44
455.955	93.44
456.175	73.44
456.395	88.44
456.616	88.44
456.836	71.44
457.056	95.44
457.276	84.44
457.497	79.44
457.717	82.44
457.937	87.44
458.157	89.44
458.377	95.44
458.598	106.44
458.818	184.44
459.038	191.44
459.258	121.44
459.478	91.44
459.698	95.44
459.918	90.44
460.138	85.44
460.358	101.44
460.578	78.44
460.798	101.44
461.018	73.44
461.238	83.44
461.458	98.44
461.678	91.44
461.898	83.44
462.118	83.44
462.338	92.44
462.558	92.44
462.777	102.44
462.997	90.44
463.217	97.44
463.437	94.44
463.657	97.44
463.876	103.44
464.096	112.44
464.316	104.44
464.536	93.44
464.755	85.44
464.975	113.44
465.195	192.44
465.414	174.44
465.634	100.44
465.854	101.44
466.073	94.44
466.293	72.44
466.512	84.44
466.732	89.44
466.951	93.44
467.171	98.44
467.391	108.44
467.61	120.44
467.829	133.44
468.049	305.44
468.268	437.44
468.488	156.44
468.707	114.44
468.927	82.44
469.146	97.44
469.365	93.44
469.585	85.44
469.804	88.44
470.023	93.44
470.243	103.44
470.462	95.44
470.681	109.44
470.901	92.44
471.12	90.44
471.339	103.44
471.558	105.44
471.777	115.44
471.997	165.44
472.216	560.44
472.435	1272.44
472.654	338.44
472.873	127.44
473.092	97.44
473.311	88.44
473.53	75.44
473.749	92.44
473.968	92.44
474.187	111.44
474.406	110.44
474.625	101.44
474.844	103.44
475.063	96.44
475.282	77.44
475.501	97.44
475.72	105.44
475.939	95.44
476.158	85.44
476.377	96.44
476.596	85.44
476.814	92.44
477.033	93.44
477.252	73.44
477.471	92.44
477.69	80.44
477.908	79.44
478.127	97.44
478.346	82.44
478.564	109.44
478.783	94.44
479.002	92.44
479.22	91.44
479.439	101.44
479.658	117.44
479.876	106.44
480.095	99.44
480.313	110.44
480.532	135.44
480.751	190.44
480.969	532.44
481.188	2187.44
481.406	1298.44
481.624	231.44
481.843	110.44
482.061	83.44
482.28	105.44
482.498	87.44
482.717	88.44
482.935	82.44
483.153	96.44
483.372	84.44
483.59	80.44
483.808	80.44
484.027	78.44
484.245	87.44
484.463	78.44
484.681	88.44
484.9	100.44
485.118	90.44
485.336	97.44
485.554	100.44
485.772	106.44
485.99	104.44
486.209	103.44
486.427	103.44
486.645	103.44
486.863	109.44
487.081	104.44
487.299	97.44
487.517	103.44
487.735	80.44
487.953	89.44
488.171	91.44
488.389	108.44
488.607	89.44
488.825	103.44
489.043	98.44
489.261	102.44
489.479	92.44
489.696	93.44
489.914	86.44
490.132	96.44
490.35	96.44
490.568	98.44
490.786	78.44
491.003	90.44
491.221	96.44
491.439	96.44
491.657	89.44
491.874	84.44
492.092	101.44
492.31	90.44
492.527	86.44
492.745	93.44
492.963	85.44
493.18	87.44
493.398	95.44
493.615	95.44
493.833	93.44
494.05	81.44
494.268	93.44
494.485	89.44
494.703	82.44
494.92	86.44
495.138	80.44
495.355	90.44
495.573	98.44
495.79	103.44
496.008	91.44
496.225	95.44
496.442	97.44
496.66	92.44
496.877	91.44
497.094	92.44
497.312	90.44
497.529	86.44
497.746	88.44
497.963	101.44
498.181	88.44
498.398	114.44
498.615	107.44
498.832	101.44
499.049	85.44
499.267	90.44
499.484	94.44
499.701	86.44
499.918	94.44
500.135	86.44
500.352	82.44
500.569	86.44
500.786	96.44
501.003	84.44
501.22	86.44
501.437	79.44
501.654	86.44
501.871	118.44
502.088	96.44
502.305	96.44
502.522	85.44
502.739	90.44
502.956	90.44
503.172	97.44
503.389	93.44
503.606	116.44
503.823	95.44
504.04	93.44
504.256	94.44
504.473	89.44
504.69	93.44
504.907	87.44
505.123	79.44
505.34	81.44
505.557	96.44
505.773	88.44
505.99	81.44
506.207	86.44
506.423	96.44
506.64	86.44
506.856	92.44
507.073	81.44
507.289	101.44
507.506	91.44
507.722	114.44
507.939	116.44
508.155	108.44
508.372	86.44
508.588	95.44
508.805	93.44
509.021	94.44
509.238	91.44
509.454	103.44
509.67	95.44
509.887	94.44
510.103	123.44
510.319	218.44
510.536	751.44
510.752	2613.44
510.968	726.44
511.184	175.44
511.401	98.44
511.617	104.44
511.833	92.44
512.049	92.44
512.265	74.44
512.481	85.44
512.698	84.44
512.914	90.44
513.13	90.44
513.346	102.44
513.562	90.44
513.778	101.44
513.994	88.44
514.21	109.44
514.426	124.44
