Data from Circ_1997_H10_HRD10591_00019.txt Node
Date: Wed Jan 03 11:29:31 EST 2024
User: Yrep
Spectrometer: HR+D1059
Trigger mode: 1
Integration Time (sec): 1.000000E-1
Scans to average: 1
Electric dark correction enabled: true
Nonlinearity correction enabled: false
Boxcar width: 0
XAxis mode: Wavelengths
Number of Pixels in Spectrum: 2048
>>>>>Begin Spectral Data<<<<<
223.165	-15.44
223.4	-15.44
223.635	-15.44
223.869	-20.44
224.104	-20.44
224.338	-14.44
224.573	-17.44
224.808	-12.44
225.042	-3.44
225.277	-11.44
225.511	6.56
225.746	4.56
225.98	4.56
226.215	9.56
226.449	21.56
226.683	23.56
226.918	19.56
227.152	25.56
227.387	32.56
227.621	42.56
227.856	40.56
228.09	46.56
228.324	65.56
228.559	60.56
228.793	51.56
229.027	63.56
229.262	67.56
229.496	80.56
229.73	95.56
229.964	82.56
230.199	82.56
230.433	73.56
230.667	72.56
230.901	83.56
231.136	76.56
231.37	89.56
231.604	93.56
231.838	90.56
232.072	86.56
232.306	92.56
232.541	87.56
232.775	65.56
233.009	85.56
233.243	78.56
233.477	94.56
233.711	82.56
233.945	80.56
234.179	84.56
234.413	95.56
234.647	68.56
234.881	78.56
235.115	83.56
235.349	89.56
235.583	80.56
235.817	78.56
236.051	76.56
236.285	93.56
236.519	78.56
236.753	73.56
236.987	91.56
237.221	84.56
237.455	88.56
237.689	72.56
237.922	82.56
238.156	75.56
238.39	88.56
238.624	80.56
238.858	79.56
239.091	86.56
239.325	66.56
239.559	79.56
239.793	78.56
240.027	74.56
240.26	74.56
240.494	83.56
240.728	82.56
240.961	74.56
241.195	65.56
241.429	58.56
241.662	77.56
241.896	67.56
242.13	83.56
242.363	73.56
242.597	79.56
242.83	91.56
243.064	98.56
243.298	80.56
243.531	72.56
243.765	78.56
243.998	91.56
244.232	90.56
244.465	96.56
244.699	72.56
244.932	76.56
245.166	63.56
245.399	86.56
245.633	91.56
245.866	83.56
246.099	89.56
246.333	89.56
246.566	79.56
246.8	70.56
247.033	67.56
247.266	72.56
247.5	78.56
247.733	82.56
247.966	82.56
248.2	81.56
248.433	91.56
248.666	85.56
248.899	96.56
249.133	93.56
249.366	104.56
249.599	99.56
249.832	72.56
250.066	90.56
250.299	85.56
250.532	91.56
250.765	73.56
250.998	86.56
251.231	75.56
251.465	75.56
251.698	83.56
251.931	87.56
252.164	82.56
252.397	68.56
252.63	80.56
252.863	84.56
253.096	99.56
253.329	91.56
253.562	78.56
253.795	84.56
254.028	74.56
254.261	90.56
254.494	86.56
254.727	96.56
254.96	88.56
255.193	83.56
255.426	78.56
255.659	81.56
255.892	98.56
256.124	80.56
256.357	76.56
256.59	75.56
256.823	97.56
257.056	75.56
257.289	78.56
257.521	70.56
257.754	80.56
257.987	74.56
258.22	105.56
258.452	99.56
258.685	99.56
258.918	87.56
259.151	70.56
259.383	91.56
259.616	78.56
259.849	81.56
260.081	85.56
260.314	98.56
260.547	93.56
260.779	75.56
261.012	99.56
261.244	105.56
261.477	96.56
261.71	87.56
261.942	126.56
262.175	118.56
262.407	89.56
262.64	90.56
262.872	87.56
263.105	68.56
263.337	90.56
263.57	68.56
263.802	87.56
264.035	90.56
264.267	78.56
264.499	76.56
264.732	109.56
264.964	89.56
265.197	78.56
265.429	97.56
265.661	87.56
265.894	67.56
266.126	78.56
266.358	91.56
266.591	93.56
266.823	79.56
267.055	84.56
267.287	74.56
267.52	82.56
267.752	101.56
267.984	88.56
268.216	70.56
268.448	88.56
268.681	92.56
268.913	87.56
269.145	97.56
269.377	67.56
269.609	81.56
269.841	78.56
270.073	99.56
270.306	96.56
270.538	93.56
270.77	89.56
271.002	96.56
271.234	81.56
271.466	88.56
271.698	94.56
271.93	89.56
272.162	96.56
272.394	86.56
272.626	84.56
272.858	76.56
273.09	98.56
273.322	93.56
273.553	90.56
273.785	85.56
274.017	87.56
274.249	79.56
274.481	86.56
274.713	96.56
274.945	83.56
275.176	90.56
275.408	100.56
275.64	97.56
275.872	94.56
276.104	92.56
276.335	95.56
276.567	105.56
276.799	127.56
277.031	130.56
277.262	138.56
277.494	114.56
277.726	81.56
277.957	77.56
278.189	94.56
278.421	98.56
278.652	90.56
278.884	98.56
279.115	84.56
279.347	82.56
279.579	87.56
279.81	123.56
280.042	135.56
280.273	184.56
280.505	134.56
280.736	102.56
280.968	86.56
281.199	88.56
281.431	78.56
281.662	91.56
281.894	90.56
282.125	97.56
282.356	115.56
282.588	144.56
282.819	125.56
283.051	84.56
283.282	96.56
283.513	83.56
283.745	92.56
283.976	83.56
284.207	82.56
284.439	94.56
284.67	100.56
284.901	81.56
285.132	87.56
285.364	93.56
285.595	85.56
285.826	103.56
286.057	83.56
286.288	76.56
286.52	86.56
286.751	91.56
286.982	91.56
287.213	94.56
287.444	87.56
287.675	91.56
287.906	78.56
288.138	89.56
288.369	96.56
288.6	90.56
288.831	98.56
289.062	96.56
289.293	86.56
289.524	93.56
289.755	78.56
289.986	81.56
290.217	83.56
290.448	84.56
290.679	97.56
290.91	86.56
291.141	92.56
291.371	78.56
291.602	90.56
291.833	90.56
292.064	75.56
292.295	76.56
292.526	97.56
292.757	89.56
292.987	86.56
293.218	91.56
293.449	87.56
293.68	91.56
293.91	106.56
294.141	98.56
294.372	93.56
294.603	88.56
294.833	86.56
295.064	95.56
295.295	99.56
295.525	96.56
295.756	82.56
295.987	111.56
296.217	145.56
296.448	131.56
296.679	107.56
296.909	96.56
297.14	97.56
297.37	73.56
297.601	95.56
297.831	82.56
298.062	92.56
298.292	91.56
298.523	84.56
298.753	85.56
298.984	103.56
299.214	95.56
299.445	93.56
299.675	99.56
299.905	110.56
300.136	93.56
300.366	95.56
300.597	88.56
300.827	95.56
301.057	97.56
301.288	107.56
301.518	106.56
301.748	86.56
301.979	107.56
302.209	94.56
302.439	99.56
302.669	78.56
302.9	74.56
303.13	98.56
303.36	103.56
303.59	122.56
303.82	124.56
304.051	111.56
304.281	96.56
304.511	91.56
304.741	90.56
304.971	93.56
305.201	83.56
305.431	99.56
305.661	91.56
305.891	90.56
306.121	100.56
306.352	119.56
306.582	111.56
306.812	104.56
307.042	98.56
307.272	131.56
307.502	129.56
307.731	157.56
307.961	129.56
308.191	106.56
308.421	81.56
308.651	102.56
308.881	101.56
309.111	96.56
309.341	94.56
309.571	97.56
309.8	94.56
310.03	96.56
310.26	96.56
310.49	91.56
310.72	104.56
310.949	107.56
311.179	106.56
311.409	98.56
311.639	98.56
311.868	104.56
312.098	100.56
312.328	105.56
312.557	107.56
312.787	112.56
313.017	111.56
313.246	109.56
313.476	104.56
313.706	100.56
313.935	81.56
314.165	99.56
314.394	102.56
314.624	102.56
314.853	100.56
315.083	115.56
315.312	81.56
315.542	95.56
315.771	89.56
316.001	87.56
316.23	92.56
316.46	88.56
316.689	95.56
316.919	96.56
317.148	108.56
317.377	108.56
317.607	82.56
317.836	86.56
318.065	92.56
318.295	99.56
318.524	90.56
318.753	99.56
318.983	92.56
319.212	99.56
319.441	103.56
319.67	108.56
319.9	101.56
320.129	92.56
320.358	95.56
320.587	102.56
320.816	96.56
321.046	114.56
321.275	96.56
321.504	100.56
321.733	98.56
321.962	116.56
322.191	115.56
322.42	121.56
322.649	123.56
322.878	125.56
323.108	123.56
323.337	129.56
323.566	153.56
323.795	176.56
324.024	243.56
324.253	552.56
324.482	1240.56
324.71	2675.56
324.939	3573.56
325.168	1222.56
325.397	317.56
325.626	174.56
325.855	163.56
326.084	140.56
326.313	170.56
326.542	188.56
326.77	271.56
326.999	662.56
327.228	1451.56
327.457	2693.56
327.686	2118.56
327.914	582.56
328.143	388.56
328.372	460.56
328.6	272.56
328.829	170.56
329.058	166.56
329.287	149.56
329.515	142.56
329.744	187.56
329.972	343.56
330.201	651.56
330.43	916.56
330.658	430.56
330.887	221.56
331.115	135.56
331.344	110.56
331.572	122.56
331.801	114.56
332.03	127.56
332.258	115.56
332.486	91.56
332.715	109.56
332.943	109.56
333.172	111.56
333.4	112.56
333.629	151.56
333.857	186.56
334.085	305.56
334.314	636.56
334.542	1170.56
334.771	1080.56
334.999	294.56
335.227	141.56
335.455	124.56
335.684	99.56
335.912	97.56
336.14	103.56
336.369	92.56
336.597	113.56
336.825	98.56
337.053	87.56
337.281	96.56
337.51	98.56
337.738	102.56
337.966	114.56
338.194	97.56
338.422	111.56
338.65	100.56
338.878	94.56
339.106	99.56
339.334	100.56
339.562	88.56
339.79	83.56
340.018	97.56
340.246	94.56
340.474	81.56
340.702	92.56
340.93	82.56
341.158	102.56
341.386	111.56
341.614	100.56
341.842	96.56
342.07	88.56
342.298	100.56
342.526	81.56
342.754	90.56
342.981	89.56
343.209	93.56
343.437	90.56
343.665	81.56
343.893	84.56
344.12	92.56
344.348	104.56
344.576	97.56
344.804	98.56
345.031	102.56
345.259	112.56
345.487	108.56
345.714	82.56
345.942	102.56
346.17	97.56
346.397	106.56
346.625	98.56
346.853	100.56
347.08	92.56
347.308	98.56
347.535	111.56
347.763	97.56
347.99	98.56
348.218	113.56
348.445	105.56
348.673	115.56
348.9	99.56
349.128	92.56
349.355	86.56
349.583	95.56
349.81	80.56
350.037	103.56
350.265	102.56
350.492	94.56
350.72	90.56
350.947	99.56
351.174	117.56
351.402	125.56
351.629	113.56
351.856	101.56
352.083	100.56
352.311	99.56
352.538	117.56
352.765	110.56
352.992	97.56
353.22	100.56
353.447	112.56
353.674	108.56
353.901	108.56
354.128	92.56
354.355	90.56
354.583	104.56
354.81	96.56
355.037	93.56
355.264	106.56
355.491	116.56
355.718	101.56
355.945	86.56
356.172	100.56
356.399	98.56
356.626	76.56
356.853	91.56
357.08	92.56
357.307	99.56
357.534	88.56
357.761	82.56
357.988	83.56
358.215	94.56
358.441	101.56
358.668	106.56
358.895	73.56
359.122	97.56
359.349	90.56
359.576	102.56
359.802	107.56
360.029	122.56
360.256	111.56
360.483	86.56
360.709	93.56
360.936	102.56
361.163	100.56
361.39	106.56
361.616	99.56
361.843	90.56
362.07	95.56
362.296	96.56
362.523	108.56
362.749	98.56
362.976	92.56
363.203	100.56
363.429	107.56
363.656	98.56
363.882	94.56
364.109	80.56
364.335	86.56
364.562	108.56
364.788	93.56
365.015	101.56
365.241	108.56
365.468	105.56
365.694	112.56
365.92	93.56
366.147	86.56
366.373	96.56
366.599	93.56
366.826	87.56
367.052	92.56
367.278	86.56
367.505	90.56
367.731	91.56
367.957	91.56
368.184	88.56
368.41	103.56
368.636	111.56
368.862	138.56
369.089	121.56
369.315	108.56
369.541	88.56
369.767	91.56
369.993	95.56
370.219	99.56
370.445	96.56
370.672	103.56
370.898	88.56
371.124	95.56
371.35	94.56
371.576	91.56
371.802	75.56
372.028	84.56
372.254	86.56
372.48	93.56
372.706	92.56
372.932	100.56
373.158	80.56
373.384	82.56
373.61	95.56
373.835	82.56
374.061	102.56
374.287	84.56
374.513	85.56
374.739	87.56
374.965	82.56
375.191	80.56
375.416	104.56
375.642	90.56
375.868	83.56
376.094	104.56
376.319	86.56
376.545	98.56
376.771	85.56
376.997	89.56
377.222	90.56
377.448	95.56
377.674	87.56
377.899	95.56
378.125	86.56
378.35	76.56
378.576	94.56
378.802	81.56
379.027	96.56
379.253	80.56
379.478	97.56
379.704	95.56
379.929	94.56
380.155	88.56
380.38	109.56
380.606	91.56
380.831	97.56
381.057	95.56
381.282	107.56
381.507	97.56
381.733	91.56
381.958	100.56
382.184	100.56
382.409	102.56
382.634	98.56
382.86	92.56
383.085	97.56
383.31	102.56
383.535	88.56
383.761	100.56
383.986	89.56
384.211	103.56
384.436	100.56
384.662	99.56
384.887	109.56
385.112	92.56
385.337	113.56
385.562	113.56
385.787	109.56
386.013	111.56
386.238	112.56
386.463	110.56
386.688	106.56
386.913	125.56
387.138	122.56
387.363	99.56
387.588	112.56
387.813	114.56
388.038	108.56
388.263	113.56
388.488	109.56
388.713	95.56
388.938	96.56
389.163	96.56
389.387	93.56
389.612	103.56
389.837	88.56
390.062	99.56
390.287	88.56
390.512	94.56
390.736	104.56
390.961	106.56
391.186	103.56
391.411	107.56
391.636	105.56
391.86	93.56
392.085	83.56
392.31	89.56
392.534	90.56
392.759	99.56
392.984	85.56
393.208	90.56
393.433	97.56
393.658	97.56
393.882	95.56
394.107	95.56
394.331	86.56
394.556	72.56
394.78	85.56
395.005	86.56
395.229	96.56
395.454	82.56
395.678	80.56
395.903	88.56
396.127	96.56
396.352	82.56
396.576	90.56
396.801	97.56
397.025	74.56
397.249	102.56
397.474	85.56
397.698	82.56
397.922	89.56
398.147	89.56
398.371	78.56
398.595	74.56
398.82	74.56
399.044	75.56
399.268	103.56
399.492	77.56
399.717	100.56
399.941	79.56
400.165	106.56
400.389	96.56
400.613	95.56
400.837	91.56
401.062	68.56
401.286	80.56
401.51	94.56
401.734	83.56
401.958	98.56
402.182	125.56
402.406	171.56
402.63	141.56
402.854	103.56
403.078	99.56
403.302	87.56
403.526	90.56
403.75	98.56
403.974	90.56
404.198	94.56
404.422	93.56
404.645	89.56
404.869	94.56
405.093	94.56
405.317	130.56
405.541	124.56
405.765	117.56
405.988	128.56
406.212	184.56
406.436	265.56
406.66	157.56
406.883	120.56
407.107	110.56
407.331	91.56
407.555	111.56
407.778	101.56
408.002	91.56
408.226	77.56
408.449	86.56
408.673	87.56
408.896	90.56
409.12	102.56
409.344	89.56
409.567	76.56
409.791	96.56
410.014	88.56
410.238	88.56
410.461	100.56
410.685	104.56
410.908	113.56
411.132	106.56
411.355	118.56
411.578	102.56
411.802	90.56
412.025	98.56
412.249	110.56
412.472	107.56
412.695	134.56
412.919	106.56
413.142	95.56
413.365	102.56
413.589	101.56
413.812	76.56
414.035	101.56
414.258	87.56
414.482	96.56
414.705	100.56
414.928	90.56
415.151	86.56
415.374	95.56
415.597	95.56
415.821	99.56
416.044	101.56
416.267	91.56
416.49	98.56
416.713	109.56
416.936	93.56
417.159	86.56
417.382	83.56
417.605	100.56
417.828	99.56
418.051	93.56
418.274	93.56
418.497	81.56
418.72	90.56
418.943	83.56
419.166	86.56
419.389	90.56
419.611	84.56
419.834	91.56
420.057	89.56
420.28	106.56
420.503	100.56
420.726	82.56
420.948	102.56
421.171	97.56
421.394	92.56
421.617	92.56
421.839	102.56
422.062	103.56
422.285	80.56
422.507	109.56
422.73	106.56
422.953	86.56
423.175	89.56
423.398	91.56
423.621	96.56
423.843	97.56
424.066	83.56
424.288	81.56
424.511	103.56
424.733	103.56
424.956	106.56
425.178	106.56
425.401	117.56
425.623	99.56
425.846	107.56
426.068	96.56
426.291	94.56
426.513	78.56
426.735	100.56
426.958	107.56
427.18	113.56
427.402	163.56
427.625	240.56
427.847	235.56
428.069	231.56
428.292	122.56
428.514	84.56
428.736	84.56
428.958	82.56
429.181	83.56
429.403	96.56
429.625	89.56
429.847	87.56
430.069	97.56
430.292	102.56
430.514	67.56
430.736	85.56
430.958	72.56
431.18	76.56
431.402	84.56
431.624	81.56
431.846	84.56
432.068	90.56
432.29	97.56
432.512	80.56
432.734	77.56
432.956	105.56
433.178	99.56
433.4	100.56
433.622	96.56
433.844	90.56
434.066	84.56
434.287	89.56
434.509	87.56
434.731	97.56
434.953	90.56
435.175	93.56
435.397	106.56
435.618	84.56
435.84	107.56
436.062	160.56
436.284	139.56
436.505	119.56
436.727	114.56
436.949	87.56
437.17	81.56
437.392	93.56
437.614	104.56
437.835	115.56
438.057	138.56
438.278	134.56
438.5	121.56
438.721	154.56
438.943	110.56
439.165	100.56
439.386	97.56
439.608	102.56
439.829	99.56
440.05	138.56
440.272	189.56
440.493	107.56
440.715	78.56
440.936	90.56
441.158	90.56
441.379	87.56
441.6	109.56
441.822	108.56
442.043	96.56
442.264	125.56
442.486	112.56
442.707	113.56
442.928	115.56
443.149	151.56
443.371	152.56
443.592	107.56
443.813	137.56
444.034	104.56
444.255	92.56
444.476	88.56
444.698	97.56
444.919	76.56
445.14	127.56
445.361	144.56
445.582	119.56
445.803	192.56
446.024	162.56
446.245	172.56
446.466	120.56
446.687	98.56
446.908	93.56
447.129	89.56
447.35	85.56
447.571	88.56
447.792	95.56
448.013	109.56
448.234	114.56
448.455	112.56
448.675	129.56
448.896	137.56
449.117	111.56
449.338	128.56
449.559	155.56
449.779	156.56
450	106.56
450.221	95.56
450.442	88.56
450.662	95.56
450.883	116.56
451.104	125.56
451.324	107.56
451.545	102.56
451.766	96.56
451.986	86.56
452.207	91.56
452.428	96.56
452.648	96.56
452.869	113.56
453.089	130.56
453.31	123.56
453.53	105.56
453.751	92.56
453.971	103.56
454.192	105.56
454.412	98.56
454.633	75.56
454.853	93.56
455.073	91.56
455.294	85.56
455.514	99.56
455.734	91.56
455.955	79.56
456.175	78.56
456.395	86.56
456.616	88.56
456.836	90.56
457.056	87.56
457.276	88.56
457.497	98.56
457.717	79.56
457.937	92.56
458.157	92.56
458.377	86.56
458.598	122.56
458.818	177.56
459.038	193.56
459.258	138.56
459.478	82.56
459.698	94.56
459.918	66.56
460.138	94.56
460.358	86.56
460.578	89.56
460.798	88.56
461.018	97.56
461.238	82.56
461.458	95.56
461.678	88.56
461.898	89.56
462.118	84.56
462.338	85.56
462.558	88.56
462.777	82.56
462.997	110.56
463.217	114.56
463.437	86.56
463.657	78.56
463.876	82.56
464.096	91.56
464.316	99.56
464.536	94.56
464.755	106.56
464.975	101.56
465.195	185.56
465.414	195.56
465.634	104.56
465.854	100.56
466.073	92.56
466.293	94.56
466.512	95.56
466.732	84.56
466.951	92.56
467.171	98.56
467.391	96.56
467.61	127.56
467.829	162.56
468.049	369.56
468.268	522.56
468.488	166.56
468.707	96.56
468.927	86.56
469.146	99.56
469.365	86.56
469.585	94.56
469.804	108.56
470.023	110.56
470.243	106.56
470.462	120.56
470.681	120.56
470.901	90.56
471.12	94.56
471.339	122.56
471.558	110.56
471.777	129.56
471.997	211.56
472.216	722.56
472.435	1567.56
472.654	387.56
472.873	129.56
473.092	96.56
473.311	98.56
473.53	97.56
473.749	103.56
473.968	101.56
474.187	120.56
474.406	99.56
474.625	88.56
474.844	103.56
475.063	94.56
475.282	94.56
475.501	90.56
475.72	74.56
475.939	98.56
476.158	91.56
476.377	80.56
476.596	97.56
476.814	93.56
477.033	86.56
477.252	92.56
477.471	89.56
477.69	92.56
477.908	102.56
478.127	90.56
478.346	88.56
478.564	98.56
478.783	99.56
479.002	123.56
479.22	100.56
479.439	102.56
479.658	135.56
479.876	114.56
480.095	98.56
480.313	106.56
480.532	140.56
480.751	223.56
480.969	702.56
481.188	2791.56
481.406	1629.56
481.624	266.56
481.843	119.56
482.061	96.56
482.28	91.56
482.498	92.56
482.717	99.56
482.935	91.56
483.153	111.56
483.372	105.56
483.59	97.56
483.808	81.56
484.027	85.56
484.245	91.56
484.463	88.56
484.681	104.56
484.9	94.56
485.118	104.56
485.336	111.56
485.554	102.56
485.772	96.56
485.99	107.56
486.209	94.56
486.427	114.56
486.645	113.56
486.863	120.56
487.081	100.56
487.299	98.56
487.517	88.56
487.735	101.56
487.953	101.56
488.171	88.56
488.389	99.56
488.607	89.56
488.825	95.56
489.043	81.56
489.261	100.56
489.479	89.56
489.696	98.56
489.914	99.56
490.132	93.56
490.35	92.56
490.568	86.56
490.786	95.56
491.003	97.56
491.221	88.56
491.439	97.56
491.657	88.56
491.874	104.56
492.092	90.56
492.31	93.56
492.527	77.56
492.745	73.56
492.963	90.56
493.18	107.56
493.398	102.56
493.615	95.56
493.833	95.56
494.05	88.56
494.268	97.56
494.485	98.56
494.703	84.56
494.92	94.56
495.138	103.56
495.355	75.56
495.573	93.56
495.79	96.56
496.008	91.56
496.225	102.56
496.442	94.56
496.66	106.56
496.877	90.56
497.094	95.56
497.312	92.56
497.529	85.56
497.746	94.56
497.963	95.56
498.181	96.56
498.398	105.56
498.615	112.56
498.832	120.56
499.049	97.56
499.267	97.56
499.484	85.56
499.701	100.56
499.918	91.56
500.135	98.56
500.352	91.56
500.569	109.56
500.786	93.56
501.003	89.56
501.22	100.56
501.437	99.56
501.654	88.56
501.871	116.56
502.088	94.56
502.305	92.56
502.522	89.56
502.739	91.56
502.956	92.56
503.172	86.56
503.389	90.56
503.606	116.56
503.823	103.56
504.04	85.56
504.256	103.56
504.473	95.56
504.69	87.56
504.907	83.56
505.123	93.56
505.34	76.56
505.557	95.56
505.773	82.56
505.99	98.56
506.207	71.56
506.423	101.56
506.64	88.56
506.856	97.56
507.073	109.56
507.289	106.56
507.506	91.56
507.722	129.56
507.939	118.56
508.155	109.56
508.372	99.56
508.588	90.56
508.805	97.56
509.021	84.56
509.238	106.56
509.454	98.56
509.67	99.56
509.887	106.56
510.103	121.56
510.319	216.56
510.536	756.56
510.752	2455.56
510.968	706.56
511.184	168.56
511.401	116.56
511.617	98.56
511.833	100.56
512.049	109.56
512.265	80.56
512.481	104.56
512.698	86.56
512.914	96.56
513.13	105.56
513.346	86.56
513.562	94.56
