Data from Circ_1997_H10_HRD10591_00021.txt Node
Date: Wed Jan 03 11:29:31 EST 2024
User: Yrep
Spectrometer: HR+D1059
Trigger mode: 1
Integration Time (sec): 1.000000E-1
Scans to average: 1
Electric dark correction enabled: true
Nonlinearity correction enabled: false
Boxcar width: 0
XAxis mode: Wavelengths
Number of Pixels in Spectrum: 2048
>>>>>Begin Spectral Data<<<<<
223.165	-28.12
223.4	-28.12
223.635	-28.12
223.869	-16.12
224.104	-28.12
224.338	-12.12
224.573	-1.12
224.808	-13.12
225.042	-6.12
225.277	-5.12
225.511	-1.12
225.746	11.88
225.98	2.88
226.215	13.88
226.449	11.88
226.683	17.88
226.918	26.88
227.152	25.88
227.387	36.88
227.621	32.88
227.856	43.88
228.09	40.88
228.324	51.88
228.559	47.88
228.793	50.88
229.027	70.88
229.262	65.88
229.496	73.88
229.73	97.88
229.964	88.88
230.199	73.88
230.433	74.88
230.667	70.88
230.901	77.88
231.136	85.88
231.37	78.88
231.604	92.88
231.838	81.88
232.072	87.88
232.306	75.88
232.541	74.88
232.775	61.88
233.009	86.88
233.243	75.88
233.477	99.88
233.711	78.88
233.945	68.88
234.179	72.88
234.413	77.88
234.647	78.88
234.881	83.88
235.115	71.88
235.349	81.88
235.583	66.88
235.817	77.88
236.051	78.88
236.285	82.88
236.519	77.88
236.753	76.88
236.987	89.88
237.221	82.88
237.455	91.88
237.689	71.88
237.922	76.88
238.156	91.88
238.39	66.88
238.624	59.88
238.858	74.88
239.091	62.88
239.325	74.88
239.559	79.88
239.793	82.88
240.027	82.88
240.26	75.88
240.494	90.88
240.728	71.88
240.961	79.88
241.195	73.88
241.429	73.88
241.662	89.88
241.896	82.88
242.13	74.88
242.363	82.88
242.597	73.88
242.83	71.88
243.064	70.88
243.298	79.88
243.531	75.88
243.765	69.88
243.998	69.88
244.232	94.88
244.465	79.88
244.699	80.88
244.932	80.88
245.166	61.88
245.399	75.88
245.633	95.88
245.866	95.88
246.099	88.88
246.333	80.88
246.566	89.88
246.8	89.88
247.033	73.88
247.266	66.88
247.5	70.88
247.733	83.88
247.966	71.88
248.2	85.88
248.433	77.88
248.666	94.88
248.899	80.88
249.133	100.88
249.366	100.88
249.599	109.88
249.832	77.88
250.066	84.88
250.299	77.88
250.532	82.88
250.765	83.88
250.998	93.88
251.231	73.88
251.465	78.88
251.698	94.88
251.931	96.88
252.164	81.88
252.397	89.88
252.63	80.88
252.863	62.88
253.096	100.88
253.329	97.88
253.562	91.88
253.795	84.88
254.028	61.88
254.261	87.88
254.494	80.88
254.727	77.88
254.96	88.88
255.193	83.88
255.426	78.88
255.659	94.88
255.892	69.88
256.124	95.88
256.357	89.88
256.59	85.88
256.823	64.88
257.056	91.88
257.289	84.88
257.521	73.88
257.754	86.88
257.987	76.88
258.22	85.88
258.452	86.88
258.685	86.88
258.918	78.88
259.151	91.88
259.383	72.88
259.616	88.88
259.849	80.88
260.081	106.88
260.314	98.88
260.547	92.88
260.779	77.88
261.012	93.88
261.244	83.88
261.477	91.88
261.71	96.88
261.942	112.88
262.175	136.88
262.407	101.88
262.64	83.88
262.872	93.88
263.105	91.88
263.337	86.88
263.57	94.88
263.802	83.88
264.035	85.88
264.267	79.88
264.499	81.88
264.732	94.88
264.964	77.88
265.197	72.88
265.429	82.88
265.661	88.88
265.894	89.88
266.126	95.88
266.358	75.88
266.591	83.88
266.823	78.88
267.055	79.88
267.287	78.88
267.52	88.88
267.752	88.88
267.984	94.88
268.216	81.88
268.448	89.88
268.681	86.88
268.913	92.88
269.145	79.88
269.377	93.88
269.609	81.88
269.841	95.88
270.073	96.88
270.306	86.88
270.538	77.88
270.77	89.88
271.002	77.88
271.234	85.88
271.466	98.88
271.698	83.88
271.93	91.88
272.162	94.88
272.394	75.88
272.626	83.88
272.858	86.88
273.09	82.88
273.322	83.88
273.553	89.88
273.785	93.88
274.017	80.88
274.249	87.88
274.481	95.88
274.713	77.88
274.945	84.88
275.176	95.88
275.408	98.88
275.64	104.88
275.872	110.88
276.104	108.88
276.335	103.88
276.567	116.88
276.799	122.88
277.031	130.88
277.262	155.88
277.494	126.88
277.726	103.88
277.957	93.88
278.189	86.88
278.421	82.88
278.652	89.88
278.884	82.88
279.115	91.88
279.347	88.88
279.579	101.88
279.81	120.88
280.042	149.88
280.273	208.88
280.505	135.88
280.736	118.88
280.968	102.88
281.199	92.88
281.431	88.88
281.662	93.88
281.894	92.88
282.125	107.88
282.356	119.88
282.588	159.88
282.819	137.88
283.051	96.88
283.282	94.88
283.513	101.88
283.745	86.88
283.976	100.88
284.207	80.88
284.439	82.88
284.67	83.88
284.901	94.88
285.132	79.88
285.364	88.88
285.595	87.88
285.826	79.88
286.057	89.88
286.288	95.88
286.52	93.88
286.751	86.88
286.982	87.88
287.213	88.88
287.444	74.88
287.675	98.88
287.906	89.88
288.138	72.88
288.369	84.88
288.6	99.88
288.831	95.88
289.062	88.88
289.293	100.88
289.524	66.88
289.755	72.88
289.986	87.88
290.217	81.88
290.448	84.88
290.679	85.88
290.91	85.88
291.141	101.88
291.371	87.88
291.602	98.88
291.833	93.88
292.064	74.88
292.295	80.88
292.526	94.88
292.757	101.88
292.987	87.88
293.218	96.88
293.449	88.88
293.68	74.88
293.91	91.88
294.141	82.88
294.372	88.88
294.603	85.88
294.833	91.88
295.064	101.88
295.295	93.88
295.525	91.88
295.756	104.88
295.987	122.88
296.217	150.88
296.448	129.88
296.679	98.88
296.909	87.88
297.14	93.88
297.37	90.88
297.601	94.88
297.831	96.88
298.062	91.88
298.292	95.88
298.523	87.88
298.753	105.88
298.984	83.88
299.214	86.88
299.445	92.88
299.675	100.88
299.905	98.88
300.136	81.88
300.366	96.88
300.597	88.88
300.827	76.88
301.057	108.88
301.288	109.88
301.518	99.88
301.748	107.88
301.979	95.88
302.209	96.88
302.439	97.88
302.669	81.88
302.9	91.88
303.13	107.88
303.36	88.88
303.59	125.88
303.82	131.88
304.051	105.88
304.281	93.88
304.511	82.88
304.741	92.88
304.971	85.88
305.201	99.88
305.431	90.88
305.661	69.88
305.891	91.88
306.121	104.88
306.352	100.88
306.582	117.88
306.812	101.88
307.042	112.88
307.272	130.88
307.502	146.88
307.731	155.88
307.961	118.88
308.191	98.88
308.421	104.88
308.651	96.88
308.881	75.88
309.111	95.88
309.341	111.88
309.571	93.88
309.8	94.88
310.03	85.88
310.26	101.88
310.49	113.88
310.72	101.88
310.949	127.88
311.179	109.88
311.409	105.88
311.639	83.88
311.868	98.88
312.098	98.88
312.328	108.88
312.557	105.88
312.787	106.88
313.017	99.88
313.246	102.88
313.476	85.88
313.706	81.88
313.935	99.88
314.165	105.88
314.394	111.88
314.624	96.88
314.853	91.88
315.083	109.88
315.312	104.88
315.542	83.88
315.771	89.88
316.001	86.88
316.23	94.88
316.46	91.88
316.689	93.88
316.919	99.88
317.148	107.88
317.377	95.88
317.607	97.88
317.836	111.88
318.065	93.88
318.295	89.88
318.524	94.88
318.753	88.88
318.983	91.88
319.212	104.88
319.441	117.88
319.67	120.88
319.9	123.88
320.129	81.88
320.358	81.88
320.587	103.88
320.816	110.88
321.046	115.88
321.275	126.88
321.504	98.88
321.733	93.88
321.962	106.88
322.191	117.88
322.42	125.88
322.649	121.88
322.878	113.88
323.108	129.88
323.337	155.88
323.566	164.88
323.795	198.88
324.024	273.88
324.253	589.88
324.482	1347.88
324.71	2930.88
324.939	3849.88
325.168	1266.88
325.397	341.88
325.626	181.88
325.855	139.88
326.084	148.88
326.313	142.88
326.542	216.88
326.77	311.88
326.999	683.88
327.228	1548.88
327.457	2949.88
327.686	2267.88
327.914	622.88
328.143	457.88
328.372	537.88
328.6	295.88
328.829	166.88
329.058	176.88
329.287	182.88
329.515	165.88
329.744	234.88
329.972	375.88
330.201	776.88
330.43	1107.88
330.658	502.88
330.887	241.88
331.115	159.88
331.344	115.88
331.572	123.88
331.801	121.88
332.03	114.88
332.258	116.88
332.486	115.88
332.715	97.88
332.943	108.88
333.172	120.88
333.4	119.88
333.629	142.88
333.857	191.88
334.085	376.88
334.314	745.88
334.542	1371.88
334.771	1267.88
334.999	357.88
335.227	153.88
335.455	118.88
335.684	97.88
335.912	106.88
336.14	104.88
336.369	96.88
336.597	104.88
336.825	110.88
337.053	97.88
337.281	91.88
337.51	88.88
337.738	99.88
337.966	82.88
338.194	97.88
338.422	106.88
338.65	98.88
338.878	93.88
339.106	105.88
339.334	92.88
339.562	92.88
339.79	80.88
340.018	85.88
340.246	79.88
340.474	102.88
340.702	102.88
340.93	87.88
341.158	103.88
341.386	91.88
341.614	101.88
341.842	102.88
342.07	99.88
342.298	95.88
342.526	90.88
342.754	86.88
342.981	107.88
343.209	103.88
343.437	99.88
343.665	93.88
343.893	83.88
344.12	96.88
344.348	92.88
344.576	95.88
344.804	97.88
345.031	104.88
345.259	106.88
345.487	98.88
345.714	104.88
345.942	102.88
346.17	92.88
346.397	90.88
346.625	99.88
346.853	87.88
347.08	104.88
347.308	110.88
347.535	94.88
347.763	90.88
347.99	90.88
348.218	97.88
348.445	98.88
348.673	90.88
348.9	101.88
349.128	106.88
349.355	103.88
349.583	88.88
349.81	103.88
350.037	88.88
350.265	103.88
350.492	102.88
350.72	79.88
350.947	113.88
351.174	112.88
351.402	117.88
351.629	106.88
351.856	104.88
352.083	100.88
352.311	111.88
352.538	130.88
352.765	122.88
352.992	124.88
353.22	124.88
353.447	117.88
353.674	109.88
353.901	103.88
354.128	94.88
354.355	99.88
354.583	96.88
354.81	107.88
355.037	82.88
355.264	103.88
355.491	105.88
355.718	86.88
355.945	89.88
356.172	111.88
356.399	101.88
356.626	102.88
356.853	103.88
357.08	98.88
357.307	96.88
357.534	96.88
357.761	90.88
357.988	95.88
358.215	107.88
358.441	94.88
358.668	100.88
358.895	100.88
359.122	91.88
359.349	87.88
359.576	98.88
359.802	105.88
360.029	118.88
360.256	114.88
360.483	102.88
360.709	96.88
360.936	97.88
361.163	102.88
361.39	97.88
361.616	100.88
361.843	93.88
362.07	95.88
362.296	100.88
362.523	104.88
362.749	94.88
362.976	92.88
363.203	91.88
363.429	91.88
363.656	92.88
363.882	83.88
364.109	104.88
364.335	102.88
364.562	92.88
364.788	103.88
365.015	108.88
365.241	108.88
365.468	113.88
365.694	111.88
365.92	104.88
366.147	101.88
366.373	81.88
366.599	94.88
366.826	101.88
367.052	101.88
367.278	98.88
367.505	103.88
367.731	95.88
367.957	89.88
368.184	86.88
368.41	106.88
368.636	118.88
368.862	110.88
369.089	114.88
369.315	106.88
369.541	92.88
369.767	106.88
369.993	101.88
370.219	94.88
370.445	93.88
370.672	91.88
370.898	90.88
371.124	91.88
371.35	89.88
371.576	79.88
371.802	86.88
372.028	87.88
372.254	81.88
372.48	94.88
372.706	82.88
372.932	78.88
373.158	89.88
373.384	102.88
373.61	94.88
373.835	98.88
374.061	102.88
374.287	93.88
374.513	89.88
374.739	89.88
374.965	83.88
375.191	82.88
375.416	91.88
375.642	89.88
375.868	88.88
376.094	86.88
376.319	94.88
376.545	95.88
376.771	97.88
376.997	86.88
377.222	97.88
377.448	93.88
377.674	99.88
377.899	82.88
378.125	82.88
378.35	92.88
378.576	90.88
378.802	84.88
379.027	89.88
379.253	95.88
379.478	89.88
379.704	81.88
379.929	93.88
380.155	103.88
380.38	96.88
380.606	106.88
380.831	107.88
381.057	106.88
381.282	86.88
381.507	94.88
381.733	95.88
381.958	92.88
382.184	106.88
382.409	99.88
382.634	104.88
382.86	97.88
383.085	98.88
383.31	100.88
383.535	90.88
383.761	105.88
383.986	95.88
384.211	98.88
384.436	96.88
384.662	112.88
384.887	105.88
385.112	94.88
385.337	86.88
385.562	107.88
385.787	101.88
386.013	88.88
386.238	128.88
386.463	118.88
386.688	94.88
386.913	98.88
387.138	101.88
387.363	116.88
387.588	109.88
387.813	113.88
388.038	108.88
388.263	110.88
388.488	113.88
388.713	92.88
388.938	87.88
389.163	92.88
389.387	107.88
389.612	90.88
389.837	96.88
390.062	90.88
390.287	92.88
390.512	94.88
390.736	91.88
390.961	83.88
391.186	91.88
391.411	95.88
391.636	86.88
391.86	88.88
392.085	100.88
392.31	74.88
392.534	95.88
392.759	90.88
392.984	97.88
393.208	94.88
393.433	93.88
393.658	106.88
393.882	97.88
394.107	103.88
394.331	93.88
394.556	89.88
394.78	87.88
395.005	107.88
395.229	86.88
395.454	86.88
395.678	72.88
395.903	93.88
396.127	75.88
396.352	90.88
396.576	96.88
396.801	102.88
397.025	99.88
397.249	98.88
397.474	92.88
397.698	83.88
397.922	91.88
398.147	96.88
398.371	90.88
398.595	81.88
398.82	74.88
399.044	82.88
399.268	86.88
399.492	93.88
399.717	89.88
399.941	102.88
400.165	105.88
400.389	103.88
400.613	92.88
400.837	74.88
401.062	71.88
401.286	87.88
401.51	88.88
401.734	103.88
401.958	104.88
402.182	142.88
402.406	188.88
402.63	136.88
402.854	106.88
403.078	82.88
403.302	84.88
403.526	90.88
403.75	86.88
403.974	82.88
404.198	75.88
404.422	93.88
404.645	90.88
404.869	99.88
405.093	106.88
405.317	147.88
405.541	128.88
405.765	118.88
405.988	127.88
406.212	180.88
406.436	278.88
406.66	170.88
406.883	120.88
407.107	114.88
407.331	112.88
407.555	102.88
407.778	98.88
408.002	94.88
408.226	90.88
408.449	93.88
408.673	78.88
408.896	100.88
409.12	96.88
409.344	96.88
409.567	94.88
409.791	95.88
410.014	88.88
410.238	91.88
410.461	83.88
410.685	86.88
410.908	109.88
411.132	104.88
411.355	100.88
411.578	96.88
411.802	97.88
412.025	86.88
412.249	92.88
412.472	124.88
412.695	124.88
412.919	119.88
413.142	80.88
413.365	77.88
413.589	88.88
413.812	93.88
414.035	85.88
414.258	95.88
414.482	99.88
414.705	74.88
414.928	97.88
415.151	108.88
415.374	90.88
415.597	84.88
415.821	86.88
416.044	87.88
416.267	94.88
416.49	79.88
416.713	96.88
416.936	86.88
417.159	84.88
417.382	95.88
417.605	98.88
417.828	111.88
418.051	105.88
418.274	91.88
418.497	88.88
418.72	90.88
418.943	85.88
419.166	103.88
419.389	109.88
419.611	98.88
419.834	93.88
420.057	95.88
420.28	100.88
420.503	102.88
420.726	94.88
420.948	89.88
421.171	100.88
421.394	105.88
421.617	79.88
421.839	92.88
422.062	69.88
422.285	99.88
422.507	100.88
422.73	106.88
422.953	93.88
423.175	93.88
423.398	93.88
423.621	94.88
423.843	92.88
424.066	84.88
424.288	92.88
424.511	91.88
424.733	106.88
424.956	119.88
425.178	94.88
425.401	131.88
425.623	103.88
425.846	112.88
426.068	105.88
426.291	98.88
426.513	94.88
426.735	102.88
426.958	110.88
427.18	118.88
427.402	181.88
427.625	272.88
427.847	243.88
428.069	239.88
428.292	123.88
428.514	105.88
428.736	99.88
428.958	86.88
429.181	95.88
429.403	75.88
429.625	76.88
429.847	97.88
430.069	111.88
430.292	92.88
430.514	81.88
430.736	77.88
430.958	71.88
431.18	97.88
431.402	94.88
431.624	77.88
431.846	97.88
432.068	86.88
432.29	91.88
432.512	98.88
432.734	82.88
432.956	86.88
433.178	106.88
433.4	109.88
433.622	93.88
433.844	93.88
434.066	89.88
434.287	80.88
434.509	84.88
434.731	89.88
434.953	92.88
435.175	96.88
435.397	103.88
435.618	93.88
435.84	103.88
436.062	158.88
436.284	153.88
436.505	123.88
436.727	109.88
436.949	102.88
437.17	93.88
437.392	95.88
437.614	100.88
437.835	133.88
438.057	149.88
438.278	124.88
438.5	112.88
438.721	148.88
438.943	103.88
439.165	101.88
439.386	94.88
439.608	89.88
439.829	110.88
440.05	154.88
440.272	193.88
440.493	113.88
440.715	82.88
440.936	87.88
441.158	96.88
441.379	85.88
441.6	95.88
441.822	109.88
442.043	119.88
442.264	120.88
442.486	106.88
442.707	103.88
442.928	119.88
443.149	167.88
443.371	173.88
443.592	118.88
443.813	113.88
444.034	115.88
444.255	92.88
444.476	94.88
444.698	96.88
444.919	89.88
445.14	130.88
445.361	145.88
445.582	141.88
445.803	196.88
446.024	188.88
446.245	173.88
446.466	139.88
446.687	103.88
446.908	86.88
447.129	85.88
447.35	106.88
447.571	93.88
447.792	106.88
448.013	100.88
448.234	129.88
448.455	111.88
448.675	137.88
448.896	157.88
449.117	122.88
449.338	123.88
449.559	153.88
449.779	167.88
450	107.88
450.221	87.88
450.442	98.88
450.662	98.88
450.883	121.88
451.104	121.88
451.324	99.88
451.545	98.88
451.766	78.88
451.986	93.88
452.207	81.88
452.428	76.88
452.648	112.88
452.869	126.88
453.089	131.88
453.31	137.88
453.53	92.88
453.751	82.88
453.971	139.88
454.192	128.88
454.412	103.88
454.633	91.88
454.853	97.88
455.073	86.88
455.294	87.88
455.514	122.88
455.734	92.88
455.955	93.88
456.175	91.88
456.395	87.88
456.616	83.88
456.836	92.88
457.056	85.88
457.276	110.88
457.497	90.88
457.717	81.88
457.937	84.88
458.157	93.88
458.377	99.88
458.598	117.88
458.818	182.88
459.038	206.88
459.258	130.88
459.478	89.88
459.698	74.88
459.918	91.88
460.138	91.88
460.358	97.88
460.578	87.88
460.798	93.88
461.018	108.88
461.238	85.88
461.458	102.88
461.678	77.88
461.898	90.88
462.118	82.88
462.338	99.88
462.558	84.88
462.777	89.88
462.997	96.88
463.217	91.88
463.437	96.88
463.657	81.88
463.876	79.88
464.096	82.88
464.316	101.88
464.536	110.88
464.755	109.88
464.975	117.88
465.195	220.88
465.414	204.88
465.634	92.88
465.854	97.88
466.073	94.88
466.293	93.88
466.512	61.88
466.732	79.88
466.951	103.88
467.171	89.88
467.391	98.88
467.61	144.88
467.829	191.88
468.049	451.88
468.268	612.88
468.488	161.88
468.707	115.88
468.927	88.88
469.146	82.88
469.365	99.88
469.585	98.88
469.804	101.88
470.023	117.88
470.243	112.88
470.462	110.88
470.681	120.88
470.901	103.88
471.12	85.88
471.339	109.88
471.558	127.88
471.777	139.88
471.997	254.88
472.216	862.88
472.435	1885.88
472.654	462.88
472.873	142.88
473.092	125.88
473.311	108.88
473.53	99.88
473.749	85.88
473.968	103.88
474.187	137.88
474.406	109.88
474.625	93.88
474.844	101.88
475.063	99.88
475.282	96.88
475.501	92.88
475.72	88.88
475.939	91.88
476.158	97.88
476.377	105.88
476.596	81.88
476.814	93.88
477.033	102.88
477.252	93.88
477.471	87.88
477.69	98.88
477.908	94.88
478.127	93.88
478.346	76.88
478.564	93.88
478.783	99.88
479.002	103.88
479.22	103.88
479.439	111.88
479.658	121.88
479.876	114.88
480.095	120.88
480.313	122.88
480.532	142.88
480.751	248.88
480.969	790.88
481.188	3320.88
481.406	1850.88
481.624	309.88
481.843	134.88
482.061	107.88
482.28	101.88
482.498	87.88
482.717	92.88
482.935	91.88
483.153	88.88
483.372	97.88
483.59	94.88
483.808	80.88
484.027	89.88
484.245	100.88
484.463	104.88
484.681	110.88
484.9	85.88
485.118	99.88
485.336	102.88
485.554	106.88
485.772	120.88
485.99	97.88
486.209	115.88
486.427	115.88
486.645	119.88
486.863	129.88
487.081	103.88
487.299	97.88
487.517	102.88
487.735	93.88
487.953	84.88
488.171	90.88
488.389	87.88
488.607	101.88
488.825	92.88
489.043	98.88
489.261	98.88
489.479	96.88
489.696	103.88
489.914	87.88
490.132	100.88
490.35	92.88
490.568	85.88
490.786	81.88
491.003	89.88
491.221	91.88
491.439	95.88
491.657	96.88
491.874	95.88
492.092	102.88
492.31	90.88
492.527	97.88
492.745	102.88
492.963	92.88
493.18	81.88
493.398	96.88
493.615	91.88
493.833	91.88
494.05	89.88
494.268	105.88
494.485	103.88
494.703	85.88
494.92	91.88
495.138	100.88
495.355	87.88
495.573	97.88
495.79	78.88
496.008	85.88
496.225	90.88
496.442	105.88
496.66	101.88
496.877	102.88
497.094	99.88
497.312	88.88
497.529	106.88
497.746	96.88
497.963	95.88
498.181	99.88
498.398	97.88
498.615	121.88
498.832	107.88
499.049	95.88
499.267	84.88
499.484	82.88
499.701	95.88
499.918	101.88
500.135	95.88
500.352	80.88
500.569	89.88
500.786	89.88
501.003	89.88
501.22	91.88
501.437	94.88
501.654	92.88
501.871	124.88
502.088	113.88
502.305	79.88
502.522	97.88
502.739	97.88
502.956	97.88
503.172	100.88
503.389	95.88
503.606	120.88
503.823	105.88
504.04	97.88
504.256	98.88
504.473	94.88
504.69	78.88
504.907	101.88
505.123	97.88
505.34	86.88
505.557	82.88
505.773	86.88
505.99	91.88
506.207	85.88
506.423	91.88
506.64	102.88
506.856	102.88
507.073	86.88
507.289	95.88
507.506	101.88
507.722	127.88
507.939	127.88
508.155	116.88
508.372	90.88
508.588	99.88
508.805	109.88
509.021	97.88
509.238	104.88
509.454	96.88
509.67	99.88
509.887	113.88
510.103	147.88
510.319	238.88
510.536	879.88
510.752	2942.88
510.968	777.88
511.184	181.88
511.401	118.88
511.617	110.88
511.833	100.88
512.049	103.88
512.265	96.88
512.481	97.88
512.698	93.88
512.914	92.88
513.13	103.88
