Data from Circ_1997_H10_HRD10591_00001.txt Node
Date: Wed Jan 03 11:29:27 EST 2024
User: Yrep
Spectrometer: HR+D1059
Trigger mode: 1
Integration Time (sec): 1.000000E-1
Scans to average: 1
Electric dark correction enabled: true
Nonlinearity correction enabled: false
Boxcar width: 0
XAxis mode: Wavelengths
Number of Pixels in Spectrum: 2048
>>>>>Begin Spectral Data<<<<<
223.165	-17.81
223.4	-17.81
223.635	-17.81
223.869	-8.81
224.104	-13.81
224.338	-12.81
224.573	-22.81
224.808	-24.81
225.042	-0.81
225.277	-0.81
225.511	9.19
225.746	8.19
225.98	3.19
226.215	9.19
226.449	15.19
226.683	13.19
226.918	17.19
227.152	27.19
227.387	43.19
227.621	47.19
227.856	30.19
228.09	50.19
228.324	48.19
228.559	66.19
228.793	53.19
229.027	77.19
229.262	70.19
229.496	57.19
229.73	105.19
229.964	83.19
230.199	80.19
230.433	76.19
230.667	87.19
230.901	79.19
231.136	66.19
231.37	69.19
231.604	78.19
231.838	90.19
232.072	86.19
232.306	80.19
232.541	80.19
232.775	81.19
233.009	81.19
233.243	76.19
233.477	85.19
233.711	75.19
233.945	96.19
234.179	80.19
234.413	91.19
234.647	79.19
234.881	95.19
235.115	84.19
235.349	68.19
235.583	77.19
235.817	75.19
236.051	91.19
236.285	87.19
236.519	79.19
236.753	80.19
236.987	79.19
237.221	88.19
237.455	97.19
237.689	75.19
237.922	83.19
238.156	62.19
238.39	82.19
238.624	71.19
238.858	84.19
239.091	74.19
239.325	74.19
239.559	81.19
239.793	73.19
240.027	76.19
240.26	74.19
240.494	97.19
240.728	84.19
240.961	71.19
241.195	84.19
241.429	91.19
241.662	81.19
241.896	84.19
242.13	88.19
242.363	74.19
242.597	77.19
242.83	79.19
243.064	81.19
243.298	81.19
243.531	74.19
243.765	79.19
243.998	83.19
244.232	77.19
244.465	79.19
244.699	78.19
244.932	87.19
245.166	73.19
245.399	73.19
245.633	81.19
245.866	84.19
246.099	90.19
246.333	85.19
246.566	77.19
246.8	66.19
247.033	90.19
247.266	71.19
247.5	87.19
247.733	84.19
247.966	73.19
248.2	92.19
248.433	87.19
248.666	79.19
248.899	78.19
249.133	92.19
249.366	88.19
249.599	103.19
249.832	96.19
250.066	97.19
250.299	88.19
250.532	81.19
250.765	91.19
250.998	69.19
251.231	95.19
251.465	94.19
251.698	98.19
251.931	86.19
252.164	90.19
252.397	66.19
252.63	87.19
252.863	79.19
253.096	92.19
253.329	76.19
253.562	78.19
253.795	87.19
254.028	86.19
254.261	82.19
254.494	92.19
254.727	84.19
254.96	83.19
255.193	97.19
255.426	82.19
255.659	94.19
255.892	83.19
256.124	87.19
256.357	75.19
256.59	82.19
256.823	94.19
257.056	78.19
257.289	69.19
257.521	80.19
257.754	89.19
257.987	84.19
258.22	80.19
258.452	78.19
258.685	92.19
258.918	89.19
259.151	85.19
259.383	72.19
259.616	94.19
259.849	91.19
260.081	80.19
260.314	94.19
260.547	76.19
260.779	91.19
261.012	75.19
261.244	84.19
261.477	101.19
261.71	95.19
261.942	117.19
262.175	118.19
262.407	98.19
262.64	91.19
262.872	76.19
263.105	80.19
263.337	91.19
263.57	72.19
263.802	79.19
264.035	92.19
264.267	80.19
264.499	92.19
264.732	79.19
264.964	85.19
265.197	80.19
265.429	88.19
265.661	89.19
265.894	85.19
266.126	90.19
266.358	85.19
266.591	80.19
266.823	85.19
267.055	98.19
267.287	83.19
267.52	100.19
267.752	79.19
267.984	72.19
268.216	84.19
268.448	79.19
268.681	95.19
268.913	80.19
269.145	87.19
269.377	78.19
269.609	86.19
269.841	86.19
270.073	97.19
270.306	83.19
270.538	90.19
270.77	82.19
271.002	84.19
271.234	90.19
271.466	84.19
271.698	83.19
271.93	95.19
272.162	79.19
272.394	83.19
272.626	99.19
272.858	78.19
273.09	83.19
273.322	96.19
273.553	98.19
273.785	79.19
274.017	97.19
274.249	85.19
274.481	98.19
274.713	83.19
274.945	65.19
275.176	75.19
275.408	98.19
275.64	89.19
275.872	103.19
276.104	104.19
276.335	105.19
276.567	97.19
276.799	117.19
277.031	119.19
277.262	121.19
277.494	101.19
277.726	91.19
277.957	82.19
278.189	98.19
278.421	87.19
278.652	86.19
278.884	89.19
279.115	98.19
279.347	80.19
279.579	93.19
279.81	125.19
280.042	124.19
280.273	139.19
280.505	110.19
280.736	82.19
280.968	87.19
281.199	98.19
281.431	102.19
281.662	91.19
281.894	100.19
282.125	95.19
282.356	132.19
282.588	137.19
282.819	101.19
283.051	99.19
283.282	104.19
283.513	87.19
283.745	70.19
283.976	90.19
284.207	85.19
284.439	87.19
284.67	88.19
284.901	91.19
285.132	87.19
285.364	96.19
285.595	84.19
285.826	99.19
286.057	92.19
286.288	89.19
286.52	96.19
286.751	81.19
286.982	106.19
287.213	93.19
287.444	95.19
287.675	92.19
287.906	84.19
288.138	90.19
288.369	97.19
288.6	89.19
288.831	100.19
289.062	87.19
289.293	89.19
289.524	92.19
289.755	96.19
289.986	101.19
290.217	87.19
290.448	89.19
290.679	86.19
290.91	89.19
291.141	92.19
291.371	89.19
291.602	96.19
291.833	86.19
292.064	96.19
292.295	89.19
292.526	81.19
292.757	91.19
292.987	88.19
293.218	80.19
293.449	94.19
293.68	84.19
293.91	92.19
294.141	75.19
294.372	77.19
294.603	90.19
294.833	105.19
295.064	94.19
295.295	90.19
295.525	107.19
295.756	105.19
295.987	105.19
296.217	151.19
296.448	137.19
296.679	99.19
296.909	101.19
297.14	92.19
297.37	81.19
297.601	99.19
297.831	90.19
298.062	79.19
298.292	92.19
298.523	93.19
298.753	99.19
298.984	100.19
299.214	97.19
299.445	88.19
299.675	89.19
299.905	80.19
300.136	106.19
300.366	87.19
300.597	87.19
300.827	92.19
301.057	97.19
301.288	103.19
301.518	103.19
301.748	105.19
301.979	110.19
302.209	96.19
302.439	97.19
302.669	89.19
302.9	92.19
303.13	93.19
303.36	98.19
303.59	108.19
303.82	111.19
304.051	83.19
304.281	88.19
304.511	92.19
304.741	85.19
304.971	94.19
305.201	98.19
305.431	91.19
305.661	83.19
305.891	86.19
306.121	93.19
306.352	96.19
306.582	115.19
306.812	106.19
307.042	121.19
307.272	117.19
307.502	114.19
307.731	127.19
307.961	117.19
308.191	110.19
308.421	105.19
308.651	95.19
308.881	85.19
309.111	101.19
309.341	91.19
309.571	108.19
309.8	91.19
310.03	98.19
310.26	107.19
310.49	102.19
310.72	105.19
310.949	109.19
311.179	113.19
311.409	99.19
311.639	88.19
311.868	107.19
312.098	106.19
312.328	108.19
312.557	112.19
312.787	96.19
313.017	108.19
313.246	90.19
313.476	87.19
313.706	107.19
313.935	87.19
314.165	96.19
314.394	110.19
314.624	112.19
314.853	108.19
315.083	87.19
315.312	101.19
315.542	88.19
315.771	84.19
316.001	84.19
316.23	86.19
316.46	89.19
316.689	80.19
316.919	99.19
317.148	105.19
317.377	95.19
317.607	91.19
317.836	81.19
318.065	100.19
318.295	86.19
318.524	92.19
318.753	106.19
318.983	100.19
319.212	105.19
319.441	103.19
319.67	95.19
319.9	103.19
320.129	88.19
320.358	102.19
320.587	95.19
320.816	107.19
321.046	119.19
321.275	96.19
321.504	92.19
321.733	100.19
321.962	113.19
322.191	101.19
322.42	114.19
322.649	124.19
322.878	106.19
323.108	128.19
323.337	130.19
323.566	136.19
323.795	169.19
324.024	221.19
324.253	459.19
324.482	985.19
324.71	2066.19
324.939	2775.19
325.168	986.19
325.397	284.19
325.626	153.19
325.855	138.19
326.084	127.19
326.313	140.19
326.542	165.19
326.77	256.19
326.999	554.19
327.228	1148.19
327.457	2179.19
327.686	1701.19
327.914	479.19
328.143	319.19
328.372	324.19
328.6	208.19
328.829	156.19
329.058	142.19
329.287	146.19
329.515	128.19
329.744	151.19
329.972	233.19
330.201	421.19
330.43	568.19
330.658	297.19
330.887	183.19
331.115	133.19
331.344	122.19
331.572	101.19
331.801	95.19
332.03	103.19
332.258	129.19
332.486	117.19
332.715	106.19
332.943	99.19
333.172	101.19
333.4	96.19
333.629	132.19
333.857	155.19
334.085	221.19
334.314	420.19
334.542	748.19
334.771	704.19
334.999	247.19
335.227	127.19
335.455	107.19
335.684	105.19
335.912	94.19
336.14	106.19
336.369	91.19
336.597	112.19
336.825	100.19
337.053	100.19
337.281	84.19
337.51	103.19
337.738	90.19
337.966	94.19
338.194	90.19
338.422	92.19
338.65	100.19
338.878	93.19
339.106	99.19
339.334	92.19
339.562	94.19
339.79	80.19
340.018	97.19
340.246	96.19
340.474	96.19
340.702	95.19
340.93	92.19
341.158	100.19
341.386	89.19
341.614	91.19
341.842	101.19
342.07	97.19
342.298	93.19
342.526	104.19
342.754	88.19
342.981	88.19
343.209	101.19
343.437	100.19
343.665	101.19
343.893	99.19
344.12	96.19
344.348	90.19
344.576	92.19
344.804	102.19
345.031	88.19
345.259	102.19
345.487	92.19
345.714	94.19
345.942	88.19
346.17	95.19
346.397	92.19
346.625	98.19
346.853	88.19
347.08	93.19
347.308	104.19
347.535	96.19
347.763	116.19
347.99	112.19
348.218	111.19
348.445	114.19
348.673	106.19
348.9	90.19
349.128	93.19
349.355	89.19
349.583	100.19
349.81	101.19
350.037	97.19
350.265	95.19
350.492	84.19
350.72	93.19
350.947	91.19
351.174	113.19
351.402	109.19
351.629	117.19
351.856	95.19
352.083	102.19
352.311	106.19
352.538	119.19
352.765	120.19
352.992	124.19
353.22	110.19
353.447	112.19
353.674	100.19
353.901	105.19
354.128	97.19
354.355	108.19
354.583	110.19
354.81	112.19
355.037	99.19
355.264	97.19
355.491	95.19
355.718	95.19
355.945	93.19
356.172	103.19
356.399	94.19
356.626	87.19
356.853	92.19
357.08	91.19
357.307	103.19
357.534	95.19
357.761	91.19
357.988	108.19
358.215	96.19
358.441	92.19
358.668	88.19
358.895	88.19
359.122	93.19
359.349	95.19
359.576	92.19
359.802	99.19
360.029	109.19
360.256	115.19
360.483	95.19
360.709	92.19
360.936	97.19
361.163	96.19
361.39	103.19
361.616	74.19
361.843	90.19
362.07	87.19
362.296	93.19
362.523	99.19
362.749	98.19
362.976	95.19
363.203	101.19
363.429	91.19
363.656	103.19
363.882	84.19
364.109	107.19
364.335	96.19
364.562	90.19
364.788	101.19
365.015	111.19
365.241	93.19
365.468	95.19
365.694	108.19
365.92	97.19
366.147	109.19
366.373	98.19
366.599	100.19
366.826	85.19
367.052	95.19
367.278	77.19
367.505	93.19
367.731	103.19
367.957	99.19
368.184	102.19
368.41	101.19
368.636	112.19
368.862	122.19
369.089	112.19
369.315	95.19
369.541	91.19
369.767	97.19
369.993	97.19
370.219	81.19
370.445	88.19
370.672	89.19
370.898	88.19
371.124	97.19
371.35	86.19
371.576	83.19
371.802	79.19
372.028	92.19
372.254	100.19
372.48	84.19
372.706	93.19
372.932	106.19
373.158	99.19
373.384	85.19
373.61	85.19
373.835	99.19
374.061	91.19
374.287	109.19
374.513	98.19
374.739	85.19
374.965	85.19
375.191	77.19
375.416	78.19
375.642	101.19
375.868	95.19
376.094	82.19
376.319	89.19
376.545	88.19
376.771	82.19
376.997	108.19
377.222	99.19
377.448	103.19
377.674	96.19
377.899	102.19
378.125	83.19
378.35	88.19
378.576	109.19
378.802	86.19
379.027	67.19
379.253	109.19
379.478	85.19
379.704	87.19
379.929	96.19
380.155	88.19
380.38	104.19
380.606	108.19
380.831	99.19
381.057	103.19
381.282	95.19
381.507	97.19
381.733	101.19
381.958	110.19
382.184	102.19
382.409	105.19
382.634	109.19
382.86	100.19
383.085	105.19
383.31	91.19
383.535	99.19
383.761	111.19
383.986	108.19
384.211	103.19
384.436	113.19
384.662	112.19
384.887	101.19
385.112	113.19
385.337	108.19
385.562	115.19
385.787	127.19
386.013	115.19
386.238	129.19
386.463	107.19
386.688	122.19
386.913	98.19
387.138	114.19
387.363	108.19
387.588	107.19
387.813	115.19
388.038	128.19
388.263	139.19
388.488	117.19
388.713	111.19
388.938	104.19
389.163	87.19
389.387	98.19
389.612	91.19
389.837	85.19
390.062	95.19
390.287	96.19
390.512	102.19
390.736	106.19
390.961	92.19
391.186	83.19
391.411	89.19
391.636	105.19
391.86	93.19
392.085	79.19
392.31	93.19
392.534	96.19
392.759	81.19
392.984	92.19
393.208	90.19
393.433	101.19
393.658	103.19
393.882	81.19
394.107	99.19
394.331	93.19
394.556	93.19
394.78	91.19
395.005	89.19
395.229	102.19
395.454	99.19
395.678	86.19
395.903	90.19
396.127	79.19
396.352	89.19
396.576	86.19
396.801	97.19
397.025	109.19
397.249	88.19
397.474	94.19
397.698	98.19
397.922	92.19
398.147	88.19
398.371	96.19
398.595	93.19
398.82	79.19
399.044	90.19
399.268	95.19
399.492	77.19
399.717	98.19
399.941	90.19
400.165	96.19
400.389	95.19
400.613	93.19
400.837	80.19
401.062	95.19
401.286	83.19
401.51	80.19
401.734	87.19
401.958	114.19
402.182	115.19
402.406	165.19
402.63	120.19
402.854	82.19
403.078	90.19
403.302	74.19
403.526	81.19
403.75	81.19
403.974	97.19
404.198	92.19
404.422	80.19
404.645	100.19
404.869	89.19
405.093	105.19
405.317	120.19
405.541	132.19
405.765	112.19
405.988	119.19
406.212	163.19
406.436	209.19
406.66	157.19
406.883	97.19
407.107	100.19
407.331	95.19
407.555	100.19
407.778	97.19
408.002	81.19
408.226	84.19
408.449	91.19
408.673	91.19
408.896	96.19
409.12	97.19
409.344	82.19
409.567	95.19
409.791	94.19
410.014	90.19
410.238	95.19
410.461	86.19
410.685	92.19
410.908	99.19
411.132	101.19
411.355	102.19
411.578	102.19
411.802	96.19
412.025	100.19
412.249	101.19
412.472	101.19
412.695	118.19
412.919	96.19
413.142	89.19
413.365	96.19
413.589	100.19
413.812	112.19
414.035	86.19
414.258	78.19
414.482	84.19
414.705	101.19
414.928	75.19
415.151	97.19
415.374	97.19
415.597	90.19
415.821	96.19
416.044	78.19
416.267	100.19
416.49	81.19
416.713	87.19
416.936	95.19
417.159	86.19
417.382	87.19
417.605	97.19
417.828	101.19
418.051	100.19
418.274	87.19
418.497	84.19
418.72	88.19
418.943	79.19
419.166	92.19
419.389	81.19
419.611	93.19
419.834	102.19
420.057	104.19
420.28	81.19
420.503	90.19
420.726	95.19
420.948	98.19
421.171	111.19
421.394	109.19
421.617	87.19
421.839	57.19
422.062	90.19
422.285	93.19
422.507	97.19
422.73	110.19
422.953	101.19
423.175	95.19
423.398	96.19
423.621	101.19
423.843	79.19
424.066	89.19
424.288	88.19
424.511	97.19
424.733	95.19
424.956	115.19
425.178	98.19
425.401	105.19
425.623	102.19
425.846	81.19
426.068	97.19
426.291	97.19
426.513	89.19
426.735	94.19
426.958	108.19
427.18	111.19
427.402	141.19
427.625	211.19
427.847	172.19
428.069	174.19
428.292	119.19
428.514	114.19
428.736	91.19
428.958	93.19
429.181	80.19
429.403	94.19
429.625	89.19
429.847	96.19
430.069	110.19
430.292	94.19
430.514	95.19
430.736	87.19
430.958	89.19
431.18	93.19
431.402	89.19
431.624	100.19
431.846	90.19
432.068	89.19
432.29	83.19
432.512	91.19
432.734	81.19
432.956	92.19
433.178	114.19
433.4	105.19
433.622	81.19
433.844	96.19
434.066	84.19
434.287	85.19
434.509	98.19
434.731	95.19
434.953	95.19
435.175	86.19
435.397	86.19
435.618	93.19
435.84	113.19
436.062	138.19
436.284	125.19
436.505	97.19
436.727	113.19
436.949	105.19
437.17	85.19
437.392	98.19
437.614	102.19
437.835	110.19
438.057	127.19
438.278	117.19
438.5	126.19
438.721	157.19
438.943	97.19
439.165	93.19
439.386	98.19
439.608	97.19
439.829	99.19
440.05	118.19
440.272	163.19
440.493	106.19
440.715	93.19
440.936	96.19
441.158	98.19
441.379	100.19
441.6	83.19
441.822	99.19
442.043	91.19
442.264	108.19
442.486	105.19
442.707	105.19
442.928	119.19
443.149	139.19
443.371	142.19
443.592	119.19
443.813	123.19
444.034	112.19
444.255	99.19
444.476	97.19
444.698	87.19
444.919	90.19
445.14	146.19
445.361	129.19
445.582	130.19
445.803	143.19
446.024	164.19
446.245	157.19
446.466	126.19
446.687	96.19
446.908	92.19
447.129	84.19
447.35	101.19
447.571	91.19
447.792	89.19
448.013	106.19
448.234	112.19
448.455	105.19
448.675	121.19
448.896	128.19
449.117	93.19
449.338	101.19
449.559	136.19
449.779	146.19
450	101.19
450.221	90.19
450.442	86.19
450.662	101.19
450.883	112.19
451.104	115.19
451.324	96.19
451.545	81.19
451.766	88.19
451.986	92.19
452.207	87.19
452.428	96.19
452.648	107.19
452.869	112.19
453.089	109.19
453.31	106.19
453.53	79.19
453.751	90.19
453.971	100.19
454.192	112.19
454.412	96.19
454.633	81.19
454.853	96.19
455.073	68.19
455.294	88.19
455.514	99.19
455.734	110.19
455.955	84.19
456.175	83.19
456.395	90.19
456.616	97.19
456.836	91.19
457.056	101.19
457.276	89.19
457.497	88.19
457.717	88.19
457.937	93.19
458.157	91.19
458.377	85.19
458.598	111.19
458.818	163.19
459.038	172.19
459.258	116.19
459.478	88.19
459.698	91.19
459.918	96.19
460.138	77.19
460.358	82.19
460.578	107.19
460.798	78.19
461.018	84.19
461.238	103.19
461.458	87.19
461.678	88.19
461.898	91.19
462.118	100.19
462.338	88.19
462.558	101.19
462.777	97.19
462.997	88.19
463.217	94.19
463.437	84.19
463.657	90.19
463.876	77.19
464.096	95.19
464.316	95.19
464.536	104.19
464.755	91.19
464.975	96.19
465.195	162.19
465.414	151.19
465.634	99.19
465.854	89.19
466.073	95.19
466.293	89.19
466.512	103.19
466.732	100.19
466.951	78.19
467.171	94.19
467.391	84.19
467.61	117.19
467.829	127.19
468.049	257.19
468.268	335.19
468.488	131.19
468.707	94.19
468.927	80.19
469.146	79.19
469.365	72.19
469.585	89.19
469.804	86.19
470.023	112.19
470.243	91.19
470.462	86.19
470.681	119.19
470.901	95.19
471.12	84.19
471.339	84.19
471.558	107.19
471.777	102.19
471.997	178.19
472.216	461.19
472.435	1000.19
472.654	284.19
472.873	111.19
473.092	96.19
473.311	98.19
473.53	91.19
473.749	95.19
473.968	102.19
474.187	121.19
474.406	113.19
474.625	93.19
474.844	100.19
475.063	96.19
475.282	99.19
475.501	103.19
475.72	97.19
475.939	84.19
476.158	81.19
476.377	94.19
476.596	83.19
476.814	84.19
477.033	91.19
477.252	98.19
477.471	95.19
477.69	104.19
477.908	98.19
478.127	81.19
478.346	77.19
478.564	108.19
478.783	94.19
479.002	91.19
479.22	105.19
479.439	109.19
479.658	113.19
479.876	107.19
480.095	96.19
480.313	113.19
480.532	109.19
480.751	178.19
480.969	457.19
481.188	1675.19
481.406	984.19
481.624	201.19
481.843	111.19
482.061	91.19
482.28	93.19
482.498	101.19
482.717	91.19
482.935	76.19
483.153	96.19
483.372	86.19
483.59	90.19
483.808	93.19
484.027	92.19
484.245	87.19
484.463	104.19
484.681	104.19
484.9	88.19
485.118	89.19
485.336	93.19
485.554	95.19
485.772	95.19
485.99	100.19
486.209	94.19
486.427	101.19
486.645	103.19
486.863	118.19
487.081	95.19
487.299	97.19
487.517	91.19
487.735	96.19
487.953	104.19
488.171	101.19
488.389	93.19
488.607	100.19
488.825	93.19
489.043	72.19
489.261	85.19
489.479	92.19
489.696	92.19
489.914	72.19
490.132	81.19
490.35	109.19
490.568	96.19
490.786	83.19
491.003	75.19
491.221	84.19
491.439	95.19
491.657	94.19
491.874	96.19
492.092	90.19
492.31	96.19
492.527	94.19
492.745	82.19
492.963	92.19
493.18	83.19
493.398	75.19
493.615	94.19
493.833	94.19
494.05	92.19
494.268	97.19
494.485	104.19
494.703	87.19
494.92	92.19
495.138	89.19
495.355	92.19
495.573	80.19
495.79	72.19
496.008	96.19
496.225	94.19
496.442	89.19
496.66	89.19
496.877	93.19
497.094	88.19
497.312	88.19
497.529	91.19
497.746	101.19
497.963	87.19
498.181	89.19
498.398	93.19
498.615	104.19
498.832	115.19
499.049	100.19
499.267	96.19
499.484	83.19
499.701	101.19
499.918	84.19
500.135	94.19
500.352	91.19
500.569	100.19
500.786	104.19
501.003	88.19
501.22	86.19
501.437	97.19
501.654	92.19
501.871	108.19
502.088	94.19
502.305	93.19
502.522	92.19
502.739	98.19
502.956	93.19
503.172	101.19
503.389	101.19
503.606	105.19
503.823	123.19
504.04	98.19
504.256	96.19
504.473	88.19
504.69	106.19
504.907	104.19
505.123	100.19
505.34	87.19
505.557	89.19
505.773	100.19
505.99	97.19
506.207	89.19
506.423	92.19
506.64	86.19
506.856	86.19
507.073	88.19
507.289	91.19
507.506	95.19
507.722	113.19
507.939	123.19
508.155	99.19
508.372	90.19
508.588	98.19
508.805	91.19
509.021	100.19
509.238	92.19
509.454	98.19
509.67	99.19
509.887	101.19
510.103	115.19
510.319	205.19
510.536	633.19
510.752	2039.19
510.968	579.19
511.184	136.19
511.401	106.19
511.617	107.19
511.833	99.19
512.049	95.19
512.265	98.19
512.481	91.19
512.698	97.19
512.914	91.19
513.13	96.19
513.346	94.19
513.562	103.19
513.778	91.19
513.994	113.19
