Data from Circ_1997_H10_HRD10591_00090.txt Node
Date: Wed Jan 03 11:29:45 EST 2024
User: Yrep
Spectrometer: HR+D1059
Trigger mode: 1
Integration Time (sec): 1.000000E-1
Scans to average: 1
Electric dark correction enabled: true
Nonlinearity correction enabled: false
Boxcar width: 0
XAxis mode: Wavelengths
Number of Pixels in Spectrum: 2048
>>>>>Begin Spectral Data<<<<<
223.165	-26
223.4	-26
223.635	-26
223.869	-13
224.104	-20
224.338	-8
224.573	-11
224.808	-17
225.042	-8
225.277	-9
225.511	-6
225.746	7
225.98	15
226.215	14
226.449	10
226.683	18
226.918	32
227.152	22
227.387	25
227.621	45
227.856	54
228.09	58
228.324	44
228.559	64
228.793	71
229.027	57
229.262	79
229.496	70
229.73	98
229.964	95
230.199	80
230.433	75
230.667	84
230.901	91
231.136	66
231.37	76
231.604	76
231.838	73
232.072	80
232.306	89
232.541	82
232.775	73
233.009	78
233.243	79
233.477	80
233.711	77
233.945	79
234.179	86
234.413	79
234.647	96
234.881	85
235.115	81
235.349	89
235.583	91
235.817	69
236.051	76
236.285	88
236.519	85
236.753	82
236.987	85
237.221	100
237.455	100
237.689	80
237.922	79
238.156	72
238.39	79
238.624	82
238.858	74
239.091	88
239.325	81
239.559	84
239.793	86
240.027	86
240.26	81
240.494	74
240.728	78
240.961	70
241.195	84
241.429	86
241.662	79
241.896	83
242.13	92
242.363	82
242.597	87
242.83	86
243.064	74
243.298	66
243.531	79
243.765	67
243.998	95
244.232	80
244.465	113
244.699	85
244.932	76
245.166	91
245.399	96
245.633	80
245.866	86
246.099	88
246.333	90
246.566	84
246.8	83
247.033	82
247.266	84
247.5	64
247.733	87
247.966	76
248.2	75
248.433	91
248.666	95
248.899	96
249.133	106
249.366	127
249.599	109
249.832	76
250.066	89
250.299	92
250.532	104
250.765	97
250.998	88
251.231	84
251.465	73
251.698	93
251.931	95
252.164	91
252.397	95
252.63	92
252.863	92
253.096	84
253.329	92
253.562	86
253.795	77
254.028	77
254.261	85
254.494	88
254.727	87
254.96	89
255.193	83
255.426	81
255.659	88
255.892	106
256.124	113
256.357	101
256.59	81
256.823	95
257.056	90
257.289	92
257.521	90
257.754	89
257.987	106
258.22	113
258.452	106
258.685	102
258.918	94
259.151	71
259.383	96
259.616	89
259.849	92
260.081	91
260.314	80
260.547	93
260.779	107
261.012	115
261.244	122
261.477	108
261.71	99
261.942	144
262.175	163
262.407	108
262.64	97
262.872	106
263.105	86
263.337	85
263.57	99
263.802	83
264.035	80
264.267	100
264.499	83
264.732	87
264.964	88
265.197	76
265.429	87
265.661	86
265.894	92
266.126	82
266.358	78
266.591	80
266.823	93
267.055	87
267.287	95
267.52	106
267.752	92
267.984	82
268.216	82
268.448	103
268.681	106
268.913	85
269.145	88
269.377	85
269.609	76
269.841	87
270.073	95
270.306	96
270.538	90
270.77	93
271.002	112
271.234	101
271.466	100
271.698	100
271.93	85
272.162	96
272.394	99
272.626	91
272.858	91
273.09	79
273.322	98
273.553	90
273.785	94
274.017	101
274.249	92
274.481	89
274.713	98
274.945	92
275.176	111
275.408	114
275.64	123
275.872	154
276.104	113
276.335	116
276.567	130
276.799	184
277.031	240
277.262	273
277.494	203
277.726	131
277.957	92
278.189	112
278.421	94
278.652	94
278.884	104
279.115	95
279.347	93
279.579	118
279.81	174
280.042	287
280.273	410
280.505	257
280.736	131
280.968	121
281.199	103
281.431	88
281.662	95
281.894	93
282.125	110
282.356	150
282.588	184
282.819	140
283.051	90
283.282	81
283.513	92
283.745	107
283.976	100
284.207	92
284.439	96
284.67	86
284.901	90
285.132	89
285.364	92
285.595	89
285.826	87
286.057	88
286.288	85
286.52	101
286.751	91
286.982	95
287.213	90
287.444	103
287.675	91
287.906	97
288.138	94
288.369	113
288.6	85
288.831	93
289.062	105
289.293	98
289.524	86
289.755	97
289.986	83
290.217	78
290.448	104
290.679	90
290.91	91
291.141	104
291.371	83
291.602	98
291.833	103
292.064	86
292.295	91
292.526	101
292.757	93
292.987	95
293.218	99
293.449	78
293.68	84
293.91	87
294.141	108
294.372	93
294.603	82
294.833	90
295.064	92
295.295	95
295.525	98
295.756	118
295.987	139
296.217	172
296.448	163
296.679	100
296.909	94
297.14	92
297.37	90
297.601	91
297.831	100
298.062	88
298.292	106
298.523	94
298.753	99
298.984	90
299.214	95
299.445	118
299.675	97
299.905	95
300.136	106
300.366	94
300.597	85
300.827	101
301.057	112
301.288	128
301.518	120
301.748	115
301.979	107
302.209	116
302.439	89
302.669	89
302.9	99
303.13	94
303.36	121
303.59	164
303.82	176
304.051	96
304.281	95
304.511	94
304.741	96
304.971	74
305.201	105
305.431	93
305.661	94
305.891	101
306.121	93
306.352	116
306.582	128
306.812	128
307.042	140
307.272	218
307.502	235
307.731	203
307.961	142
308.191	101
308.421	92
308.651	103
308.881	90
309.111	107
309.341	118
309.571	109
309.8	108
310.03	121
310.26	113
310.49	116
310.72	112
310.949	129
311.179	122
311.409	123
311.639	111
311.868	111
312.098	115
312.328	118
312.557	136
312.787	123
313.017	126
313.246	115
313.476	104
313.706	98
313.935	98
314.165	114
314.394	125
314.624	130
314.853	110
315.083	97
315.312	94
315.542	94
315.771	105
316.001	102
316.23	98
316.46	100
316.689	105
316.919	104
317.148	110
317.377	106
317.607	103
317.836	115
318.065	99
318.295	98
318.524	81
318.753	106
318.983	107
319.212	116
319.441	120
319.67	135
319.9	109
320.129	92
320.358	109
320.587	106
320.816	114
321.046	116
321.275	111
321.504	106
321.733	118
321.962	101
322.191	102
322.42	134
322.649	140
322.878	150
323.108	161
323.337	180
323.566	192
323.795	248
324.024	316
324.253	726
324.482	1640
324.71	3498
324.939	4510
325.168	1527
325.397	404
325.626	219
325.855	185
326.084	181
326.313	180
326.542	212
326.77	375
326.999	806
327.228	1758
327.457	3326
327.686	2595
327.914	874
328.143	893
328.372	1134
328.6	608
328.829	260
329.058	256
329.287	272
329.515	264
329.744	413
329.972	865
330.201	1816
330.43	2671
330.658	1075
330.887	442
331.115	259
331.344	164
331.572	161
331.801	164
332.03	150
332.258	137
332.486	125
332.715	123
332.943	134
333.172	136
333.4	175
333.629	225
333.857	342
334.085	762
334.314	1721
334.542	3456
334.771	3072
334.999	722
335.227	250
335.455	173
335.684	140
335.912	123
336.14	115
336.369	117
336.597	120
336.825	126
337.053	113
337.281	104
337.51	106
337.738	103
337.966	100
338.194	118
338.422	121
338.65	91
338.878	103
339.106	84
339.334	103
339.562	95
339.79	102
340.018	101
340.246	99
340.474	107
340.702	105
340.93	105
341.158	108
341.386	132
341.614	119
341.842	101
342.07	101
342.298	96
342.526	97
342.754	92
342.981	83
343.209	98
343.437	105
343.665	96
343.893	99
344.12	108
344.348	88
344.576	96
344.804	99
345.031	126
345.259	110
345.487	120
345.714	113
345.942	97
346.17	104
346.397	102
346.625	105
346.853	103
347.08	108
347.308	98
347.535	132
347.763	128
347.99	115
348.218	119
348.445	140
348.673	117
348.9	113
349.128	104
349.355	100
349.583	95
349.81	97
350.037	95
350.265	92
350.492	98
350.72	99
350.947	117
351.174	130
351.402	150
351.629	104
351.856	125
352.083	118
352.311	123
352.538	148
352.765	137
352.992	127
353.22	112
353.447	106
353.674	102
353.901	94
354.128	98
354.355	108
354.583	95
354.81	101
355.037	98
355.264	97
355.491	99
355.718	82
355.945	93
356.172	107
356.399	104
356.626	100
356.853	91
357.08	97
357.307	101
357.534	91
357.761	107
357.988	104
358.215	87
358.441	91
358.668	87
358.895	74
359.122	95
359.349	92
359.576	103
359.802	130
360.029	166
360.256	171
360.483	119
360.709	95
360.936	100
361.163	100
361.39	119
361.616	95
361.843	103
362.07	114
362.296	104
362.523	115
362.749	98
362.976	98
363.203	98
363.429	106
363.656	103
363.882	105
364.109	99
364.335	102
364.562	99
364.788	107
365.015	99
365.241	111
365.468	123
365.694	128
365.92	118
366.147	99
366.373	94
366.599	111
366.826	95
367.052	89
367.278	101
367.505	99
367.731	111
367.957	90
368.184	113
368.41	115
368.636	140
368.862	149
369.089	144
369.315	109
369.541	113
369.767	100
369.993	105
370.219	105
370.445	79
370.672	85
370.898	90
371.124	78
371.35	85
371.576	100
371.802	102
372.028	94
372.254	94
372.48	89
372.706	103
372.932	87
373.158	83
373.384	94
373.61	96
373.835	88
374.061	75
374.287	101
374.513	84
374.739	93
374.965	115
375.191	92
375.416	98
375.642	92
375.868	110
376.094	92
376.319	77
376.545	99
376.771	82
376.997	95
377.222	104
377.448	85
377.674	103
377.899	86
378.125	98
378.35	88
378.576	96
378.802	92
379.027	75
379.253	96
379.478	81
379.704	92
379.929	110
380.155	108
380.38	97
380.606	89
380.831	107
381.057	105
381.282	89
381.507	100
381.733	85
381.958	97
382.184	93
382.409	90
382.634	94
382.86	89
383.085	93
383.31	89
383.535	112
383.761	86
383.986	104
384.211	91
384.436	94
384.662	111
384.887	103
385.112	97
385.337	101
385.562	102
385.787	97
386.013	116
386.238	118
386.463	104
386.688	104
386.913	92
387.138	112
387.363	100
387.588	96
387.813	99
388.038	104
388.263	104
388.488	95
388.713	103
388.938	99
389.163	91
389.387	98
389.612	89
389.837	95
390.062	88
390.287	100
390.512	90
390.736	88
390.961	90
391.186	88
391.411	90
391.636	82
391.86	91
392.085	96
392.31	90
392.534	88
392.759	84
392.984	90
393.208	88
393.433	91
393.658	101
393.882	80
394.107	73
394.331	98
394.556	89
394.78	85
395.005	83
395.229	84
395.454	66
395.678	88
395.903	84
396.127	93
396.352	91
396.576	98
396.801	88
397.025	88
397.249	90
397.474	85
397.698	92
397.922	102
398.147	93
398.371	94
398.595	89
398.82	79
399.044	83
399.268	78
399.492	86
399.717	81
399.941	96
400.165	97
400.389	98
400.613	92
400.837	82
401.062	111
401.286	112
401.51	91
401.734	120
401.958	110
402.182	164
402.406	248
402.63	180
402.854	105
403.078	99
403.302	97
403.526	116
403.75	93
403.974	101
404.198	91
404.422	100
404.645	96
404.869	115
405.093	122
405.317	188
405.541	171
405.765	147
405.988	150
406.212	242
406.436	360
406.66	262
406.883	144
407.107	114
407.331	127
407.555	115
407.778	122
408.002	103
408.226	100
408.449	91
408.673	102
408.896	91
409.12	104
409.344	94
409.567	87
409.791	90
410.014	93
410.238	89
410.461	108
410.685	97
410.908	112
411.132	115
411.355	97
411.578	108
411.802	90
412.025	95
412.249	108
412.472	147
412.695	183
412.919	139
413.142	86
413.365	102
413.589	96
413.812	95
414.035	102
414.258	116
414.482	90
414.705	91
414.928	82
415.151	103
415.374	94
415.597	95
415.821	93
416.044	90
416.267	91
416.49	87
416.713	95
416.936	91
417.159	90
417.382	106
417.605	118
417.828	125
418.051	108
418.274	103
418.497	94
418.72	79
418.943	94
419.166	90
419.389	92
419.611	108
419.834	97
420.057	95
420.28	97
420.503	101
420.726	106
420.948	94
421.171	119
421.394	99
421.617	100
421.839	90
422.062	88
422.285	100
422.507	114
422.73	124
422.953	103
423.175	98
423.398	104
423.621	109
423.843	89
424.066	89
424.288	84
424.511	108
424.733	113
424.956	141
425.178	110
425.401	137
425.623	109
425.846	100
426.068	108
426.291	99
426.513	89
426.735	100
426.958	128
427.18	134
427.402	220
427.625	381
427.847	362
428.069	347
428.292	167
428.514	114
428.736	99
428.958	95
429.181	88
429.403	82
429.625	97
429.847	115
430.069	135
430.292	98
430.514	89
430.736	93
430.958	90
431.18	79
431.402	98
431.624	97
431.846	84
432.068	82
432.29	83
432.512	88
432.734	84
432.956	95
433.178	120
433.4	118
433.622	95
433.844	108
434.066	74
434.287	98
434.509	98
434.731	92
434.953	92
435.175	105
435.397	94
435.618	94
435.84	129
436.062	164
436.284	158
436.505	135
436.727	125
436.949	97
437.17	76
437.392	90
437.614	103
437.835	141
438.057	180
438.278	150
438.5	135
438.721	172
438.943	124
439.165	84
439.386	101
439.608	97
439.829	137
440.05	207
440.272	237
440.493	120
440.715	94
440.936	95
441.158	86
441.379	118
441.6	126
441.822	119
442.043	117
442.264	131
442.486	132
442.707	122
442.928	150
443.149	209
443.371	241
443.592	138
443.813	158
444.034	138
444.255	95
444.476	86
444.698	87
444.919	105
445.14	141
445.361	172
445.582	182
445.803	281
446.024	254
446.245	228
446.466	150
446.687	111
446.908	90
447.129	100
447.35	97
447.571	106
447.792	106
448.013	128
448.234	130
448.455	117
448.675	155
448.896	156
449.117	112
449.338	120
449.559	168
449.779	194
450	115
450.221	94
450.442	107
450.662	122
450.883	151
451.104	161
451.324	115
451.545	90
451.766	98
451.986	87
452.207	96
452.428	118
452.648	114
452.869	142
453.089	148
453.31	161
453.53	112
453.751	97
453.971	131
454.192	159
454.412	108
454.633	92
454.853	110
455.073	96
455.294	99
455.514	118
455.734	99
455.955	81
456.175	87
456.395	88
456.616	99
456.836	89
457.056	73
457.276	88
457.497	102
457.717	98
457.937	89
458.157	101
458.377	95
458.598	139
458.818	274
459.038	299
459.258	180
459.478	92
459.698	83
459.918	100
460.138	97
460.358	88
460.578	79
460.798	110
461.018	97
461.238	86
461.458	88
461.678	89
461.898	89
462.118	89
462.338	81
462.558	100
462.777	99
462.997	104
463.217	126
463.437	114
463.657	103
463.876	99
464.096	108
464.316	105
464.536	113
464.755	121
464.975	139
465.195	288
465.414	300
465.634	127
465.854	116
466.073	98
466.293	89
466.512	83
466.732	109
466.951	104
467.171	104
467.391	131
467.61	194
467.829	304
468.049	952
468.268	1426
468.488	338
468.707	135
468.927	105
469.146	104
469.365	92
469.585	98
469.804	123
470.023	119
470.243	128
470.462	137
470.681	162
470.901	102
471.12	112
471.339	130
471.558	146
471.777	218
471.997	461
472.216	1929
472.435	4384
472.654	946
472.873	224
473.092	137
473.311	131
473.53	96
473.749	88
473.968	117
474.187	160
474.406	124
474.625	100
474.844	92
475.063	91
475.282	90
475.501	95
475.72	101
475.939	95
476.158	99
476.377	108
476.596	103
476.814	108
477.033	122
477.252	103
477.471	115
477.69	99
477.908	103
478.127	94
478.346	98
478.564	107
478.783	123
479.002	121
479.22	130
479.439	163
479.658	156
479.876	160
480.095	156
480.313	161
480.532	215
480.751	448
480.969	1720
481.188	7707
481.406	4214
481.624	556
481.843	177
482.061	139
482.28	107
482.498	110
482.717	111
482.935	95
483.153	91
483.372	93
483.59	99
483.808	101
484.027	106
484.245	96
484.463	84
484.681	92
484.9	98
485.118	104
485.336	98
485.554	104
485.772	102
485.99	116
486.209	94
486.427	103
486.645	127
486.863	159
487.081	115
487.299	103
487.517	110
487.735	100
487.953	119
488.171	101
488.389	113
488.607	107
488.825	97
489.043	96
489.261	95
489.479	107
489.696	94
489.914	100
490.132	100
490.35	104
490.568	91
490.786	90
491.003	106
491.221	94
491.439	114
491.657	96
491.874	91
492.092	108
492.31	95
492.527	116
492.745	118
492.963	89
493.18	105
493.398	104
493.615	97
493.833	87
494.05	94
494.268	94
494.485	103
494.703	85
494.92	98
495.138	81
495.355	95
495.573	108
495.79	97
496.008	101
496.225	93
496.442	101
496.66	116
496.877	95
497.094	93
497.312	100
497.529	92
497.746	90
497.963	96
498.181	106
498.398	96
498.615	137
498.832	122
499.049	97
499.267	107
499.484	87
499.701	96
499.918	113
500.135	94
500.352	93
500.569	105
500.786	99
501.003	94
501.22	94
501.437	104
501.654	125
501.871	135
502.088	106
502.305	94
502.522	88
502.739	97
502.956	82
503.172	92
503.389	118
503.606	150
503.823	127
504.04	102
504.256	99
504.473	86
504.69	96
504.907	102
505.123	102
505.34	95
505.557	86
505.773	108
505.99	79
506.207	99
506.423	98
506.64	105
506.856	85
507.073	94
507.289	98
507.506	120
507.722	154
507.939	165
508.155	107
508.372	113
508.588	96
508.805	100
509.021	99
509.238	111
509.454	105
509.67	112
509.887	127
510.103	153
510.319	279
510.536	1074
510.752	3775
510.968	978
511.184	204
511.401	168
511.617	124
511.833	147
512.049	125
512.265	97
512.481	102
512.698	103
512.914	110
513.13	99
513.346	117
513.562	108
513.778	118
513.994	107
514.21	136
514.426	181
514.642	228
514.858	185
515.074	283
515.29	919
515.506	3237
515.721	1120
515.937	264
516.153	163
516.369	134
516.585	115
516.801	130
517.016	111
517.232	101
517.448	99
517.664	106
517.879	110
518.095	111
518.311	132
518.527	129
518.742	110
518.958	107
519.173	102
519.389	105
519.605	120
519.82	97
520.036	129
520.251	164
520.467	152
520.682	127
520.898	141
521.113	166
521.329	223
521.544	388
521.76	1299
521.975	5614
522.19	3299
522.406	610
522.621	184
522.836	130
523.052	125
523.267	112
523.482	121
523.698	124
523.913	159
524.128	113
524.343	100
524.559	114
524.774	93
524.989	107
525.204	128
525.419	116
525.634	107
525.849	87
526.064	83
526.28	97
526.495	95
526.71	93
526.925	107
527.14	93
527.355	97
527.57	91
527.785	91
527.999	84
528.214	95
528.429	86
528.644	105
528.859	102
529.074	110
529.289	177
529.503	322
529.718	145
529.933	88
530.148	80
530.363	96
530.577	94
530.792	94
531.007	97
531.221	91
531.436	91
531.651	95
531.865	82
532.08	98
532.295	98
532.509	100
532.724	98
532.938	103
533.153	102
533.367	100
533.582	93
533.796	93
534.011	82
534.225	92
534.44	91
534.654	95
534.868	97
535.083	98
535.297	96
535.511	127
535.726	123
535.94	121
536.154	103
536.369	99
536.583	83
536.797	93
537.011	105
537.225	85
537.44	100
537.654	104
537.868	97
538.082	100
538.296	81
538.51	96
538.724	91
538.938	104
539.153	114
539.367	130
539.581	129
539.795	87
540.009	107
540.222	101
540.436	96
540.65	98
540.864	105
541.078	106
541.292	102
541.506	85
541.72	90
541.934	98
542.147	101
542.361	91
542.575	93
542.789	97
543.002	88
543.216	98
543.43	127
543.644	112
543.857	104
544.071	98
544.285	110
544.498	102
544.712	96
544.925	86
545.139	88
545.352	95
545.566	95
545.779	95
545.993	91
546.206	96
546.42	92
546.633	95
546.847	88
547.06	93
547.274	96
547.487	96
547.7	90
547.914	85
548.127	78
548.34	79
548.554	99
548.767	88
548.98	92
549.193	80
549.407	99
549.62	78
549.833	82
550.046	103
550.259	91
550.473	104
550.686	97
550.899	95
551.112	80
551.325	106
551.538	114
551.751	113
551.964	100
552.177	92
552.39	95
552.603	104
552.816	86
553.029	97
553.242	100
553.455	113
553.667	119
553.88	135
554.093	118
554.306	119
554.519	134
554.732	107
554.944	97
555.157	91
555.37	83
555.583	97
555.795	99
556.008	93
556.221	86
556.433	87
556.646	108
556.859	94
557.071	104
557.284	100
557.496	96
557.709	94
557.921	87
558.134	87
558.346	81
558.559	84
558.771	99
558.984	96
559.196	83
559.409	91
559.621	90
559.833	104
560.046	122
560.258	134
560.47	172
560.683	114
560.895	100
561.107	93
561.32	91
561.532	90
561.744	88
561.956	99
562.168	90
562.381	83
562.593	98
562.805	96
563.017	87
563.229	94
563.441	100
563.653	80
563.865	90
564.077	90
564.289	107
564.501	82
564.713	100
564.925	118
565.137	118
565.349	107
565.561	93
565.773	86
565.985	86
566.197	92
566.408	81
566.62	91
566.832	83
567.044	83
567.255	89
567.467	94
567.679	82
567.891	92
568.102	95
568.314	89
568.526	83
568.737	91
568.949	84
569.161	87
569.372	86
569.584	76
569.795	102
570.007	120
570.218	312
570.43	168
570.641	88
570.853	91
571.064	82
571.276	83
571.487	105
571.698	92
571.91	99
572.121	93
572.333	102
572.544	75
572.755	82
572.966	92
573.178	97
573.389	91
573.6	93
573.811	90
574.023	88
574.234	84
574.445	74
574.656	90
574.867	79
575.078	101
575.289	99
575.501	103
575.712	82
575.923	90
576.134	90
576.345	101
576.556	88
576.767	117
576.978	90
