Data from Circ_1997_H10_HRD10591_00075.txt Node
Date: Wed Jan 03 11:29:42 EST 2024
User: Yrep
Spectrometer: HR+D1059
Trigger mode: 1
Integration Time (sec): 1.000000E-1
Scans to average: 1
Electric dark correction enabled: true
Nonlinearity correction enabled: false
Boxcar width: 0
XAxis mode: Wavelengths
Number of Pixels in Spectrum: 2048
>>>>>Begin Spectral Data<<<<<
223.165	-23.44
223.4	-23.44
223.635	-23.44
223.869	-15.44
224.104	-27.44
224.338	-8.44
224.573	-15.44
224.808	-18.44
225.042	1.56
225.277	-0.44
225.511	-10.44
225.746	-4.44
225.98	9.56
226.215	10.56
226.449	25.56
226.683	19.56
226.918	18.56
227.152	38.56
227.387	38.56
227.621	46.56
227.856	56.56
228.09	39.56
228.324	45.56
228.559	37.56
228.793	45.56
229.027	61.56
229.262	75.56
229.496	94.56
229.73	93.56
229.964	87.56
230.199	78.56
230.433	70.56
230.667	86.56
230.901	79.56
231.136	74.56
231.37	86.56
231.604	75.56
231.838	73.56
232.072	78.56
232.306	78.56
232.541	79.56
232.775	80.56
233.009	89.56
233.243	81.56
233.477	78.56
233.711	97.56
233.945	76.56
234.179	68.56
234.413	89.56
234.647	76.56
234.881	72.56
235.115	82.56
235.349	79.56
235.583	69.56
235.817	65.56
236.051	72.56
236.285	79.56
236.519	72.56
236.753	87.56
236.987	85.56
237.221	84.56
237.455	101.56
237.689	76.56
237.922	84.56
238.156	85.56
238.39	64.56
238.624	76.56
238.858	73.56
239.091	72.56
239.325	74.56
239.559	86.56
239.793	77.56
240.027	80.56
240.26	75.56
240.494	89.56
240.728	76.56
240.961	86.56
241.195	87.56
241.429	84.56
241.662	85.56
241.896	81.56
242.13	86.56
242.363	76.56
242.597	72.56
242.83	77.56
243.064	78.56
243.298	87.56
243.531	68.56
243.765	84.56
243.998	80.56
244.232	78.56
244.465	89.56
244.699	81.56
244.932	77.56
245.166	72.56
245.399	70.56
245.633	93.56
245.866	80.56
246.099	79.56
246.333	75.56
246.566	92.56
246.8	82.56
247.033	86.56
247.266	77.56
247.5	84.56
247.733	83.56
247.966	93.56
248.2	82.56
248.433	70.56
248.666	92.56
248.899	77.56
249.133	93.56
249.366	104.56
249.599	104.56
249.832	88.56
250.066	84.56
250.299	96.56
250.532	93.56
250.765	94.56
250.998	89.56
251.231	81.56
251.465	91.56
251.698	89.56
251.931	85.56
252.164	83.56
252.397	75.56
252.63	80.56
252.863	87.56
253.096	82.56
253.329	90.56
253.562	85.56
253.795	92.56
254.028	85.56
254.261	86.56
254.494	67.56
254.727	90.56
254.96	79.56
255.193	86.56
255.426	80.56
255.659	93.56
255.892	93.56
256.124	94.56
256.357	87.56
256.59	76.56
256.823	63.56
257.056	94.56
257.289	84.56
257.521	90.56
257.754	90.56
257.987	88.56
258.22	91.56
258.452	95.56
258.685	99.56
258.918	75.56
259.151	94.56
259.383	84.56
259.616	95.56
259.849	88.56
260.081	95.56
260.314	81.56
260.547	94.56
260.779	112.56
261.012	113.56
261.244	122.56
261.477	105.56
261.71	109.56
261.942	153.56
262.175	152.56
262.407	92.56
262.64	87.56
262.872	81.56
263.105	85.56
263.337	94.56
263.57	90.56
263.802	89.56
264.035	89.56
264.267	79.56
264.499	95.56
264.732	84.56
264.964	80.56
265.197	57.56
265.429	100.56
265.661	78.56
265.894	85.56
266.126	85.56
266.358	79.56
266.591	88.56
266.823	98.56
267.055	94.56
267.287	87.56
267.52	104.56
267.752	81.56
267.984	80.56
268.216	87.56
268.448	84.56
268.681	83.56
268.913	78.56
269.145	97.56
269.377	91.56
269.609	78.56
269.841	80.56
270.073	89.56
270.306	96.56
270.538	96.56
270.77	89.56
271.002	86.56
271.234	106.56
271.466	95.56
271.698	95.56
271.93	96.56
272.162	94.56
272.394	74.56
272.626	90.56
272.858	87.56
273.09	95.56
273.322	93.56
273.553	92.56
273.785	89.56
274.017	90.56
274.249	95.56
274.481	94.56
274.713	90.56
274.945	108.56
275.176	105.56
275.408	114.56
275.64	119.56
275.872	138.56
276.104	116.56
276.335	95.56
276.567	131.56
276.799	173.56
277.031	199.56
277.262	218.56
277.494	162.56
277.726	107.56
277.957	97.56
278.189	82.56
278.421	89.56
278.652	98.56
278.884	84.56
279.115	97.56
279.347	92.56
279.579	106.56
279.81	135.56
280.042	209.56
280.273	316.56
280.505	214.56
280.736	110.56
280.968	90.56
281.199	92.56
281.431	85.56
281.662	89.56
281.894	81.56
282.125	98.56
282.356	154.56
282.588	198.56
282.819	153.56
283.051	94.56
283.282	91.56
283.513	95.56
283.745	82.56
283.976	100.56
284.207	83.56
284.439	83.56
284.67	90.56
284.901	82.56
285.132	82.56
285.364	77.56
285.595	87.56
285.826	96.56
286.057	81.56
286.288	99.56
286.52	78.56
286.751	92.56
286.982	94.56
287.213	85.56
287.444	91.56
287.675	95.56
287.906	99.56
288.138	98.56
288.369	97.56
288.6	91.56
288.831	81.56
289.062	86.56
289.293	83.56
289.524	86.56
289.755	86.56
289.986	82.56
290.217	90.56
290.448	97.56
290.679	92.56
290.91	76.56
291.141	80.56
291.371	77.56
291.602	86.56
291.833	91.56
292.064	100.56
292.295	85.56
292.526	90.56
292.757	103.56
292.987	86.56
293.218	75.56
293.449	84.56
293.68	91.56
293.91	91.56
294.141	86.56
294.372	73.56
294.603	77.56
294.833	81.56
295.064	88.56
295.295	85.56
295.525	72.56
295.756	117.56
295.987	136.56
296.217	196.56
296.448	173.56
296.679	98.56
296.909	80.56
297.14	100.56
297.37	96.56
297.601	93.56
297.831	91.56
298.062	98.56
298.292	88.56
298.523	93.56
298.753	94.56
298.984	98.56
299.214	83.56
299.445	103.56
299.675	105.56
299.905	105.56
300.136	101.56
300.366	82.56
300.597	87.56
300.827	96.56
301.057	108.56
301.288	113.56
301.518	116.56
301.748	107.56
301.979	119.56
302.209	98.56
302.439	108.56
302.669	92.56
302.9	99.56
303.13	102.56
303.36	108.56
303.59	154.56
303.82	148.56
304.051	111.56
304.281	100.56
304.511	94.56
304.741	99.56
304.971	97.56
305.201	91.56
305.431	85.56
305.661	95.56
305.891	75.56
306.121	98.56
306.352	111.56
306.582	133.56
306.812	121.56
307.042	138.56
307.272	180.56
307.502	215.56
307.731	190.56
307.961	125.56
308.191	102.56
308.421	96.56
308.651	94.56
308.881	93.56
309.111	94.56
309.341	104.56
309.571	92.56
309.8	103.56
310.03	112.56
310.26	113.56
310.49	89.56
310.72	116.56
310.949	133.56
311.179	120.56
311.409	105.56
311.639	102.56
311.868	103.56
312.098	104.56
312.328	112.56
312.557	118.56
312.787	138.56
313.017	104.56
313.246	103.56
313.476	84.56
313.706	102.56
313.935	116.56
314.165	115.56
314.394	114.56
314.624	103.56
314.853	111.56
315.083	106.56
315.312	93.56
315.542	80.56
315.771	101.56
316.001	97.56
316.23	104.56
316.46	92.56
316.689	98.56
316.919	100.56
317.148	97.56
317.377	86.56
317.607	114.56
317.836	119.56
318.065	96.56
318.295	85.56
318.524	91.56
318.753	86.56
318.983	98.56
319.212	110.56
319.441	138.56
319.67	128.56
319.9	105.56
320.129	78.56
320.358	92.56
320.587	97.56
320.816	110.56
321.046	117.56
321.275	119.56
321.504	98.56
321.733	97.56
321.962	93.56
322.191	112.56
322.42	121.56
322.649	129.56
322.878	119.56
323.108	120.56
323.337	148.56
323.566	154.56
323.795	201.56
324.024	278.56
324.253	499.56
324.482	1064.56
324.71	2210.56
324.939	2820.56
325.168	1038.56
325.397	306.56
325.626	176.56
325.855	152.56
326.084	150.56
326.313	158.56
326.542	184.56
326.77	274.56
326.999	543.56
327.228	1089.56
327.457	2032.56
327.686	1631.56
327.914	623.56
328.143	671.56
328.372	836.56
328.6	454.56
328.829	230.56
329.058	224.56
329.287	228.56
329.515	198.56
329.744	312.56
329.972	631.56
330.201	1319.56
330.43	1857.56
330.658	812.56
330.887	351.56
331.115	220.56
331.344	123.56
331.572	128.56
331.801	141.56
332.03	140.56
332.258	126.56
332.486	119.56
332.715	118.56
332.943	132.56
333.172	145.56
333.4	136.56
333.629	190.56
333.857	279.56
334.085	557.56
334.314	1198.56
334.542	2337.56
334.771	2101.56
334.999	510.56
335.227	212.56
335.455	128.56
335.684	127.56
335.912	117.56
336.14	115.56
336.369	104.56
336.597	115.56
336.825	108.56
337.053	87.56
337.281	100.56
337.51	92.56
337.738	90.56
337.966	103.56
338.194	105.56
338.422	97.56
338.65	92.56
338.878	92.56
339.106	93.56
339.334	110.56
339.562	102.56
339.79	96.56
340.018	89.56
340.246	97.56
340.474	106.56
340.702	113.56
340.93	87.56
341.158	102.56
341.386	108.56
341.614	112.56
341.842	107.56
342.07	112.56
342.298	94.56
342.526	95.56
342.754	81.56
342.981	106.56
343.209	93.56
343.437	101.56
343.665	80.56
343.893	86.56
344.12	84.56
344.348	92.56
344.576	86.56
344.804	104.56
345.031	106.56
345.259	109.56
345.487	110.56
345.714	88.56
345.942	96.56
346.17	96.56
346.397	89.56
346.625	85.56
346.853	98.56
347.08	99.56
347.308	116.56
347.535	119.56
347.763	110.56
347.99	101.56
348.218	117.56
348.445	115.56
348.673	120.56
348.9	101.56
349.128	103.56
349.355	91.56
349.583	96.56
349.81	109.56
350.037	100.56
350.265	101.56
350.492	95.56
350.72	96.56
350.947	103.56
351.174	124.56
351.402	118.56
351.629	113.56
351.856	126.56
352.083	121.56
352.311	119.56
352.538	129.56
352.765	129.56
352.992	118.56
353.22	133.56
353.447	104.56
353.674	113.56
353.901	98.56
354.128	90.56
354.355	88.56
354.583	97.56
354.81	82.56
355.037	106.56
355.264	81.56
355.491	79.56
355.718	90.56
355.945	94.56
356.172	83.56
356.399	94.56
356.626	98.56
356.853	110.56
357.08	86.56
357.307	91.56
357.534	86.56
357.761	92.56
357.988	91.56
358.215	84.56
358.441	90.56
358.668	102.56
358.895	83.56
359.122	85.56
359.349	83.56
359.576	95.56
359.802	113.56
360.029	158.56
360.256	162.56
360.483	102.56
360.709	103.56
360.936	90.56
361.163	105.56
361.39	117.56
361.616	121.56
361.843	97.56
362.07	112.56
362.296	112.56
362.523	98.56
362.749	106.56
362.976	101.56
363.203	101.56
363.429	87.56
363.656	89.56
363.882	92.56
364.109	93.56
364.335	97.56
364.562	92.56
364.788	95.56
365.015	99.56
365.241	110.56
365.468	120.56
365.694	124.56
365.92	102.56
366.147	100.56
366.373	92.56
366.599	96.56
366.826	91.56
367.052	100.56
367.278	98.56
367.505	93.56
367.731	100.56
367.957	100.56
368.184	102.56
368.41	113.56
368.636	129.56
368.862	143.56
369.089	118.56
369.315	100.56
369.541	92.56
369.767	91.56
369.993	111.56
370.219	87.56
370.445	96.56
370.672	78.56
370.898	88.56
371.124	87.56
371.35	105.56
371.576	87.56
371.802	75.56
372.028	83.56
372.254	88.56
372.48	82.56
372.706	93.56
372.932	71.56
373.158	85.56
373.384	85.56
373.61	92.56
373.835	100.56
374.061	69.56
374.287	71.56
374.513	87.56
374.739	84.56
374.965	82.56
375.191	87.56
375.416	90.56
375.642	86.56
375.868	94.56
376.094	87.56
376.319	96.56
376.545	92.56
376.771	91.56
376.997	79.56
377.222	106.56
377.448	81.56
377.674	115.56
377.899	101.56
378.125	93.56
378.35	72.56
378.576	92.56
378.802	84.56
379.027	90.56
379.253	99.56
379.478	94.56
379.704	89.56
379.929	90.56
380.155	100.56
380.38	89.56
380.606	89.56
380.831	79.56
381.057	91.56
381.282	102.56
381.507	97.56
381.733	87.56
381.958	106.56
382.184	101.56
382.409	105.56
382.634	97.56
382.86	98.56
383.085	93.56
383.31	88.56
383.535	86.56
383.761	93.56
383.986	90.56
384.211	86.56
384.436	87.56
384.662	74.56
384.887	95.56
385.112	101.56
385.337	97.56
385.562	97.56
385.787	105.56
386.013	95.56
386.238	113.56
386.463	117.56
386.688	114.56
386.913	95.56
387.138	85.56
387.363	97.56
387.588	101.56
387.813	109.56
388.038	101.56
388.263	108.56
388.488	101.56
388.713	102.56
388.938	106.56
389.163	101.56
389.387	101.56
389.612	97.56
389.837	99.56
390.062	95.56
390.287	83.56
390.512	97.56
390.736	75.56
390.961	93.56
391.186	97.56
391.411	103.56
391.636	102.56
391.86	91.56
392.085	77.56
392.31	85.56
392.534	94.56
392.759	80.56
392.984	77.56
393.208	81.56
393.433	93.56
393.658	91.56
393.882	82.56
394.107	92.56
394.331	82.56
394.556	101.56
394.78	98.56
395.005	87.56
395.229	80.56
395.454	102.56
395.678	90.56
395.903	90.56
396.127	77.56
396.352	96.56
396.576	95.56
396.801	95.56
397.025	83.56
397.249	91.56
397.474	90.56
397.698	82.56
397.922	105.56
398.147	93.56
398.371	82.56
398.595	89.56
398.82	76.56
399.044	83.56
399.268	72.56
399.492	90.56
399.717	89.56
399.941	83.56
400.165	93.56
400.389	79.56
400.613	101.56
400.837	84.56
401.062	90.56
401.286	98.56
401.51	87.56
401.734	103.56
401.958	124.56
402.182	172.56
402.406	230.56
402.63	153.56
402.854	95.56
403.078	90.56
403.302	101.56
403.526	94.56
403.75	103.56
403.974	83.56
404.198	88.56
404.422	89.56
404.645	93.56
404.869	103.56
405.093	123.56
405.317	159.56
405.541	152.56
405.765	113.56
405.988	135.56
406.212	254.56
406.436	408.56
406.66	252.56
406.883	130.56
407.107	99.56
407.331	104.56
407.555	114.56
407.778	109.56
408.002	103.56
408.226	95.56
408.449	88.56
408.673	98.56
408.896	101.56
409.12	112.56
409.344	87.56
409.567	86.56
409.791	105.56
410.014	95.56
410.238	89.56
410.461	87.56
410.685	101.56
410.908	84.56
411.132	106.56
411.355	109.56
411.578	112.56
411.802	97.56
412.025	97.56
412.249	109.56
412.472	122.56
412.695	136.56
412.919	99.56
413.142	95.56
413.365	98.56
413.589	90.56
413.812	86.56
414.035	89.56
414.258	89.56
414.482	97.56
414.705	87.56
414.928	82.56
415.151	88.56
415.374	89.56
415.597	90.56
415.821	92.56
416.044	95.56
416.267	81.56
416.49	97.56
416.713	82.56
416.936	101.56
417.159	88.56
417.382	104.56
417.605	105.56
417.828	108.56
418.051	106.56
418.274	92.56
418.497	96.56
418.72	74.56
418.943	82.56
419.166	96.56
419.389	90.56
419.611	86.56
419.834	98.56
420.057	102.56
420.28	104.56
420.503	89.56
420.726	86.56
420.948	81.56
421.171	112.56
421.394	104.56
421.617	91.56
421.839	93.56
422.062	78.56
422.285	98.56
422.507	105.56
422.73	107.56
422.953	88.56
423.175	92.56
423.398	87.56
423.621	78.56
423.843	87.56
424.066	79.56
424.288	85.56
424.511	97.56
424.733	120.56
424.956	123.56
425.178	130.56
425.401	111.56
425.623	104.56
425.846	99.56
426.068	97.56
426.291	104.56
426.513	92.56
426.735	95.56
426.958	104.56
427.18	132.56
427.402	179.56
427.625	296.56
427.847	253.56
428.069	198.56
428.292	123.56
428.514	111.56
428.736	85.56
428.958	84.56
429.181	99.56
429.403	89.56
429.625	99.56
429.847	94.56
430.069	118.56
430.292	91.56
430.514	105.56
430.736	75.56
430.958	85.56
431.18	94.56
431.402	97.56
431.624	98.56
431.846	94.56
432.068	77.56
432.29	97.56
432.512	88.56
432.734	81.56
432.956	76.56
433.178	104.56
433.4	100.56
433.622	77.56
433.844	81.56
434.066	81.56
434.287	84.56
434.509	87.56
434.731	93.56
434.953	87.56
435.175	96.56
435.397	98.56
435.618	105.56
435.84	106.56
436.062	141.56
436.284	117.56
436.505	115.56
436.727	104.56
436.949	97.56
437.17	88.56
437.392	101.56
437.614	97.56
437.835	135.56
438.057	164.56
438.278	127.56
438.5	126.56
438.721	152.56
438.943	116.56
439.165	96.56
439.386	96.56
439.608	99.56
439.829	103.56
440.05	154.56
440.272	185.56
440.493	114.56
440.715	103.56
440.936	101.56
441.158	89.56
441.379	79.56
441.6	86.56
441.822	109.56
442.043	97.56
442.264	127.56
442.486	127.56
442.707	105.56
442.928	134.56
443.149	199.56
443.371	191.56
443.592	135.56
443.813	145.56
444.034	135.56
444.255	93.56
444.476	89.56
444.698	95.56
444.919	86.56
445.14	121.56
445.361	132.56
445.582	137.56
445.803	191.56
446.024	186.56
446.245	159.56
446.466	116.56
446.687	94.56
446.908	93.56
447.129	89.56
447.35	92.56
447.571	96.56
447.792	104.56
448.013	111.56
448.234	125.56
448.455	131.56
448.675	154.56
448.896	132.56
449.117	115.56
449.338	116.56
449.559	152.56
449.779	153.56
450	110.56
450.221	79.56
450.442	95.56
450.662	124.56
450.883	144.56
451.104	158.56
451.324	108.56
451.545	108.56
451.766	82.56
451.986	100.56
452.207	104.56
452.428	105.56
452.648	120.56
452.869	123.56
453.089	158.56
453.31	174.56
453.53	100.56
453.751	106.56
453.971	139.56
454.192	160.56
454.412	123.56
454.633	91.56
454.853	88.56
455.073	85.56
455.294	98.56
455.514	102.56
455.734	108.56
455.955	87.56
456.175	84.56
456.395	90.56
456.616	81.56
456.836	87.56
457.056	89.56
457.276	83.56
457.497	89.56
457.717	103.56
457.937	97.56
458.157	109.56
458.377	99.56
458.598	140.56
458.818	249.56
459.038	278.56
459.258	176.56
459.478	90.56
459.698	106.56
459.918	90.56
460.138	89.56
460.358	92.56
460.578	84.56
460.798	96.56
461.018	90.56
461.238	90.56
461.458	83.56
461.678	90.56
461.898	98.56
462.118	104.56
462.338	107.56
462.558	78.56
462.777	77.56
462.997	109.56
463.217	124.56
463.437	89.56
463.657	92.56
463.876	94.56
464.096	103.56
464.316	125.56
464.536	107.56
464.755	106.56
464.975	137.56
465.195	286.56
465.414	274.56
465.634	116.56
465.854	97.56
466.073	104.56
466.293	104.56
466.512	93.56
466.732	90.56
466.951	88.56
467.171	123.56
467.391	119.56
467.61	178.56
467.829	248.56
468.049	753.56
468.268	1086.56
468.488	261.56
468.707	116.56
468.927	92.56
469.146	99.56
469.365	91.56
469.585	95.56
469.804	118.56
470.023	129.56
470.243	117.56
470.462	132.56
470.681	148.56
470.901	105.56
471.12	105.56
471.339	127.56
471.558	131.56
471.777	158.56
471.997	381.56
472.216	1491.56
472.435	3371.56
472.654	735.56
472.873	181.56
473.092	118.56
473.311	96.56
473.53	91.56
473.749	97.56
473.968	116.56
474.187	150.56
474.406	104.56
474.625	105.56
474.844	98.56
475.063	92.56
475.282	98.56
475.501	77.56
475.72	80.56
475.939	80.56
476.158	102.56
476.377	99.56
476.596	101.56
476.814	124.56
477.033	108.56
477.252	96.56
477.471	99.56
477.69	104.56
477.908	101.56
478.127	91.56
478.346	102.56
478.564	96.56
478.783	111.56
479.002	117.56
479.22	113.56
479.439	126.56
479.658	148.56
479.876	122.56
480.095	148.56
480.313	170.56
480.532	174.56
480.751	350.56
480.969	1333.56
481.188	5784.56
481.406	3167.56
481.624	448.56
481.843	145.56
482.061	107.56
482.28	102.56
482.498	94.56
482.717	98.56
482.935	97.56
483.153	94.56
483.372	98.56
483.59	90.56
483.808	95.56
484.027	89.56
484.245	105.56
484.463	100.56
484.681	97.56
484.9	97.56
485.118	100.56
485.336	97.56
485.554	104.56
485.772	104.56
485.99	102.56
486.209	95.56
486.427	122.56
486.645	126.56
486.863	128.56
487.081	97.56
487.299	96.56
487.517	92.56
487.735	87.56
487.953	88.56
488.171	102.56
488.389	106.56
488.607	110.56
488.825	105.56
489.043	96.56
489.261	78.56
489.479	88.56
489.696	82.56
489.914	92.56
490.132	89.56
490.35	82.56
490.568	85.56
490.786	109.56
491.003	98.56
491.221	100.56
491.439	92.56
491.657	90.56
491.874	96.56
492.092	98.56
492.31	107.56
492.527	102.56
492.745	85.56
492.963	91.56
493.18	83.56
493.398	103.56
493.615	90.56
493.833	107.56
494.05	89.56
494.268	100.56
494.485	85.56
494.703	88.56
494.92	101.56
495.138	77.56
495.355	85.56
495.573	89.56
495.79	93.56
496.008	87.56
496.225	104.56
496.442	104.56
496.66	103.56
496.877	97.56
497.094	90.56
497.312	83.56
497.529	86.56
497.746	90.56
497.963	82.56
498.181	99.56
498.398	88.56
498.615	122.56
498.832	108.56
499.049	102.56
499.267	109.56
499.484	105.56
499.701	96.56
499.918	88.56
500.135	96.56
500.352	95.56
500.569	98.56
500.786	95.56
501.003	93.56
501.22	95.56
501.437	105.56
501.654	107.56
501.871	123.56
502.088	95.56
502.305	91.56
502.522	83.56
502.739	84.56
502.956	82.56
503.172	93.56
503.389	91.56
503.606	144.56
503.823	116.56
504.04	95.56
504.256	95.56
504.473	87.56
504.69	106.56
504.907	97.56
505.123	80.56
505.34	90.56
505.557	92.56
505.773	94.56
505.99	95.56
506.207	98.56
506.423	78.56
506.64	84.56
506.856	105.56
507.073	96.56
507.289	109.56
507.506	102.56
507.722	153.56
507.939	146.56
508.155	98.56
508.372	93.56
508.588	98.56
508.805	103.56
509.021	119.56
509.238	93.56
509.454	114.56
509.67	125.56
509.887	121.56
510.103	161.56
510.319	276.56
510.536	1182.56
510.752	4125.56
510.968	1080.56
511.184	232.56
511.401	133.56
511.617	116.56
511.833	117.56
512.049	122.56
512.265	97.56
