Data from Circ_1997_H10_HRD10591_00097.txt Node
Date: Wed Jan 03 11:29:47 EST 2024
User: Yrep
Spectrometer: HR+D1059
Trigger mode: 1
Integration Time (sec): 1.000000E-1
Scans to average: 1
Electric dark correction enabled: true
Nonlinearity correction enabled: false
Boxcar width: 0
XAxis mode: Wavelengths
Number of Pixels in Spectrum: 2048
>>>>>Begin Spectral Data<<<<<
223.165	-4.81
223.4	-4.81
223.635	-4.81
223.869	-22.81
224.104	-10.81
224.338	-11.81
224.573	-6.81
224.808	-6.81
225.042	2.19
225.277	-9.81
225.511	-7.81
225.746	-0.81
225.98	0.19
226.215	15.19
226.449	7.19
226.683	-0.81
226.918	29.19
227.152	29.19
227.387	36.19
227.621	49.19
227.856	51.19
228.09	52.19
228.324	54.19
228.559	49.19
228.793	63.19
229.027	65.19
229.262	82.19
229.496	96.19
229.73	112.19
229.964	105.19
230.199	97.19
230.433	85.19
230.667	92.19
230.901	84.19
231.136	69.19
231.37	77.19
231.604	63.19
231.838	74.19
232.072	89.19
232.306	94.19
232.541	101.19
232.775	83.19
233.009	70.19
233.243	82.19
233.477	68.19
233.711	79.19
233.945	74.19
234.179	105.19
234.413	88.19
234.647	87.19
234.881	87.19
235.115	78.19
235.349	82.19
235.583	75.19
235.817	79.19
236.051	73.19
236.285	80.19
236.519	83.19
236.753	80.19
236.987	90.19
237.221	100.19
237.455	111.19
237.689	97.19
237.922	91.19
238.156	85.19
238.39	84.19
238.624	72.19
238.858	65.19
239.091	93.19
239.325	85.19
239.559	92.19
239.793	83.19
240.027	81.19
240.26	92.19
240.494	86.19
240.728	82.19
240.961	84.19
241.195	93.19
241.429	83.19
241.662	82.19
241.896	84.19
242.13	72.19
242.363	81.19
242.597	83.19
242.83	66.19
243.064	67.19
243.298	74.19
243.531	92.19
243.765	79.19
243.998	84.19
244.232	87.19
244.465	92.19
244.699	93.19
244.932	80.19
245.166	84.19
245.399	80.19
245.633	85.19
245.866	77.19
246.099	85.19
246.333	70.19
246.566	89.19
246.8	77.19
247.033	76.19
247.266	82.19
247.5	87.19
247.733	90.19
247.966	94.19
248.2	85.19
248.433	82.19
248.666	72.19
248.899	95.19
249.133	85.19
249.366	114.19
249.599	136.19
249.832	101.19
250.066	92.19
250.299	89.19
250.532	88.19
250.765	88.19
250.998	89.19
251.231	88.19
251.465	81.19
251.698	97.19
251.931	94.19
252.164	81.19
252.397	89.19
252.63	91.19
252.863	82.19
253.096	70.19
253.329	82.19
253.562	91.19
253.795	73.19
254.028	82.19
254.261	81.19
254.494	78.19
254.727	87.19
254.96	76.19
255.193	82.19
255.426	90.19
255.659	82.19
255.892	97.19
256.124	125.19
256.357	108.19
256.59	89.19
256.823	114.19
257.056	90.19
257.289	96.19
257.521	96.19
257.754	96.19
257.987	99.19
258.22	98.19
258.452	95.19
258.685	116.19
258.918	86.19
259.151	89.19
259.383	93.19
259.616	92.19
259.849	81.19
260.081	91.19
260.314	95.19
260.547	85.19
260.779	109.19
261.012	138.19
261.244	139.19
261.477	112.19
261.71	125.19
261.942	181.19
262.175	172.19
262.407	114.19
262.64	91.19
262.872	87.19
263.105	77.19
263.337	77.19
263.57	92.19
263.802	86.19
264.035	90.19
264.267	66.19
264.499	87.19
264.732	84.19
264.964	97.19
265.197	85.19
265.429	80.19
265.661	87.19
265.894	76.19
266.126	98.19
266.358	92.19
266.591	71.19
266.823	84.19
267.055	85.19
267.287	86.19
267.52	90.19
267.752	100.19
267.984	101.19
268.216	90.19
268.448	83.19
268.681	97.19
268.913	87.19
269.145	85.19
269.377	89.19
269.609	82.19
269.841	71.19
270.073	93.19
270.306	111.19
270.538	85.19
270.77	89.19
271.002	88.19
271.234	92.19
271.466	103.19
271.698	96.19
271.93	81.19
272.162	94.19
272.394	96.19
272.626	99.19
272.858	87.19
273.09	93.19
273.322	92.19
273.553	77.19
273.785	79.19
274.017	90.19
274.249	92.19
274.481	87.19
274.713	96.19
274.945	99.19
275.176	102.19
275.408	130.19
275.64	139.19
275.872	147.19
276.104	123.19
276.335	128.19
276.567	137.19
276.799	193.19
277.031	249.19
277.262	293.19
277.494	209.19
277.726	114.19
277.957	102.19
278.189	105.19
278.421	98.19
278.652	93.19
278.884	76.19
279.115	88.19
279.347	110.19
279.579	128.19
279.81	192.19
280.042	282.19
280.273	411.19
280.505	259.19
280.736	126.19
280.968	107.19
281.199	103.19
281.431	79.19
281.662	87.19
281.894	111.19
282.125	112.19
282.356	156.19
282.588	194.19
282.819	161.19
283.051	101.19
283.282	86.19
283.513	89.19
283.745	96.19
283.976	91.19
284.207	95.19
284.439	109.19
284.67	82.19
284.901	83.19
285.132	98.19
285.364	96.19
285.595	84.19
285.826	96.19
286.057	83.19
286.288	99.19
286.52	100.19
286.751	90.19
286.982	93.19
287.213	85.19
287.444	106.19
287.675	104.19
287.906	108.19
288.138	98.19
288.369	96.19
288.6	114.19
288.831	105.19
289.062	99.19
289.293	80.19
289.524	99.19
289.755	100.19
289.986	86.19
290.217	101.19
290.448	91.19
290.679	96.19
290.91	88.19
291.141	95.19
291.371	106.19
291.602	87.19
291.833	84.19
292.064	93.19
292.295	95.19
292.526	109.19
292.757	91.19
292.987	95.19
293.218	98.19
293.449	95.19
293.68	91.19
293.91	79.19
294.141	119.19
294.372	93.19
294.603	80.19
294.833	104.19
295.064	108.19
295.295	93.19
295.525	90.19
295.756	120.19
295.987	138.19
296.217	199.19
296.448	168.19
296.679	104.19
296.909	85.19
297.14	87.19
297.37	81.19
297.601	87.19
297.831	111.19
298.062	94.19
298.292	95.19
298.523	93.19
298.753	105.19
298.984	88.19
299.214	88.19
299.445	103.19
299.675	97.19
299.905	109.19
300.136	85.19
300.366	95.19
300.597	91.19
300.827	97.19
301.057	121.19
301.288	122.19
301.518	99.19
301.748	124.19
301.979	143.19
302.209	109.19
302.439	119.19
302.669	100.19
302.9	99.19
303.13	104.19
303.36	125.19
303.59	169.19
303.82	194.19
304.051	131.19
304.281	90.19
304.511	108.19
304.741	108.19
304.971	89.19
305.201	95.19
305.431	86.19
305.661	98.19
305.891	109.19
306.121	111.19
306.352	119.19
306.582	105.19
306.812	123.19
307.042	163.19
307.272	233.19
307.502	247.19
307.731	202.19
307.961	156.19
308.191	103.19
308.421	115.19
308.651	96.19
308.881	105.19
309.111	109.19
309.341	107.19
309.571	117.19
309.8	124.19
310.03	115.19
310.26	119.19
310.49	114.19
310.72	101.19
310.949	138.19
311.179	135.19
311.409	96.19
311.639	120.19
311.868	105.19
312.098	95.19
312.328	112.19
312.557	133.19
312.787	140.19
313.017	135.19
313.246	101.19
313.476	102.19
313.706	97.19
313.935	108.19
314.165	128.19
314.394	146.19
314.624	127.19
314.853	104.19
315.083	100.19
315.312	105.19
315.542	95.19
315.771	108.19
316.001	86.19
316.23	103.19
316.46	101.19
316.689	97.19
316.919	111.19
317.148	128.19
317.377	119.19
317.607	116.19
317.836	113.19
318.065	116.19
318.295	95.19
318.524	90.19
318.753	99.19
318.983	105.19
319.212	103.19
319.441	136.19
319.67	128.19
319.9	113.19
320.129	111.19
320.358	105.19
320.587	104.19
320.816	108.19
321.046	136.19
321.275	104.19
321.504	113.19
321.733	116.19
321.962	113.19
322.191	118.19
322.42	127.19
322.649	121.19
322.878	137.19
323.108	156.19
323.337	161.19
323.566	190.19
323.795	233.19
324.024	321.19
324.253	654.19
324.482	1399.19
324.71	2997.19
324.939	3862.19
325.168	1331.19
325.397	364.19
325.626	215.19
325.855	176.19
326.084	164.19
326.313	177.19
326.542	201.19
326.77	331.19
326.999	679.19
327.228	1455.19
327.457	2749.19
327.686	2197.19
327.914	805.19
328.143	883.19
328.372	1124.19
328.6	570.19
328.829	265.19
329.058	273.19
329.287	280.19
329.515	260.19
329.744	407.19
329.972	855.19
330.201	1863.19
330.43	2611.19
330.658	1078.19
330.887	457.19
331.115	279.19
331.344	154.19
331.572	142.19
331.801	169.19
332.03	164.19
332.258	149.19
332.486	128.19
332.715	135.19
332.943	137.19
333.172	137.19
333.4	158.19
333.629	219.19
333.857	344.19
334.085	748.19
334.314	1702.19
334.542	3344.19
334.771	2897.19
334.999	708.19
335.227	259.19
335.455	157.19
335.684	147.19
335.912	130.19
336.14	116.19
336.369	121.19
336.597	132.19
336.825	125.19
337.053	120.19
337.281	106.19
337.51	109.19
337.738	116.19
337.966	115.19
338.194	121.19
338.422	122.19
338.65	108.19
338.878	100.19
339.106	92.19
339.334	91.19
339.562	97.19
339.79	109.19
340.018	104.19
340.246	110.19
340.474	108.19
340.702	121.19
340.93	108.19
341.158	103.19
341.386	110.19
341.614	126.19
341.842	111.19
342.07	109.19
342.298	108.19
342.526	98.19
342.754	93.19
342.981	91.19
343.209	80.19
343.437	106.19
343.665	101.19
343.893	104.19
344.12	87.19
344.348	87.19
344.576	85.19
344.804	103.19
345.031	108.19
345.259	130.19
345.487	115.19
345.714	107.19
345.942	103.19
346.17	89.19
346.397	100.19
346.625	108.19
346.853	117.19
347.08	86.19
347.308	101.19
347.535	119.19
347.763	130.19
347.99	119.19
348.218	134.19
348.445	130.19
348.673	124.19
348.9	108.19
349.128	98.19
349.355	101.19
349.583	123.19
349.81	115.19
350.037	109.19
350.265	103.19
350.492	96.19
350.72	115.19
350.947	122.19
351.174	140.19
351.402	154.19
351.629	114.19
351.856	109.19
352.083	137.19
352.311	123.19
352.538	137.19
352.765	125.19
352.992	135.19
353.22	132.19
353.447	117.19
353.674	102.19
353.901	100.19
354.128	98.19
354.355	95.19
354.583	90.19
354.81	101.19
355.037	101.19
355.264	99.19
355.491	92.19
355.718	100.19
355.945	105.19
356.172	105.19
356.399	93.19
356.626	76.19
356.853	97.19
357.08	98.19
357.307	96.19
357.534	86.19
357.761	100.19
357.988	92.19
358.215	101.19
358.441	96.19
358.668	92.19
358.895	97.19
359.122	96.19
359.349	91.19
359.576	112.19
359.802	137.19
360.029	179.19
360.256	172.19
360.483	139.19
360.709	104.19
360.936	103.19
361.163	99.19
361.39	120.19
361.616	115.19
361.843	98.19
362.07	115.19
362.296	132.19
362.523	98.19
362.749	121.19
362.976	98.19
363.203	100.19
363.429	93.19
363.656	100.19
363.882	109.19
364.109	101.19
364.335	96.19
364.562	110.19
364.788	99.19
365.015	108.19
365.241	105.19
365.468	144.19
365.694	124.19
365.92	123.19
366.147	107.19
366.373	99.19
366.599	102.19
366.826	99.19
367.052	103.19
367.278	114.19
367.505	113.19
367.731	96.19
367.957	100.19
368.184	113.19
368.41	115.19
368.636	141.19
368.862	141.19
369.089	152.19
369.315	114.19
369.541	115.19
369.767	86.19
369.993	105.19
370.219	97.19
370.445	92.19
370.672	96.19
370.898	77.19
371.124	96.19
371.35	87.19
371.576	104.19
371.802	84.19
372.028	93.19
372.254	89.19
372.48	91.19
372.706	97.19
372.932	91.19
373.158	88.19
373.384	89.19
373.61	87.19
373.835	99.19
374.061	96.19
374.287	109.19
374.513	104.19
374.739	93.19
374.965	107.19
375.191	97.19
375.416	98.19
375.642	93.19
375.868	106.19
376.094	96.19
376.319	91.19
376.545	94.19
376.771	92.19
376.997	91.19
377.222	97.19
377.448	85.19
377.674	92.19
377.899	92.19
378.125	97.19
378.35	100.19
378.576	99.19
378.802	84.19
379.027	103.19
379.253	100.19
379.478	100.19
379.704	99.19
379.929	91.19
380.155	104.19
380.38	102.19
380.606	97.19
380.831	90.19
381.057	90.19
381.282	90.19
381.507	103.19
381.733	112.19
381.958	92.19
382.184	112.19
382.409	116.19
382.634	112.19
382.86	96.19
383.085	106.19
383.31	104.19
383.535	101.19
383.761	105.19
383.986	106.19
384.211	84.19
384.436	96.19
384.662	100.19
384.887	91.19
385.112	87.19
385.337	83.19
385.562	93.19
385.787	121.19
386.013	116.19
386.238	124.19
386.463	111.19
386.688	113.19
386.913	98.19
387.138	93.19
387.363	95.19
387.588	101.19
387.813	97.19
388.038	98.19
388.263	96.19
388.488	99.19
388.713	106.19
388.938	95.19
389.163	96.19
389.387	91.19
389.612	97.19
389.837	105.19
390.062	88.19
390.287	83.19
390.512	95.19
390.736	98.19
390.961	90.19
391.186	100.19
391.411	101.19
391.636	79.19
391.86	96.19
392.085	81.19
392.31	91.19
392.534	95.19
392.759	86.19
392.984	99.19
393.208	88.19
393.433	104.19
393.658	93.19
393.882	84.19
394.107	76.19
394.331	91.19
394.556	81.19
394.78	98.19
395.005	86.19
395.229	83.19
395.454	81.19
395.678	86.19
395.903	88.19
396.127	95.19
396.352	90.19
396.576	95.19
396.801	84.19
397.025	88.19
397.249	93.19
397.474	89.19
397.698	92.19
397.922	83.19
398.147	82.19
398.371	89.19
398.595	106.19
398.82	84.19
399.044	89.19
399.268	93.19
399.492	98.19
399.717	99.19
399.941	91.19
400.165	96.19
400.389	116.19
400.613	97.19
400.837	80.19
401.062	91.19
401.286	87.19
401.51	96.19
401.734	112.19
401.958	119.19
402.182	174.19
402.406	263.19
402.63	163.19
402.854	120.19
403.078	103.19
403.302	97.19
403.526	105.19
403.75	92.19
403.974	97.19
404.198	75.19
404.422	108.19
404.645	94.19
404.869	106.19
405.093	151.19
405.317	175.19
405.541	170.19
405.765	137.19
405.988	168.19
406.212	276.19
406.436	425.19
406.66	267.19
406.883	147.19
407.107	122.19
407.331	124.19
407.555	119.19
407.778	106.19
408.002	107.19
408.226	101.19
408.449	94.19
408.673	84.19
408.896	94.19
409.12	103.19
409.344	90.19
409.567	85.19
409.791	90.19
410.014	95.19
410.238	87.19
410.461	104.19
410.685	98.19
410.908	100.19
411.132	117.19
411.355	119.19
411.578	93.19
411.802	93.19
412.025	113.19
412.249	124.19
412.472	129.19
412.695	167.19
412.919	122.19
413.142	102.19
413.365	98.19
413.589	89.19
413.812	98.19
414.035	113.19
414.258	96.19
414.482	96.19
414.705	98.19
414.928	91.19
415.151	87.19
415.374	66.19
415.597	78.19
415.821	84.19
416.044	96.19
416.267	95.19
416.49	100.19
416.713	94.19
416.936	101.19
417.159	100.19
417.382	109.19
417.605	120.19
417.828	124.19
418.051	115.19
418.274	93.19
418.497	82.19
418.72	87.19
418.943	95.19
419.166	92.19
419.389	104.19
419.611	89.19
419.834	99.19
420.057	83.19
420.28	105.19
420.503	89.19
420.726	103.19
420.948	107.19
421.171	114.19
421.394	106.19
421.617	104.19
421.839	107.19
422.062	107.19
422.285	103.19
422.507	103.19
422.73	112.19
422.953	108.19
423.175	94.19
423.398	90.19
423.621	96.19
423.843	91.19
424.066	97.19
424.288	99.19
424.511	107.19
424.733	111.19
424.956	152.19
425.178	121.19
425.401	128.19
425.623	112.19
425.846	104.19
426.068	104.19
426.291	94.19
426.513	107.19
426.735	104.19
426.958	118.19
427.18	152.19
427.402	223.19
427.625	353.19
427.847	336.19
428.069	311.19
428.292	145.19
428.514	113.19
428.736	108.19
428.958	100.19
429.181	88.19
429.403	92.19
429.625	106.19
429.847	112.19
430.069	123.19
430.292	115.19
430.514	80.19
430.736	84.19
430.958	78.19
431.18	78.19
431.402	99.19
431.624	99.19
431.846	83.19
432.068	84.19
432.29	88.19
432.512	88.19
432.734	92.19
432.956	105.19
433.178	99.19
433.4	118.19
433.622	97.19
433.844	104.19
434.066	97.19
434.287	79.19
434.509	91.19
434.731	92.19
434.953	91.19
435.175	99.19
435.397	98.19
435.618	97.19
435.84	112.19
436.062	164.19
436.284	152.19
436.505	127.19
436.727	121.19
436.949	92.19
437.17	111.19
437.392	98.19
437.614	105.19
437.835	167.19
438.057	180.19
438.278	151.19
438.5	133.19
438.721	169.19
438.943	116.19
439.165	96.19
439.386	105.19
439.608	108.19
439.829	144.19
440.05	196.19
440.272	241.19
440.493	129.19
440.715	103.19
440.936	97.19
441.158	97.19
441.379	106.19
441.6	113.19
441.822	114.19
442.043	132.19
442.264	139.19
442.486	135.19
442.707	107.19
442.928	132.19
443.149	231.19
443.371	228.19
443.592	155.19
443.813	147.19
444.034	131.19
444.255	98.19
444.476	91.19
444.698	84.19
444.919	99.19
445.14	145.19
445.361	147.19
445.582	174.19
445.803	251.19
446.024	229.19
446.245	209.19
446.466	159.19
446.687	82.19
446.908	90.19
447.129	111.19
447.35	96.19
447.571	113.19
447.792	123.19
448.013	131.19
448.234	135.19
448.455	124.19
448.675	151.19
448.896	169.19
449.117	128.19
449.338	135.19
449.559	185.19
449.779	183.19
450	123.19
450.221	97.19
450.442	100.19
450.662	117.19
450.883	154.19
451.104	171.19
451.324	115.19
451.545	108.19
451.766	101.19
451.986	95.19
452.207	101.19
452.428	103.19
452.648	137.19
452.869	156.19
453.089	175.19
453.31	179.19
453.53	119.19
453.751	108.19
453.971	137.19
454.192	163.19
454.412	117.19
454.633	105.19
454.853	96.19
455.073	104.19
455.294	103.19
455.514	130.19
455.734	116.19
455.955	88.19
456.175	91.19
456.395	95.19
456.616	96.19
456.836	89.19
457.056	95.19
457.276	98.19
457.497	72.19
457.717	94.19
457.937	99.19
458.157	95.19
458.377	115.19
458.598	141.19
458.818	270.19
459.038	327.19
459.258	188.19
459.478	110.19
459.698	101.19
459.918	87.19
460.138	87.19
460.358	100.19
460.578	93.19
460.798	96.19
461.018	104.19
461.238	99.19
461.458	98.19
461.678	89.19
461.898	93.19
462.118	98.19
462.338	93.19
462.558	105.19
462.777	99.19
462.997	106.19
463.217	121.19
463.437	120.19
463.657	93.19
463.876	99.19
464.096	103.19
464.316	100.19
464.536	123.19
464.755	112.19
464.975	152.19
465.195	316.19
465.414	325.19
465.634	129.19
465.854	104.19
466.073	100.19
466.293	99.19
466.512	101.19
466.732	99.19
466.951	96.19
467.171	114.19
467.391	139.19
467.61	191.19
467.829	325.19
468.049	969.19
468.268	1423.19
468.488	315.19
468.707	139.19
468.927	103.19
469.146	93.19
469.365	114.19
469.585	112.19
469.804	121.19
470.023	132.19
470.243	123.19
470.462	140.19
470.681	170.19
470.901	134.19
471.12	123.19
471.339	116.19
471.558	158.19
471.777	215.19
471.997	480.19
472.216	1988.19
472.435	4404.19
472.654	978.19
472.873	222.19
473.092	132.19
473.311	104.19
473.53	90.19
473.749	104.19
473.968	110.19
474.187	150.19
474.406	129.19
474.625	99.19
474.844	95.19
475.063	98.19
475.282	97.19
475.501	95.19
475.72	104.19
475.939	95.19
476.158	87.19
476.377	98.19
476.596	119.19
476.814	114.19
477.033	102.19
477.252	105.19
477.471	107.19
477.69	103.19
477.908	90.19
478.127	102.19
478.346	104.19
478.564	115.19
478.783	120.19
479.002	122.19
479.22	138.19
479.439	145.19
479.658	170.19
479.876	153.19
480.095	159.19
480.313	199.19
480.532	227.19
480.751	457.19
480.969	1771.19
481.188	7769.19
481.406	4201.19
481.624	551.19
481.843	183.19
482.061	135.19
482.28	114.19
482.498	99.19
482.717	101.19
482.935	107.19
483.153	96.19
483.372	107.19
483.59	97.19
483.808	97.19
484.027	93.19
484.245	114.19
484.463	111.19
484.681	96.19
484.9	107.19
485.118	93.19
485.336	102.19
485.554	114.19
485.772	104.19
485.99	109.19
486.209	92.19
486.427	122.19
486.645	132.19
486.863	151.19
487.081	121.19
487.299	89.19
487.517	100.19
487.735	95.19
487.953	104.19
488.171	101.19
488.389	114.19
488.607	98.19
488.825	113.19
489.043	98.19
489.261	101.19
489.479	84.19
489.696	91.19
489.914	92.19
490.132	96.19
490.35	100.19
490.568	109.19
490.786	90.19
491.003	89.19
491.221	100.19
491.439	111.19
491.657	97.19
491.874	95.19
492.092	95.19
492.31	101.19
492.527	114.19
492.745	114.19
492.963	95.19
493.18	98.19
493.398	102.19
493.615	90.19
493.833	93.19
494.05	105.19
494.268	98.19
494.485	106.19
494.703	85.19
494.92	89.19
495.138	103.19
495.355	90.19
495.573	82.19
495.79	92.19
496.008	99.19
496.225	96.19
496.442	84.19
496.66	96.19
496.877	86.19
497.094	92.19
497.312	98.19
497.529	95.19
497.746	93.19
497.963	112.19
498.181	110.19
498.398	113.19
498.615	143.19
498.832	122.19
499.049	107.19
499.267	117.19
499.484	94.19
499.701	107.19
499.918	101.19
500.135	84.19
500.352	91.19
500.569	109.19
500.786	111.19
501.003	111.19
501.22	95.19
501.437	90.19
501.654	103.19
501.871	162.19
502.088	108.19
502.305	91.19
502.522	105.19
502.739	89.19
502.956	106.19
503.172	86.19
503.389	112.19
503.606	149.19
503.823	109.19
504.04	116.19
504.256	108.19
504.473	98.19
504.69	90.19
504.907	107.19
505.123	106.19
505.34	92.19
505.557	97.19
505.773	82.19
505.99	101.19
506.207	96.19
506.423	95.19
506.64	105.19
506.856	104.19
507.073	100.19
507.289	115.19
507.506	119.19
507.722	171.19
507.939	159.19
508.155	110.19
508.372	112.19
508.588	102.19
508.805	108.19
509.021	109.19
509.238	115.19
509.454	119.19
509.67	135.19
509.887	122.19
510.103	168.19
510.319	274.19
