Data from Circ_1997_H10_HRD10591_00032.txt Node
Date: Wed Jan 03 11:29:34 EST 2024
User: Yrep
Spectrometer: HR+D1059
Trigger mode: 1
Integration Time (sec): 1.000000E-1
Scans to average: 1
Electric dark correction enabled: true
Nonlinearity correction enabled: false
Boxcar width: 0
XAxis mode: Wavelengths
Number of Pixels in Spectrum: 2048
>>>>>Begin Spectral Data<<<<<
223.165	-15.94
223.4	-15.94
223.635	-15.94
223.869	-13.94
224.104	-18.94
224.338	-16.94
224.573	-21.94
224.808	-20.94
225.042	-4.94
225.277	-17.94
225.511	7.06
225.746	6.06
225.98	8.06
226.215	7.06
226.449	19.06
226.683	29.06
226.918	24.06
227.152	31.06
227.387	29.06
227.621	30.06
227.856	44.06
228.09	36.06
228.324	53.06
228.559	54.06
228.793	171.06
229.027	450.06
229.262	548.06
229.496	612.06
229.73	854.06
229.964	862.06
230.199	569.06
230.433	503.06
230.667	493.06
230.901	478.06
231.136	483.06
231.37	440.06
231.604	466.06
231.838	475.06
232.072	473.06
232.306	480.06
232.541	487.06
232.775	496.06
233.009	483.06
233.243	487.06
233.477	512.06
233.711	515.06
233.945	524.06
234.179	551.06
234.413	516.06
234.647	535.06
234.881	564.06
235.115	580.06
235.349	569.06
235.583	579.06
235.817	627.06
236.051	660.06
236.285	656.06
236.519	643.06
236.753	746.06
236.987	918.06
237.221	1465.06
237.455	1559.06
237.689	916.06
237.922	765.06
238.156	749.06
238.39	693.06
238.624	663.06
238.858	693.06
239.091	703.06
239.325	702.06
239.559	713.06
239.793	761.06
240.027	811.06
240.26	956.06
240.494	1013.06
240.728	1019.06
240.961	912.06
241.195	834.06
241.429	833.06
241.662	817.06
241.896	862.06
242.13	814.06
242.363	845.06
242.597	840.06
242.83	909.06
243.064	881.06
243.298	928.06
243.531	942.06
243.765	938.06
243.998	928.06
244.232	945.06
244.465	972.06
244.699	998.06
244.932	952.06
245.166	982.06
245.399	972.06
245.633	999.06
245.866	984.06
246.099	1001.06
246.333	1015.06
246.566	1034.06
246.8	1056.06
247.033	1091.06
247.266	1111.06
247.5	1178.06
247.733	1229.06
247.966	1238.06
248.2	1224.06
248.433	1254.06
248.666	1366.06
248.899	1466.06
249.133	1575.06
249.366	1608.06
249.599	1587.06
249.832	1606.06
250.066	1770.06
250.299	2328.06
250.532	3170.06
250.765	2938.06
250.998	2492.06
251.231	2036.06
251.465	1771.06
251.698	1722.06
251.931	1623.06
252.164	1572.06
252.397	1613.06
252.63	1609.06
252.863	1669.06
253.096	1800.06
253.329	1867.06
253.562	1751.06
253.795	1723.06
254.028	1736.06
254.261	1808.06
254.494	2036.06
254.727	2350.06
254.96	2439.06
255.193	2250.06
255.426	2375.06
255.659	2882.06
255.892	4386.06
256.124	5722.06
256.357	4632.06
256.59	3248.06
256.823	2574.06
257.056	2310.06
257.289	2121.06
257.521	2080.06
257.754	1946.06
257.987	1887.06
258.22	1854.06
258.452	1840.06
258.685	1800.06
258.918	1846.06
259.151	1845.06
259.383	1854.06
259.616	1878.06
259.849	1920.06
260.081	2099.06
260.314	2210.06
260.547	2151.06
260.779	2011.06
261.012	1930.06
261.244	1897.06
261.477	1908.06
261.71	1883.06
261.942	1964.06
262.175	1993.06
262.407	1883.06
262.64	1821.06
262.872	1787.06
263.105	1814.06
263.337	1835.06
263.57	1844.06
263.802	1801.06
264.035	1836.06
264.267	1872.06
264.499	1813.06
264.732	1848.06
264.964	1854.06
265.197	1894.06
265.429	1866.06
265.661	1859.06
265.894	1914.06
266.126	1918.06
266.358	1933.06
266.591	1959.06
266.823	2046.06
267.055	2028.06
267.287	2051.06
267.52	1975.06
267.752	2016.06
267.984	1996.06
268.216	2063.06
268.448	2114.06
268.681	2164.06
268.913	2282.06
269.145	2478.06
269.377	2437.06
269.609	2338.06
269.841	2334.06
270.073	2495.06
270.306	2727.06
270.538	2840.06
270.77	2660.06
271.002	2534.06
271.234	2537.06
271.466	2715.06
271.698	2882.06
271.93	2818.06
272.162	2840.06
272.394	2758.06
272.626	2614.06
272.858	2486.06
273.09	2471.06
273.322	2444.06
273.553	2420.06
273.785	2461.06
274.017	2469.06
274.249	2462.06
274.481	2490.06
274.713	2582.06
274.945	2582.06
275.176	2606.06
275.408	2627.06
275.64	2739.06
275.872	2746.06
276.104	2738.06
276.335	2731.06
276.567	2903.06
276.799	3146.06
277.031	3510.06
277.262	3714.06
277.494	3449.06
277.726	3152.06
277.957	2942.06
278.189	2916.06
278.421	2839.06
278.652	2753.06
278.884	2803.06
279.115	2779.06
279.347	2831.06
279.579	2893.06
279.81	3042.06
280.042	3303.06
280.273	3519.06
280.505	3366.06
280.736	3097.06
280.968	2970.06
281.199	2861.06
281.431	2818.06
281.662	2887.06
281.894	2845.06
282.125	2867.06
282.356	3057.06
282.588	3199.06
282.819	3006.06
283.051	2841.06
283.282	2803.06
283.513	2868.06
283.745	2942.06
283.976	2899.06
284.207	2875.06
284.439	2874.06
284.67	2893.06
284.901	2890.06
285.132	2882.06
285.364	2863.06
285.595	2912.06
285.826	2891.06
286.057	2943.06
286.288	2928.06
286.52	2987.06
286.751	2952.06
286.982	2957.06
287.213	2956.06
287.444	3027.06
287.675	3067.06
287.906	3129.06
288.138	3177.06
288.369	3149.06
288.6	3149.06
288.831	3149.06
289.062	3107.06
289.293	3090.06
289.524	3050.06
289.755	3018.06
289.986	3024.06
290.217	3034.06
290.448	3086.06
290.679	3067.06
290.91	3055.06
291.141	3026.06
291.371	3021.06
291.602	3024.06
291.833	3021.06
292.064	3048.06
292.295	2970.06
292.526	3054.06
292.757	3020.06
292.987	3076.06
293.218	2948.06
293.449	3050.06
293.68	3018.06
293.91	3013.06
294.141	3035.06
294.372	3021.06
294.603	3056.06
294.833	3054.06
295.064	3075.06
295.295	3075.06
295.525	3087.06
295.756	3146.06
295.987	3218.06
296.217	3497.06
296.448	3437.06
296.679	3123.06
296.909	3151.06
297.14	3157.06
297.37	3199.06
297.601	3224.06
297.831	3229.06
298.062	3226.06
298.292	3308.06
298.523	3323.06
298.753	3290.06
298.984	3306.06
299.214	3333.06
299.445	3348.06
299.675	3338.06
299.905	3372.06
300.136	3337.06
300.366	3336.06
300.597	3373.06
300.827	3496.06
301.057	3555.06
301.288	3668.06
301.518	3554.06
301.748	3574.06
301.979	3673.06
302.209	3774.06
302.439	3688.06
302.669	3576.06
302.9	3528.06
303.13	3525.06
303.36	3671.06
303.59	3706.06
303.82	3813.06
304.051	3718.06
304.281	3659.06
304.511	3535.06
304.741	3526.06
304.971	3468.06
305.201	3531.06
305.431	3492.06
305.661	3539.06
305.891	3472.06
306.121	3501.06
306.352	3580.06
306.582	3591.06
306.812	3514.06
307.042	3695.06
307.272	3839.06
307.502	3973.06
307.731	3865.06
307.961	3738.06
308.191	3585.06
308.421	3575.06
308.651	3583.06
308.881	3583.06
309.111	3651.06
309.341	3645.06
309.571	3741.06
309.8	3882.06
310.03	3875.06
310.26	4010.06
310.49	3927.06
310.72	4114.06
310.949	4178.06
311.179	4130.06
311.409	3958.06
311.639	3974.06
311.868	4016.06
312.098	4011.06
312.328	4102.06
312.557	4287.06
312.787	4384.06
313.017	4263.06
313.246	4015.06
313.476	4018.06
313.706	4066.06
313.935	4188.06
314.165	4274.06
314.394	4320.06
314.624	4264.06
314.853	4181.06
315.083	4090.06
315.312	4044.06
315.542	4051.06
315.771	3970.06
316.001	3957.06
316.23	3953.06
316.46	3943.06
316.689	4052.06
316.919	4116.06
317.148	4157.06
317.377	4123.06
317.607	4104.06
317.836	4018.06
318.065	4010.06
318.295	4050.06
318.524	4074.06
318.753	4018.06
318.983	4087.06
319.212	4019.06
319.441	4118.06
319.67	4078.06
319.9	4034.06
320.129	4026.06
320.358	4091.06
320.587	4145.06
320.816	4214.06
321.046	4263.06
321.275	4230.06
321.504	4268.06
321.733	4287.06
321.962	4346.06
322.191	4532.06
322.42	4628.06
322.649	4791.06
322.878	4843.06
323.108	4884.06
323.337	5234.06
323.566	5405.06
323.795	5877.06
324.024	6538.06
324.253	8919.06
324.482	13389.06
324.71	15616.06
324.939	15616.06
325.168	14550.06
325.397	7549.06
325.626	6162.06
325.855	5770.06
326.084	5647.06
326.313	5697.06
326.542	6057.06
326.77	6838.06
326.999	8944.06
327.228	13202.06
327.457	15616.06
327.686	15616.06
327.914	10900.06
328.143	10636.06
328.372	11274.06
328.6	9050.06
328.829	7682.06
329.058	7918.06
329.287	8093.06
329.515	8141.06
329.744	9303.06
329.972	12079.06
330.201	14780.06
330.43	15616.06
330.658	12448.06
330.887	9586.06
331.115	8010.06
331.344	7047.06
331.572	6702.06
331.801	6679.06
332.03	6684.06
332.258	6530.06
332.486	6567.06
332.715	6787.06
332.943	7116.06
333.172	7442.06
333.4	8070.06
333.629	8930.06
333.857	10537.06
334.085	13100.06
334.314	15616.06
334.542	15616.06
334.771	15616.06
334.999	12991.06
335.227	8975.06
335.455	7690.06
335.684	7031.06
335.912	6616.06
336.14	6271.06
336.369	6174.06
336.597	6160.06
336.825	5970.06
337.053	5733.06
337.281	5616.06
337.51	5542.06
337.738	5423.06
337.966	5361.06
338.194	5398.06
338.422	5254.06
338.65	5122.06
338.878	5155.06
339.106	5049.06
339.334	5001.06
339.562	4939.06
339.79	4821.06
340.018	4884.06
340.246	4907.06
340.474	4899.06
340.702	4851.06
340.93	4820.06
341.158	4807.06
341.386	4789.06
341.614	4844.06
341.842	4782.06
342.07	4717.06
342.298	4711.06
342.526	4671.06
342.754	4565.06
342.981	4648.06
343.209	4767.06
343.437	5038.06
343.665	5216.06
343.893	5433.06
344.12	5482.06
344.348	5241.06
344.576	5104.06
344.804	5055.06
345.031	5078.06
345.259	4977.06
345.487	4799.06
345.714	4750.06
345.942	4587.06
346.17	4570.06
346.397	4504.06
346.625	4561.06
346.853	4471.06
347.08	4502.06
347.308	4615.06
347.535	4682.06
347.763	4730.06
347.99	4650.06
348.218	4668.06
348.445	4766.06
348.673	4599.06
348.9	4510.06
349.128	4428.06
349.355	4406.06
349.583	4358.06
349.81	4380.06
350.037	4373.06
350.265	4335.06
350.492	4351.06
350.72	4327.06
350.947	4338.06
351.174	4575.06
351.402	4630.06
351.629	4482.06
351.856	4574.06
352.083	4658.06
352.311	4566.06
352.538	4709.06
352.765	4647.06
352.992	4519.06
353.22	4518.06
353.447	4444.06
353.674	4319.06
353.901	4276.06
354.128	4323.06
354.355	4258.06
354.583	4298.06
354.81	4249.06
355.037	4246.06
355.264	4247.06
355.491	4188.06
355.718	4221.06
355.945	4190.06
356.172	4282.06
356.399	4220.06
356.626	4207.06
356.853	4263.06
357.08	4188.06
357.307	4205.06
357.534	4174.06
357.761	4215.06
357.988	4199.06
358.215	4237.06
358.441	4303.06
358.668	4276.06
358.895	4291.06
359.122	4327.06
359.349	4491.06
359.576	4654.06
359.802	4877.06
360.029	5107.06
360.256	5097.06
360.483	4773.06
360.709	4514.06
360.936	4519.06
361.163	4540.06
361.39	4535.06
361.616	4595.06
361.843	4453.06
362.07	4530.06
362.296	4576.06
362.523	4509.06
362.749	4535.06
362.976	4437.06
363.203	4355.06
363.429	4393.06
363.656	4397.06
363.882	4391.06
364.109	4308.06
364.335	4307.06
364.562	4342.06
364.788	4258.06
365.015	4305.06
365.241	4310.06
365.468	4430.06
365.694	4494.06
365.92	4431.06
366.147	4325.06
366.373	4296.06
366.599	4366.06
366.826	4267.06
367.052	4289.06
367.278	4312.06
367.505	4349.06
367.731	4420.06
367.957	4374.06
368.184	4462.06
368.41	4438.06
368.636	4553.06
368.862	4530.06
369.089	4450.06
369.315	4344.06
369.541	4394.06
369.767	4431.06
369.993	4507.06
370.219	4414.06
370.445	4463.06
370.672	4493.06
370.898	4484.06
371.124	4511.06
371.35	4574.06
371.576	4547.06
371.802	4542.06
372.028	4496.06
372.254	4519.06
372.48	4585.06
372.706	4748.06
372.932	4671.06
373.158	4640.06
373.384	4586.06
373.61	4546.06
373.835	4633.06
374.061	4651.06
374.287	4671.06
374.513	4773.06
374.739	4884.06
374.965	4918.06
375.191	4904.06
375.416	4791.06
375.642	4714.06
375.868	4712.06
376.094	4643.06
376.319	4631.06
376.545	4524.06
376.771	4534.06
376.997	4540.06
377.222	4541.06
377.448	4453.06
377.674	4455.06
377.899	4436.06
378.125	4514.06
378.35	4469.06
378.576	4441.06
378.802	4427.06
379.027	4458.06
379.253	4485.06
379.478	4502.06
379.704	4435.06
379.929	4530.06
380.155	4550.06
380.38	4502.06
380.606	4556.06
380.831	4446.06
381.057	4550.06
381.282	4546.06
381.507	4562.06
381.733	4548.06
381.958	4570.06
382.184	4671.06
382.409	4802.06
382.634	4746.06
382.86	4701.06
383.085	4780.06
383.31	4935.06
383.535	4908.06
383.761	5005.06
383.986	5046.06
384.211	5195.06
384.436	5190.06
384.662	5329.06
384.887	5427.06
385.112	5341.06
385.337	5419.06
385.562	5426.06
385.787	5418.06
386.013	5564.06
386.238	5592.06
386.463	5469.06
386.688	5449.06
386.913	5462.06
387.138	5331.06
387.363	5416.06
387.588	5334.06
387.813	5395.06
388.038	5350.06
388.263	5421.06
388.488	5380.06
388.713	5354.06
388.938	5363.06
389.163	5256.06
389.387	5383.06
389.612	5283.06
389.837	5331.06
390.062	5285.06
390.287	5252.06
390.512	5366.06
390.736	5323.06
390.961	5447.06
391.186	5541.06
391.411	5683.06
391.636	5790.06
391.86	5926.06
392.085	6030.06
392.31	5899.06
392.534	5788.06
392.759	5655.06
392.984	5594.06
393.208	5570.06
393.433	5568.06
393.658	5557.06
393.882	5635.06
394.107	5558.06
394.331	5608.06
394.556	5576.06
394.78	5683.06
395.005	5727.06
395.229	5743.06
395.454	5903.06
395.678	6040.06
395.903	6073.06
396.127	6105.06
396.352	5878.06
396.576	5683.06
396.801	5709.06
397.025	5801.06
397.249	5964.06
397.474	6009.06
397.698	6066.06
397.922	6231.06
398.147	6383.06
398.371	6497.06
398.595	6565.06
398.82	6834.06
399.044	7499.06
399.268	8153.06
399.492	9093.06
399.717	9754.06
399.941	9572.06
400.165	9137.06
400.389	8381.06
400.613	7556.06
400.837	7076.06
401.062	6959.06
401.286	6892.06
401.51	6941.06
401.734	6821.06
401.958	6935.06
402.182	7086.06
402.406	7257.06
402.63	7339.06
402.854	7340.06
403.078	7417.06
403.302	7542.06
403.526	7668.06
403.75	7711.06
403.974	7765.06
404.198	7862.06
404.422	8083.06
404.645	8243.06
404.869	8378.06
405.093	9230.06
405.317	9816.06
405.541	9688.06
405.765	8706.06
405.988	8188.06
406.212	8164.06
406.436	8234.06
406.66	8319.06
406.883	8274.06
407.107	8766.06
407.331	9326.06
407.555	9733.06
407.778	9372.06
408.002	8586.06
408.226	8231.06
408.449	8123.06
408.673	7909.06
408.896	8230.06
409.12	8374.06
409.344	7820.06
409.567	7438.06
409.791	7478.06
410.014	7352.06
410.238	7330.06
410.461	7398.06
410.685	7507.06
410.908	7434.06
411.132	7728.06
411.355	7832.06
411.578	7413.06
411.802	7320.06
412.025	7614.06
412.249	8286.06
412.472	9061.06
412.695	9757.06
412.919	8949.06
413.142	8274.06
413.365	7868.06
413.589	7477.06
413.812	7195.06
414.035	6982.06
414.258	7031.06
414.482	7055.06
414.705	6964.06
414.928	6944.06
415.151	6852.06
415.374	6843.06
415.597	6827.06
415.821	6713.06
416.044	6790.06
416.267	6822.06
416.49	6643.06
416.713	6570.06
416.936	6705.06
417.159	6730.06
417.382	7005.06
417.605	7161.06
417.828	7283.06
418.051	7060.06
418.274	6947.06
418.497	6797.06
418.72	6921.06
418.943	6860.06
419.166	7398.06
419.389	7858.06
419.611	7854.06
419.834	7840.06
420.057	8184.06
420.28	8662.06
420.503	8208.06
420.726	7839.06
420.948	7774.06
421.171	7926.06
421.394	7707.06
421.617	7035.06
421.839	7042.06
422.062	7128.06
422.285	7229.06
422.507	7849.06
422.73	8380.06
422.953	7721.06
423.175	7339.06
423.398	7328.06
423.621	7395.06
423.843	7524.06
424.066	7487.06
424.288	7308.06
424.511	7613.06
424.733	8260.06
424.956	8558.06
425.178	8119.06
425.401	8348.06
425.623	8079.06
425.846	7086.06
426.068	6939.06
426.291	6887.06
426.513	6881.06
426.735	7022.06
426.958	7500.06
427.18	8506.06
427.402	9944.06
427.625	10538.06
427.847	9962.06
428.069	9729.06
428.292	7912.06
428.514	6827.06
428.736	6447.06
428.958	6457.06
429.181	6224.06
429.403	6201.06
429.625	6374.06
429.847	6755.06
430.069	7293.06
430.292	6725.06
430.514	6120.06
430.736	6070.06
430.958	5967.06
431.18	5935.06
431.402	5950.06
431.624	5945.06
431.846	5954.06
432.068	6056.06
432.29	6073.06
432.512	5977.06
432.734	6069.06
432.956	6041.06
433.178	6045.06
433.4	6119.06
433.622	5958.06
433.844	5956.06
434.066	5964.06
434.287	6117.06
434.509	6372.06
434.731	6569.06
434.953	6663.06
435.175	6836.06
435.397	6969.06
435.618	6846.06
435.84	7308.06
436.062	8325.06
436.284	8173.06
436.505	6842.06
436.727	6566.06
436.949	6143.06
437.17	6032.06
437.392	6060.06
437.614	6226.06
437.835	6680.06
438.057	7846.06
438.278	8509.06
438.5	8299.06
438.721	9266.06
438.943	8020.06
439.165	6603.06
439.386	6498.06
439.608	6480.06
439.829	6666.06
440.05	7235.06
440.272	7737.06
440.493	6736.06
440.715	6420.06
440.936	6269.06
441.158	6346.06
441.379	6445.06
441.6	6814.06
441.822	7042.06
442.043	7610.06
442.264	8506.06
442.486	7989.06
442.707	7171.06
442.928	7030.06
443.149	7288.06
443.371	7560.06
443.592	8125.06
443.813	9181.06
444.034	9078.06
444.255	7727.06
444.476	7518.06
444.698	7672.06
444.919	7850.06
445.14	7664.06
445.361	7565.06
445.582	7874.06
445.803	8804.06
446.024	9517.06
446.245	9056.06
446.466	7815.06
446.687	6648.06
446.908	6301.06
447.129	6109.06
447.35	5924.06
447.571	5914.06
447.792	5748.06
448.013	5882.06
448.234	6018.06
448.455	6844.06
448.675	8163.06
448.896	8694.06
449.117	7038.06
449.338	7325.06
449.559	8932.06
449.779	9019.06
450	6658.06
450.221	5962.06
450.442	5696.06
450.662	5747.06
450.883	5876.06
451.104	5983.06
451.324	5842.06
451.545	5535.06
451.766	5430.06
451.986	5398.06
452.207	5270.06
452.428	5314.06
452.648	5355.06
452.869	5374.06
453.089	5411.06
453.31	5499.06
453.53	5322.06
453.751	5218.06
453.971	5342.06
454.192	5507.06
454.412	5192.06
454.633	5146.06
454.853	5127.06
455.073	5164.06
455.294	5678.06
455.514	6235.06
455.734	5574.06
455.955	5028.06
456.175	4995.06
456.395	4914.06
456.616	4907.06
456.836	4879.06
457.056	4918.06
457.276	4865.06
457.497	5095.06
457.717	4999.06
457.937	5059.06
458.157	5130.06
458.377	5256.06
458.598	5715.06
458.818	6498.06
459.038	7446.06
459.258	7160.06
459.478	6364.06
459.698	6139.06
459.918	6131.06
460.138	6328.06
460.358	6514.06
460.578	6570.06
460.798	6646.06
461.018	6680.06
461.238	6528.06
461.458	6432.06
461.678	6450.06
461.898	6554.06
462.118	6692.06
462.338	7068.06
462.558	7173.06
462.777	7402.06
462.997	8076.06
463.217	8445.06
463.437	8245.06
463.657	7693.06
463.876	7581.06
464.096	7527.06
464.316	7466.06
464.536	7601.06
464.755	7403.06
464.975	7247.06
465.195	7723.06
465.414	7936.06
465.634	6720.06
465.854	6331.06
466.073	6094.06
466.293	5840.06
466.512	5710.06
466.732	5631.06
466.951	5617.06
467.171	5670.06
467.391	5887.06
467.61	5956.06
467.829	6356.06
468.049	7765.06
468.268	9298.06
468.488	7179.06
468.707	6166.06
468.927	5914.06
469.146	5655.06
469.365	5719.06
469.585	5677.06
469.804	5867.06
470.023	6103.06
470.243	5999.06
470.462	6048.06
470.681	6294.06
470.901	6173.06
471.12	5970.06
471.339	6040.06
471.558	6127.06
471.777	6366.06
471.997	7051.06
472.216	10729.06
472.435	15215.06
472.654	11591.06
472.873	8170.06
473.092	7164.06
473.311	6656.06
473.53	6314.06
473.749	6234.06
473.968	6780.06
474.187	7844.06
474.406	7028.06
474.625	5959.06
474.844	5724.06
475.063	5694.06
475.282	5766.06
475.501	5779.06
475.72	5656.06
475.939	5749.06
476.158	5822.06
476.377	5788.06
476.596	5811.06
476.814	5971.06
477.033	5910.06
477.252	6157.06
477.471	6097.06
477.69	6299.06
477.908	6326.06
478.127	6466.06
478.346	6461.06
478.564	6667.06
478.783	6810.06
479.002	7070.06
479.22	7017.06
479.439	7263.06
479.658	7475.06
479.876	7607.06
480.095	7767.06
480.313	8508.06
480.532	8552.06
480.751	9391.06
480.969	12762.06
481.188	15616.06
481.406	15616.06
481.624	14262.06
481.843	10747.06
482.061	9310.06
482.28	8446.06
482.498	8020.06
482.717	7714.06
482.935	7440.06
483.153	7337.06
483.372	7210.06
483.59	7039.06
483.808	6998.06
484.027	6919.06
484.245	6935.06
484.463	6979.06
484.681	7005.06
484.9	7098.06
485.118	6961.06
485.336	7044.06
485.554	7100.06
485.772	7180.06
485.99	7072.06
486.209	7061.06
486.427	7289.06
486.645	7236.06
486.863	7493.06
487.081	7339.06
487.299	7314.06
487.517	7275.06
