Data from Circ_1997_H10_HRD10591_00014.txt Node
Date: Wed Jan 03 11:29:30 EST 2024
User: Yrep
Spectrometer: HR+D1059
Trigger mode: 1
Integration Time (sec): 1.000000E-1
Scans to average: 1
Electric dark correction enabled: true
Nonlinearity correction enabled: false
Boxcar width: 0
XAxis mode: Wavelengths
Number of Pixels in Spectrum: 2048
>>>>>Begin Spectral Data<<<<<
223.165	-16.75
223.4	-16.75
223.635	-16.75
223.869	-17.75
224.104	-13.75
224.338	-12.75
224.573	-0.75
224.808	-8.75
225.042	-11.75
225.277	-10.75
225.511	-11.75
225.746	8.25
225.98	-11.75
226.215	15.25
226.449	21.25
226.683	18.25
226.918	24.25
227.152	29.25
227.387	51.25
227.621	27.25
227.856	60.25
228.09	53.25
228.324	52.25
228.559	60.25
228.793	156.25
229.027	438.25
229.262	523.25
229.496	613.25
229.73	796.25
229.964	808.25
230.199	536.25
230.433	470.25
230.667	483.25
230.901	455.25
231.136	426.25
231.37	433.25
231.604	460.25
231.838	461.25
232.072	475.25
232.306	460.25
232.541	472.25
232.775	488.25
233.009	473.25
233.243	466.25
233.477	489.25
233.711	507.25
233.945	510.25
234.179	525.25
234.413	526.25
234.647	514.25
234.881	518.25
235.115	543.25
235.349	554.25
235.583	576.25
235.817	584.25
236.051	615.25
236.285	593.25
236.519	633.25
236.753	722.25
236.987	916.25
237.221	1394.25
237.455	1510.25
237.689	866.25
237.922	717.25
238.156	727.25
238.39	676.25
238.624	641.25
238.858	655.25
239.091	680.25
239.325	701.25
239.559	696.25
239.793	733.25
240.027	807.25
240.26	912.25
240.494	991.25
240.728	946.25
240.961	890.25
241.195	810.25
241.429	798.25
241.662	792.25
241.896	809.25
242.13	817.25
242.363	845.25
242.597	846.25
242.83	845.25
243.064	860.25
243.298	860.25
243.531	888.25
243.765	913.25
243.998	894.25
244.232	905.25
244.465	921.25
244.699	965.25
244.932	966.25
245.166	951.25
245.399	968.25
245.633	965.25
245.866	959.25
246.099	986.25
246.333	1020.25
246.566	1043.25
246.8	1033.25
247.033	1074.25
247.266	1112.25
247.5	1142.25
247.733	1220.25
247.966	1216.25
248.2	1220.25
248.433	1248.25
248.666	1288.25
248.899	1375.25
249.133	1520.25
249.366	1534.25
249.599	1491.25
249.832	1466.25
250.066	1672.25
250.299	2165.25
250.532	2835.25
250.765	2698.25
250.998	2324.25
251.231	1946.25
251.465	1717.25
251.698	1604.25
251.931	1544.25
252.164	1494.25
252.397	1523.25
252.63	1526.25
252.863	1650.25
253.096	1732.25
253.329	1800.25
253.562	1670.25
253.795	1652.25
254.028	1668.25
254.261	1730.25
254.494	1914.25
254.727	2258.25
254.96	2321.25
255.193	2110.25
255.426	2198.25
255.659	2650.25
255.892	3854.25
256.124	5038.25
256.357	4137.25
256.59	2976.25
256.823	2384.25
257.056	2121.25
257.289	1992.25
257.521	1918.25
257.754	1836.25
257.987	1810.25
258.22	1768.25
258.452	1745.25
258.685	1734.25
258.918	1729.25
259.151	1744.25
259.383	1814.25
259.616	1823.25
259.849	1868.25
260.081	1999.25
260.314	2134.25
260.547	2087.25
260.779	1944.25
261.012	1903.25
261.244	1848.25
261.477	1820.25
261.71	1803.25
261.942	1904.25
262.175	1905.25
262.407	1796.25
262.64	1754.25
262.872	1767.25
263.105	1736.25
263.337	1763.25
263.57	1775.25
263.802	1782.25
264.035	1772.25
264.267	1764.25
264.499	1773.25
264.732	1760.25
264.964	1806.25
265.197	1816.25
265.429	1821.25
265.661	1823.25
265.894	1817.25
266.126	1861.25
266.358	1885.25
266.591	1920.25
266.823	1916.25
267.055	1986.25
267.287	1944.25
267.52	1910.25
267.752	1941.25
267.984	1925.25
268.216	2043.25
268.448	2014.25
268.681	2057.25
268.913	2231.25
269.145	2357.25
269.377	2317.25
269.609	2308.25
269.841	2254.25
270.073	2396.25
270.306	2633.25
270.538	2775.25
270.77	2619.25
271.002	2448.25
271.234	2444.25
271.466	2628.25
271.698	2717.25
271.93	2740.25
272.162	2724.25
272.394	2641.25
272.626	2535.25
272.858	2424.25
273.09	2325.25
273.322	2377.25
273.553	2327.25
273.785	2337.25
274.017	2326.25
274.249	2417.25
274.481	2417.25
274.713	2437.25
274.945	2440.25
275.176	2503.25
275.408	2511.25
275.64	2553.25
275.872	2525.25
276.104	2595.25
276.335	2640.25
276.567	2732.25
276.799	2964.25
277.031	3250.25
277.262	3374.25
277.494	3194.25
277.726	2932.25
277.957	2811.25
278.189	2740.25
278.421	2671.25
278.652	2625.25
278.884	2631.25
279.115	2656.25
279.347	2661.25
279.579	2769.25
279.81	2822.25
280.042	3051.25
280.273	3222.25
280.505	3074.25
280.736	2922.25
280.968	2850.25
281.199	2783.25
281.431	2766.25
281.662	2748.25
281.894	2653.25
282.125	2798.25
282.356	2968.25
282.588	3062.25
282.819	2894.25
283.051	2760.25
283.282	2749.25
283.513	2765.25
283.745	2814.25
283.976	2828.25
284.207	2820.25
284.439	2767.25
284.67	2756.25
284.901	2816.25
285.132	2804.25
285.364	2839.25
285.595	2802.25
285.826	2805.25
286.057	2892.25
286.288	2867.25
286.52	2936.25
286.751	2868.25
286.982	2899.25
287.213	2933.25
287.444	2948.25
287.675	3022.25
287.906	3069.25
288.138	3069.25
288.369	3063.25
288.6	3073.25
288.831	3036.25
289.062	3031.25
289.293	3007.25
289.524	2956.25
289.755	2967.25
289.986	3002.25
290.217	2942.25
290.448	2992.25
290.679	2932.25
290.91	3012.25
291.141	2937.25
291.371	2979.25
291.602	2942.25
291.833	2911.25
292.064	2895.25
292.295	2900.25
292.526	2934.25
292.757	2936.25
292.987	2910.25
293.218	2927.25
293.449	3016.25
293.68	2907.25
293.91	2939.25
294.141	2972.25
294.372	2952.25
294.603	2949.25
294.833	3021.25
295.064	3023.25
295.295	3029.25
295.525	2989.25
295.756	3110.25
295.987	3115.25
296.217	3270.25
296.448	3238.25
296.679	3067.25
296.909	3043.25
297.14	3112.25
297.37	3103.25
297.601	3222.25
297.831	3140.25
298.062	3164.25
298.292	3214.25
298.523	3206.25
298.753	3249.25
298.984	3212.25
299.214	3201.25
299.445	3218.25
299.675	3270.25
299.905	3272.25
300.136	3280.25
300.366	3200.25
300.597	3294.25
300.827	3413.25
301.057	3456.25
301.288	3508.25
301.518	3450.25
301.748	3464.25
301.979	3596.25
302.209	3593.25
302.439	3575.25
302.669	3465.25
302.9	3394.25
303.13	3413.25
303.36	3528.25
303.59	3581.25
303.82	3672.25
304.051	3596.25
304.281	3534.25
304.511	3418.25
304.741	3462.25
304.971	3419.25
305.201	3404.25
305.431	3391.25
305.661	3416.25
305.891	3409.25
306.121	3391.25
306.352	3475.25
306.582	3458.25
306.812	3452.25
307.042	3533.25
307.272	3673.25
307.502	3794.25
307.731	3734.25
307.961	3570.25
308.191	3496.25
308.421	3467.25
308.651	3488.25
308.881	3494.25
309.111	3547.25
309.341	3536.25
309.571	3640.25
309.8	3730.25
310.03	3802.25
310.26	3798.25
310.49	3756.25
310.72	3909.25
310.949	3977.25
311.179	3972.25
311.409	3908.25
311.639	3875.25
311.868	3826.25
312.098	3898.25
312.328	3962.25
312.557	4071.25
312.787	4237.25
313.017	4095.25
313.246	3946.25
313.476	3866.25
313.706	3990.25
313.935	4031.25
314.165	4124.25
314.394	4207.25
314.624	4041.25
314.853	3976.25
315.083	3901.25
315.312	3935.25
315.542	3859.25
315.771	3836.25
316.001	3847.25
316.23	3831.25
316.46	3879.25
316.689	3962.25
316.919	3959.25
317.148	4005.25
317.377	3982.25
317.607	3968.25
317.836	3961.25
318.065	3858.25
318.295	3928.25
318.524	3899.25
318.753	3942.25
318.983	3894.25
319.212	3900.25
319.441	3950.25
319.67	3985.25
319.9	3946.25
320.129	3948.25
320.358	3936.25
320.587	3983.25
320.816	4041.25
321.046	4084.25
321.275	4128.25
321.504	4093.25
321.733	4158.25
321.962	4176.25
322.191	4316.25
322.42	4461.25
322.649	4504.25
322.878	4626.25
323.108	4776.25
323.337	5088.25
323.566	5210.25
323.795	5548.25
324.024	6105.25
324.253	8340.25
324.482	12622.25
324.71	15618.25
324.939	15618.25
325.168	13953.25
325.397	7110.25
325.626	5877.25
325.855	5450.25
326.084	5363.25
326.313	5353.25
326.542	5617.25
326.77	6433.25
326.999	8315.25
327.228	12301.25
327.457	15618.25
327.686	15257.25
327.914	9677.25
328.143	9350.25
328.372	9826.25
328.6	8050.25
328.829	7056.25
329.058	7244.25
329.287	7399.25
329.515	7446.25
329.744	8309.25
329.972	10441.25
330.201	13268.25
330.43	14242.25
330.658	10975.25
330.887	8726.25
331.115	7347.25
331.344	6452.25
331.572	6221.25
331.801	6307.25
332.03	6257.25
332.258	6143.25
332.486	6205.25
332.715	6337.25
332.943	6762.25
333.172	7079.25
333.4	7508.25
333.629	8214.25
333.857	9628.25
334.085	11786.25
334.314	14550.25
334.542	15618.25
334.771	15618.25
334.999	10590.25
335.227	8161.25
335.455	7167.25
335.684	6540.25
335.912	6216.25
336.14	5931.25
336.369	5818.25
336.597	5839.25
336.825	5617.25
337.053	5486.25
337.281	5400.25
337.51	5285.25
337.738	5232.25
337.966	5204.25
338.194	5164.25
338.422	5041.25
338.65	5014.25
338.878	4955.25
339.106	4847.25
339.334	4857.25
339.562	4799.25
339.79	4719.25
340.018	4728.25
340.246	4748.25
340.474	4780.25
340.702	4676.25
340.93	4641.25
341.158	4669.25
341.386	4619.25
341.614	4696.25
341.842	4648.25
342.07	4596.25
342.298	4543.25
342.526	4557.25
342.754	4519.25
342.981	4554.25
343.209	4648.25
343.437	4895.25
343.665	5093.25
343.893	5329.25
344.12	5367.25
344.348	5144.25
344.576	4921.25
344.804	4910.25
345.031	4890.25
345.259	4823.25
345.487	4725.25
345.714	4544.25
345.942	4406.25
346.17	4348.25
346.397	4371.25
346.625	4442.25
346.853	4327.25
347.08	4354.25
347.308	4470.25
347.535	4514.25
347.763	4561.25
347.99	4436.25
348.218	4530.25
348.445	4598.25
348.673	4478.25
348.9	4330.25
349.128	4284.25
349.355	4210.25
349.583	4249.25
349.81	4241.25
350.037	4186.25
350.265	4262.25
350.492	4284.25
350.72	4262.25
350.947	4317.25
351.174	4393.25
351.402	4520.25
351.629	4382.25
351.856	4389.25
352.083	4526.25
352.311	4468.25
352.538	4449.25
352.765	4481.25
352.992	4382.25
353.22	4293.25
353.447	4287.25
353.674	4237.25
353.901	4136.25
354.128	4069.25
354.355	4121.25
354.583	4181.25
354.81	4093.25
355.037	4127.25
355.264	4079.25
355.491	4091.25
355.718	4095.25
355.945	4124.25
356.172	4110.25
356.399	4099.25
356.626	4116.25
356.853	4107.25
357.08	4131.25
357.307	4180.25
357.534	4161.25
357.761	4111.25
357.988	4112.25
358.215	4061.25
358.441	4116.25
358.668	4127.25
358.895	4235.25
359.122	4237.25
359.349	4344.25
359.576	4438.25
359.802	4660.25
360.029	4912.25
360.256	4865.25
360.483	4616.25
360.709	4416.25
360.936	4369.25
361.163	4413.25
361.39	4374.25
361.616	4454.25
361.843	4392.25
362.07	4443.25
362.296	4424.25
362.523	4365.25
362.749	4472.25
362.976	4322.25
363.203	4338.25
363.429	4231.25
363.656	4316.25
363.882	4293.25
364.109	4187.25
364.335	4170.25
364.562	4244.25
364.788	4178.25
365.015	4240.25
365.241	4220.25
365.468	4244.25
365.694	4390.25
365.92	4282.25
366.147	4248.25
366.373	4264.25
366.599	4216.25
366.826	4194.25
367.052	4176.25
367.278	4254.25
367.505	4194.25
367.731	4268.25
367.957	4258.25
368.184	4287.25
368.41	4337.25
368.636	4410.25
368.862	4463.25
369.089	4289.25
369.315	4314.25
369.541	4281.25
369.767	4353.25
369.993	4354.25
370.219	4436.25
370.445	4447.25
370.672	4384.25
370.898	4377.25
371.124	4429.25
371.35	4454.25
371.576	4459.25
371.802	4402.25
372.028	4413.25
372.254	4434.25
372.48	4508.25
372.706	4602.25
372.932	4603.25
373.158	4500.25
373.384	4530.25
373.61	4425.25
373.835	4491.25
374.061	4455.25
374.287	4584.25
374.513	4627.25
374.739	4762.25
374.965	4869.25
375.191	4871.25
375.416	4700.25
375.642	4663.25
375.868	4578.25
376.094	4532.25
376.319	4470.25
376.545	4488.25
376.771	4438.25
376.997	4500.25
377.222	4437.25
377.448	4394.25
377.674	4426.25
377.899	4394.25
378.125	4318.25
378.35	4337.25
378.576	4341.25
378.802	4413.25
379.027	4356.25
379.253	4405.25
379.478	4344.25
379.704	4392.25
379.929	4433.25
380.155	4392.25
380.38	4395.25
380.606	4471.25
380.831	4440.25
381.057	4490.25
381.282	4423.25
381.507	4518.25
381.733	4500.25
381.958	4575.25
382.184	4561.25
382.409	4652.25
382.634	4712.25
382.86	4670.25
383.085	4660.25
383.31	4791.25
383.535	4899.25
383.761	4901.25
383.986	4970.25
384.211	5073.25
384.436	5124.25
384.662	5272.25
384.887	5297.25
385.112	5299.25
385.337	5349.25
385.562	5284.25
385.787	5287.25
386.013	5497.25
386.238	5473.25
386.463	5436.25
386.688	5423.25
386.913	5272.25
387.138	5232.25
387.363	5312.25
387.588	5291.25
387.813	5233.25
388.038	5247.25
388.263	5286.25
388.488	5324.25
388.713	5256.25
388.938	5228.25
389.163	5258.25
389.387	5198.25
389.612	5130.25
389.837	5258.25
390.062	5178.25
390.287	5158.25
390.512	5111.25
390.736	5274.25
390.961	5448.25
391.186	5377.25
391.411	5593.25
391.636	5693.25
391.86	5874.25
392.085	5853.25
392.31	5822.25
392.534	5681.25
392.759	5552.25
392.984	5540.25
393.208	5463.25
393.433	5478.25
393.658	5451.25
393.882	5425.25
394.107	5455.25
394.331	5589.25
394.556	5436.25
394.78	5593.25
395.005	5623.25
395.229	5716.25
395.454	5879.25
395.678	5910.25
395.903	5873.25
396.127	5992.25
396.352	5784.25
396.576	5597.25
396.801	5587.25
397.025	5669.25
397.249	5824.25
397.474	5933.25
397.698	5982.25
397.922	6132.25
398.147	6273.25
398.371	6331.25
398.595	6453.25
398.82	6808.25
399.044	7238.25
399.268	8044.25
399.492	9078.25
399.717	9668.25
399.941	9385.25
400.165	8880.25
400.389	8183.25
400.613	7410.25
400.837	7031.25
401.062	6854.25
401.286	6773.25
401.51	6728.25
401.734	6619.25
401.958	6767.25
402.182	6920.25
402.406	7059.25
402.63	7076.25
402.854	7139.25
403.078	7240.25
403.302	7374.25
403.526	7569.25
403.75	7556.25
403.974	7768.25
404.198	7754.25
404.422	7945.25
404.645	7970.25
404.869	8280.25
405.093	8892.25
405.317	9604.25
405.541	9308.25
405.765	8378.25
405.988	7873.25
406.212	7866.25
406.436	7996.25
406.66	7993.25
406.883	7998.25
407.107	8558.25
407.331	9023.25
407.555	9537.25
407.778	9233.25
408.002	8422.25
408.226	8136.25
408.449	7937.25
408.673	7802.25
408.896	8023.25
409.12	8211.25
409.344	7671.25
409.567	7258.25
409.791	7320.25
410.014	7272.25
410.238	7279.25
410.461	7246.25
410.685	7269.25
410.908	7326.25
411.132	7595.25
411.355	7562.25
411.578	7241.25
411.802	7130.25
412.025	7459.25
412.249	7972.25
412.472	8681.25
412.695	9436.25
412.919	8584.25
413.142	8034.25
413.365	7596.25
413.589	7240.25
413.812	6982.25
414.035	6795.25
414.258	6849.25
414.482	6806.25
414.705	6835.25
414.928	6739.25
415.151	6730.25
415.374	6661.25
415.597	6606.25
415.821	6541.25
416.044	6627.25
416.267	6570.25
416.49	6388.25
416.713	6433.25
416.936	6598.25
417.159	6649.25
417.382	6710.25
417.605	6928.25
417.828	7037.25
418.051	6950.25
418.274	6775.25
418.497	6584.25
418.72	6826.25
418.943	6683.25
419.166	7220.25
419.389	7695.25
419.611	7576.25
419.834	7590.25
420.057	7916.25
420.28	8202.25
420.503	7963.25
420.726	7680.25
420.948	7550.25
421.171	7695.25
421.394	7434.25
421.617	6960.25
421.839	6851.25
422.062	6931.25
422.285	7046.25
422.507	7628.25
422.73	8210.25
422.953	7557.25
423.175	7151.25
423.398	7182.25
423.621	7151.25
423.843	7370.25
424.066	7287.25
424.288	7205.25
424.511	7403.25
424.733	7929.25
424.956	8324.25
425.178	7905.25
425.401	8110.25
425.623	7824.25
425.846	6993.25
426.068	6796.25
426.291	6720.25
426.513	6713.25
426.735	6817.25
426.958	7316.25
427.18	8258.25
427.402	9516.25
427.625	10118.25
427.847	9398.25
428.069	9275.25
428.292	7660.25
428.514	6656.25
428.736	6325.25
428.958	6252.25
429.181	5946.25
429.403	5984.25
429.625	6169.25
429.847	6468.25
430.069	7044.25
430.292	6471.25
430.514	5965.25
430.736	5954.25
430.958	5837.25
431.18	5831.25
431.402	5841.25
431.624	5819.25
431.846	5888.25
432.068	5802.25
432.29	5961.25
432.512	5840.25
432.734	5905.25
432.956	5856.25
433.178	5980.25
433.4	5944.25
433.622	5829.25
433.844	5936.25
434.066	5846.25
434.287	6035.25
434.509	6297.25
434.731	6403.25
434.953	6553.25
435.175	6662.25
435.397	6696.25
435.618	6697.25
435.84	7092.25
436.062	8112.25
436.284	7962.25
436.505	6677.25
436.727	6351.25
436.949	5993.25
437.17	5941.25
437.392	5858.25
437.614	6091.25
437.835	6509.25
438.057	7579.25
438.278	8198.25
438.5	8066.25
438.721	9034.25
438.943	7760.25
439.165	6480.25
439.386	6272.25
439.608	6404.25
439.829	6559.25
440.05	7043.25
440.272	7372.25
440.493	6588.25
440.715	6161.25
440.936	6158.25
441.158	6237.25
441.379	6376.25
441.6	6658.25
441.822	6908.25
442.043	7399.25
442.264	8238.25
442.486	7912.25
442.707	6907.25
442.928	6849.25
443.149	6989.25
443.371	7265.25
443.592	7855.25
443.813	8916.25
444.034	8858.25
444.255	7601.25
444.476	7370.25
444.698	7504.25
444.919	7641.25
445.14	7417.25
445.361	7366.25
445.582	7735.25
445.803	8428.25
446.024	9060.25
446.245	8675.25
446.466	7597.25
446.687	6457.25
446.908	6144.25
447.129	5868.25
447.35	5755.25
447.571	5721.25
447.792	5648.25
448.013	5720.25
448.234	6022.25
448.455	6669.25
448.675	8026.25
448.896	8392.25
449.117	6733.25
449.338	7122.25
449.559	8498.25
449.779	8669.25
450	6504.25
450.221	5834.25
450.442	5642.25
450.662	5550.25
450.883	5701.25
451.104	5835.25
451.324	5576.25
451.545	5417.25
451.766	5363.25
451.986	5130.25
452.207	5116.25
452.428	5099.25
452.648	5199.25
452.869	5204.25
453.089	5317.25
453.31	5317.25
453.53	5191.25
453.751	5117.25
453.971	5216.25
454.192	5360.25
454.412	5094.25
454.633	5040.25
454.853	5081.25
455.073	5056.25
455.294	5468.25
455.514	5984.25
455.734	5455.25
455.955	4862.25
456.175	4832.25
456.395	4817.25
456.616	4770.25
456.836	4880.25
457.056	4812.25
457.276	4735.25
457.497	4902.25
457.717	4930.25
457.937	4922.25
458.157	5047.25
458.377	5137.25
458.598	5516.25
458.818	6337.25
459.038	7142.25
459.258	6871.25
459.478	6122.25
459.698	6000.25
459.918	5998.25
460.138	6258.25
460.358	6361.25
460.578	6502.25
460.798	6521.25
461.018	6586.25
461.238	6392.25
461.458	6345.25
461.678	6338.25
461.898	6392.25
462.118	6518.25
462.338	6829.25
462.558	6907.25
462.777	7329.25
462.997	7864.25
463.217	8276.25
463.437	8064.25
463.657	7477.25
463.876	7303.25
464.096	7382.25
464.316	7354.25
464.536	7450.25
464.755	7229.25
464.975	7097.25
465.195	7374.25
465.414	7514.25
465.634	6547.25
465.854	6134.25
466.073	5841.25
466.293	5700.25
466.512	5493.25
466.732	5404.25
466.951	5478.25
467.171	5520.25
467.391	5692.25
467.61	5780.25
467.829	6035.25
468.049	7029.25
468.268	8212.25
468.488	6578.25
468.707	5882.25
468.927	5615.25
469.146	5418.25
469.365	5452.25
469.585	5496.25
469.804	5663.25
470.023	5822.25
470.243	5811.25
470.462	5915.25
470.681	5970.25
470.901	5866.25
471.12	5806.25
471.339	5840.25
471.558	5860.25
471.777	5976.25
471.997	6505.25
472.216	9284.25
472.435	13630.25
472.654	10288.25
472.873	7478.25
473.092	6696.25
473.311	6253.25
473.53	6063.25
473.749	5933.25
473.968	6408.25
474.187	7499.25
474.406	6785.25
474.625	5832.25
474.844	5542.25
475.063	5470.25
475.282	5482.25
475.501	5489.25
475.72	5578.25
475.939	5620.25
476.158	5591.25
476.377	5572.25
476.596	5656.25
476.814	5759.25
477.033	5760.25
477.252	5791.25
477.471	5991.25
477.69	6027.25
477.908	6118.25
478.127	6276.25
478.346	6365.25
478.564	6462.25
478.783	6553.25
479.002	6874.25
479.22	6906.25
479.439	7056.25
479.658	7148.25
479.876	7187.25
480.095	7547.25
480.313	8102.25
480.532	8056.25
480.751	8733.25
480.969	11381.25
481.188	15618.25
481.406	15618.25
481.624	13320.25
481.843	9840.25
482.061	8628.25
482.28	7987.25
482.498	7589.25
482.717	7331.25
482.935	7065.25
483.153	6916.25
483.372	6830.25
483.59	6657.25
483.808	6670.25
484.027	6653.25
484.245	6600.25
484.463	6715.25
484.681	6798.25
484.9	6796.25
485.118	6724.25
485.336	6823.25
485.554	6898.25
485.772	6889.25
485.99	6906.25
486.209	7001.25
486.427	7048.25
486.645	7081.25
486.863	7142.25
487.081	7074.25
487.299	7039.25
487.517	6994.25
