Data from Circ_1997_H10_HRD10591_00046.txt Node
Date: Wed Jan 03 11:29:36 EST 2024
User: Yrep
Spectrometer: HR+D1059
Trigger mode: 1
Integration Time (sec): 1.000000E-1
Scans to average: 1
Electric dark correction enabled: true
Nonlinearity correction enabled: false
Boxcar width: 0
XAxis mode: Wavelengths
Number of Pixels in Spectrum: 2048
>>>>>Begin Spectral Data<<<<<
223.165	-22.06
223.4	-22.06
223.635	-22.06
223.869	-23.06
224.104	-23.06
224.338	-36.06
224.573	-18.06
224.808	-0.06
225.042	-15.06
225.277	16.94
225.511	5.94
225.746	11.94
225.98	11.94
226.215	5.94
226.449	12.94
226.683	11.94
226.918	24.94
227.152	34.94
227.387	25.94
227.621	29.94
227.856	47.94
228.09	37.94
228.324	49.94
228.559	47.94
228.793	58.94
229.027	71.94
229.262	76.94
229.496	71.94
229.73	99.94
229.964	83.94
230.199	69.94
230.433	74.94
230.667	84.94
230.901	79.94
231.136	91.94
231.37	66.94
231.604	91.94
231.838	72.94
232.072	78.94
232.306	76.94
232.541	73.94
232.775	69.94
233.009	87.94
233.243	73.94
233.477	84.94
233.711	88.94
233.945	76.94
234.179	79.94
234.413	83.94
234.647	86.94
234.881	75.94
235.115	83.94
235.349	79.94
235.583	75.94
235.817	75.94
236.051	72.94
236.285	80.94
236.519	75.94
236.753	71.94
236.987	92.94
237.221	83.94
237.455	96.94
237.689	84.94
237.922	80.94
238.156	60.94
238.39	78.94
238.624	68.94
238.858	72.94
239.091	80.94
239.325	81.94
239.559	88.94
239.793	81.94
240.027	90.94
240.26	67.94
240.494	88.94
240.728	86.94
240.961	76.94
241.195	62.94
241.429	79.94
241.662	79.94
241.896	80.94
242.13	80.94
242.363	61.94
242.597	73.94
242.83	71.94
243.064	73.94
243.298	68.94
243.531	73.94
243.765	65.94
243.998	71.94
244.232	67.94
244.465	77.94
244.699	60.94
244.932	61.94
245.166	72.94
245.399	85.94
245.633	87.94
245.866	71.94
246.099	76.94
246.333	78.94
246.566	77.94
246.8	72.94
247.033	83.94
247.266	96.94
247.5	72.94
247.733	81.94
247.966	72.94
248.2	85.94
248.433	70.94
248.666	69.94
248.899	73.94
249.133	86.94
249.366	93.94
249.599	101.94
249.832	82.94
250.066	88.94
250.299	81.94
250.532	73.94
250.765	73.94
250.998	75.94
251.231	77.94
251.465	91.94
251.698	80.94
251.931	83.94
252.164	96.94
252.397	85.94
252.63	84.94
252.863	62.94
253.096	85.94
253.329	87.94
253.562	77.94
253.795	71.94
254.028	77.94
254.261	71.94
254.494	80.94
254.727	78.94
254.96	71.94
255.193	75.94
255.426	76.94
255.659	68.94
255.892	88.94
256.124	80.94
256.357	80.94
256.59	73.94
256.823	69.94
257.056	79.94
257.289	78.94
257.521	81.94
257.754	82.94
257.987	91.94
258.22	91.94
258.452	88.94
258.685	78.94
258.918	77.94
259.151	88.94
259.383	79.94
259.616	71.94
259.849	90.94
260.081	79.94
260.314	88.94
260.547	75.94
260.779	94.94
261.012	108.94
261.244	100.94
261.477	99.94
261.71	97.94
261.942	117.94
262.175	134.94
262.407	103.94
262.64	81.94
262.872	81.94
263.105	84.94
263.337	89.94
263.57	108.94
263.802	94.94
264.035	75.94
264.267	81.94
264.499	92.94
264.732	80.94
264.964	85.94
265.197	77.94
265.429	92.94
265.661	80.94
265.894	76.94
266.126	89.94
266.358	81.94
266.591	85.94
266.823	70.94
267.055	77.94
267.287	84.94
267.52	88.94
267.752	89.94
267.984	88.94
268.216	83.94
268.448	78.94
268.681	77.94
268.913	85.94
269.145	87.94
269.377	80.94
269.609	76.94
269.841	97.94
270.073	81.94
270.306	95.94
270.538	77.94
270.77	75.94
271.002	75.94
271.234	68.94
271.466	96.94
271.698	76.94
271.93	84.94
272.162	91.94
272.394	84.94
272.626	80.94
272.858	89.94
273.09	79.94
273.322	72.94
273.553	77.94
273.785	90.94
274.017	94.94
274.249	91.94
274.481	86.94
274.713	95.94
274.945	87.94
275.176	76.94
275.408	91.94
275.64	96.94
275.872	103.94
276.104	94.94
276.335	83.94
276.567	106.94
276.799	119.94
277.031	147.94
277.262	149.94
277.494	117.94
277.726	98.94
277.957	89.94
278.189	96.94
278.421	78.94
278.652	96.94
278.884	72.94
279.115	91.94
279.347	96.94
279.579	103.94
279.81	112.94
280.042	141.94
280.273	213.94
280.505	141.94
280.736	109.94
280.968	83.94
281.199	85.94
281.431	90.94
281.662	83.94
281.894	75.94
282.125	87.94
282.356	119.94
282.588	140.94
282.819	113.94
283.051	91.94
283.282	85.94
283.513	84.94
283.745	104.94
283.976	71.94
284.207	79.94
284.439	83.94
284.67	90.94
284.901	74.94
285.132	90.94
285.364	88.94
285.595	80.94
285.826	88.94
286.057	93.94
286.288	80.94
286.52	84.94
286.751	90.94
286.982	87.94
287.213	82.94
287.444	97.94
287.675	83.94
287.906	81.94
288.138	80.94
288.369	91.94
288.6	87.94
288.831	95.94
289.062	79.94
289.293	84.94
289.524	86.94
289.755	97.94
289.986	106.94
290.217	89.94
290.448	83.94
290.679	89.94
290.91	97.94
291.141	91.94
291.371	83.94
291.602	88.94
291.833	89.94
292.064	76.94
292.295	96.94
292.526	77.94
292.757	99.94
292.987	89.94
293.218	92.94
293.449	81.94
293.68	75.94
293.91	85.94
294.141	107.94
294.372	94.94
294.603	90.94
294.833	89.94
295.064	64.94
295.295	77.94
295.525	87.94
295.756	106.94
295.987	121.94
296.217	135.94
296.448	124.94
296.679	89.94
296.909	78.94
297.14	88.94
297.37	85.94
297.601	89.94
297.831	99.94
298.062	91.94
298.292	94.94
298.523	91.94
298.753	81.94
298.984	80.94
299.214	96.94
299.445	94.94
299.675	78.94
299.905	91.94
300.136	91.94
300.366	90.94
300.597	90.94
300.827	95.94
301.057	98.94
301.288	92.94
301.518	94.94
301.748	92.94
301.979	109.94
302.209	92.94
302.439	88.94
302.669	88.94
302.9	90.94
303.13	79.94
303.36	97.94
303.59	120.94
303.82	117.94
304.051	89.94
304.281	88.94
304.511	99.94
304.741	91.94
304.971	88.94
305.201	86.94
305.431	89.94
305.661	89.94
305.891	91.94
306.121	95.94
306.352	108.94
306.582	97.94
306.812	100.94
307.042	119.94
307.272	127.94
307.502	148.94
307.731	138.94
307.961	124.94
308.191	100.94
308.421	104.94
308.651	100.94
308.881	96.94
309.111	93.94
309.341	88.94
309.571	95.94
309.8	98.94
310.03	94.94
310.26	98.94
310.49	97.94
310.72	90.94
310.949	110.94
311.179	109.94
311.409	86.94
311.639	95.94
311.868	105.94
312.098	99.94
312.328	105.94
312.557	102.94
312.787	124.94
313.017	110.94
313.246	92.94
313.476	101.94
313.706	92.94
313.935	95.94
314.165	92.94
314.394	98.94
314.624	109.94
314.853	103.94
315.083	102.94
315.312	105.94
315.542	92.94
315.771	95.94
316.001	91.94
316.23	87.94
316.46	97.94
316.689	91.94
316.919	89.94
317.148	71.94
317.377	102.94
317.607	103.94
317.836	96.94
318.065	84.94
318.295	100.94
318.524	93.94
318.753	93.94
318.983	100.94
319.212	91.94
319.441	108.94
319.67	99.94
319.9	92.94
320.129	105.94
320.358	85.94
320.587	88.94
320.816	92.94
321.046	113.94
321.275	97.94
321.504	85.94
321.733	107.94
321.962	80.94
322.191	93.94
322.42	128.94
322.649	120.94
322.878	126.94
323.108	137.94
323.337	131.94
323.566	159.94
323.795	184.94
324.024	247.94
324.253	509.94
324.482	1200.94
324.71	2583.94
324.939	3532.94
325.168	1215.94
325.397	322.94
325.626	165.94
325.855	155.94
326.084	151.94
326.313	158.94
326.542	177.94
326.77	291.94
326.999	634.94
327.228	1431.94
327.457	2723.94
327.686	2118.94
327.914	619.94
328.143	472.94
328.372	543.94
328.6	319.94
328.829	157.94
329.058	182.94
329.287	163.94
329.515	157.94
329.744	216.94
329.972	395.94
330.201	815.94
330.43	1150.94
330.658	494.94
330.887	238.94
331.115	146.94
331.344	109.94
331.572	115.94
331.801	108.94
332.03	115.94
332.258	103.94
332.486	104.94
332.715	95.94
332.943	99.94
333.172	111.94
333.4	132.94
333.629	128.94
333.857	204.94
334.085	376.94
334.314	808.94
334.542	1566.94
334.771	1408.94
334.999	353.94
335.227	162.94
335.455	119.94
335.684	108.94
335.912	118.94
336.14	98.94
336.369	101.94
336.597	92.94
336.825	105.94
337.053	97.94
337.281	90.94
337.51	98.94
337.738	97.94
337.966	92.94
338.194	96.94
338.422	103.94
338.65	85.94
338.878	95.94
339.106	80.94
339.334	92.94
339.562	103.94
339.79	93.94
340.018	89.94
340.246	96.94
340.474	84.94
340.702	80.94
340.93	92.94
341.158	94.94
341.386	96.94
341.614	105.94
341.842	95.94
342.07	83.94
342.298	90.94
342.526	99.94
342.754	89.94
342.981	78.94
343.209	84.94
343.437	93.94
343.665	85.94
343.893	104.94
344.12	88.94
344.348	86.94
344.576	81.94
344.804	93.94
345.031	99.94
345.259	102.94
345.487	100.94
345.714	94.94
345.942	97.94
346.17	95.94
346.397	90.94
346.625	92.94
346.853	86.94
347.08	74.94
347.308	100.94
347.535	92.94
347.763	89.94
347.99	96.94
348.218	96.94
348.445	112.94
348.673	101.94
348.9	95.94
349.128	87.94
349.355	79.94
349.583	85.94
349.81	98.94
350.037	95.94
350.265	79.94
350.492	98.94
350.72	75.94
350.947	95.94
351.174	105.94
351.402	115.94
351.629	103.94
351.856	106.94
352.083	104.94
352.311	102.94
352.538	109.94
352.765	116.94
352.992	112.94
353.22	100.94
353.447	107.94
353.674	93.94
353.901	97.94
354.128	104.94
354.355	100.94
354.583	89.94
354.81	95.94
355.037	101.94
355.264	103.94
355.491	84.94
355.718	96.94
355.945	99.94
356.172	90.94
356.399	103.94
356.626	94.94
356.853	77.94
357.08	79.94
357.307	97.94
357.534	86.94
357.761	94.94
357.988	89.94
358.215	93.94
358.441	87.94
358.668	86.94
358.895	78.94
359.122	91.94
359.349	92.94
359.576	91.94
359.802	113.94
360.029	117.94
360.256	116.94
360.483	97.94
360.709	85.94
360.936	87.94
361.163	92.94
361.39	96.94
361.616	90.94
361.843	83.94
362.07	110.94
362.296	111.94
362.523	84.94
362.749	95.94
362.976	70.94
363.203	77.94
363.429	82.94
363.656	95.94
363.882	91.94
364.109	96.94
364.335	95.94
364.562	86.94
364.788	98.94
365.015	94.94
365.241	110.94
365.468	103.94
365.694	95.94
365.92	88.94
366.147	91.94
366.373	64.94
366.599	79.94
366.826	102.94
367.052	96.94
367.278	91.94
367.505	94.94
367.731	106.94
367.957	91.94
368.184	97.94
368.41	100.94
368.636	141.94
368.862	121.94
369.089	117.94
369.315	91.94
369.541	91.94
369.767	96.94
369.993	94.94
370.219	79.94
370.445	89.94
370.672	89.94
370.898	85.94
371.124	86.94
371.35	88.94
371.576	85.94
371.802	92.94
372.028	93.94
372.254	90.94
372.48	95.94
372.706	84.94
372.932	86.94
373.158	77.94
373.384	101.94
373.61	94.94
373.835	75.94
374.061	97.94
374.287	87.94
374.513	91.94
374.739	78.94
374.965	86.94
375.191	83.94
375.416	84.94
375.642	85.94
375.868	88.94
376.094	87.94
376.319	97.94
376.545	81.94
376.771	64.94
376.997	84.94
377.222	85.94
377.448	85.94
377.674	70.94
377.899	95.94
378.125	78.94
378.35	88.94
378.576	107.94
378.802	78.94
379.027	92.94
379.253	89.94
379.478	88.94
379.704	94.94
379.929	87.94
380.155	86.94
380.38	96.94
380.606	92.94
380.831	83.94
381.057	97.94
381.282	81.94
381.507	74.94
381.733	90.94
381.958	85.94
382.184	94.94
382.409	87.94
382.634	92.94
382.86	73.94
383.085	77.94
383.31	87.94
383.535	85.94
383.761	80.94
383.986	101.94
384.211	93.94
384.436	90.94
384.662	96.94
384.887	91.94
385.112	90.94
385.337	94.94
385.562	89.94
385.787	113.94
386.013	106.94
386.238	103.94
386.463	92.94
386.688	93.94
386.913	91.94
387.138	96.94
387.363	102.94
387.588	113.94
387.813	83.94
388.038	92.94
388.263	93.94
388.488	89.94
388.713	86.94
388.938	97.94
389.163	80.94
389.387	92.94
389.612	102.94
389.837	96.94
390.062	89.94
390.287	94.94
390.512	75.94
390.736	101.94
390.961	89.94
391.186	84.94
391.411	94.94
391.636	87.94
391.86	85.94
392.085	91.94
392.31	88.94
392.534	77.94
392.759	87.94
392.984	77.94
393.208	75.94
393.433	87.94
393.658	85.94
393.882	76.94
394.107	90.94
394.331	85.94
394.556	85.94
394.78	87.94
395.005	77.94
395.229	80.94
395.454	76.94
395.678	82.94
395.903	81.94
396.127	86.94
396.352	77.94
396.576	95.94
396.801	103.94
397.025	89.94
397.249	84.94
397.474	91.94
397.698	96.94
397.922	100.94
398.147	67.94
398.371	68.94
398.595	71.94
398.82	92.94
399.044	96.94
399.268	87.94
399.492	87.94
399.717	95.94
399.941	84.94
400.165	107.94
400.389	97.94
400.613	96.94
400.837	89.94
401.062	85.94
401.286	99.94
401.51	61.94
401.734	90.94
401.958	87.94
402.182	113.94
402.406	162.94
402.63	145.94
402.854	117.94
403.078	96.94
403.302	80.94
403.526	90.94
403.75	94.94
403.974	91.94
404.198	89.94
404.422	96.94
404.645	84.94
404.869	103.94
405.093	108.94
405.317	153.94
405.541	143.94
405.765	111.94
405.988	119.94
406.212	161.94
406.436	269.94
406.66	162.94
406.883	123.94
407.107	99.94
407.331	107.94
407.555	101.94
407.778	104.94
408.002	84.94
408.226	87.94
408.449	70.94
408.673	96.94
408.896	94.94
409.12	106.94
409.344	96.94
409.567	79.94
409.791	99.94
410.014	94.94
410.238	96.94
410.461	90.94
410.685	88.94
410.908	97.94
411.132	113.94
411.355	110.94
411.578	94.94
411.802	91.94
412.025	82.94
412.249	105.94
412.472	124.94
412.695	137.94
412.919	118.94
413.142	96.94
413.365	95.94
413.589	82.94
413.812	83.94
414.035	93.94
414.258	84.94
414.482	95.94
414.705	78.94
414.928	80.94
415.151	83.94
415.374	91.94
415.597	88.94
415.821	88.94
416.044	88.94
416.267	101.94
416.49	88.94
416.713	91.94
416.936	89.94
417.159	88.94
417.382	89.94
417.605	96.94
417.828	96.94
418.051	97.94
418.274	79.94
418.497	87.94
418.72	96.94
418.943	90.94
419.166	94.94
419.389	89.94
419.611	95.94
419.834	78.94
420.057	79.94
420.28	94.94
420.503	97.94
420.726	83.94
420.948	91.94
421.171	102.94
421.394	101.94
421.617	92.94
421.839	87.94
422.062	73.94
422.285	99.94
422.507	96.94
422.73	102.94
422.953	98.94
423.175	76.94
423.398	81.94
423.621	84.94
423.843	80.94
424.066	98.94
424.288	77.94
424.511	105.94
424.733	78.94
424.956	117.94
425.178	97.94
425.401	94.94
425.623	101.94
425.846	85.94
426.068	93.94
426.291	102.94
426.513	89.94
426.735	91.94
426.958	96.94
427.18	122.94
427.402	182.94
427.625	244.94
427.847	222.94
428.069	222.94
428.292	120.94
428.514	95.94
428.736	88.94
428.958	85.94
429.181	95.94
429.403	93.94
429.625	80.94
429.847	94.94
430.069	105.94
430.292	110.94
430.514	101.94
430.736	79.94
430.958	76.94
431.18	63.94
431.402	92.94
431.624	98.94
431.846	74.94
432.068	101.94
432.29	84.94
432.512	101.94
432.734	85.94
432.956	108.94
433.178	120.94
433.4	97.94
433.622	88.94
433.844	100.94
434.066	79.94
434.287	96.94
434.509	77.94
434.731	94.94
434.953	83.94
435.175	81.94
435.397	93.94
435.618	96.94
435.84	106.94
436.062	148.94
436.284	149.94
436.505	126.94
436.727	106.94
436.949	91.94
437.17	79.94
437.392	92.94
437.614	93.94
437.835	112.94
438.057	120.94
438.278	129.94
438.5	104.94
438.721	168.94
438.943	117.94
439.165	98.94
439.386	92.94
439.608	83.94
439.829	106.94
440.05	150.94
440.272	188.94
440.493	111.94
440.715	83.94
440.936	69.94
441.158	75.94
441.379	86.94
441.6	96.94
441.822	110.94
442.043	96.94
442.264	110.94
442.486	101.94
442.707	93.94
442.928	102.94
443.149	176.94
443.371	149.94
443.592	133.94
443.813	142.94
444.034	125.94
444.255	95.94
444.476	100.94
444.698	101.94
444.919	89.94
445.14	139.94
445.361	129.94
445.582	144.94
445.803	172.94
446.024	171.94
446.245	181.94
446.466	140.94
446.687	102.94
446.908	92.94
447.129	80.94
447.35	80.94
447.571	89.94
447.792	94.94
448.013	100.94
448.234	117.94
448.455	112.94
448.675	139.94
448.896	131.94
449.117	109.94
449.338	111.94
449.559	159.94
449.779	169.94
450	101.94
450.221	97.94
450.442	81.94
450.662	94.94
450.883	103.94
451.104	115.94
451.324	107.94
451.545	74.94
451.766	71.94
451.986	101.94
452.207	92.94
452.428	87.94
452.648	108.94
452.869	122.94
453.089	121.94
453.31	113.94
453.53	100.94
453.751	90.94
453.971	96.94
454.192	125.94
454.412	91.94
454.633	81.94
454.853	80.94
455.073	87.94
455.294	87.94
455.514	93.94
455.734	88.94
455.955	85.94
456.175	83.94
456.395	74.94
456.616	90.94
456.836	75.94
457.056	84.94
457.276	93.94
457.497	69.94
457.717	75.94
457.937	93.94
458.157	75.94
458.377	95.94
458.598	103.94
458.818	167.94
459.038	202.94
459.258	124.94
459.478	96.94
459.698	85.94
459.918	92.94
460.138	83.94
460.358	83.94
460.578	93.94
460.798	82.94
461.018	85.94
461.238	88.94
461.458	78.94
461.678	69.94
461.898	92.94
462.118	82.94
462.338	81.94
462.558	80.94
462.777	84.94
462.997	104.94
463.217	103.94
463.437	96.94
463.657	89.94
463.876	88.94
464.096	84.94
464.316	97.94
464.536	90.94
464.755	89.94
464.975	108.94
465.195	191.94
465.414	180.94
465.634	107.94
465.854	84.94
466.073	85.94
466.293	75.94
466.512	83.94
466.732	84.94
466.951	81.94
467.171	95.94
467.391	104.94
467.61	122.94
467.829	186.94
468.049	432.94
468.268	652.94
468.488	195.94
468.707	104.94
468.927	80.94
469.146	89.94
469.365	91.94
469.585	96.94
469.804	98.94
470.023	99.94
470.243	106.94
470.462	112.94
470.681	126.94
470.901	103.94
471.12	97.94
471.339	101.94
471.558	108.94
471.777	134.94
471.997	262.94
472.216	900.94
472.435	1973.94
472.654	483.94
472.873	145.94
473.092	95.94
473.311	84.94
473.53	86.94
473.749	104.94
473.968	101.94
474.187	111.94
474.406	112.94
474.625	90.94
474.844	90.94
475.063	88.94
475.282	96.94
475.501	84.94
475.72	85.94
475.939	83.94
476.158	76.94
476.377	89.94
476.596	80.94
476.814	101.94
477.033	101.94
477.252	85.94
477.471	101.94
477.69	85.94
477.908	81.94
478.127	77.94
478.346	92.94
478.564	91.94
478.783	106.94
479.002	101.94
479.22	98.94
479.439	116.94
479.658	111.94
479.876	126.94
480.095	108.94
480.313	137.94
480.532	149.94
480.751	244.94
480.969	836.94
481.188	3508.94
481.406	2059.94
481.624	335.94
481.843	122.94
482.061	104.94
482.28	97.94
482.498	92.94
482.717	88.94
482.935	91.94
483.153	84.94
483.372	80.94
483.59	91.94
483.808	95.94
484.027	80.94
484.245	93.94
484.463	97.94
484.681	104.94
484.9	95.94
485.118	75.94
485.336	92.94
485.554	91.94
485.772	95.94
485.99	88.94
486.209	96.94
486.427	104.94
486.645	98.94
486.863	111.94
487.081	104.94
487.299	86.94
487.517	104.94
487.735	85.94
487.953	89.94
488.171	93.94
488.389	94.94
488.607	99.94
488.825	93.94
489.043	77.94
489.261	95.94
489.479	95.94
489.696	88.94
489.914	86.94
490.132	82.94
490.35	100.94
490.568	83.94
490.786	75.94
491.003	91.94
491.221	93.94
491.439	99.94
491.657	83.94
491.874	91.94
492.092	92.94
492.31	79.94
492.527	95.94
492.745	92.94
492.963	70.94
493.18	79.94
493.398	83.94
493.615	92.94
493.833	76.94
494.05	79.94
494.268	75.94
494.485	81.94
494.703	82.94
494.92	92.94
495.138	98.94
495.355	94.94
495.573	85.94
495.79	88.94
496.008	92.94
496.225	83.94
496.442	62.94
496.66	78.94
496.877	84.94
497.094	103.94
497.312	82.94
497.529	94.94
497.746	87.94
497.963	103.94
498.181	92.94
498.398	93.94
498.615	113.94
498.832	102.94
499.049	93.94
499.267	83.94
499.484	71.94
499.701	79.94
499.918	88.94
500.135	84.94
500.352	91.94
500.569	93.94
500.786	92.94
501.003	88.94
501.22	92.94
501.437	85.94
501.654	93.94
501.871	118.94
502.088	107.94
502.305	87.94
502.522	78.94
502.739	83.94
502.956	85.94
503.172	102.94
503.389	112.94
503.606	126.94
503.823	118.94
504.04	93.94
504.256	99.94
504.473	84.94
504.69	93.94
504.907	95.94
505.123	86.94
505.34	89.94
505.557	97.94
505.773	80.94
505.99	74.94
506.207	71.94
506.423	85.94
506.64	77.94
506.856	92.94
507.073	75.94
507.289	79.94
507.506	97.94
507.722	128.94
507.939	112.94
508.155	74.94
508.372	86.94
508.588	82.94
508.805	78.94
509.021	95.94
509.238	95.94
509.454	103.94
509.67	105.94
509.887	105.94
510.103	121.94
510.319	206.94
510.536	691.94
510.752	2384.94
510.968	667.94
511.184	147.94
511.401	118.94
511.617	100.94
511.833	95.94
512.049	99.94
512.265	87.94
512.481	84.94
512.698	87.94
512.914	70.94
513.13	110.94
513.346	102.94
513.562	89.94
513.778	89.94
513.994	109.94
514.21	94.94
514.426	139.94
514.642	151.94
514.858	136.94
