Data from Circ_1997_H10_HRD10591_00074.txt Node
Date: Wed Jan 03 11:29:42 EST 2024
User: Yrep
Spectrometer: HR+D1059
Trigger mode: 1
Integration Time (sec): 1.000000E-1
Scans to average: 1
Electric dark correction enabled: true
Nonlinearity correction enabled: false
Boxcar width: 0
XAxis mode: Wavelengths
Number of Pixels in Spectrum: 2048
>>>>>Begin Spectral Data<<<<<
223.165	-22.38
223.4	-22.38
223.635	-22.38
223.869	-11.38
224.104	-25.38
224.338	-12.38
224.573	-12.38
224.808	-20.38
225.042	-7.38
225.277	-6.38
225.511	-0.38
225.746	-7.38
225.98	5.62
226.215	9.62
226.449	14.62
226.683	29.62
226.918	29.62
227.152	36.62
227.387	27.62
227.621	19.62
227.856	50.62
228.09	39.62
228.324	54.62
228.559	60.62
228.793	55.62
229.027	66.62
229.262	77.62
229.496	81.62
229.73	98.62
229.964	85.62
230.199	69.62
230.433	68.62
230.667	92.62
230.901	79.62
231.136	78.62
231.37	81.62
231.604	91.62
231.838	78.62
232.072	62.62
232.306	73.62
232.541	80.62
232.775	94.62
233.009	64.62
233.243	79.62
233.477	76.62
233.711	75.62
233.945	82.62
234.179	87.62
234.413	80.62
234.647	80.62
234.881	72.62
235.115	74.62
235.349	77.62
235.583	84.62
235.817	74.62
236.051	76.62
236.285	89.62
236.519	71.62
236.753	71.62
236.987	84.62
237.221	95.62
237.455	95.62
237.689	73.62
237.922	76.62
238.156	75.62
238.39	68.62
238.624	85.62
238.858	69.62
239.091	74.62
239.325	76.62
239.559	83.62
239.793	71.62
240.027	83.62
240.26	89.62
240.494	82.62
240.728	81.62
240.961	83.62
241.195	83.62
241.429	90.62
241.662	62.62
241.896	79.62
242.13	78.62
242.363	82.62
242.597	82.62
242.83	76.62
243.064	74.62
243.298	68.62
243.531	78.62
243.765	62.62
243.998	81.62
244.232	87.62
244.465	87.62
244.699	84.62
244.932	84.62
245.166	77.62
245.399	67.62
245.633	75.62
245.866	67.62
246.099	83.62
246.333	83.62
246.566	69.62
246.8	85.62
247.033	78.62
247.266	74.62
247.5	66.62
247.733	72.62
247.966	81.62
248.2	80.62
248.433	73.62
248.666	70.62
248.899	83.62
249.133	84.62
249.366	109.62
249.599	110.62
249.832	83.62
250.066	67.62
250.299	76.62
250.532	86.62
250.765	81.62
250.998	97.62
251.231	84.62
251.465	94.62
251.698	77.62
251.931	103.62
252.164	79.62
252.397	86.62
252.63	89.62
252.863	88.62
253.096	89.62
253.329	84.62
253.562	79.62
253.795	71.62
254.028	73.62
254.261	89.62
254.494	98.62
254.727	83.62
254.96	91.62
255.193	91.62
255.426	70.62
255.659	95.62
255.892	91.62
256.124	107.62
256.357	80.62
256.59	78.62
256.823	79.62
257.056	76.62
257.289	84.62
257.521	89.62
257.754	68.62
257.987	91.62
258.22	96.62
258.452	109.62
258.685	90.62
258.918	84.62
259.151	88.62
259.383	93.62
259.616	75.62
259.849	87.62
260.081	81.62
260.314	93.62
260.547	85.62
260.779	100.62
261.012	125.62
261.244	114.62
261.477	91.62
261.71	109.62
261.942	132.62
262.175	150.62
262.407	95.62
262.64	81.62
262.872	90.62
263.105	71.62
263.337	85.62
263.57	83.62
263.802	77.62
264.035	85.62
264.267	90.62
264.499	95.62
264.732	91.62
264.964	94.62
265.197	90.62
265.429	94.62
265.661	86.62
265.894	78.62
266.126	83.62
266.358	79.62
266.591	91.62
266.823	71.62
267.055	71.62
267.287	72.62
267.52	84.62
267.752	78.62
267.984	90.62
268.216	71.62
268.448	90.62
268.681	86.62
268.913	99.62
269.145	75.62
269.377	80.62
269.609	93.62
269.841	85.62
270.073	79.62
270.306	91.62
270.538	80.62
270.77	87.62
271.002	81.62
271.234	85.62
271.466	98.62
271.698	99.62
271.93	70.62
272.162	81.62
272.394	86.62
272.626	85.62
272.858	76.62
273.09	83.62
273.322	80.62
273.553	92.62
273.785	90.62
274.017	76.62
274.249	81.62
274.481	77.62
274.713	93.62
274.945	101.62
275.176	94.62
275.408	112.62
275.64	116.62
275.872	119.62
276.104	115.62
276.335	97.62
276.567	126.62
276.799	153.62
277.031	207.62
277.262	223.62
277.494	157.62
277.726	108.62
277.957	92.62
278.189	85.62
278.421	99.62
278.652	71.62
278.884	89.62
279.115	90.62
279.347	97.62
279.579	105.62
279.81	152.62
280.042	207.62
280.273	305.62
280.505	211.62
280.736	99.62
280.968	89.62
281.199	84.62
281.431	90.62
281.662	83.62
281.894	83.62
282.125	97.62
282.356	127.62
282.588	169.62
282.819	128.62
283.051	97.62
283.282	97.62
283.513	91.62
283.745	96.62
283.976	80.62
284.207	81.62
284.439	71.62
284.67	92.62
284.901	84.62
285.132	63.62
285.364	100.62
285.595	90.62
285.826	91.62
286.057	90.62
286.288	83.62
286.52	79.62
286.751	76.62
286.982	88.62
287.213	90.62
287.444	85.62
287.675	92.62
287.906	93.62
288.138	91.62
288.369	86.62
288.6	102.62
288.831	89.62
289.062	95.62
289.293	83.62
289.524	85.62
289.755	83.62
289.986	80.62
290.217	95.62
290.448	84.62
290.679	90.62
290.91	87.62
291.141	97.62
291.371	87.62
291.602	103.62
291.833	88.62
292.064	83.62
292.295	95.62
292.526	102.62
292.757	83.62
292.987	87.62
293.218	75.62
293.449	83.62
293.68	87.62
293.91	93.62
294.141	86.62
294.372	85.62
294.603	89.62
294.833	89.62
295.064	79.62
295.295	78.62
295.525	95.62
295.756	113.62
295.987	125.62
296.217	165.62
296.448	157.62
296.679	91.62
296.909	88.62
297.14	87.62
297.37	73.62
297.601	92.62
297.831	76.62
298.062	98.62
298.292	80.62
298.523	90.62
298.753	90.62
298.984	84.62
299.214	74.62
299.445	101.62
299.675	102.62
299.905	94.62
300.136	95.62
300.366	110.62
300.597	93.62
300.827	94.62
301.057	102.62
301.288	113.62
301.518	114.62
301.748	106.62
301.979	108.62
302.209	103.62
302.439	100.62
302.669	96.62
302.9	85.62
303.13	106.62
303.36	117.62
303.59	147.62
303.82	141.62
304.051	109.62
304.281	91.62
304.511	89.62
304.741	85.62
304.971	96.62
305.201	102.62
305.431	92.62
305.661	90.62
305.891	93.62
306.121	100.62
306.352	119.62
306.582	124.62
306.812	115.62
307.042	154.62
307.272	169.62
307.502	200.62
307.731	188.62
307.961	131.62
308.191	92.62
308.421	101.62
308.651	95.62
308.881	93.62
309.111	95.62
309.341	120.62
309.571	99.62
309.8	100.62
310.03	101.62
310.26	102.62
310.49	99.62
310.72	119.62
310.949	134.62
311.179	107.62
311.409	105.62
311.639	109.62
311.868	111.62
312.098	99.62
312.328	101.62
312.557	110.62
312.787	117.62
313.017	116.62
313.246	105.62
313.476	85.62
313.706	102.62
313.935	99.62
314.165	111.62
314.394	103.62
314.624	113.62
314.853	116.62
315.083	98.62
315.312	99.62
315.542	90.62
315.771	87.62
316.001	91.62
316.23	115.62
316.46	94.62
316.689	84.62
316.919	92.62
317.148	116.62
317.377	113.62
317.607	113.62
317.836	96.62
318.065	91.62
318.295	95.62
318.524	79.62
318.753	89.62
318.983	102.62
319.212	100.62
319.441	110.62
319.67	128.62
319.9	96.62
320.129	94.62
320.358	95.62
320.587	99.62
320.816	103.62
321.046	113.62
321.275	118.62
321.504	103.62
321.733	113.62
321.962	112.62
322.191	101.62
322.42	115.62
322.649	118.62
322.878	122.62
323.108	152.62
323.337	160.62
323.566	172.62
323.795	215.62
324.024	277.62
324.253	599.62
324.482	1273.62
324.71	2661.62
324.939	3500.62
325.168	1202.62
325.397	333.62
325.626	185.62
325.855	157.62
326.084	158.62
326.313	149.62
326.542	211.62
326.77	308.62
326.999	637.62
327.228	1387.62
327.457	2561.62
327.686	2013.62
327.914	693.62
328.143	678.62
328.372	860.62
328.6	461.62
328.829	221.62
329.058	231.62
329.287	246.62
329.515	213.62
329.744	319.62
329.972	646.62
330.201	1350.62
330.43	1896.62
330.658	806.62
330.887	367.62
331.115	239.62
331.344	133.62
331.572	124.62
331.801	140.62
332.03	128.62
332.258	116.62
332.486	107.62
332.715	119.62
332.943	124.62
333.172	153.62
333.4	152.62
333.629	189.62
333.857	268.62
334.085	566.62
334.314	1281.62
334.542	2485.62
334.771	2239.62
334.999	550.62
335.227	198.62
335.455	122.62
335.684	132.62
335.912	115.62
336.14	116.62
336.369	104.62
336.597	124.62
336.825	107.62
337.053	83.62
337.281	87.62
337.51	92.62
337.738	105.62
337.966	105.62
338.194	109.62
338.422	107.62
338.65	99.62
338.878	100.62
339.106	91.62
339.334	90.62
339.562	94.62
339.79	89.62
340.018	91.62
340.246	92.62
340.474	115.62
340.702	111.62
340.93	82.62
341.158	110.62
341.386	110.62
341.614	92.62
341.842	97.62
342.07	91.62
342.298	91.62
342.526	87.62
342.754	90.62
342.981	97.62
343.209	94.62
343.437	107.62
343.665	80.62
343.893	79.62
344.12	88.62
344.348	74.62
344.576	90.62
344.804	89.62
345.031	115.62
345.259	97.62
345.487	98.62
345.714	111.62
345.942	105.62
346.17	89.62
346.397	87.62
346.625	91.62
346.853	89.62
347.08	93.62
347.308	102.62
347.535	108.62
347.763	121.62
347.99	111.62
348.218	126.62
348.445	132.62
348.673	114.62
348.9	107.62
349.128	84.62
349.355	88.62
349.583	109.62
349.81	97.62
350.037	98.62
350.265	96.62
350.492	96.62
350.72	97.62
350.947	99.62
351.174	124.62
351.402	127.62
351.629	99.62
351.856	101.62
352.083	118.62
352.311	116.62
352.538	130.62
352.765	128.62
352.992	111.62
353.22	112.62
353.447	107.62
353.674	93.62
353.901	71.62
354.128	76.62
354.355	96.62
354.583	95.62
354.81	97.62
355.037	99.62
355.264	95.62
355.491	93.62
355.718	99.62
355.945	85.62
356.172	88.62
356.399	94.62
356.626	86.62
356.853	78.62
357.08	89.62
357.307	97.62
357.534	96.62
357.761	90.62
357.988	99.62
358.215	83.62
358.441	85.62
358.668	87.62
358.895	79.62
359.122	90.62
359.349	107.62
359.576	101.62
359.802	121.62
360.029	153.62
360.256	147.62
360.483	122.62
360.709	102.62
360.936	93.62
361.163	94.62
361.39	100.62
361.616	105.62
361.843	84.62
362.07	111.62
362.296	121.62
362.523	93.62
362.749	88.62
362.976	99.62
363.203	99.62
363.429	85.62
363.656	101.62
363.882	92.62
364.109	88.62
364.335	95.62
364.562	98.62
364.788	101.62
365.015	90.62
365.241	116.62
365.468	122.62
365.694	115.62
365.92	98.62
366.147	104.62
366.373	102.62
366.599	101.62
366.826	101.62
367.052	86.62
367.278	87.62
367.505	105.62
367.731	109.62
367.957	91.62
368.184	103.62
368.41	101.62
368.636	115.62
368.862	126.62
369.089	129.62
369.315	84.62
369.541	80.62
369.767	109.62
369.993	96.62
370.219	92.62
370.445	104.62
370.672	91.62
370.898	86.62
371.124	85.62
371.35	90.62
371.576	90.62
371.802	89.62
372.028	63.62
372.254	75.62
372.48	94.62
372.706	90.62
372.932	95.62
373.158	83.62
373.384	91.62
373.61	96.62
373.835	80.62
374.061	88.62
374.287	94.62
374.513	83.62
374.739	95.62
374.965	75.62
375.191	80.62
375.416	87.62
375.642	91.62
375.868	85.62
376.094	71.62
376.319	76.62
376.545	79.62
376.771	94.62
376.997	91.62
377.222	83.62
377.448	90.62
377.674	79.62
377.899	93.62
378.125	68.62
378.35	92.62
378.576	79.62
378.802	71.62
379.027	95.62
379.253	109.62
379.478	88.62
379.704	71.62
379.929	91.62
380.155	89.62
380.38	94.62
380.606	85.62
380.831	95.62
381.057	102.62
381.282	100.62
381.507	87.62
381.733	101.62
381.958	89.62
382.184	104.62
382.409	93.62
382.634	100.62
382.86	94.62
383.085	83.62
383.31	97.62
383.535	91.62
383.761	91.62
383.986	89.62
384.211	77.62
384.436	91.62
384.662	108.62
384.887	107.62
385.112	103.62
385.337	91.62
385.562	86.62
385.787	100.62
386.013	117.62
386.238	106.62
386.463	105.62
386.688	117.62
386.913	93.62
387.138	93.62
387.363	89.62
387.588	98.62
387.813	91.62
388.038	92.62
388.263	115.62
388.488	102.62
388.713	88.62
388.938	85.62
389.163	97.62
389.387	97.62
389.612	86.62
389.837	97.62
390.062	95.62
390.287	84.62
390.512	92.62
390.736	95.62
390.961	91.62
391.186	92.62
391.411	78.62
391.636	94.62
391.86	95.62
392.085	84.62
392.31	91.62
392.534	88.62
392.759	88.62
392.984	90.62
393.208	90.62
393.433	82.62
393.658	101.62
393.882	87.62
394.107	77.62
394.331	75.62
394.556	91.62
394.78	81.62
395.005	78.62
395.229	84.62
395.454	81.62
395.678	89.62
395.903	85.62
396.127	94.62
396.352	87.62
396.576	77.62
396.801	93.62
397.025	92.62
397.249	89.62
397.474	87.62
397.698	86.62
397.922	86.62
398.147	81.62
398.371	97.62
398.595	83.62
398.82	89.62
399.044	77.62
399.268	81.62
399.492	86.62
399.717	98.62
399.941	91.62
400.165	97.62
400.389	89.62
400.613	81.62
400.837	80.62
401.062	101.62
401.286	87.62
401.51	100.62
401.734	96.62
401.958	109.62
402.182	156.62
402.406	222.62
402.63	160.62
402.854	108.62
403.078	97.62
403.302	92.62
403.526	90.62
403.75	101.62
403.974	91.62
404.198	102.62
404.422	93.62
404.645	95.62
404.869	106.62
405.093	119.62
405.317	156.62
405.541	159.62
405.765	129.62
405.988	143.62
406.212	218.62
406.436	318.62
406.66	235.62
406.883	123.62
407.107	103.62
407.331	99.62
407.555	117.62
407.778	103.62
408.002	99.62
408.226	95.62
408.449	95.62
408.673	85.62
408.896	91.62
409.12	101.62
409.344	90.62
409.567	80.62
409.791	83.62
410.014	102.62
410.238	102.62
410.461	92.62
410.685	94.62
410.908	93.62
411.132	100.62
411.355	101.62
411.578	89.62
411.802	99.62
412.025	81.62
412.249	112.62
412.472	143.62
412.695	145.62
412.919	122.62
413.142	104.62
413.365	79.62
413.589	88.62
413.812	91.62
414.035	91.62
414.258	95.62
414.482	95.62
414.705	90.62
414.928	86.62
415.151	82.62
415.374	86.62
415.597	80.62
415.821	73.62
416.044	92.62
416.267	109.62
416.49	80.62
416.713	75.62
416.936	101.62
417.159	99.62
417.382	87.62
417.605	115.62
417.828	116.62
418.051	90.62
418.274	102.62
418.497	75.62
418.72	68.62
418.943	84.62
419.166	84.62
419.389	87.62
419.611	91.62
419.834	94.62
420.057	86.62
420.28	116.62
420.503	94.62
420.726	89.62
420.948	102.62
421.171	108.62
421.394	94.62
421.617	92.62
421.839	93.62
422.062	100.62
422.285	98.62
422.507	116.62
422.73	107.62
422.953	77.62
423.175	95.62
423.398	95.62
423.621	80.62
423.843	84.62
424.066	91.62
424.288	77.62
424.511	104.62
424.733	104.62
424.956	133.62
425.178	110.62
425.401	106.62
425.623	131.62
425.846	101.62
426.068	97.62
426.291	96.62
426.513	105.62
426.735	89.62
426.958	105.62
427.18	116.62
427.402	211.62
427.625	313.62
427.847	279.62
428.069	282.62
428.292	149.62
428.514	101.62
428.736	90.62
428.958	99.62
429.181	84.62
429.403	105.62
429.625	87.62
429.847	92.62
430.069	129.62
430.292	110.62
430.514	95.62
430.736	92.62
430.958	77.62
431.18	81.62
431.402	85.62
431.624	84.62
431.846	79.62
432.068	83.62
432.29	83.62
432.512	80.62
432.734	81.62
432.956	107.62
433.178	113.62
433.4	119.62
433.622	94.62
433.844	101.62
434.066	84.62
434.287	95.62
434.509	72.62
434.731	79.62
434.953	96.62
435.175	93.62
435.397	86.62
435.618	106.62
435.84	129.62
436.062	152.62
436.284	138.62
436.505	108.62
436.727	115.62
436.949	94.62
437.17	85.62
437.392	103.62
437.614	99.62
437.835	131.62
438.057	163.62
438.278	131.62
438.5	123.62
438.721	155.62
438.943	116.62
439.165	112.62
439.386	92.62
439.608	110.62
439.829	141.62
440.05	152.62
440.272	209.62
440.493	109.62
440.715	101.62
440.936	97.62
441.158	87.62
441.379	94.62
441.6	107.62
441.822	106.62
442.043	109.62
442.264	126.62
442.486	116.62
442.707	124.62
442.928	131.62
443.149	195.62
443.371	186.62
443.592	135.62
443.813	136.62
444.034	125.62
444.255	81.62
444.476	91.62
444.698	77.62
444.919	77.62
445.14	135.62
445.361	153.62
445.582	135.62
445.803	224.62
446.024	223.62
446.245	189.62
446.466	143.62
446.687	96.62
446.908	94.62
447.129	84.62
447.35	102.62
447.571	85.62
447.792	103.62
448.013	114.62
448.234	122.62
448.455	128.62
448.675	144.62
448.896	156.62
449.117	106.62
449.338	105.62
449.559	153.62
449.779	174.62
450	99.62
450.221	101.62
450.442	88.62
450.662	114.62
450.883	143.62
451.104	137.62
451.324	112.62
451.545	93.62
451.766	87.62
451.986	91.62
452.207	96.62
452.428	103.62
452.648	112.62
452.869	118.62
453.089	137.62
453.31	142.62
453.53	101.62
453.751	107.62
453.971	110.62
454.192	139.62
454.412	118.62
454.633	92.62
454.853	84.62
455.073	77.62
455.294	96.62
455.514	125.62
455.734	96.62
455.955	73.62
456.175	79.62
456.395	88.62
456.616	103.62
456.836	93.62
457.056	82.62
457.276	88.62
457.497	82.62
457.717	85.62
457.937	89.62
458.157	89.62
458.377	103.62
458.598	132.62
458.818	221.62
459.038	240.62
459.258	155.62
459.478	110.62
459.698	99.62
459.918	93.62
460.138	76.62
460.358	81.62
460.578	87.62
460.798	91.62
461.018	89.62
461.238	81.62
461.458	90.62
461.678	63.62
461.898	88.62
462.118	92.62
462.338	75.62
462.558	90.62
462.777	94.62
462.997	103.62
463.217	103.62
463.437	101.62
463.657	85.62
463.876	87.62
464.096	111.62
464.316	97.62
464.536	94.62
464.755	101.62
464.975	131.62
465.195	278.62
465.414	268.62
465.634	113.62
465.854	89.62
466.073	92.62
466.293	97.62
466.512	91.62
466.732	91.62
466.951	91.62
467.171	100.62
467.391	124.62
467.61	180.62
467.829	233.62
468.049	705.62
468.268	1058.62
468.488	248.62
468.707	112.62
468.927	101.62
469.146	85.62
469.365	92.62
469.585	105.62
469.804	116.62
470.023	120.62
470.243	107.62
470.462	124.62
470.681	143.62
470.901	108.62
471.12	109.62
471.339	121.62
471.558	126.62
471.777	168.62
471.997	363.62
472.216	1455.62
472.435	3261.62
472.654	731.62
472.873	197.62
473.092	113.62
473.311	114.62
473.53	98.62
473.749	88.62
473.968	103.62
474.187	138.62
474.406	110.62
474.625	100.62
474.844	84.62
475.063	71.62
475.282	92.62
475.501	93.62
475.72	88.62
475.939	84.62
476.158	94.62
476.377	87.62
476.596	103.62
476.814	106.62
477.033	102.62
477.252	92.62
477.471	89.62
477.69	87.62
477.908	93.62
478.127	115.62
478.346	102.62
478.564	101.62
478.783	112.62
479.002	111.62
479.22	120.62
479.439	128.62
479.658	149.62
479.876	135.62
480.095	132.62
480.313	147.62
480.532	190.62
480.751	353.62
480.969	1335.62
481.188	5710.62
481.406	3101.62
481.624	425.62
481.843	161.62
482.061	125.62
482.28	109.62
482.498	110.62
482.717	95.62
482.935	108.62
483.153	112.62
483.372	106.62
483.59	88.62
483.808	96.62
484.027	94.62
484.245	83.62
484.463	86.62
484.681	103.62
484.9	95.62
485.118	89.62
485.336	99.62
485.554	94.62
485.772	90.62
485.99	97.62
486.209	105.62
486.427	99.62
486.645	118.62
486.863	141.62
487.081	122.62
487.299	103.62
487.517	98.62
487.735	102.62
487.953	91.62
488.171	98.62
488.389	96.62
488.607	103.62
488.825	105.62
489.043	82.62
489.261	88.62
489.479	83.62
489.696	89.62
489.914	88.62
490.132	91.62
490.35	94.62
490.568	97.62
490.786	97.62
491.003	94.62
491.221	108.62
491.439	100.62
491.657	97.62
491.874	86.62
492.092	83.62
492.31	96.62
492.527	113.62
492.745	102.62
492.963	95.62
493.18	97.62
493.398	97.62
493.615	91.62
493.833	89.62
494.05	97.62
494.268	92.62
494.485	92.62
494.703	84.62
494.92	94.62
495.138	87.62
495.355	89.62
495.573	93.62
495.79	69.62
496.008	93.62
496.225	82.62
496.442	91.62
496.66	102.62
496.877	69.62
497.094	101.62
497.312	95.62
497.529	95.62
497.746	100.62
497.963	87.62
498.181	104.62
498.398	101.62
498.615	117.62
498.832	118.62
499.049	105.62
499.267	98.62
499.484	85.62
499.701	89.62
499.918	90.62
500.135	87.62
500.352	101.62
500.569	103.62
500.786	94.62
501.003	94.62
501.22	89.62
501.437	78.62
501.654	91.62
501.871	125.62
502.088	96.62
502.305	85.62
502.522	95.62
502.739	77.62
502.956	73.62
503.172	101.62
503.389	112.62
503.606	111.62
503.823	104.62
504.04	91.62
504.256	98.62
504.473	85.62
504.69	95.62
504.907	105.62
505.123	97.62
505.34	90.62
505.557	98.62
505.773	104.62
505.99	92.62
506.207	88.62
506.423	79.62
506.64	90.62
506.856	91.62
507.073	101.62
507.289	94.62
507.506	103.62
507.722	154.62
507.939	134.62
508.155	96.62
508.372	97.62
508.588	77.62
508.805	117.62
509.021	102.62
509.238	107.62
509.454	111.62
509.67	98.62
509.887	119.62
510.103	147.62
510.319	238.62
510.536	954.62
510.752	3360.62
510.968	876.62
511.184	181.62
511.401	132.62
511.617	122.62
511.833	119.62
512.049	113.62
512.265	97.62
512.481	95.62
512.698	99.62
