Data from Circ_1997_H10_HRD10591_00027.txt Node
Date: Wed Jan 03 11:29:33 EST 2024
User: Yrep
Spectrometer: HR+D1059
Trigger mode: 1
Integration Time (sec): 1.000000E-1
Scans to average: 1
Electric dark correction enabled: true
Nonlinearity correction enabled: false
Boxcar width: 0
XAxis mode: Wavelengths
Number of Pixels in Spectrum: 2048
>>>>>Begin Spectral Data<<<<<
223.165	-11.06
223.4	-11.06
223.635	-11.06
223.869	-21.06
224.104	-27.06
224.338	-15.06
224.573	-12.06
224.808	-8.06
225.042	-6.06
225.277	-11.06
225.511	-4.06
225.746	4.94
225.98	1.94
226.215	3.94
226.449	17.94
226.683	16.94
226.918	29.94
227.152	39.94
227.387	41.94
227.621	47.94
227.856	49.94
228.09	40.94
228.324	43.94
228.559	67.94
228.793	62.94
229.027	56.94
229.262	76.94
229.496	85.94
229.73	88.94
229.964	104.94
230.199	85.94
230.433	70.94
230.667	91.94
230.901	84.94
231.136	75.94
231.37	76.94
231.604	74.94
231.838	69.94
232.072	81.94
232.306	86.94
232.541	79.94
232.775	79.94
233.009	82.94
233.243	80.94
233.477	95.94
233.711	80.94
233.945	85.94
234.179	93.94
234.413	90.94
234.647	84.94
234.881	79.94
235.115	72.94
235.349	81.94
235.583	89.94
235.817	81.94
236.051	72.94
236.285	80.94
236.519	82.94
236.753	87.94
236.987	85.94
237.221	93.94
237.455	87.94
237.689	82.94
237.922	66.94
238.156	82.94
238.39	73.94
238.624	84.94
238.858	82.94
239.091	90.94
239.325	74.94
239.559	85.94
239.793	87.94
240.027	85.94
240.26	81.94
240.494	76.94
240.728	74.94
240.961	77.94
241.195	87.94
241.429	88.94
241.662	76.94
241.896	78.94
242.13	74.94
242.363	73.94
242.597	80.94
242.83	96.94
243.064	81.94
243.298	81.94
243.531	83.94
243.765	75.94
243.998	69.94
244.232	93.94
244.465	75.94
244.699	70.94
244.932	69.94
245.166	92.94
245.399	86.94
245.633	88.94
245.866	79.94
246.099	79.94
246.333	83.94
246.566	87.94
246.8	78.94
247.033	80.94
247.266	89.94
247.5	78.94
247.733	80.94
247.966	69.94
248.2	78.94
248.433	84.94
248.666	69.94
248.899	92.94
249.133	96.94
249.366	106.94
249.599	101.94
249.832	89.94
250.066	77.94
250.299	101.94
250.532	85.94
250.765	86.94
250.998	103.94
251.231	106.94
251.465	80.94
251.698	99.94
251.931	76.94
252.164	76.94
252.397	79.94
252.63	89.94
252.863	86.94
253.096	91.94
253.329	80.94
253.562	87.94
253.795	76.94
254.028	84.94
254.261	90.94
254.494	67.94
254.727	88.94
254.96	79.94
255.193	84.94
255.426	91.94
255.659	96.94
255.892	92.94
256.124	93.94
256.357	102.94
256.59	98.94
256.823	89.94
257.056	92.94
257.289	84.94
257.521	89.94
257.754	90.94
257.987	104.94
258.22	98.94
258.452	107.94
258.685	92.94
258.918	85.94
259.151	91.94
259.383	71.94
259.616	83.94
259.849	93.94
260.081	68.94
260.314	93.94
260.547	101.94
260.779	87.94
261.012	88.94
261.244	110.94
261.477	109.94
261.71	101.94
261.942	132.94
262.175	138.94
262.407	111.94
262.64	74.94
262.872	82.94
263.105	88.94
263.337	93.94
263.57	75.94
263.802	87.94
264.035	94.94
264.267	78.94
264.499	92.94
264.732	95.94
264.964	83.94
265.197	95.94
265.429	86.94
265.661	79.94
265.894	85.94
266.126	92.94
266.358	78.94
266.591	88.94
266.823	94.94
267.055	92.94
267.287	81.94
267.52	83.94
267.752	88.94
267.984	99.94
268.216	88.94
268.448	75.94
268.681	79.94
268.913	90.94
269.145	86.94
269.377	91.94
269.609	90.94
269.841	89.94
270.073	79.94
270.306	95.94
270.538	91.94
270.77	92.94
271.002	87.94
271.234	92.94
271.466	95.94
271.698	98.94
271.93	94.94
272.162	106.94
272.394	92.94
272.626	74.94
272.858	75.94
273.09	94.94
273.322	79.94
273.553	92.94
273.785	91.94
274.017	92.94
274.249	90.94
274.481	93.94
274.713	90.94
274.945	87.94
275.176	85.94
275.408	106.94
275.64	109.94
275.872	110.94
276.104	120.94
276.335	93.94
276.567	104.94
276.799	143.94
277.031	156.94
277.262	169.94
277.494	147.94
277.726	97.94
277.957	97.94
278.189	91.94
278.421	87.94
278.652	87.94
278.884	100.94
279.115	83.94
279.347	92.94
279.579	90.94
279.81	124.94
280.042	179.94
280.273	235.94
280.505	167.94
280.736	103.94
280.968	98.94
281.199	108.94
281.431	96.94
281.662	98.94
281.894	106.94
282.125	126.94
282.356	131.94
282.588	166.94
282.819	130.94
283.051	108.94
283.282	74.94
283.513	86.94
283.745	97.94
283.976	93.94
284.207	96.94
284.439	95.94
284.67	112.94
284.901	83.94
285.132	95.94
285.364	94.94
285.595	91.94
285.826	92.94
286.057	105.94
286.288	81.94
286.52	88.94
286.751	96.94
286.982	90.94
287.213	104.94
287.444	86.94
287.675	86.94
287.906	102.94
288.138	88.94
288.369	103.94
288.6	96.94
288.831	96.94
289.062	98.94
289.293	77.94
289.524	104.94
289.755	81.94
289.986	98.94
290.217	79.94
290.448	74.94
290.679	96.94
290.91	97.94
291.141	90.94
291.371	97.94
291.602	90.94
291.833	98.94
292.064	84.94
292.295	86.94
292.526	83.94
292.757	84.94
292.987	73.94
293.218	87.94
293.449	91.94
293.68	95.94
293.91	87.94
294.141	106.94
294.372	101.94
294.603	92.94
294.833	102.94
295.064	92.94
295.295	107.94
295.525	116.94
295.756	103.94
295.987	121.94
296.217	159.94
296.448	159.94
296.679	98.94
296.909	85.94
297.14	84.94
297.37	91.94
297.601	82.94
297.831	99.94
298.062	103.94
298.292	80.94
298.523	97.94
298.753	100.94
298.984	95.94
299.214	88.94
299.445	82.94
299.675	84.94
299.905	108.94
300.136	84.94
300.366	104.94
300.597	97.94
300.827	88.94
301.057	106.94
301.288	121.94
301.518	101.94
301.748	101.94
301.979	123.94
302.209	89.94
302.439	106.94
302.669	97.94
302.9	105.94
303.13	99.94
303.36	108.94
303.59	122.94
303.82	114.94
304.051	106.94
304.281	95.94
304.511	97.94
304.741	91.94
304.971	79.94
305.201	73.94
305.431	96.94
305.661	93.94
305.891	111.94
306.121	100.94
306.352	104.94
306.582	109.94
306.812	104.94
307.042	114.94
307.272	135.94
307.502	179.94
307.731	148.94
307.961	124.94
308.191	101.94
308.421	95.94
308.651	96.94
308.881	100.94
309.111	97.94
309.341	95.94
309.571	105.94
309.8	101.94
310.03	109.94
310.26	118.94
310.49	104.94
310.72	105.94
310.949	113.94
311.179	104.94
311.409	104.94
311.639	93.94
311.868	116.94
312.098	115.94
312.328	109.94
312.557	131.94
312.787	121.94
313.017	115.94
313.246	93.94
313.476	96.94
313.706	79.94
313.935	95.94
314.165	104.94
314.394	124.94
314.624	100.94
314.853	104.94
315.083	100.94
315.312	102.94
315.542	94.94
315.771	88.94
316.001	98.94
316.23	101.94
316.46	88.94
316.689	105.94
316.919	97.94
317.148	95.94
317.377	101.94
317.607	90.94
317.836	101.94
318.065	101.94
318.295	88.94
318.524	113.94
318.753	83.94
318.983	93.94
319.212	95.94
319.441	112.94
319.67	107.94
319.9	104.94
320.129	100.94
320.358	97.94
320.587	97.94
320.816	108.94
321.046	114.94
321.275	94.94
321.504	78.94
321.733	106.94
321.962	103.94
322.191	105.94
322.42	117.94
322.649	142.94
322.878	120.94
323.108	130.94
323.337	140.94
323.566	169.94
323.795	203.94
324.024	282.94
324.253	567.94
324.482	1275.94
324.71	2723.94
324.939	3631.94
325.168	1257.94
325.397	333.94
325.626	191.94
325.855	150.94
326.084	152.94
326.313	183.94
326.542	185.94
326.77	318.94
326.999	676.94
327.228	1475.94
327.457	2769.94
327.686	2269.94
327.914	651.94
328.143	500.94
328.372	612.94
328.6	356.94
328.829	182.94
329.058	193.94
329.287	190.94
329.515	165.94
329.744	252.94
329.972	461.94
330.201	882.94
330.43	1295.94
330.658	564.94
330.887	293.94
331.115	175.94
331.344	124.94
331.572	123.94
331.801	137.94
332.03	131.94
332.258	119.94
332.486	122.94
332.715	123.94
332.943	116.94
333.172	115.94
333.4	130.94
333.629	162.94
333.857	239.94
334.085	409.94
334.314	843.94
334.542	1666.94
334.771	1511.94
334.999	404.94
335.227	191.94
335.455	122.94
335.684	118.94
335.912	122.94
336.14	105.94
336.369	115.94
336.597	124.94
336.825	111.94
337.053	101.94
337.281	87.94
337.51	98.94
337.738	100.94
337.966	116.94
338.194	108.94
338.422	96.94
338.65	100.94
338.878	91.94
339.106	96.94
339.334	93.94
339.562	77.94
339.79	94.94
340.018	90.94
340.246	108.94
340.474	103.94
340.702	86.94
340.93	88.94
341.158	105.94
341.386	96.94
341.614	92.94
341.842	107.94
342.07	103.94
342.298	98.94
342.526	92.94
342.754	100.94
342.981	75.94
343.209	80.94
343.437	111.94
343.665	85.94
343.893	94.94
344.12	104.94
344.348	98.94
344.576	87.94
344.804	92.94
345.031	83.94
345.259	102.94
345.487	100.94
345.714	90.94
345.942	101.94
346.17	89.94
346.397	98.94
346.625	104.94
346.853	95.94
347.08	85.94
347.308	106.94
347.535	118.94
347.763	105.94
347.99	110.94
348.218	108.94
348.445	111.94
348.673	108.94
348.9	108.94
349.128	105.94
349.355	105.94
349.583	94.94
349.81	109.94
350.037	105.94
350.265	94.94
350.492	101.94
350.72	107.94
350.947	122.94
351.174	108.94
351.402	132.94
351.629	121.94
351.856	113.94
352.083	118.94
352.311	122.94
352.538	124.94
352.765	125.94
352.992	113.94
353.22	120.94
353.447	126.94
353.674	115.94
353.901	102.94
354.128	95.94
354.355	92.94
354.583	97.94
354.81	92.94
355.037	90.94
355.264	100.94
355.491	97.94
355.718	90.94
355.945	87.94
356.172	100.94
356.399	103.94
356.626	93.94
356.853	89.94
357.08	101.94
357.307	89.94
357.534	92.94
357.761	100.94
357.988	92.94
358.215	105.94
358.441	112.94
358.668	108.94
358.895	89.94
359.122	107.94
359.349	84.94
359.576	96.94
359.802	112.94
360.029	126.94
360.256	128.94
360.483	116.94
360.709	96.94
360.936	92.94
361.163	96.94
361.39	115.94
361.616	106.94
361.843	99.94
362.07	110.94
362.296	88.94
362.523	93.94
362.749	102.94
362.976	99.94
363.203	87.94
363.429	90.94
363.656	99.94
363.882	94.94
364.109	99.94
364.335	81.94
364.562	91.94
364.788	90.94
365.015	85.94
365.241	114.94
365.468	106.94
365.694	116.94
365.92	117.94
366.147	104.94
366.373	112.94
366.599	107.94
366.826	87.94
367.052	93.94
367.278	94.94
367.505	99.94
367.731	96.94
367.957	95.94
368.184	110.94
368.41	107.94
368.636	117.94
368.862	135.94
369.089	111.94
369.315	104.94
369.541	99.94
369.767	95.94
369.993	98.94
370.219	101.94
370.445	101.94
370.672	92.94
370.898	84.94
371.124	82.94
371.35	78.94
371.576	95.94
371.802	87.94
372.028	91.94
372.254	80.94
372.48	89.94
372.706	84.94
372.932	93.94
373.158	84.94
373.384	85.94
373.61	82.94
373.835	97.94
374.061	87.94
374.287	90.94
374.513	97.94
374.739	87.94
374.965	88.94
375.191	94.94
375.416	73.94
375.642	102.94
375.868	92.94
376.094	100.94
376.319	72.94
376.545	79.94
376.771	90.94
376.997	99.94
377.222	108.94
377.448	91.94
377.674	95.94
377.899	96.94
378.125	99.94
378.35	98.94
378.576	96.94
378.802	80.94
379.027	99.94
379.253	94.94
379.478	97.94
379.704	101.94
379.929	93.94
380.155	88.94
380.38	96.94
380.606	110.94
380.831	96.94
381.057	107.94
381.282	101.94
381.507	83.94
381.733	106.94
381.958	93.94
382.184	113.94
382.409	97.94
382.634	105.94
382.86	96.94
383.085	93.94
383.31	96.94
383.535	116.94
383.761	107.94
383.986	104.94
384.211	103.94
384.436	113.94
384.662	93.94
384.887	102.94
385.112	112.94
385.337	87.94
385.562	97.94
385.787	99.94
386.013	125.94
386.238	130.94
386.463	107.94
386.688	107.94
386.913	91.94
387.138	93.94
387.363	92.94
387.588	108.94
387.813	106.94
388.038	101.94
388.263	123.94
388.488	96.94
388.713	99.94
388.938	100.94
389.163	73.94
389.387	85.94
389.612	91.94
389.837	86.94
390.062	95.94
390.287	107.94
390.512	94.94
390.736	78.94
390.961	92.94
391.186	79.94
391.411	95.94
391.636	97.94
391.86	81.94
392.085	80.94
392.31	91.94
392.534	82.94
392.759	94.94
392.984	88.94
393.208	97.94
393.433	83.94
393.658	105.94
393.882	92.94
394.107	90.94
394.331	99.94
394.556	99.94
394.78	104.94
395.005	87.94
395.229	93.94
395.454	83.94
395.678	78.94
395.903	97.94
396.127	93.94
396.352	96.94
396.576	79.94
396.801	94.94
397.025	93.94
397.249	97.94
397.474	83.94
397.698	101.94
397.922	92.94
398.147	103.94
398.371	88.94
398.595	96.94
398.82	93.94
399.044	96.94
399.268	90.94
399.492	84.94
399.717	95.94
399.941	103.94
400.165	91.94
400.389	97.94
400.613	95.94
400.837	98.94
401.062	97.94
401.286	91.94
401.51	90.94
401.734	99.94
401.958	96.94
402.182	136.94
402.406	188.94
402.63	147.94
402.854	97.94
403.078	105.94
403.302	89.94
403.526	81.94
403.75	91.94
403.974	91.94
404.198	95.94
404.422	88.94
404.645	87.94
404.869	113.94
405.093	140.94
405.317	149.94
405.541	155.94
405.765	127.94
405.988	122.94
406.212	211.94
406.436	295.94
406.66	183.94
406.883	119.94
407.107	99.94
407.331	116.94
407.555	132.94
407.778	115.94
408.002	96.94
408.226	97.94
408.449	103.94
408.673	94.94
408.896	102.94
409.12	98.94
409.344	103.94
409.567	99.94
409.791	94.94
410.014	92.94
410.238	84.94
410.461	90.94
410.685	92.94
410.908	104.94
411.132	135.94
411.355	105.94
411.578	95.94
411.802	92.94
412.025	96.94
412.249	104.94
412.472	127.94
412.695	148.94
412.919	100.94
413.142	107.94
413.365	92.94
413.589	96.94
413.812	94.94
414.035	98.94
414.258	90.94
414.482	81.94
414.705	109.94
414.928	104.94
415.151	102.94
415.374	90.94
415.597	101.94
415.821	80.94
416.044	88.94
416.267	87.94
416.49	81.94
416.713	104.94
416.936	105.94
417.159	96.94
417.382	97.94
417.605	106.94
417.828	122.94
418.051	91.94
418.274	99.94
418.497	82.94
418.72	96.94
418.943	100.94
419.166	96.94
419.389	95.94
419.611	93.94
419.834	93.94
420.057	96.94
420.28	92.94
420.503	88.94
420.726	85.94
420.948	89.94
421.171	105.94
421.394	103.94
421.617	100.94
421.839	97.94
422.062	87.94
422.285	87.94
422.507	106.94
422.73	121.94
422.953	98.94
423.175	99.94
423.398	93.94
423.621	83.94
423.843	95.94
424.066	89.94
424.288	80.94
424.511	94.94
424.733	98.94
424.956	127.94
425.178	119.94
425.401	113.94
425.623	112.94
425.846	101.94
426.068	101.94
426.291	96.94
426.513	87.94
426.735	92.94
426.958	103.94
427.18	132.94
427.402	211.94
427.625	265.94
427.847	240.94
428.069	250.94
428.292	136.94
428.514	95.94
428.736	85.94
428.958	95.94
429.181	84.94
429.403	81.94
429.625	105.94
429.847	90.94
430.069	114.94
430.292	95.94
430.514	97.94
430.736	96.94
430.958	96.94
431.18	91.94
431.402	95.94
431.624	85.94
431.846	91.94
432.068	92.94
432.29	99.94
432.512	106.94
432.734	105.94
432.956	102.94
433.178	100.94
433.4	114.94
433.622	80.94
433.844	87.94
434.066	100.94
434.287	87.94
434.509	91.94
434.731	99.94
434.953	87.94
435.175	88.94
435.397	92.94
435.618	100.94
435.84	120.94
436.062	170.94
436.284	157.94
436.505	126.94
436.727	119.94
436.949	107.94
437.17	103.94
437.392	81.94
437.614	107.94
437.835	131.94
438.057	158.94
438.278	139.94
438.5	135.94
438.721	164.94
438.943	97.94
439.165	99.94
439.386	84.94
439.608	91.94
439.829	117.94
440.05	157.94
440.272	212.94
440.493	127.94
440.715	98.94
440.936	92.94
441.158	105.94
441.379	77.94
441.6	113.94
441.822	96.94
442.043	107.94
442.264	134.94
442.486	121.94
442.707	110.94
442.928	122.94
443.149	178.94
443.371	172.94
443.592	130.94
443.813	153.94
444.034	153.94
444.255	105.94
444.476	88.94
444.698	89.94
444.919	106.94
445.14	141.94
445.361	137.94
445.582	149.94
445.803	207.94
446.024	212.94
446.245	194.94
446.466	145.94
446.687	105.94
446.908	96.94
447.129	76.94
447.35	89.94
447.571	101.94
447.792	96.94
448.013	104.94
448.234	119.94
448.455	119.94
448.675	148.94
448.896	166.94
449.117	114.94
449.338	112.94
449.559	174.94
449.779	166.94
450	96.94
450.221	98.94
450.442	96.94
450.662	100.94
450.883	117.94
451.104	114.94
451.324	99.94
451.545	95.94
451.766	95.94
451.986	88.94
452.207	88.94
452.428	110.94
452.648	112.94
452.869	141.94
453.089	129.94
453.31	133.94
453.53	100.94
453.751	101.94
453.971	107.94
454.192	128.94
454.412	104.94
454.633	82.94
454.853	80.94
455.073	96.94
455.294	98.94
455.514	113.94
455.734	96.94
455.955	84.94
456.175	95.94
456.395	85.94
456.616	86.94
456.836	77.94
457.056	100.94
457.276	87.94
457.497	94.94
457.717	97.94
457.937	96.94
458.157	96.94
458.377	98.94
458.598	123.94
458.818	206.94
459.038	235.94
459.258	157.94
459.478	97.94
459.698	114.94
459.918	88.94
460.138	95.94
460.358	96.94
460.578	102.94
460.798	93.94
461.018	84.94
461.238	89.94
461.458	92.94
461.678	82.94
461.898	73.94
462.118	94.94
462.338	86.94
462.558	87.94
462.777	87.94
462.997	89.94
463.217	98.94
463.437	106.94
463.657	97.94
463.876	100.94
464.096	103.94
464.316	91.94
464.536	101.94
464.755	110.94
464.975	131.94
465.195	225.94
465.414	228.94
465.634	114.94
465.854	86.94
466.073	103.94
466.293	88.94
466.512	96.94
466.732	91.94
466.951	98.94
467.171	97.94
467.391	117.94
467.61	151.94
467.829	201.94
468.049	469.94
468.268	691.94
468.488	194.94
468.707	102.94
468.927	94.94
469.146	78.94
469.365	93.94
469.585	86.94
469.804	105.94
470.023	124.94
470.243	118.94
470.462	115.94
470.681	126.94
470.901	108.94
471.12	114.94
471.339	116.94
471.558	124.94
471.777	146.94
471.997	263.94
472.216	984.94
472.435	2207.94
472.654	514.94
472.873	161.94
473.092	117.94
473.311	109.94
473.53	111.94
473.749	91.94
473.968	111.94
474.187	129.94
474.406	117.94
474.625	105.94
474.844	89.94
475.063	92.94
475.282	89.94
475.501	92.94
475.72	102.94
475.939	100.94
476.158	90.94
476.377	81.94
476.596	96.94
476.814	99.94
477.033	96.94
477.252	99.94
477.471	97.94
477.69	96.94
477.908	89.94
478.127	100.94
478.346	88.94
478.564	101.94
478.783	109.94
479.002	111.94
479.22	108.94
479.439	119.94
479.658	138.94
479.876	117.94
480.095	116.94
480.313	135.94
480.532	172.94
480.751	293.94
480.969	923.94
481.188	3939.94
481.406	2218.94
481.624	331.94
481.843	131.94
482.061	109.94
482.28	99.94
482.498	99.94
482.717	91.94
482.935	96.94
483.153	100.94
483.372	99.94
483.59	92.94
483.808	97.94
484.027	82.94
484.245	103.94
484.463	87.94
484.681	93.94
484.9	98.94
485.118	92.94
485.336	102.94
485.554	95.94
485.772	100.94
485.99	99.94
486.209	110.94
486.427	106.94
486.645	133.94
486.863	116.94
487.081	104.94
487.299	89.94
487.517	100.94
487.735	87.94
487.953	89.94
488.171	87.94
488.389	87.94
488.607	99.94
488.825	89.94
489.043	93.94
489.261	90.94
489.479	82.94
489.696	84.94
489.914	89.94
490.132	99.94
490.35	92.94
490.568	87.94
490.786	101.94
491.003	92.94
491.221	93.94
491.439	91.94
491.657	99.94
491.874	89.94
492.092	93.94
492.31	95.94
492.527	103.94
492.745	98.94
492.963	112.94
493.18	100.94
493.398	93.94
493.615	100.94
493.833	99.94
494.05	96.94
494.268	87.94
494.485	94.94
494.703	94.94
494.92	97.94
495.138	105.94
495.355	89.94
495.573	93.94
495.79	95.94
496.008	93.94
496.225	99.94
496.442	100.94
496.66	112.94
496.877	103.94
497.094	111.94
497.312	91.94
497.529	99.94
497.746	105.94
497.963	88.94
498.181	95.94
498.398	103.94
498.615	127.94
498.832	108.94
499.049	95.94
499.267	95.94
499.484	98.94
499.701	95.94
499.918	85.94
500.135	97.94
500.352	94.94
500.569	91.94
500.786	100.94
501.003	106.94
501.22	79.94
501.437	103.94
501.654	103.94
501.871	125.94
502.088	106.94
502.305	87.94
502.522	77.94
502.739	89.94
502.956	85.94
503.172	84.94
503.389	114.94
503.606	109.94
503.823	107.94
504.04	88.94
504.256	94.94
504.473	93.94
504.69	95.94
504.907	85.94
505.123	96.94
505.34	99.94
505.557	88.94
505.773	93.94
505.99	92.94
506.207	87.94
506.423	94.94
506.64	100.94
506.856	99.94
507.073	93.94
507.289	93.94
507.506	109.94
507.722	134.94
507.939	137.94
508.155	116.94
508.372	92.94
508.588	97.94
508.805	111.94
509.021	105.94
509.238	99.94
509.454	96.94
509.67	113.94
509.887	124.94
510.103	145.94
510.319	247.94
510.536	862.94
510.752	3029.94
510.968	834.94
511.184	182.94
511.401	146.94
511.617	106.94
511.833	113.94
512.049	110.94
512.265	94.94
