Data from Foil_3_HRD10591_00001.txt Node
Date: Wed Nov 05 16:18:43 EST 2025
User: Yrep
Spectrometer: HR+D1059
Trigger mode: 1
Integration Time (sec): 1.000000E-1
Scans to average: 1
Electric dark correction enabled: true
Nonlinearity correction enabled: false
Boxcar width: 0
XAxis mode: Wavelengths
Number of Pixels in Spectrum: 2048
>>>>>Begin Spectral Data<<<<<
223.165	-22.06
223.4	-22.06
223.635	-22.06
223.869	-14.06
224.104	-29.06
224.338	-26.06
224.573	-13.06
224.808	-0.06
225.042	-7.06
225.277	-1.06
225.511	-1.06
225.746	7.94
225.98	19.94
226.215	4.94
226.449	7.94
226.683	24.94
226.918	19.94
227.152	27.94
227.387	43.94
227.621	47.94
227.856	39.94
228.09	47.94
228.324	54.94
228.559	58.94
228.793	45.94
229.027	62.94
229.262	48.94
229.496	61.94
229.73	58.94
229.964	69.94
230.199	75.94
230.433	62.94
230.667	66.94
230.901	84.94
231.136	65.94
231.37	63.94
231.604	84.94
231.838	69.94
232.072	73.94
232.306	83.94
232.541	87.94
232.775	69.94
233.009	74.94
233.243	72.94
233.477	79.94
233.711	81.94
233.945	77.94
234.179	73.94
234.413	61.94
234.647	85.94
234.881	86.94
235.115	73.94
235.349	61.94
235.583	78.94
235.817	69.94
236.051	63.94
236.285	69.94
236.519	72.94
236.753	71.94
236.987	66.94
237.221	69.94
237.455	70.94
237.689	80.94
237.922	69.94
238.156	69.94
238.39	80.94
238.624	79.94
238.858	76.94
239.091	79.94
239.325	71.94
239.559	69.94
239.793	69.94
240.027	64.94
240.26	74.94
240.494	77.94
240.728	71.94
240.961	68.94
241.195	73.94
241.429	77.94
241.662	63.94
241.896	73.94
242.13	71.94
242.363	72.94
242.597	77.94
242.83	75.94
243.064	62.94
243.298	83.94
243.531	66.94
243.765	72.94
243.998	73.94
244.232	72.94
244.465	85.94
244.699	72.94
244.932	61.94
245.166	84.94
245.399	77.94
245.633	69.94
245.866	75.94
246.099	76.94
246.333	87.94
246.566	66.94
246.8	61.94
247.033	69.94
247.266	74.94
247.5	65.94
247.733	69.94
247.966	67.94
248.2	70.94
248.433	67.94
248.666	75.94
248.899	70.94
249.133	64.94
249.366	78.94
249.599	70.94
249.832	68.94
250.066	74.94
250.299	74.94
250.532	78.94
250.765	77.94
250.998	90.94
251.231	65.94
251.465	67.94
251.698	70.94
251.931	72.94
252.164	73.94
252.397	77.94
252.63	64.94
252.863	78.94
253.096	80.94
253.329	76.94
253.562	64.94
253.795	77.94
254.028	94.94
254.261	63.94
254.494	89.94
254.727	83.94
254.96	69.94
255.193	83.94
255.426	73.94
255.659	72.94
255.892	71.94
256.124	77.94
256.357	71.94
256.59	77.94
256.823	87.94
257.056	79.94
257.289	69.94
257.521	75.94
257.754	76.94
257.987	71.94
258.22	94.94
258.452	69.94
258.685	101.94
258.918	71.94
259.151	78.94
259.383	84.94
259.616	90.94
259.849	76.94
260.081	83.94
260.314	91.94
260.547	75.94
260.779	78.94
261.012	79.94
261.244	74.94
261.477	73.94
261.71	85.94
261.942	66.94
262.175	75.94
262.407	88.94
262.64	69.94
262.872	71.94
263.105	71.94
263.337	75.94
263.57	77.94
263.802	81.94
264.035	71.94
264.267	92.94
264.499	69.94
264.732	97.94
264.964	75.94
265.197	78.94
265.429	76.94
265.661	81.94
265.894	71.94
266.126	83.94
266.358	82.94
266.591	87.94
266.823	77.94
267.055	87.94
267.287	65.94
267.52	75.94
267.752	92.94
267.984	69.94
268.216	76.94
268.448	79.94
268.681	71.94
268.913	77.94
269.145	67.94
269.377	67.94
269.609	67.94
269.841	97.94
270.073	89.94
270.306	68.94
270.538	60.94
270.77	76.94
271.002	83.94
271.234	90.94
271.466	86.94
271.698	88.94
271.93	85.94
272.162	73.94
272.394	72.94
272.626	74.94
272.858	70.94
273.09	88.94
273.322	84.94
273.553	79.94
273.785	97.94
274.017	81.94
274.249	84.94
274.481	79.94
274.713	82.94
274.945	76.94
275.176	79.94
275.408	84.94
275.64	85.94
275.872	83.94
276.104	87.94
276.335	92.94
276.567	86.94
276.799	85.94
277.031	79.94
277.262	69.94
277.494	87.94
277.726	95.94
277.957	72.94
278.189	81.94
278.421	84.94
278.652	87.94
278.884	64.94
279.115	78.94
279.347	75.94
279.579	80.94
279.81	73.94
280.042	93.94
280.273	73.94
280.505	79.94
280.736	69.94
280.968	76.94
281.199	89.94
281.431	83.94
281.662	81.94
281.894	79.94
282.125	74.94
282.356	77.94
282.588	78.94
282.819	88.94
283.051	65.94
283.282	75.94
283.513	77.94
283.745	71.94
283.976	92.94
284.207	83.94
284.439	77.94
284.67	79.94
284.901	87.94
285.132	98.94
285.364	79.94
285.595	89.94
285.826	88.94
286.057	96.94
286.288	77.94
286.52	76.94
286.751	79.94
286.982	82.94
287.213	83.94
287.444	83.94
287.675	78.94
287.906	86.94
288.138	80.94
288.369	91.94
288.6	67.94
288.831	83.94
289.062	82.94
289.293	76.94
289.524	69.94
289.755	87.94
289.986	91.94
290.217	78.94
290.448	99.94
290.679	80.94
290.91	90.94
291.141	80.94
291.371	82.94
291.602	77.94
291.833	80.94
292.064	78.94
292.295	59.94
292.526	69.94
292.757	79.94
292.987	68.94
293.218	76.94
293.449	88.94
293.68	67.94
293.91	78.94
294.141	82.94
294.372	78.94
294.603	78.94
294.833	84.94
295.064	66.94
295.295	77.94
295.525	82.94
295.756	89.94
295.987	83.94
296.217	76.94
296.448	85.94
296.679	83.94
296.909	77.94
297.14	92.94
297.37	76.94
297.601	74.94
297.831	80.94
298.062	85.94
298.292	71.94
298.523	90.94
298.753	78.94
298.984	85.94
299.214	100.94
299.445	85.94
299.675	80.94
299.905	81.94
300.136	90.94
300.366	80.94
300.597	85.94
300.827	87.94
301.057	77.94
301.288	65.94
301.518	82.94
301.748	84.94
301.979	95.94
302.209	89.94
302.439	79.94
302.669	83.94
302.9	74.94
303.13	92.94
303.36	76.94
303.59	80.94
303.82	81.94
304.051	91.94
304.281	88.94
304.511	75.94
304.741	89.94
304.971	81.94
305.201	90.94
305.431	93.94
305.661	82.94
305.891	85.94
306.121	84.94
306.352	80.94
306.582	84.94
306.812	77.94
307.042	74.94
307.272	82.94
307.502	83.94
307.731	90.94
307.961	93.94
308.191	125.94
308.421	110.94
308.651	101.94
308.881	100.94
309.111	115.94
309.341	123.94
309.571	125.94
309.8	89.94
310.03	86.94
310.26	76.94
310.49	84.94
310.72	72.94
310.949	89.94
311.179	69.94
311.409	79.94
311.639	84.94
311.868	82.94
312.098	82.94
312.328	86.94
312.557	68.94
312.787	80.94
313.017	61.94
313.246	69.94
313.476	91.94
313.706	87.94
313.935	79.94
314.165	72.94
314.394	86.94
314.624	86.94
314.853	69.94
315.083	83.94
315.312	87.94
315.542	87.94
315.771	74.94
316.001	87.94
316.23	77.94
316.46	93.94
316.689	91.94
316.919	71.94
317.148	77.94
317.377	87.94
317.607	92.94
317.836	83.94
318.065	85.94
318.295	91.94
318.524	80.94
318.753	81.94
318.983	77.94
319.212	75.94
319.441	67.94
319.67	79.94
319.9	90.94
320.129	76.94
320.358	78.94
320.587	77.94
320.816	73.94
321.046	73.94
321.275	77.94
321.504	81.94
321.733	89.94
321.962	87.94
322.191	79.94
322.42	78.94
322.649	89.94
322.878	93.94
323.108	82.94
323.337	67.94
323.566	71.94
323.795	73.94
324.024	91.94
324.253	90.94
324.482	76.94
324.71	83.94
324.939	83.94
325.168	66.94
325.397	78.94
325.626	90.94
325.855	77.94
326.084	85.94
326.313	89.94
326.542	87.94
326.77	97.94
326.999	77.94
327.228	62.94
327.457	77.94
327.686	87.94
327.914	83.94
328.143	79.94
328.372	64.94
328.6	75.94
328.829	77.94
329.058	78.94
329.287	87.94
329.515	85.94
329.744	70.94
329.972	79.94
330.201	85.94
330.43	79.94
330.658	68.94
330.887	93.94
331.115	85.94
331.344	78.94
331.572	105.94
331.801	76.94
332.03	83.94
332.258	87.94
332.486	85.94
332.715	74.94
332.943	82.94
333.172	91.94
333.4	88.94
333.629	100.94
333.857	92.94
334.085	76.94
334.314	98.94
334.542	100.94
334.771	78.94
334.999	97.94
335.227	92.94
335.455	76.94
335.684	82.94
335.912	65.94
336.14	67.94
336.369	68.94
336.597	83.94
336.825	78.94
337.053	86.94
337.281	80.94
337.51	75.94
337.738	85.94
337.966	69.94
338.194	68.94
338.422	84.94
338.65	68.94
338.878	78.94
339.106	73.94
339.334	81.94
339.562	83.94
339.79	86.94
340.018	89.94
340.246	82.94
340.474	94.94
340.702	100.94
340.93	81.94
341.158	81.94
341.386	84.94
341.614	83.94
341.842	85.94
342.07	74.94
342.298	81.94
342.526	72.94
342.754	85.94
342.981	80.94
343.209	81.94
343.437	77.94
343.665	62.94
343.893	86.94
344.12	97.94
344.348	76.94
344.576	77.94
344.804	88.94
345.031	82.94
345.259	88.94
345.487	74.94
345.714	74.94
345.942	80.94
346.17	78.94
346.397	81.94
346.625	87.94
346.853	85.94
347.08	79.94
347.308	88.94
347.535	73.94
347.763	76.94
347.99	98.94
348.218	70.94
348.445	82.94
348.673	86.94
348.9	79.94
349.128	70.94
349.355	69.94
349.583	80.94
349.81	67.94
350.037	73.94
350.265	83.94
350.492	88.94
350.72	66.94
350.947	81.94
351.174	85.94
351.402	87.94
351.629	85.94
351.856	91.94
352.083	78.94
352.311	80.94
352.538	80.94
352.765	73.94
352.992	94.94
353.22	85.94
353.447	89.94
353.674	97.94
353.901	78.94
354.128	93.94
354.355	79.94
354.583	92.94
354.81	68.94
355.037	73.94
355.264	89.94
355.491	79.94
355.718	85.94
355.945	76.94
356.172	83.94
356.399	93.94
356.626	69.94
356.853	71.94
357.08	71.94
357.307	89.94
357.534	83.94
357.761	89.94
357.988	84.94
358.215	79.94
358.441	85.94
358.668	93.94
358.895	80.94
359.122	93.94
359.349	83.94
359.576	83.94
359.802	82.94
360.029	79.94
360.256	81.94
360.483	94.94
360.709	77.94
360.936	91.94
361.163	67.94
361.39	78.94
361.616	83.94
361.843	85.94
362.07	82.94
362.296	74.94
362.523	81.94
362.749	72.94
362.976	85.94
363.203	91.94
363.429	76.94
363.656	83.94
363.882	77.94
364.109	77.94
364.335	85.94
364.562	78.94
364.788	75.94
365.015	85.94
365.241	85.94
365.468	84.94
365.694	91.94
365.92	82.94
366.147	73.94
366.373	89.94
366.599	82.94
366.826	79.94
367.052	92.94
367.278	91.94
367.505	86.94
367.731	89.94
367.957	87.94
368.184	78.94
368.41	74.94
368.636	81.94
368.862	85.94
369.089	84.94
369.315	87.94
369.541	94.94
369.767	88.94
369.993	85.94
370.219	99.94
370.445	85.94
370.672	70.94
370.898	84.94
371.124	95.94
371.35	86.94
371.576	78.94
371.802	78.94
372.028	77.94
372.254	87.94
372.48	71.94
372.706	79.94
372.932	90.94
373.158	71.94
373.384	87.94
373.61	94.94
373.835	89.94
374.061	84.94
374.287	92.94
374.513	100.94
374.739	79.94
374.965	86.94
375.191	75.94
375.416	79.94
375.642	90.94
375.868	72.94
376.094	75.94
376.319	86.94
376.545	81.94
376.771	71.94
376.997	79.94
377.222	78.94
377.448	78.94
377.674	85.94
377.899	84.94
378.125	90.94
378.35	77.94
378.576	98.94
378.802	91.94
379.027	93.94
379.253	85.94
379.478	87.94
379.704	91.94
379.929	82.94
380.155	74.94
380.38	98.94
380.606	91.94
380.831	82.94
381.057	87.94
381.282	69.94
381.507	99.94
381.733	79.94
381.958	90.94
382.184	98.94
382.409	86.94
382.634	89.94
382.86	83.94
383.085	72.94
383.31	90.94
383.535	89.94
383.761	81.94
383.986	84.94
384.211	86.94
384.436	94.94
384.662	89.94
384.887	85.94
385.112	80.94
385.337	87.94
385.562	95.94
385.787	87.94
386.013	89.94
386.238	108.94
386.463	84.94
386.688	89.94
386.913	86.94
387.138	90.94
387.363	84.94
387.588	93.94
387.813	90.94
388.038	78.94
388.263	83.94
388.488	83.94
388.713	81.94
388.938	81.94
389.163	91.94
389.387	90.94
389.612	86.94
389.837	82.94
390.062	85.94
390.287	89.94
390.512	82.94
390.736	80.94
390.961	86.94
391.186	89.94
391.411	88.94
391.636	92.94
391.86	86.94
392.085	86.94
392.31	95.94
392.534	90.94
392.759	85.94
392.984	83.94
393.208	97.94
393.433	78.94
393.658	75.94
393.882	97.94
394.107	118.94
394.331	169.94
394.556	205.94
394.78	116.94
395.005	107.94
395.229	95.94
395.454	103.94
395.678	100.94
395.903	148.94
396.127	231.94
396.352	233.94
396.576	120.94
396.801	90.94
397.025	99.94
397.249	98.94
397.474	85.94
397.698	78.94
397.922	75.94
398.147	77.94
398.371	86.94
398.595	116.94
398.82	91.94
399.044	97.94
399.268	92.94
399.492	95.94
399.717	83.94
399.941	86.94
400.165	90.94
400.389	87.94
400.613	95.94
400.837	83.94
401.062	79.94
401.286	85.94
401.51	81.94
401.734	98.94
401.958	87.94
402.182	100.94
402.406	79.94
402.63	84.94
402.854	90.94
403.078	96.94
403.302	75.94
403.526	85.94
403.75	74.94
403.974	85.94
404.198	87.94
404.422	90.94
404.645	88.94
404.869	78.94
405.093	85.94
405.317	100.94
405.541	93.94
405.765	73.94
405.988	87.94
406.212	89.94
406.436	95.94
406.66	100.94
406.883	85.94
407.107	90.94
407.331	90.94
407.555	94.94
407.778	105.94
408.002	86.94
408.226	91.94
408.449	77.94
408.673	91.94
408.896	111.94
409.12	83.94
409.344	95.94
409.567	80.94
409.791	91.94
410.014	94.94
410.238	86.94
410.461	90.94
410.685	88.94
410.908	83.94
411.132	92.94
411.355	100.94
411.578	92.94
411.802	93.94
412.025	70.94
412.249	105.94
412.472	91.94
412.695	94.94
412.919	91.94
413.142	88.94
413.365	87.94
413.589	81.94
413.812	92.94
414.035	89.94
414.258	93.94
414.482	88.94
414.705	91.94
414.928	85.94
415.151	104.94
415.374	97.94
415.597	106.94
415.821	104.94
416.044	78.94
416.267	88.94
416.49	84.94
416.713	87.94
416.936	88.94
417.159	93.94
417.382	101.94
417.605	103.94
417.828	103.94
418.051	94.94
418.274	92.94
418.497	76.94
418.72	101.94
418.943	89.94
419.166	95.94
419.389	90.94
419.611	82.94
419.834	99.94
420.057	94.94
420.28	97.94
420.503	89.94
420.726	88.94
420.948	91.94
421.171	104.94
421.394	97.94
421.617	98.94
421.839	80.94
422.062	95.94
422.285	95.94
422.507	93.94
422.73	73.94
422.953	80.94
423.175	95.94
423.398	90.94
423.621	101.94
423.843	83.94
424.066	80.94
424.288	91.94
424.511	103.94
424.733	95.94
424.956	93.94
425.178	93.94
425.401	93.94
425.623	91.94
425.846	84.94
426.068	89.94
426.291	85.94
426.513	76.94
426.735	94.94
426.958	93.94
427.18	85.94
427.402	101.94
427.625	105.94
427.847	105.94
428.069	77.94
428.292	90.94
428.514	91.94
428.736	99.94
428.958	95.94
429.181	94.94
429.403	86.94
429.625	93.94
429.847	92.94
430.069	78.94
430.292	91.94
430.514	94.94
430.736	87.94
430.958	102.94
431.18	86.94
431.402	87.94
431.624	99.94
431.846	89.94
432.068	92.94
432.29	100.94
432.512	81.94
432.734	85.94
432.956	91.94
433.178	93.94
433.4	78.94
433.622	93.94
433.844	86.94
434.066	83.94
434.287	80.94
434.509	83.94
434.731	81.94
434.953	86.94
435.175	82.94
435.397	93.94
435.618	89.94
435.84	84.94
436.062	77.94
436.284	91.94
436.505	77.94
436.727	89.94
436.949	85.94
437.17	92.94
437.392	87.94
437.614	98.94
437.835	67.94
438.057	79.94
438.278	87.94
438.5	90.94
438.721	99.94
438.943	97.94
439.165	99.94
439.386	99.94
439.608	83.94
439.829	98.94
440.05	99.94
440.272	102.94
440.493	91.94
440.715	96.94
440.936	96.94
441.158	100.94
441.379	96.94
441.6	85.94
441.822	93.94
442.043	105.94
442.264	101.94
442.486	92.94
442.707	83.94
442.928	91.94
443.149	88.94
443.371	96.94
443.592	87.94
443.813	86.94
444.034	94.94
444.255	100.94
444.476	106.94
444.698	96.94
444.919	84.94
445.14	168.94
445.361	121.94
445.582	104.94
445.803	101.94
446.024	89.94
446.245	111.94
446.466	80.94
446.687	87.94
446.908	92.94
447.129	97.94
447.35	99.94
447.571	91.94
447.792	84.94
448.013	81.94
448.234	105.94
448.455	94.94
448.675	87.94
448.896	95.94
449.117	82.94
449.338	100.94
449.559	87.94
449.779	105.94
450	105.94
450.221	99.94
450.442	88.94
450.662	101.94
450.883	89.94
451.104	87.94
451.324	88.94
451.545	81.94
451.766	91.94
451.986	76.94
452.207	91.94
452.428	100.94
452.648	106.94
452.869	88.94
453.089	87.94
453.31	102.94
453.53	82.94
453.751	84.94
453.971	97.94
454.192	74.94
454.412	81.94
454.633	85.94
454.853	98.94
455.073	77.94
455.294	81.94
455.514	93.94
455.734	81.94
455.955	85.94
456.175	107.94
456.395	89.94
456.616	68.94
456.836	71.94
457.056	91.94
457.276	81.94
457.497	82.94
457.717	74.94
457.937	93.94
458.157	69.94
458.377	70.94
458.598	70.94
458.818	66.94
459.038	77.94
459.258	79.94
459.478	74.94
459.698	85.94
459.918	87.94
460.138	71.94
460.358	81.94
460.578	80.94
460.798	93.94
461.018	88.94
461.238	95.94
461.458	99.94
461.678	104.94
461.898	93.94
462.118	91.94
462.338	89.94
462.558	87.94
462.777	79.94
462.997	92.94
463.217	89.94
463.437	91.94
463.657	70.94
463.876	97.94
464.096	77.94
464.316	85.94
464.536	85.94
464.755	100.94
464.975	101.94
465.195	97.94
465.414	96.94
465.634	98.94
465.854	85.94
466.073	90.94
466.293	97.94
466.512	86.94
466.732	89.94
466.951	96.94
467.171	105.94
467.391	120.94
467.61	121.94
467.829	98.94
468.049	119.94
468.268	105.94
468.488	119.94
468.707	93.94
468.927	92.94
469.146	85.94
469.365	101.94
469.585	93.94
469.804	100.94
470.023	99.94
470.243	99.94
470.462	113.94
470.681	91.94
470.901	93.94
471.12	104.94
471.339	87.94
471.558	93.94
471.777	99.94
471.997	91.94
472.216	99.94
472.435	99.94
472.654	90.94
472.873	85.94
473.092	101.94
473.311	99.94
473.53	100.94
473.749	115.94
473.968	117.94
474.187	103.94
474.406	87.94
474.625	98.94
474.844	104.94
475.063	78.94
475.282	88.94
475.501	78.94
475.72	97.94
475.939	101.94
476.158	82.94
476.377	89.94
476.596	81.94
476.814	94.94
477.033	97.94
477.252	82.94
477.471	81.94
477.69	99.94
477.908	77.94
478.127	88.94
478.346	90.94
478.564	99.94
478.783	91.94
479.002	83.94
479.22	97.94
479.439	116.94
479.658	100.94
479.876	86.94
480.095	84.94
480.313	80.94
480.532	93.94
480.751	75.94
480.969	77.94
481.188	86.94
481.406	87.94
481.624	82.94
481.843	78.94
482.061	77.94
482.28	79.94
482.498	75.94
482.717	72.94
482.935	96.94
483.153	82.94
483.372	97.94
483.59	92.94
483.808	86.94
484.027	88.94
484.245	93.94
484.463	91.94
484.681	90.94
484.9	95.94
485.118	87.94
485.336	93.94
485.554	95.94
485.772	90.94
485.99	92.94
486.209	86.94
486.427	85.94
486.645	90.94
486.863	94.94
487.081	81.94
487.299	105.94
487.517	93.94
487.735	107.94
487.953	109.94
488.171	102.94
488.389	104.94
488.607	95.94
488.825	73.94
489.043	90.94
489.261	81.94
489.479	96.94
489.696	109.94
489.914	104.94
490.132	89.94
490.35	101.94
490.568	99.94
490.786	105.94
491.003	121.94
491.221	123.94
491.439	109.94
491.657	105.94
491.874	122.94
492.092	110.94
492.31	122.94
492.527	120.94
492.745	110.94
492.963	122.94
493.18	129.94
493.398	129.94
493.615	114.94
493.833	109.94
494.05	106.94
494.268	106.94
494.485	110.94
494.703	114.94
494.92	90.94
495.138	110.94
495.355	114.94
495.573	115.94
495.79	105.94
496.008	109.94
496.225	102.94
496.442	106.94
496.66	120.94
496.877	95.94
497.094	106.94
497.312	97.94
497.529	107.94
497.746	97.94
497.963	86.94
498.181	101.94
498.398	89.94
498.615	85.94
498.832	89.94
499.049	96.94
499.267	90.94
499.484	87.94
499.701	93.94
499.918	95.94
500.135	97.94
500.352	106.94
500.569	105.94
500.786	91.94
501.003	100.94
501.22	92.94
501.437	90.94
501.654	101.94
501.871	99.94
502.088	101.94
502.305	99.94
502.522	93.94
502.739	98.94
502.956	74.94
503.172	97.94
503.389	83.94
503.606	95.94
503.823	97.94
504.04	83.94
504.256	83.94
504.473	84.94
504.69	93.94
504.907	104.94
505.123	91.94
505.34	83.94
505.557	89.94
505.773	85.94
505.99	90.94
506.207	95.94
506.423	86.94
506.64	89.94
506.856	97.94
507.073	77.94
507.289	102.94
507.506	87.94
507.722	90.94
507.939	76.94
508.155	85.94
508.372	89.94
508.588	77.94
508.805	86.94
509.021	84.94
509.238	93.94
509.454	81.94
509.67	82.94
509.887	83.94
510.103	91.94
510.319	73.94
510.536	93.94
510.752	98.94
510.968	94.94
511.184	73.94
511.401	79.94
511.617	80.94
511.833	89.94
512.049	73.94
512.265	81.94
512.481	89.94
512.698	95.94
512.914	77.94
513.13	102.94
513.346	87.94
513.562	83.94
513.778	93.94
513.994	77.94
514.21	81.94
514.426	94.94
514.642	83.94
514.858	83.94
515.074	82.94
515.29	97.94
515.506	83.94
515.721	77.94
515.937	91.94
516.153	78.94
516.369	85.94
516.585	69.94
516.801	85.94
517.016	97.94
517.232	97.94
517.448	69.94
517.664	68.94
517.879	82.94
518.095	75.94
518.311	84.94
