Data from Foil_3_HRD10591_00020.txt Node
Date: Wed Nov 05 16:18:53 EST 2025
User: Yrep
Spectrometer: HR+D1059
Trigger mode: 1
Integration Time (sec): 1.000000E-1
Scans to average: 1
Electric dark correction enabled: true
Nonlinearity correction enabled: false
Boxcar width: 0
XAxis mode: Wavelengths
Number of Pixels in Spectrum: 2048
>>>>>Begin Spectral Data<<<<<
223.165	-14.69
223.4	-14.69
223.635	-14.69
223.869	-17.69
224.104	-17.69
224.338	-6.69
224.573	-12.69
224.808	-16.69
225.042	-18.69
225.277	4.31
225.511	-10.69
225.746	9.31
225.98	12.31
226.215	10.31
226.449	11.31
226.683	13.31
226.918	21.31
227.152	33.31
227.387	32.31
227.621	34.31
227.856	32.31
228.09	49.31
228.324	54.31
228.559	65.31
228.793	58.31
229.027	64.31
229.262	61.31
229.496	56.31
229.73	77.31
229.964	71.31
230.199	76.31
230.433	77.31
230.667	80.31
230.901	80.31
231.136	84.31
231.37	81.31
231.604	91.31
231.838	85.31
232.072	81.31
232.306	78.31
232.541	92.31
232.775	81.31
233.009	86.31
233.243	88.31
233.477	86.31
233.711	87.31
233.945	79.31
234.179	91.31
234.413	88.31
234.647	70.31
234.881	71.31
235.115	79.31
235.349	88.31
235.583	73.31
235.817	71.31
236.051	91.31
236.285	90.31
236.519	80.31
236.753	72.31
236.987	82.31
237.221	83.31
237.455	81.31
237.689	79.31
237.922	63.31
238.156	70.31
238.39	78.31
238.624	85.31
238.858	80.31
239.091	75.31
239.325	85.31
239.559	67.31
239.793	71.31
240.027	82.31
240.26	64.31
240.494	79.31
240.728	80.31
240.961	73.31
241.195	88.31
241.429	81.31
241.662	75.31
241.896	72.31
242.13	84.31
242.363	71.31
242.597	81.31
242.83	65.31
243.064	81.31
243.298	76.31
243.531	71.31
243.765	76.31
243.998	80.31
244.232	69.31
244.465	77.31
244.699	75.31
244.932	72.31
245.166	74.31
245.399	78.31
245.633	68.31
245.866	74.31
246.099	71.31
246.333	69.31
246.566	89.31
246.8	91.31
247.033	80.31
247.266	71.31
247.5	86.31
247.733	64.31
247.966	69.31
248.2	75.31
248.433	70.31
248.666	87.31
248.899	84.31
249.133	87.31
249.366	82.31
249.599	82.31
249.832	62.31
250.066	81.31
250.299	90.31
250.532	84.31
250.765	85.31
250.998	73.31
251.231	75.31
251.465	90.31
251.698	75.31
251.931	71.31
252.164	77.31
252.397	75.31
252.63	93.31
252.863	69.31
253.096	85.31
253.329	77.31
253.562	79.31
253.795	81.31
254.028	64.31
254.261	92.31
254.494	72.31
254.727	65.31
254.96	63.31
255.193	74.31
255.426	90.31
255.659	87.31
255.892	80.31
256.124	83.31
256.357	71.31
256.59	67.31
256.823	75.31
257.056	76.31
257.289	87.31
257.521	95.31
257.754	103.31
257.987	87.31
258.22	90.31
258.452	85.31
258.685	87.31
258.918	92.31
259.151	71.31
259.383	83.31
259.616	87.31
259.849	85.31
260.081	79.31
260.314	88.31
260.547	75.31
260.779	77.31
261.012	78.31
261.244	84.31
261.477	69.31
261.71	84.31
261.942	73.31
262.175	77.31
262.407	86.31
262.64	80.31
262.872	81.31
263.105	91.31
263.337	87.31
263.57	82.31
263.802	65.31
264.035	87.31
264.267	73.31
264.499	71.31
264.732	80.31
264.964	57.31
265.197	94.31
265.429	84.31
265.661	71.31
265.894	75.31
266.126	87.31
266.358	100.31
266.591	93.31
266.823	76.31
267.055	77.31
267.287	82.31
267.52	83.31
267.752	90.31
267.984	91.31
268.216	73.31
268.448	85.31
268.681	87.31
268.913	69.31
269.145	80.31
269.377	81.31
269.609	72.31
269.841	86.31
270.073	83.31
270.306	90.31
270.538	91.31
270.77	85.31
271.002	95.31
271.234	75.31
271.466	71.31
271.698	87.31
271.93	71.31
272.162	86.31
272.394	100.31
272.626	89.31
272.858	75.31
273.09	77.31
273.322	83.31
273.553	75.31
273.785	88.31
274.017	89.31
274.249	81.31
274.481	81.31
274.713	83.31
274.945	85.31
275.176	94.31
275.408	94.31
275.64	81.31
275.872	90.31
276.104	85.31
276.335	81.31
276.567	76.31
276.799	94.31
277.031	80.31
277.262	73.31
277.494	87.31
277.726	87.31
277.957	69.31
278.189	87.31
278.421	98.31
278.652	82.31
278.884	71.31
279.115	76.31
279.347	86.31
279.579	80.31
279.81	75.31
280.042	75.31
280.273	82.31
280.505	85.31
280.736	90.31
280.968	94.31
281.199	77.31
281.431	87.31
281.662	78.31
281.894	79.31
282.125	82.31
282.356	85.31
282.588	79.31
282.819	91.31
283.051	77.31
283.282	81.31
283.513	83.31
283.745	98.31
283.976	89.31
284.207	81.31
284.439	81.31
284.67	81.31
284.901	105.31
285.132	88.31
285.364	73.31
285.595	73.31
285.826	84.31
286.057	99.31
286.288	94.31
286.52	68.31
286.751	67.31
286.982	71.31
287.213	77.31
287.444	75.31
287.675	87.31
287.906	81.31
288.138	76.31
288.369	80.31
288.6	91.31
288.831	71.31
289.062	84.31
289.293	86.31
289.524	75.31
289.755	66.31
289.986	71.31
290.217	85.31
290.448	92.31
290.679	86.31
290.91	91.31
291.141	74.31
291.371	86.31
291.602	79.31
291.833	79.31
292.064	78.31
292.295	65.31
292.526	77.31
292.757	92.31
292.987	77.31
293.218	80.31
293.449	91.31
293.68	94.31
293.91	85.31
294.141	83.31
294.372	91.31
294.603	87.31
294.833	94.31
295.064	94.31
295.295	85.31
295.525	75.31
295.756	91.31
295.987	84.31
296.217	85.31
296.448	95.31
296.679	71.31
296.909	79.31
297.14	85.31
297.37	95.31
297.601	69.31
297.831	76.31
298.062	87.31
298.292	83.31
298.523	78.31
298.753	86.31
298.984	88.31
299.214	84.31
299.445	98.31
299.675	79.31
299.905	82.31
300.136	83.31
300.366	90.31
300.597	86.31
300.827	93.31
301.057	75.31
301.288	84.31
301.518	83.31
301.748	73.31
301.979	103.31
302.209	93.31
302.439	87.31
302.669	86.31
302.9	82.31
303.13	85.31
303.36	92.31
303.59	71.31
303.82	79.31
304.051	76.31
304.281	88.31
304.511	93.31
304.741	90.31
304.971	81.31
305.201	83.31
305.431	89.31
305.661	94.31
305.891	77.31
306.121	92.31
306.352	96.31
306.582	90.31
306.812	94.31
307.042	84.31
307.272	86.31
307.502	97.31
307.731	96.31
307.961	104.31
308.191	124.31
308.421	118.31
308.651	99.31
308.881	109.31
309.111	119.31
309.341	120.31
309.571	117.31
309.8	95.31
310.03	87.31
310.26	91.31
310.49	74.31
310.72	94.31
310.949	82.31
311.179	86.31
311.409	78.31
311.639	79.31
311.868	67.31
312.098	85.31
312.328	90.31
312.557	81.31
312.787	99.31
313.017	91.31
313.246	65.31
313.476	76.31
313.706	78.31
313.935	87.31
314.165	85.31
314.394	88.31
314.624	88.31
314.853	80.31
315.083	84.31
315.312	96.31
315.542	81.31
315.771	81.31
316.001	72.31
316.23	89.31
316.46	92.31
316.689	87.31
316.919	83.31
317.148	69.31
317.377	80.31
317.607	67.31
317.836	94.31
318.065	78.31
318.295	81.31
318.524	70.31
318.753	85.31
318.983	71.31
319.212	89.31
319.441	72.31
319.67	84.31
319.9	75.31
320.129	78.31
320.358	75.31
320.587	78.31
320.816	78.31
321.046	106.31
321.275	93.31
321.504	91.31
321.733	96.31
321.962	88.31
322.191	84.31
322.42	76.31
322.649	82.31
322.878	86.31
323.108	88.31
323.337	88.31
323.566	93.31
323.795	84.31
324.024	80.31
324.253	85.31
324.482	77.31
324.71	95.31
324.939	95.31
325.168	85.31
325.397	87.31
325.626	89.31
325.855	72.31
326.084	78.31
326.313	85.31
326.542	85.31
326.77	97.31
326.999	71.31
327.228	77.31
327.457	95.31
327.686	82.31
327.914	102.31
328.143	80.31
328.372	86.31
328.6	71.31
328.829	82.31
329.058	69.31
329.287	75.31
329.515	79.31
329.744	81.31
329.972	74.31
330.201	89.31
330.43	88.31
330.658	73.31
330.887	77.31
331.115	95.31
331.344	88.31
331.572	99.31
331.801	79.31
332.03	74.31
332.258	87.31
332.486	93.31
332.715	86.31
332.943	78.31
333.172	85.31
333.4	73.31
333.629	84.31
333.857	78.31
334.085	67.31
334.314	69.31
334.542	81.31
334.771	85.31
334.999	76.31
335.227	93.31
335.455	82.31
335.684	72.31
335.912	93.31
336.14	88.31
336.369	82.31
336.597	69.31
336.825	71.31
337.053	63.31
337.281	87.31
337.51	82.31
337.738	93.31
337.966	78.31
338.194	80.31
338.422	79.31
338.65	83.31
338.878	91.31
339.106	83.31
339.334	77.31
339.562	87.31
339.79	81.31
340.018	87.31
340.246	67.31
340.474	82.31
340.702	84.31
340.93	88.31
341.158	85.31
341.386	82.31
341.614	74.31
341.842	77.31
342.07	72.31
342.298	75.31
342.526	76.31
342.754	81.31
342.981	81.31
343.209	86.31
343.437	93.31
343.665	78.31
343.893	79.31
344.12	87.31
344.348	78.31
344.576	82.31
344.804	77.31
345.031	71.31
345.259	73.31
345.487	95.31
345.714	82.31
345.942	85.31
346.17	87.31
346.397	90.31
346.625	95.31
346.853	82.31
347.08	75.31
347.308	80.31
347.535	88.31
347.763	77.31
347.99	83.31
348.218	84.31
348.445	87.31
348.673	92.31
348.9	79.31
349.128	89.31
349.355	61.31
349.583	87.31
349.81	73.31
350.037	85.31
350.265	76.31
350.492	67.31
350.72	71.31
350.947	79.31
351.174	79.31
351.402	75.31
351.629	89.31
351.856	81.31
352.083	87.31
352.311	90.31
352.538	79.31
352.765	79.31
352.992	81.31
353.22	79.31
353.447	79.31
353.674	90.31
353.901	75.31
354.128	75.31
354.355	91.31
354.583	84.31
354.81	92.31
355.037	88.31
355.264	64.31
355.491	73.31
355.718	91.31
355.945	76.31
356.172	78.31
356.399	96.31
356.626	69.31
356.853	85.31
357.08	82.31
357.307	71.31
357.534	88.31
357.761	91.31
357.988	73.31
358.215	95.31
358.441	89.31
358.668	79.31
358.895	76.31
359.122	78.31
359.349	67.31
359.576	88.31
359.802	87.31
360.029	81.31
360.256	99.31
360.483	82.31
360.709	78.31
360.936	87.31
361.163	80.31
361.39	78.31
361.616	91.31
361.843	85.31
362.07	85.31
362.296	87.31
362.523	83.31
362.749	84.31
362.976	75.31
363.203	85.31
363.429	65.31
363.656	73.31
363.882	91.31
364.109	91.31
364.335	87.31
364.562	80.31
364.788	94.31
365.015	87.31
365.241	69.31
365.468	79.31
365.694	79.31
365.92	91.31
366.147	80.31
366.373	87.31
366.599	91.31
366.826	80.31
367.052	82.31
367.278	71.31
367.505	78.31
367.731	83.31
367.957	83.31
368.184	73.31
368.41	79.31
368.636	85.31
368.862	87.31
369.089	72.31
369.315	81.31
369.541	73.31
369.767	91.31
369.993	79.31
370.219	76.31
370.445	89.31
370.672	91.31
370.898	83.31
371.124	81.31
371.35	91.31
371.576	86.31
371.802	73.31
372.028	84.31
372.254	85.31
372.48	79.31
372.706	85.31
372.932	80.31
373.158	91.31
373.384	87.31
373.61	86.31
373.835	97.31
374.061	86.31
374.287	94.31
374.513	95.31
374.739	79.31
374.965	94.31
375.191	85.31
375.416	85.31
375.642	82.31
375.868	75.31
376.094	76.31
376.319	82.31
376.545	94.31
376.771	76.31
376.997	85.31
377.222	87.31
377.448	78.31
377.674	76.31
377.899	86.31
378.125	83.31
378.35	91.31
378.576	77.31
378.802	78.31
379.027	79.31
379.253	104.31
379.478	81.31
379.704	86.31
379.929	79.31
380.155	99.31
380.38	81.31
380.606	78.31
380.831	79.31
381.057	79.31
381.282	79.31
381.507	83.31
381.733	100.31
381.958	81.31
382.184	73.31
382.409	86.31
382.634	81.31
382.86	85.31
383.085	89.31
383.31	80.31
383.535	78.31
383.761	88.31
383.986	71.31
384.211	62.31
384.436	69.31
384.662	84.31
384.887	82.31
385.112	80.31
385.337	99.31
385.562	95.31
385.787	78.31
386.013	85.31
386.238	77.31
386.463	68.31
386.688	106.31
386.913	95.31
387.138	85.31
387.363	97.31
387.588	83.31
387.813	92.31
388.038	79.31
388.263	83.31
388.488	85.31
388.713	86.31
388.938	77.31
389.163	79.31
389.387	70.31
389.612	100.31
389.837	93.31
390.062	94.31
390.287	98.31
390.512	88.31
390.736	89.31
390.961	69.31
391.186	77.31
391.411	82.31
391.636	81.31
391.86	87.31
392.085	81.31
392.31	81.31
392.534	85.31
392.759	95.31
392.984	91.31
393.208	76.31
393.433	103.31
393.658	91.31
393.882	97.31
394.107	131.31
394.331	176.31
394.556	216.31
394.78	124.31
395.005	95.31
395.229	96.31
395.454	93.31
395.678	111.31
395.903	161.31
396.127	256.31
396.352	247.31
396.576	121.31
396.801	103.31
397.025	74.31
397.249	87.31
397.474	99.31
397.698	97.31
397.922	93.31
398.147	95.31
398.371	90.31
398.595	83.31
398.82	89.31
399.044	77.31
399.268	89.31
399.492	75.31
399.717	89.31
399.941	96.31
400.165	95.31
400.389	76.31
400.613	83.31
400.837	84.31
401.062	70.31
401.286	96.31
401.51	89.31
401.734	82.31
401.958	99.31
402.182	89.31
402.406	95.31
402.63	90.31
402.854	99.31
403.078	87.31
403.302	86.31
403.526	89.31
403.75	89.31
403.974	90.31
404.198	103.31
404.422	81.31
404.645	99.31
404.869	84.31
405.093	94.31
405.317	95.31
405.541	103.31
405.765	89.31
405.988	97.31
406.212	91.31
406.436	81.31
406.66	99.31
406.883	97.31
407.107	76.31
407.331	96.31
407.555	89.31
407.778	92.31
408.002	85.31
408.226	88.31
408.449	93.31
408.673	95.31
408.896	87.31
409.12	94.31
409.344	95.31
409.567	103.31
409.791	91.31
410.014	95.31
410.238	106.31
410.461	82.31
410.685	92.31
410.908	78.31
411.132	85.31
411.355	89.31
411.578	84.31
411.802	91.31
412.025	97.31
412.249	91.31
412.472	89.31
412.695	103.31
412.919	97.31
413.142	95.31
413.365	91.31
413.589	87.31
413.812	84.31
414.035	88.31
414.258	80.31
414.482	92.31
414.705	98.31
414.928	75.31
415.151	71.31
415.374	110.31
415.597	99.31
415.821	93.31
416.044	88.31
416.267	95.31
416.49	103.31
416.713	87.31
416.936	94.31
417.159	83.31
417.382	80.31
417.605	97.31
417.828	105.31
418.051	93.31
418.274	81.31
418.497	96.31
418.72	91.31
418.943	93.31
419.166	97.31
419.389	83.31
419.611	91.31
419.834	98.31
420.057	98.31
420.28	105.31
420.503	87.31
420.726	88.31
420.948	103.31
421.171	79.31
421.394	101.31
421.617	87.31
421.839	105.31
422.062	92.31
422.285	99.31
422.507	79.31
422.73	96.31
422.953	96.31
423.175	80.31
423.398	87.31
423.621	92.31
423.843	89.31
424.066	101.31
424.288	108.31
424.511	82.31
424.733	93.31
424.956	85.31
425.178	80.31
425.401	80.31
425.623	102.31
425.846	94.31
426.068	99.31
426.291	77.31
426.513	101.31
426.735	100.31
426.958	83.31
427.18	85.31
427.402	78.31
427.625	96.31
427.847	93.31
428.069	89.31
428.292	91.31
428.514	80.31
428.736	83.31
428.958	83.31
429.181	91.31
429.403	103.31
429.625	102.31
429.847	97.31
430.069	103.31
430.292	89.31
430.514	97.31
430.736	92.31
430.958	88.31
431.18	81.31
431.402	95.31
431.624	95.31
431.846	86.31
432.068	92.31
432.29	82.31
432.512	91.31
432.734	98.31
432.956	104.31
433.178	94.31
433.4	87.31
433.622	104.31
433.844	99.31
434.066	86.31
434.287	83.31
434.509	91.31
434.731	96.31
434.953	79.31
435.175	81.31
435.397	95.31
435.618	97.31
435.84	82.31
436.062	96.31
436.284	96.31
436.505	103.31
436.727	94.31
436.949	89.31
437.17	95.31
437.392	92.31
437.614	97.31
437.835	92.31
438.057	85.31
438.278	83.31
438.5	97.31
438.721	106.31
438.943	97.31
439.165	109.31
439.386	104.31
439.608	109.31
439.829	86.31
440.05	92.31
440.272	101.31
440.493	95.31
440.715	101.31
440.936	110.31
441.158	101.31
441.379	88.31
441.6	85.31
441.822	91.31
442.043	86.31
442.264	93.31
442.486	87.31
442.707	93.31
442.928	92.31
443.149	106.31
443.371	102.31
443.592	92.31
443.813	85.31
444.034	81.31
444.255	99.31
444.476	99.31
444.698	94.31
444.919	97.31
445.14	176.31
445.361	127.31
445.582	95.31
445.803	104.31
446.024	103.31
446.245	94.31
446.466	105.31
446.687	99.31
446.908	104.31
447.129	106.31
447.35	101.31
447.571	87.31
447.792	100.31
448.013	91.31
448.234	92.31
448.455	101.31
448.675	95.31
448.896	80.31
449.117	100.31
449.338	91.31
449.559	91.31
449.779	96.31
450	99.31
450.221	110.31
450.442	102.31
450.662	97.31
450.883	93.31
451.104	99.31
451.324	97.31
451.545	101.31
451.766	96.31
451.986	81.31
452.207	98.31
452.428	101.31
452.648	83.31
452.869	89.31
453.089	85.31
453.31	89.31
453.53	92.31
453.751	83.31
453.971	101.31
454.192	86.31
454.412	89.31
454.633	75.31
454.853	102.31
455.073	88.31
455.294	82.31
455.514	82.31
455.734	89.31
455.955	93.31
456.175	82.31
456.395	82.31
456.616	74.31
456.836	82.31
457.056	88.31
457.276	83.31
457.497	92.31
457.717	88.31
457.937	94.31
458.157	80.31
458.377	75.31
458.598	80.31
458.818	82.31
459.038	72.31
459.258	75.31
459.478	86.31
459.698	82.31
459.918	83.31
460.138	77.31
460.358	86.31
460.578	80.31
460.798	77.31
461.018	92.31
461.238	92.31
461.458	84.31
461.678	84.31
461.898	72.31
462.118	84.31
462.338	81.31
462.558	92.31
462.777	77.31
462.997	93.31
463.217	83.31
463.437	105.31
463.657	103.31
463.876	88.31
464.096	78.31
464.316	77.31
464.536	80.31
464.755	92.31
464.975	99.31
465.195	87.31
465.414	85.31
465.634	87.31
465.854	105.31
466.073	101.31
466.293	93.31
466.512	89.31
466.732	113.31
466.951	105.31
467.171	112.31
467.391	106.31
467.61	105.31
467.829	103.31
468.049	114.31
468.268	101.31
468.488	108.31
468.707	112.31
468.927	101.31
469.146	100.31
469.365	103.31
469.585	99.31
469.804	94.31
470.023	106.31
470.243	101.31
470.462	110.31
470.681	99.31
470.901	97.31
471.12	105.31
471.339	97.31
471.558	87.31
471.777	100.31
471.997	115.31
472.216	83.31
472.435	88.31
472.654	84.31
472.873	87.31
473.092	87.31
473.311	96.31
473.53	101.31
473.749	103.31
473.968	88.31
474.187	86.31
474.406	108.31
474.625	100.31
474.844	100.31
475.063	89.31
475.282	85.31
475.501	107.31
475.72	116.31
475.939	100.31
476.158	99.31
476.377	88.31
476.596	103.31
476.814	95.31
477.033	86.31
477.252	86.31
477.471	90.31
477.69	98.31
477.908	89.31
478.127	96.31
478.346	93.31
478.564	87.31
478.783	99.31
479.002	86.31
479.22	80.31
479.439	99.31
479.658	88.31
479.876	83.31
480.095	81.31
480.313	93.31
480.532	93.31
480.751	91.31
480.969	92.31
481.188	75.31
481.406	83.31
481.624	72.31
481.843	91.31
482.061	84.31
482.28	78.31
482.498	95.31
482.717	87.31
482.935	99.31
483.153	94.31
483.372	103.31
483.59	99.31
483.808	91.31
484.027	89.31
484.245	91.31
484.463	100.31
484.681	97.31
484.9	90.31
485.118	99.31
485.336	84.31
485.554	93.31
485.772	83.31
485.99	89.31
486.209	88.31
486.427	101.31
486.645	93.31
486.863	97.31
487.081	101.31
487.299	103.31
487.517	103.31
487.735	93.31
487.953	113.31
488.171	111.31
488.389	92.31
488.607	106.31
488.825	95.31
489.043	96.31
489.261	93.31
489.479	96.31
489.696	97.31
489.914	89.31
490.132	116.31
490.35	99.31
490.568	103.31
490.786	119.31
491.003	95.31
491.221	104.31
491.439	122.31
491.657	111.31
491.874	122.31
492.092	114.31
492.31	125.31
492.527	127.31
492.745	123.31
492.963	123.31
493.18	112.31
493.398	123.31
493.615	108.31
493.833	113.31
494.05	111.31
494.268	106.31
494.485	107.31
494.703	110.31
494.92	107.31
495.138	108.31
495.355	111.31
495.573	119.31
495.79	107.31
496.008	117.31
496.225	130.31
496.442	135.31
496.66	121.31
496.877	89.31
497.094	101.31
497.312	103.31
497.529	109.31
497.746	87.31
497.963	92.31
498.181	95.31
498.398	94.31
498.615	92.31
498.832	84.31
499.049	87.31
499.267	96.31
499.484	92.31
499.701	87.31
499.918	99.31
500.135	107.31
500.352	117.31
500.569	94.31
500.786	99.31
501.003	94.31
501.22	103.31
501.437	108.31
501.654	95.31
501.871	95.31
502.088	95.31
502.305	92.31
502.522	102.31
502.739	95.31
502.956	91.31
503.172	86.31
503.389	91.31
503.606	89.31
503.823	86.31
504.04	98.31
504.256	103.31
504.473	89.31
504.69	85.31
504.907	88.31
505.123	99.31
505.34	91.31
505.557	89.31
505.773	93.31
505.99	94.31
506.207	104.31
506.423	95.31
506.64	81.31
506.856	86.31
507.073	82.31
507.289	81.31
507.506	85.31
507.722	81.31
507.939	90.31
508.155	83.31
508.372	94.31
508.588	75.31
508.805	99.31
509.021	92.31
509.238	88.31
509.454	86.31
509.67	80.31
509.887	79.31
510.103	83.31
510.319	99.31
510.536	85.31
510.752	72.31
510.968	83.31
511.184	81.31
511.401	79.31
511.617	94.31
511.833	90.31
512.049	92.31
512.265	81.31
512.481	85.31
512.698	92.31
512.914	85.31
513.13	92.31
513.346	91.31
513.562	87.31
513.778	95.31
513.994	88.31
514.21	89.31
514.426	95.31
514.642	81.31
514.858	91.31
515.074	94.31
515.29	84.31
515.506	83.31
515.721	71.31
515.937	93.31
516.153	91.31
516.369	80.31
516.585	89.31
516.801	93.31
517.016	89.31
517.232	81.31
517.448	93.31
517.664	96.31
517.879	92.31
518.095	100.31
