Data from Foil_3_HRD10591_00013.txt Node
Date: Wed Nov 05 16:18:49 EST 2025
User: Yrep
Spectrometer: HR+D1059
Trigger mode: 1
Integration Time (sec): 1.000000E-1
Scans to average: 1
Electric dark correction enabled: true
Nonlinearity correction enabled: false
Boxcar width: 0
XAxis mode: Wavelengths
Number of Pixels in Spectrum: 2048
>>>>>Begin Spectral Data<<<<<
223.165	-22.56
223.4	-22.56
223.635	-22.56
223.869	-14.56
224.104	-22.56
224.338	-13.56
224.573	-16.56
224.808	-17.56
225.042	-15.56
225.277	6.44
225.511	-12.56
225.746	6.44
225.98	6.44
226.215	18.44
226.449	18.44
226.683	27.44
226.918	24.44
227.152	27.44
227.387	29.44
227.621	48.44
227.856	45.44
228.09	47.44
228.324	43.44
228.559	63.44
228.793	50.44
229.027	64.44
229.262	69.44
229.496	70.44
229.73	72.44
229.964	77.44
230.199	63.44
230.433	62.44
230.667	78.44
230.901	88.44
231.136	92.44
231.37	93.44
231.604	85.44
231.838	71.44
232.072	74.44
232.306	83.44
232.541	80.44
232.775	70.44
233.009	89.44
233.243	81.44
233.477	88.44
233.711	74.44
233.945	85.44
234.179	83.44
234.413	68.44
234.647	86.44
234.881	86.44
235.115	80.44
235.349	82.44
235.583	68.44
235.817	78.44
236.051	70.44
236.285	81.44
236.519	80.44
236.753	80.44
236.987	71.44
237.221	90.44
237.455	90.44
237.689	76.44
237.922	79.44
238.156	72.44
238.39	84.44
238.624	77.44
238.858	67.44
239.091	89.44
239.325	85.44
239.559	76.44
239.793	66.44
240.027	76.44
240.26	74.44
240.494	80.44
240.728	74.44
240.961	72.44
241.195	65.44
241.429	80.44
241.662	68.44
241.896	82.44
242.13	77.44
242.363	71.44
242.597	75.44
242.83	71.44
243.064	70.44
243.298	80.44
243.531	71.44
243.765	82.44
243.998	69.44
244.232	76.44
244.465	87.44
244.699	88.44
244.932	70.44
245.166	83.44
245.399	76.44
245.633	83.44
245.866	71.44
246.099	81.44
246.333	90.44
246.566	83.44
246.8	68.44
247.033	74.44
247.266	67.44
247.5	66.44
247.733	64.44
247.966	79.44
248.2	91.44
248.433	80.44
248.666	80.44
248.899	77.44
249.133	72.44
249.366	90.44
249.599	92.44
249.832	73.44
250.066	88.44
250.299	80.44
250.532	95.44
250.765	79.44
250.998	81.44
251.231	81.44
251.465	84.44
251.698	66.44
251.931	88.44
252.164	81.44
252.397	68.44
252.63	77.44
252.863	69.44
253.096	61.44
253.329	95.44
253.562	86.44
253.795	87.44
254.028	75.44
254.261	77.44
254.494	82.44
254.727	77.44
254.96	88.44
255.193	94.44
255.426	59.44
255.659	74.44
255.892	76.44
256.124	85.44
256.357	80.44
256.59	96.44
256.823	90.44
257.056	81.44
257.289	71.44
257.521	90.44
257.754	81.44
257.987	78.44
258.22	90.44
258.452	80.44
258.685	84.44
258.918	74.44
259.151	82.44
259.383	88.44
259.616	84.44
259.849	96.44
260.081	75.44
260.314	94.44
260.547	80.44
260.779	83.44
261.012	72.44
261.244	80.44
261.477	76.44
261.71	84.44
261.942	79.44
262.175	71.44
262.407	91.44
262.64	86.44
262.872	80.44
263.105	84.44
263.337	83.44
263.57	85.44
263.802	78.44
264.035	84.44
264.267	70.44
264.499	74.44
264.732	83.44
264.964	86.44
265.197	79.44
265.429	79.44
265.661	80.44
265.894	76.44
266.126	82.44
266.358	107.44
266.591	92.44
266.823	83.44
267.055	90.44
267.287	75.44
267.52	92.44
267.752	80.44
267.984	83.44
268.216	87.44
268.448	77.44
268.681	67.44
268.913	75.44
269.145	85.44
269.377	77.44
269.609	80.44
269.841	83.44
270.073	76.44
270.306	69.44
270.538	99.44
270.77	88.44
271.002	103.44
271.234	82.44
271.466	80.44
271.698	80.44
271.93	73.44
272.162	80.44
272.394	71.44
272.626	76.44
272.858	76.44
273.09	76.44
273.322	79.44
273.553	84.44
273.785	81.44
274.017	85.44
274.249	75.44
274.481	85.44
274.713	90.44
274.945	88.44
275.176	94.44
275.408	86.44
275.64	80.44
275.872	71.44
276.104	86.44
276.335	73.44
276.567	90.44
276.799	76.44
277.031	100.44
277.262	91.44
277.494	71.44
277.726	89.44
277.957	74.44
278.189	89.44
278.421	91.44
278.652	68.44
278.884	92.44
279.115	82.44
279.347	80.44
279.579	102.44
279.81	86.44
280.042	92.44
280.273	83.44
280.505	76.44
280.736	93.44
280.968	73.44
281.199	88.44
281.431	84.44
281.662	88.44
281.894	87.44
282.125	86.44
282.356	88.44
282.588	93.44
282.819	78.44
283.051	75.44
283.282	87.44
283.513	83.44
283.745	90.44
283.976	88.44
284.207	84.44
284.439	72.44
284.67	82.44
284.901	95.44
285.132	89.44
285.364	81.44
285.595	82.44
285.826	77.44
286.057	79.44
286.288	80.44
286.52	88.44
286.751	90.44
286.982	74.44
287.213	72.44
287.444	81.44
287.675	78.44
287.906	76.44
288.138	78.44
288.369	85.44
288.6	95.44
288.831	75.44
289.062	90.44
289.293	96.44
289.524	90.44
289.755	91.44
289.986	83.44
290.217	91.44
290.448	94.44
290.679	84.44
290.91	81.44
291.141	97.44
291.371	68.44
291.602	80.44
291.833	76.44
292.064	84.44
292.295	86.44
292.526	73.44
292.757	90.44
292.987	90.44
293.218	87.44
293.449	88.44
293.68	75.44
293.91	83.44
294.141	71.44
294.372	85.44
294.603	84.44
294.833	72.44
295.064	84.44
295.295	79.44
295.525	87.44
295.756	91.44
295.987	72.44
296.217	92.44
296.448	78.44
296.679	89.44
296.909	79.44
297.14	92.44
297.37	80.44
297.601	84.44
297.831	81.44
298.062	81.44
298.292	82.44
298.523	78.44
298.753	74.44
298.984	92.44
299.214	98.44
299.445	86.44
299.675	86.44
299.905	82.44
300.136	86.44
300.366	78.44
300.597	80.44
300.827	89.44
301.057	82.44
301.288	91.44
301.518	86.44
301.748	75.44
301.979	105.44
302.209	76.44
302.439	83.44
302.669	85.44
302.9	85.44
303.13	94.44
303.36	91.44
303.59	84.44
303.82	85.44
304.051	72.44
304.281	90.44
304.511	78.44
304.741	89.44
304.971	84.44
305.201	75.44
305.431	68.44
305.661	84.44
305.891	88.44
306.121	85.44
306.352	91.44
306.582	89.44
306.812	90.44
307.042	78.44
307.272	91.44
307.502	86.44
307.731	98.44
307.961	104.44
308.191	113.44
308.421	118.44
308.651	102.44
308.881	110.44
309.111	127.44
309.341	141.44
309.571	110.44
309.8	96.44
310.03	74.44
310.26	76.44
310.49	77.44
310.72	88.44
310.949	92.44
311.179	83.44
311.409	93.44
311.639	81.44
311.868	88.44
312.098	90.44
312.328	83.44
312.557	83.44
312.787	82.44
313.017	79.44
313.246	85.44
313.476	85.44
313.706	79.44
313.935	91.44
314.165	86.44
314.394	91.44
314.624	84.44
314.853	81.44
315.083	98.44
315.312	92.44
315.542	78.44
315.771	94.44
316.001	77.44
316.23	100.44
316.46	83.44
316.689	84.44
316.919	89.44
317.148	85.44
317.377	81.44
317.607	82.44
317.836	88.44
318.065	89.44
318.295	96.44
318.524	78.44
318.753	73.44
318.983	74.44
319.212	79.44
319.441	85.44
319.67	86.44
319.9	90.44
320.129	76.44
320.358	91.44
320.587	86.44
320.816	83.44
321.046	80.44
321.275	88.44
321.504	92.44
321.733	87.44
321.962	98.44
322.191	81.44
322.42	81.44
322.649	80.44
322.878	78.44
323.108	82.44
323.337	92.44
323.566	84.44
323.795	87.44
324.024	84.44
324.253	70.44
324.482	74.44
324.71	69.44
324.939	82.44
325.168	84.44
325.397	90.44
325.626	91.44
325.855	96.44
326.084	74.44
326.313	86.44
326.542	87.44
326.77	59.44
326.999	87.44
327.228	77.44
327.457	88.44
327.686	90.44
327.914	82.44
328.143	73.44
328.372	79.44
328.6	81.44
328.829	81.44
329.058	84.44
329.287	81.44
329.515	89.44
329.744	88.44
329.972	81.44
330.201	91.44
330.43	85.44
330.658	87.44
330.887	75.44
331.115	80.44
331.344	90.44
331.572	78.44
331.801	76.44
332.03	92.44
332.258	84.44
332.486	85.44
332.715	79.44
332.943	78.44
333.172	80.44
333.4	87.44
333.629	88.44
333.857	84.44
334.085	90.44
334.314	78.44
334.542	96.44
334.771	82.44
334.999	83.44
335.227	76.44
335.455	74.44
335.684	93.44
335.912	77.44
336.14	88.44
336.369	81.44
336.597	95.44
336.825	91.44
337.053	76.44
337.281	83.44
337.51	76.44
337.738	94.44
337.966	78.44
338.194	65.44
338.422	72.44
338.65	94.44
338.878	98.44
339.106	81.44
339.334	89.44
339.562	87.44
339.79	82.44
340.018	63.44
340.246	102.44
340.474	73.44
340.702	94.44
340.93	79.44
341.158	89.44
341.386	73.44
341.614	88.44
341.842	71.44
342.07	72.44
342.298	83.44
342.526	102.44
342.754	89.44
342.981	99.44
343.209	74.44
343.437	98.44
343.665	88.44
343.893	81.44
344.12	83.44
344.348	91.44
344.576	76.44
344.804	80.44
345.031	99.44
345.259	86.44
345.487	84.44
345.714	87.44
345.942	67.44
346.17	78.44
346.397	88.44
346.625	82.44
346.853	76.44
347.08	87.44
347.308	85.44
347.535	72.44
347.763	71.44
347.99	88.44
348.218	80.44
348.445	85.44
348.673	81.44
348.9	81.44
349.128	79.44
349.355	95.44
349.583	76.44
349.81	81.44
350.037	80.44
350.265	81.44
350.492	82.44
350.72	90.44
350.947	89.44
351.174	97.44
351.402	81.44
351.629	82.44
351.856	85.44
352.083	82.44
352.311	87.44
352.538	72.44
352.765	91.44
352.992	90.44
353.22	84.44
353.447	70.44
353.674	88.44
353.901	78.44
354.128	76.44
354.355	87.44
354.583	81.44
354.81	77.44
355.037	86.44
355.264	86.44
355.491	71.44
355.718	83.44
355.945	89.44
356.172	80.44
356.399	81.44
356.626	88.44
356.853	78.44
357.08	78.44
357.307	92.44
357.534	84.44
357.761	94.44
357.988	91.44
358.215	77.44
358.441	88.44
358.668	80.44
358.895	91.44
359.122	71.44
359.349	85.44
359.576	92.44
359.802	91.44
360.029	77.44
360.256	102.44
360.483	103.44
360.709	99.44
360.936	89.44
361.163	98.44
361.39	74.44
361.616	84.44
361.843	83.44
362.07	102.44
362.296	84.44
362.523	78.44
362.749	90.44
362.976	84.44
363.203	83.44
363.429	84.44
363.656	106.44
363.882	78.44
364.109	87.44
364.335	84.44
364.562	83.44
364.788	81.44
365.015	82.44
365.241	83.44
365.468	107.44
365.694	78.44
365.92	84.44
366.147	78.44
366.373	82.44
366.599	90.44
366.826	65.44
367.052	76.44
367.278	90.44
367.505	78.44
367.731	81.44
367.957	96.44
368.184	88.44
368.41	77.44
368.636	82.44
368.862	74.44
369.089	85.44
369.315	75.44
369.541	82.44
369.767	84.44
369.993	83.44
370.219	66.44
370.445	83.44
370.672	87.44
370.898	76.44
371.124	75.44
371.35	78.44
371.576	85.44
371.802	110.44
372.028	79.44
372.254	93.44
372.48	90.44
372.706	67.44
372.932	90.44
373.158	82.44
373.384	93.44
373.61	76.44
373.835	86.44
374.061	76.44
374.287	74.44
374.513	72.44
374.739	73.44
374.965	83.44
375.191	93.44
375.416	80.44
375.642	82.44
375.868	82.44
376.094	79.44
376.319	79.44
376.545	92.44
376.771	66.44
376.997	96.44
377.222	73.44
377.448	87.44
377.674	88.44
377.899	94.44
378.125	94.44
378.35	88.44
378.576	97.44
378.802	83.44
379.027	74.44
379.253	84.44
379.478	86.44
379.704	99.44
379.929	76.44
380.155	88.44
380.38	92.44
380.606	76.44
380.831	79.44
381.057	94.44
381.282	78.44
381.507	87.44
381.733	92.44
381.958	87.44
382.184	90.44
382.409	81.44
382.634	80.44
382.86	92.44
383.085	94.44
383.31	84.44
383.535	93.44
383.761	82.44
383.986	85.44
384.211	87.44
384.436	84.44
384.662	73.44
384.887	72.44
385.112	72.44
385.337	88.44
385.562	62.44
385.787	74.44
386.013	76.44
386.238	93.44
386.463	85.44
386.688	98.44
386.913	89.44
387.138	85.44
387.363	93.44
387.588	91.44
387.813	92.44
388.038	80.44
388.263	79.44
388.488	97.44
388.713	84.44
388.938	99.44
389.163	68.44
389.387	68.44
389.612	84.44
389.837	84.44
390.062	95.44
390.287	102.44
390.512	83.44
390.736	88.44
390.961	90.44
391.186	86.44
391.411	89.44
391.636	97.44
391.86	93.44
392.085	107.44
392.31	84.44
392.534	92.44
392.759	90.44
392.984	72.44
393.208	96.44
393.433	95.44
393.658	92.44
393.882	104.44
394.107	144.44
394.331	194.44
394.556	233.44
394.78	145.44
395.005	108.44
395.229	97.44
395.454	77.44
395.678	104.44
395.903	173.44
396.127	267.44
396.352	266.44
396.576	127.44
396.801	94.44
397.025	70.44
397.249	89.44
397.474	103.44
397.698	96.44
397.922	91.44
398.147	86.44
398.371	73.44
398.595	80.44
398.82	87.44
399.044	76.44
399.268	64.44
399.492	95.44
399.717	93.44
399.941	82.44
400.165	97.44
400.389	87.44
400.613	92.44
400.837	87.44
401.062	99.44
401.286	94.44
401.51	85.44
401.734	94.44
401.958	84.44
402.182	96.44
402.406	101.44
402.63	88.44
402.854	95.44
403.078	100.44
403.302	95.44
403.526	88.44
403.75	96.44
403.974	87.44
404.198	85.44
404.422	85.44
404.645	90.44
404.869	95.44
405.093	91.44
405.317	91.44
405.541	95.44
405.765	96.44
405.988	93.44
406.212	102.44
406.436	100.44
406.66	99.44
406.883	95.44
407.107	91.44
407.331	90.44
407.555	101.44
407.778	84.44
408.002	108.44
408.226	90.44
408.449	98.44
408.673	83.44
408.896	87.44
409.12	84.44
409.344	97.44
409.567	92.44
409.791	92.44
410.014	85.44
410.238	80.44
410.461	94.44
410.685	102.44
410.908	91.44
411.132	94.44
411.355	74.44
411.578	99.44
411.802	101.44
412.025	73.44
412.249	100.44
412.472	97.44
412.695	100.44
412.919	80.44
413.142	70.44
413.365	88.44
413.589	86.44
413.812	87.44
414.035	94.44
414.258	88.44
414.482	72.44
414.705	89.44
414.928	95.44
415.151	90.44
415.374	93.44
415.597	89.44
415.821	97.44
416.044	95.44
416.267	94.44
416.49	80.44
416.713	98.44
416.936	86.44
417.159	80.44
417.382	95.44
417.605	90.44
417.828	88.44
418.051	110.44
418.274	81.44
418.497	91.44
418.72	91.44
418.943	96.44
419.166	108.44
419.389	94.44
419.611	103.44
419.834	88.44
420.057	110.44
420.28	97.44
420.503	101.44
420.726	98.44
420.948	98.44
421.171	108.44
421.394	94.44
421.617	82.44
421.839	82.44
422.062	85.44
422.285	89.44
422.507	92.44
422.73	97.44
422.953	90.44
423.175	88.44
423.398	92.44
423.621	101.44
423.843	89.44
424.066	101.44
424.288	92.44
424.511	92.44
424.733	104.44
424.956	98.44
425.178	94.44
425.401	87.44
425.623	88.44
425.846	97.44
426.068	75.44
426.291	99.44
426.513	80.44
426.735	101.44
426.958	83.44
427.18	109.44
427.402	97.44
427.625	107.44
427.847	96.44
428.069	84.44
428.292	85.44
428.514	101.44
428.736	92.44
428.958	93.44
429.181	102.44
429.403	98.44
429.625	95.44
429.847	98.44
430.069	96.44
430.292	90.44
430.514	81.44
430.736	86.44
430.958	98.44
431.18	88.44
431.402	101.44
431.624	90.44
431.846	78.44
432.068	86.44
432.29	80.44
432.512	98.44
432.734	82.44
432.956	90.44
433.178	92.44
433.4	91.44
433.622	96.44
433.844	98.44
434.066	94.44
434.287	80.44
434.509	78.44
434.731	95.44
434.953	86.44
435.175	86.44
435.397	95.44
435.618	86.44
435.84	98.44
436.062	95.44
436.284	87.44
436.505	90.44
436.727	88.44
436.949	101.44
437.17	106.44
437.392	98.44
437.614	86.44
437.835	86.44
438.057	84.44
438.278	90.44
438.5	83.44
438.721	96.44
438.943	94.44
439.165	95.44
439.386	105.44
439.608	98.44
439.829	100.44
440.05	104.44
440.272	91.44
440.493	94.44
440.715	91.44
440.936	111.44
441.158	104.44
441.379	96.44
441.6	100.44
441.822	105.44
442.043	116.44
442.264	101.44
442.486	80.44
442.707	97.44
442.928	106.44
443.149	102.44
443.371	104.44
443.592	106.44
443.813	110.44
444.034	92.44
444.255	121.44
444.476	99.44
444.698	107.44
444.919	79.44
445.14	182.44
445.361	128.44
445.582	119.44
445.803	90.44
446.024	92.44
446.245	99.44
446.466	104.44
446.687	99.44
446.908	99.44
447.129	100.44
447.35	114.44
447.571	98.44
447.792	101.44
448.013	100.44
448.234	101.44
448.455	110.44
448.675	107.44
448.896	93.44
449.117	113.44
449.338	102.44
449.559	114.44
449.779	99.44
450	118.44
450.221	111.44
450.442	107.44
450.662	106.44
450.883	99.44
451.104	102.44
451.324	89.44
451.545	76.44
451.766	98.44
451.986	99.44
452.207	113.44
452.428	92.44
452.648	97.44
452.869	89.44
453.089	95.44
453.31	73.44
453.53	103.44
453.751	92.44
453.971	90.44
454.192	83.44
454.412	82.44
454.633	92.44
454.853	104.44
455.073	105.44
455.294	90.44
455.514	89.44
455.734	88.44
455.955	103.44
456.175	82.44
456.395	87.44
456.616	81.44
456.836	91.44
457.056	96.44
457.276	76.44
457.497	99.44
457.717	85.44
457.937	94.44
458.157	100.44
458.377	83.44
458.598	87.44
458.818	81.44
459.038	78.44
459.258	94.44
459.478	87.44
459.698	71.44
459.918	88.44
460.138	79.44
460.358	90.44
460.578	77.44
460.798	99.44
461.018	100.44
461.238	99.44
461.458	89.44
461.678	105.44
461.898	87.44
462.118	79.44
462.338	95.44
462.558	85.44
462.777	85.44
462.997	97.44
463.217	91.44
463.437	80.44
463.657	98.44
463.876	99.44
464.096	87.44
464.316	87.44
464.536	95.44
464.755	91.44
464.975	105.44
465.195	97.44
465.414	92.44
465.634	97.44
465.854	84.44
466.073	80.44
466.293	95.44
466.512	92.44
466.732	96.44
466.951	113.44
467.171	104.44
467.391	110.44
467.61	121.44
467.829	101.44
468.049	102.44
468.268	100.44
468.488	95.44
468.707	94.44
468.927	106.44
469.146	104.44
469.365	100.44
469.585	107.44
469.804	108.44
470.023	111.44
470.243	112.44
470.462	104.44
470.681	106.44
470.901	104.44
471.12	103.44
471.339	99.44
471.558	95.44
471.777	91.44
471.997	101.44
472.216	98.44
472.435	79.44
472.654	90.44
472.873	98.44
473.092	91.44
473.311	114.44
473.53	102.44
473.749	98.44
473.968	96.44
474.187	99.44
474.406	83.44
474.625	91.44
474.844	103.44
475.063	96.44
475.282	87.44
475.501	85.44
475.72	106.44
475.939	95.44
476.158	110.44
476.377	99.44
476.596	98.44
476.814	94.44
477.033	92.44
477.252	104.44
477.471	102.44
477.69	108.44
477.908	93.44
478.127	106.44
478.346	94.44
478.564	107.44
478.783	100.44
479.002	108.44
479.22	96.44
479.439	90.44
479.658	103.44
479.876	85.44
480.095	92.44
480.313	87.44
480.532	81.44
480.751	82.44
480.969	71.44
481.188	81.44
481.406	80.44
481.624	87.44
481.843	84.44
482.061	82.44
482.28	89.44
482.498	95.44
482.717	96.44
482.935	97.44
483.153	110.44
483.372	94.44
483.59	99.44
483.808	94.44
484.027	97.44
484.245	82.44
484.463	91.44
484.681	92.44
484.9	90.44
485.118	111.44
485.336	84.44
485.554	86.44
485.772	91.44
485.99	99.44
486.209	91.44
486.427	91.44
486.645	105.44
486.863	116.44
487.081	108.44
487.299	87.44
487.517	98.44
487.735	103.44
487.953	119.44
488.171	104.44
488.389	112.44
488.607	96.44
488.825	95.44
489.043	88.44
489.261	110.44
489.479	110.44
489.696	109.44
489.914	106.44
490.132	112.44
490.35	106.44
490.568	105.44
490.786	105.44
491.003	114.44
491.221	111.44
491.439	120.44
491.657	126.44
491.874	119.44
492.092	109.44
492.31	128.44
492.527	135.44
492.745	117.44
492.963	114.44
493.18	130.44
493.398	109.44
493.615	118.44
493.833	110.44
494.05	127.44
494.268	114.44
494.485	116.44
494.703	118.44
494.92	119.44
495.138	109.44
495.355	112.44
495.573	102.44
495.79	104.44
496.008	107.44
496.225	111.44
496.442	99.44
496.66	114.44
496.877	107.44
497.094	98.44
497.312	98.44
497.529	100.44
497.746	110.44
497.963	99.44
498.181	106.44
498.398	81.44
498.615	101.44
498.832	95.44
499.049	89.44
499.267	94.44
499.484	91.44
499.701	95.44
499.918	103.44
500.135	106.44
500.352	104.44
500.569	98.44
500.786	96.44
501.003	106.44
501.22	80.44
501.437	103.44
501.654	88.44
501.871	94.44
502.088	101.44
502.305	101.44
502.522	93.44
502.739	88.44
502.956	98.44
503.172	88.44
503.389	93.44
503.606	85.44
503.823	111.44
504.04	93.44
504.256	102.44
504.473	94.44
504.69	90.44
504.907	96.44
505.123	81.44
505.34	97.44
505.557	91.44
505.773	92.44
505.99	90.44
506.207	80.44
506.423	72.44
506.64	93.44
506.856	91.44
507.073	93.44
507.289	97.44
507.506	88.44
507.722	103.44
507.939	91.44
508.155	95.44
508.372	94.44
508.588	113.44
508.805	89.44
509.021	88.44
509.238	100.44
509.454	93.44
509.67	102.44
509.887	85.44
510.103	90.44
510.319	84.44
510.536	82.44
510.752	86.44
510.968	79.44
511.184	78.44
511.401	84.44
511.617	101.44
511.833	95.44
512.049	87.44
512.265	92.44
512.481	107.44
512.698	82.44
512.914	80.44
513.13	75.44
513.346	87.44
513.562	92.44
513.778	102.44
513.994	75.44
514.21	83.44
514.426	102.44
514.642	99.44
514.858	89.44
515.074	92.44
515.29	89.44
515.506	75.44
515.721	83.44
515.937	83.44
516.153	87.44
516.369	90.44
516.585	94.44
516.801	79.44
517.016	102.44
517.232	88.44
517.448	77.44
