Data from Foil_3_HRD10591_00010.txt Node
Date: Wed Nov 05 16:18:48 EST 2025
User: Yrep
Spectrometer: HR+D1059
Trigger mode: 1
Integration Time (sec): 1.000000E-1
Scans to average: 1
Electric dark correction enabled: true
Nonlinearity correction enabled: false
Boxcar width: 0
XAxis mode: Wavelengths
Number of Pixels in Spectrum: 2048
>>>>>Begin Spectral Data<<<<<
223.165	1.62
223.4	1.62
223.635	1.62
223.869	-21.38
224.104	-23.38
224.338	-28.38
224.573	-24.38
224.808	-18.38
225.042	-8.38
225.277	-9.38
225.511	-5.38
225.746	-2.38
225.98	11.62
226.215	17.62
226.449	22.62
226.683	27.62
226.918	29.62
227.152	30.62
227.387	34.62
227.621	38.62
227.856	43.62
228.09	61.62
228.324	42.62
228.559	62.62
228.793	54.62
229.027	59.62
229.262	63.62
229.496	66.62
229.73	73.62
229.964	68.62
230.199	67.62
230.433	78.62
230.667	78.62
230.901	68.62
231.136	84.62
231.37	79.62
231.604	77.62
231.838	74.62
232.072	79.62
232.306	76.62
232.541	80.62
232.775	83.62
233.009	78.62
233.243	87.62
233.477	84.62
233.711	78.62
233.945	72.62
234.179	92.62
234.413	81.62
234.647	73.62
234.881	67.62
235.115	73.62
235.349	89.62
235.583	80.62
235.817	74.62
236.051	79.62
236.285	75.62
236.519	75.62
236.753	83.62
236.987	74.62
237.221	86.62
237.455	83.62
237.689	94.62
237.922	75.62
238.156	81.62
238.39	76.62
238.624	70.62
238.858	58.62
239.091	86.62
239.325	51.62
239.559	65.62
239.793	76.62
240.027	74.62
240.26	66.62
240.494	75.62
240.728	67.62
240.961	76.62
241.195	72.62
241.429	74.62
241.662	74.62
241.896	87.62
242.13	95.62
242.363	75.62
242.597	72.62
242.83	70.62
243.064	77.62
243.298	74.62
243.531	56.62
243.765	79.62
243.998	55.62
244.232	75.62
244.465	72.62
244.699	75.62
244.932	71.62
245.166	81.62
245.399	75.62
245.633	80.62
245.866	86.62
246.099	77.62
246.333	70.62
246.566	86.62
246.8	71.62
247.033	82.62
247.266	70.62
247.5	77.62
247.733	79.62
247.966	70.62
248.2	69.62
248.433	74.62
248.666	80.62
248.899	86.62
249.133	74.62
249.366	81.62
249.599	94.62
249.832	75.62
250.066	78.62
250.299	76.62
250.532	66.62
250.765	76.62
250.998	62.62
251.231	95.62
251.465	80.62
251.698	72.62
251.931	68.62
252.164	82.62
252.397	70.62
252.63	84.62
252.863	82.62
253.096	70.62
253.329	82.62
253.562	73.62
253.795	83.62
254.028	80.62
254.261	74.62
254.494	79.62
254.727	70.62
254.96	101.62
255.193	75.62
255.426	81.62
255.659	83.62
255.892	94.62
256.124	78.62
256.357	86.62
256.59	76.62
256.823	84.62
257.056	81.62
257.289	92.62
257.521	75.62
257.754	92.62
257.987	80.62
258.22	71.62
258.452	63.62
258.685	66.62
258.918	71.62
259.151	74.62
259.383	97.62
259.616	82.62
259.849	86.62
260.081	86.62
260.314	59.62
260.547	85.62
260.779	70.62
261.012	86.62
261.244	76.62
261.477	84.62
261.71	77.62
261.942	100.62
262.175	90.62
262.407	62.62
262.64	75.62
262.872	78.62
263.105	76.62
263.337	80.62
263.57	76.62
263.802	96.62
264.035	83.62
264.267	66.62
264.499	68.62
264.732	76.62
264.964	84.62
265.197	78.62
265.429	74.62
265.661	88.62
265.894	78.62
266.126	87.62
266.358	86.62
266.591	97.62
266.823	84.62
267.055	74.62
267.287	74.62
267.52	79.62
267.752	67.62
267.984	66.62
268.216	70.62
268.448	77.62
268.681	82.62
268.913	92.62
269.145	64.62
269.377	73.62
269.609	82.62
269.841	77.62
270.073	85.62
270.306	90.62
270.538	86.62
270.77	76.62
271.002	90.62
271.234	71.62
271.466	68.62
271.698	74.62
271.93	80.62
272.162	72.62
272.394	74.62
272.626	74.62
272.858	89.62
273.09	59.62
273.322	70.62
273.553	81.62
273.785	77.62
274.017	93.62
274.249	65.62
274.481	68.62
274.713	81.62
274.945	88.62
275.176	76.62
275.408	70.62
275.64	82.62
275.872	80.62
276.104	82.62
276.335	85.62
276.567	81.62
276.799	91.62
277.031	84.62
277.262	91.62
277.494	73.62
277.726	77.62
277.957	79.62
278.189	85.62
278.421	96.62
278.652	82.62
278.884	79.62
279.115	94.62
279.347	86.62
279.579	71.62
279.81	84.62
280.042	81.62
280.273	90.62
280.505	79.62
280.736	96.62
280.968	64.62
281.199	78.62
281.431	80.62
281.662	88.62
281.894	81.62
282.125	86.62
282.356	86.62
282.588	79.62
282.819	90.62
283.051	72.62
283.282	74.62
283.513	98.62
283.745	79.62
283.976	85.62
284.207	80.62
284.439	82.62
284.67	86.62
284.901	76.62
285.132	84.62
285.364	82.62
285.595	77.62
285.826	79.62
286.057	81.62
286.288	70.62
286.52	83.62
286.751	88.62
286.982	74.62
287.213	78.62
287.444	81.62
287.675	85.62
287.906	86.62
288.138	80.62
288.369	82.62
288.6	90.62
288.831	86.62
289.062	86.62
289.293	76.62
289.524	79.62
289.755	75.62
289.986	79.62
290.217	83.62
290.448	92.62
290.679	77.62
290.91	76.62
291.141	86.62
291.371	92.62
291.602	81.62
291.833	86.62
292.064	81.62
292.295	79.62
292.526	81.62
292.757	75.62
292.987	93.62
293.218	93.62
293.449	87.62
293.68	88.62
293.91	77.62
294.141	78.62
294.372	75.62
294.603	88.62
294.833	74.62
295.064	86.62
295.295	81.62
295.525	83.62
295.756	89.62
295.987	86.62
296.217	80.62
296.448	85.62
296.679	81.62
296.909	84.62
297.14	94.62
297.37	88.62
297.601	78.62
297.831	82.62
298.062	87.62
298.292	105.62
298.523	90.62
298.753	90.62
298.984	79.62
299.214	87.62
299.445	77.62
299.675	82.62
299.905	70.62
300.136	80.62
300.366	77.62
300.597	91.62
300.827	61.62
301.057	70.62
301.288	76.62
301.518	88.62
301.748	86.62
301.979	90.62
302.209	89.62
302.439	91.62
302.669	85.62
302.9	84.62
303.13	88.62
303.36	92.62
303.59	79.62
303.82	73.62
304.051	86.62
304.281	76.62
304.511	92.62
304.741	84.62
304.971	83.62
305.201	81.62
305.431	92.62
305.661	92.62
305.891	86.62
306.121	91.62
306.352	91.62
306.582	77.62
306.812	84.62
307.042	81.62
307.272	84.62
307.502	93.62
307.731	90.62
307.961	103.62
308.191	111.62
308.421	117.62
308.651	118.62
308.881	107.62
309.111	126.62
309.341	143.62
309.571	114.62
309.8	87.62
310.03	96.62
310.26	87.62
310.49	85.62
310.72	84.62
310.949	89.62
311.179	86.62
311.409	81.62
311.639	90.62
311.868	86.62
312.098	86.62
312.328	79.62
312.557	88.62
312.787	84.62
313.017	104.62
313.246	81.62
313.476	62.62
313.706	72.62
313.935	71.62
314.165	77.62
314.394	91.62
314.624	96.62
314.853	91.62
315.083	87.62
315.312	82.62
315.542	88.62
315.771	78.62
316.001	75.62
316.23	86.62
316.46	87.62
316.689	88.62
316.919	74.62
317.148	84.62
317.377	98.62
317.607	107.62
317.836	77.62
318.065	94.62
318.295	83.62
318.524	94.62
318.753	70.62
318.983	81.62
319.212	74.62
319.441	76.62
319.67	102.62
319.9	80.62
320.129	80.62
320.358	77.62
320.587	86.62
320.816	87.62
321.046	99.62
321.275	79.62
321.504	84.62
321.733	84.62
321.962	84.62
322.191	77.62
322.42	94.62
322.649	86.62
322.878	85.62
323.108	78.62
323.337	91.62
323.566	96.62
323.795	88.62
324.024	87.62
324.253	78.62
324.482	98.62
324.71	88.62
324.939	72.62
325.168	85.62
325.397	80.62
325.626	109.62
325.855	89.62
326.084	88.62
326.313	77.62
326.542	75.62
326.77	75.62
326.999	74.62
327.228	89.62
327.457	92.62
327.686	62.62
327.914	74.62
328.143	74.62
328.372	82.62
328.6	72.62
328.829	72.62
329.058	84.62
329.287	79.62
329.515	90.62
329.744	84.62
329.972	80.62
330.201	104.62
330.43	83.62
330.658	84.62
330.887	82.62
331.115	88.62
331.344	79.62
331.572	82.62
331.801	75.62
332.03	94.62
332.258	78.62
332.486	78.62
332.715	73.62
332.943	86.62
333.172	73.62
333.4	90.62
333.629	84.62
333.857	66.62
334.085	86.62
334.314	92.62
334.542	81.62
334.771	81.62
334.999	79.62
335.227	84.62
335.455	74.62
335.684	79.62
335.912	100.62
336.14	82.62
336.369	86.62
336.597	78.62
336.825	70.62
337.053	80.62
337.281	79.62
337.51	87.62
337.738	76.62
337.966	85.62
338.194	86.62
338.422	72.62
338.65	75.62
338.878	78.62
339.106	84.62
339.334	108.62
339.562	89.62
339.79	80.62
340.018	84.62
340.246	70.62
340.474	79.62
340.702	87.62
340.93	76.62
341.158	89.62
341.386	86.62
341.614	78.62
341.842	87.62
342.07	82.62
342.298	84.62
342.526	83.62
342.754	82.62
342.981	80.62
343.209	99.62
343.437	79.62
343.665	78.62
343.893	83.62
344.12	86.62
344.348	74.62
344.576	74.62
344.804	80.62
345.031	92.62
345.259	80.62
345.487	81.62
345.714	86.62
345.942	75.62
346.17	86.62
346.397	89.62
346.625	78.62
346.853	81.62
347.08	78.62
347.308	81.62
347.535	81.62
347.763	77.62
347.99	87.62
348.218	73.62
348.445	82.62
348.673	82.62
348.9	81.62
349.128	73.62
349.355	75.62
349.583	80.62
349.81	75.62
350.037	75.62
350.265	88.62
350.492	78.62
350.72	70.62
350.947	85.62
351.174	98.62
351.402	88.62
351.629	93.62
351.856	79.62
352.083	88.62
352.311	79.62
352.538	86.62
352.765	90.62
352.992	103.62
353.22	75.62
353.447	80.62
353.674	90.62
353.901	94.62
354.128	70.62
354.355	84.62
354.583	83.62
354.81	78.62
355.037	94.62
355.264	76.62
355.491	89.62
355.718	74.62
355.945	86.62
356.172	82.62
356.399	83.62
356.626	79.62
356.853	87.62
357.08	95.62
357.307	94.62
357.534	86.62
357.761	82.62
357.988	84.62
358.215	84.62
358.441	91.62
358.668	96.62
358.895	81.62
359.122	87.62
359.349	78.62
359.576	76.62
359.802	68.62
360.029	61.62
360.256	82.62
360.483	69.62
360.709	73.62
360.936	76.62
361.163	83.62
361.39	76.62
361.616	78.62
361.843	93.62
362.07	84.62
362.296	88.62
362.523	80.62
362.749	82.62
362.976	86.62
363.203	88.62
363.429	74.62
363.656	75.62
363.882	83.62
364.109	92.62
364.335	86.62
364.562	89.62
364.788	90.62
365.015	87.62
365.241	84.62
365.468	71.62
365.694	68.62
365.92	74.62
366.147	73.62
366.373	71.62
366.599	80.62
366.826	74.62
367.052	76.62
367.278	80.62
367.505	77.62
367.731	93.62
367.957	79.62
368.184	68.62
368.41	91.62
368.636	82.62
368.862	83.62
369.089	75.62
369.315	82.62
369.541	78.62
369.767	81.62
369.993	86.62
370.219	77.62
370.445	87.62
370.672	90.62
370.898	70.62
371.124	83.62
371.35	91.62
371.576	68.62
371.802	73.62
372.028	70.62
372.254	73.62
372.48	79.62
372.706	92.62
372.932	87.62
373.158	79.62
373.384	80.62
373.61	71.62
373.835	86.62
374.061	64.62
374.287	76.62
374.513	69.62
374.739	82.62
374.965	74.62
375.191	73.62
375.416	78.62
375.642	88.62
375.868	97.62
376.094	89.62
376.319	81.62
376.545	74.62
376.771	86.62
376.997	67.62
377.222	89.62
377.448	90.62
377.674	69.62
377.899	80.62
378.125	79.62
378.35	74.62
378.576	95.62
378.802	81.62
379.027	90.62
379.253	76.62
379.478	79.62
379.704	94.62
379.929	78.62
380.155	72.62
380.38	79.62
380.606	86.62
380.831	84.62
381.057	78.62
381.282	92.62
381.507	94.62
381.733	71.62
381.958	88.62
382.184	72.62
382.409	76.62
382.634	78.62
382.86	110.62
383.085	85.62
383.31	81.62
383.535	76.62
383.761	80.62
383.986	97.62
384.211	89.62
384.436	92.62
384.662	87.62
384.887	84.62
385.112	85.62
385.337	94.62
385.562	79.62
385.787	71.62
386.013	87.62
386.238	79.62
386.463	87.62
386.688	94.62
386.913	88.62
387.138	86.62
387.363	86.62
387.588	92.62
387.813	83.62
388.038	91.62
388.263	80.62
388.488	81.62
388.713	87.62
388.938	71.62
389.163	74.62
389.387	92.62
389.612	80.62
389.837	86.62
390.062	92.62
390.287	85.62
390.512	76.62
390.736	77.62
390.961	94.62
391.186	75.62
391.411	93.62
391.636	88.62
391.86	90.62
392.085	81.62
392.31	93.62
392.534	79.62
392.759	87.62
392.984	91.62
393.208	95.62
393.433	103.62
393.658	76.62
393.882	87.62
394.107	122.62
394.331	192.62
394.556	220.62
394.78	136.62
395.005	99.62
395.229	86.62
395.454	96.62
395.678	109.62
395.903	182.62
396.127	264.62
396.352	246.62
396.576	128.62
396.801	101.62
397.025	79.62
397.249	86.62
397.474	94.62
397.698	90.62
397.922	93.62
398.147	75.62
398.371	100.62
398.595	98.62
398.82	84.62
399.044	94.62
399.268	98.62
399.492	82.62
399.717	78.62
399.941	93.62
400.165	91.62
400.389	100.62
400.613	75.62
400.837	80.62
401.062	86.62
401.286	97.62
401.51	99.62
401.734	105.62
401.958	85.62
402.182	80.62
402.406	94.62
402.63	86.62
402.854	78.62
403.078	84.62
403.302	98.62
403.526	90.62
403.75	95.62
403.974	99.62
404.198	82.62
404.422	76.62
404.645	86.62
404.869	82.62
405.093	90.62
405.317	86.62
405.541	102.62
405.765	78.62
405.988	100.62
406.212	92.62
406.436	94.62
406.66	101.62
406.883	94.62
407.107	83.62
407.331	94.62
407.555	104.62
407.778	93.62
408.002	89.62
408.226	94.62
408.449	83.62
408.673	94.62
408.896	74.62
409.12	88.62
409.344	94.62
409.567	75.62
409.791	84.62
410.014	100.62
410.238	85.62
410.461	76.62
410.685	86.62
410.908	101.62
411.132	86.62
411.355	98.62
411.578	99.62
411.802	89.62
412.025	90.62
412.249	95.62
412.472	77.62
412.695	104.62
412.919	91.62
413.142	79.62
413.365	90.62
413.589	73.62
413.812	94.62
414.035	112.62
414.258	95.62
414.482	103.62
414.705	108.62
414.928	98.62
415.151	91.62
415.374	96.62
415.597	100.62
415.821	95.62
416.044	111.62
416.267	94.62
416.49	81.62
416.713	101.62
416.936	87.62
417.159	90.62
417.382	84.62
417.605	78.62
417.828	100.62
418.051	99.62
418.274	89.62
418.497	87.62
418.72	99.62
418.943	98.62
419.166	98.62
419.389	100.62
419.611	103.62
419.834	97.62
420.057	90.62
420.28	83.62
420.503	106.62
420.726	97.62
420.948	98.62
421.171	86.62
421.394	101.62
421.617	102.62
421.839	95.62
422.062	88.62
422.285	93.62
422.507	92.62
422.73	88.62
422.953	70.62
423.175	77.62
423.398	103.62
423.621	101.62
423.843	83.62
424.066	80.62
424.288	84.62
424.511	85.62
424.733	103.62
424.956	78.62
425.178	89.62
425.401	101.62
425.623	93.62
425.846	93.62
426.068	79.62
426.291	88.62
426.513	88.62
426.735	98.62
426.958	92.62
427.18	89.62
427.402	95.62
427.625	93.62
427.847	97.62
428.069	92.62
428.292	92.62
428.514	83.62
428.736	84.62
428.958	89.62
429.181	93.62
429.403	100.62
429.625	109.62
429.847	98.62
430.069	94.62
430.292	105.62
430.514	87.62
430.736	101.62
430.958	91.62
431.18	96.62
431.402	90.62
431.624	98.62
431.846	86.62
432.068	90.62
432.29	76.62
432.512	80.62
432.734	107.62
432.956	87.62
433.178	94.62
433.4	99.62
433.622	96.62
433.844	93.62
434.066	84.62
434.287	72.62
434.509	91.62
434.731	99.62
434.953	62.62
435.175	91.62
435.397	104.62
435.618	100.62
435.84	82.62
436.062	111.62
436.284	84.62
436.505	95.62
436.727	95.62
436.949	83.62
437.17	89.62
437.392	78.62
437.614	96.62
437.835	80.62
438.057	74.62
438.278	86.62
438.5	85.62
438.721	98.62
438.943	88.62
439.165	104.62
439.386	103.62
439.608	94.62
439.829	93.62
440.05	90.62
440.272	88.62
440.493	95.62
440.715	94.62
440.936	115.62
441.158	98.62
441.379	94.62
441.6	106.62
441.822	86.62
442.043	96.62
442.264	104.62
442.486	97.62
442.707	98.62
442.928	104.62
443.149	99.62
443.371	108.62
443.592	87.62
443.813	94.62
444.034	97.62
444.255	118.62
444.476	110.62
444.698	97.62
444.919	86.62
445.14	164.62
445.361	134.62
445.582	106.62
445.803	104.62
446.024	98.62
446.245	104.62
446.466	98.62
446.687	98.62
446.908	90.62
447.129	92.62
447.35	98.62
447.571	109.62
447.792	86.62
448.013	83.62
448.234	96.62
448.455	108.62
448.675	105.62
448.896	90.62
449.117	87.62
449.338	88.62
449.559	90.62
449.779	78.62
450	95.62
450.221	92.62
450.442	128.62
450.662	95.62
450.883	101.62
451.104	86.62
451.324	100.62
451.545	94.62
451.766	88.62
451.986	93.62
452.207	100.62
452.428	93.62
452.648	85.62
452.869	100.62
453.089	85.62
453.31	84.62
453.53	76.62
453.751	86.62
453.971	87.62
454.192	91.62
454.412	95.62
454.633	83.62
454.853	92.62
455.073	84.62
455.294	99.62
455.514	95.62
455.734	86.62
455.955	92.62
456.175	82.62
456.395	90.62
456.616	98.62
456.836	82.62
457.056	86.62
457.276	93.62
457.497	83.62
457.717	82.62
457.937	84.62
458.157	88.62
458.377	86.62
458.598	84.62
458.818	85.62
459.038	78.62
459.258	87.62
459.478	78.62
459.698	88.62
459.918	92.62
460.138	93.62
460.358	80.62
460.578	94.62
460.798	89.62
461.018	80.62
461.238	87.62
461.458	81.62
461.678	96.62
461.898	91.62
462.118	100.62
462.338	93.62
462.558	96.62
462.777	79.62
462.997	102.62
463.217	98.62
463.437	93.62
463.657	74.62
463.876	92.62
464.096	74.62
464.316	85.62
464.536	74.62
464.755	80.62
464.975	92.62
465.195	85.62
465.414	89.62
465.634	98.62
465.854	87.62
466.073	86.62
466.293	84.62
466.512	102.62
466.732	96.62
466.951	87.62
467.171	92.62
467.391	106.62
467.61	109.62
467.829	126.62
468.049	96.62
468.268	94.62
468.488	108.62
468.707	115.62
468.927	108.62
469.146	90.62
469.365	93.62
469.585	92.62
469.804	100.62
470.023	116.62
470.243	115.62
470.462	87.62
470.681	95.62
470.901	101.62
471.12	110.62
471.339	101.62
471.558	100.62
471.777	93.62
471.997	96.62
472.216	92.62
472.435	103.62
472.654	70.62
472.873	94.62
473.092	100.62
473.311	85.62
473.53	100.62
473.749	94.62
473.968	90.62
474.187	99.62
474.406	88.62
474.625	98.62
474.844	96.62
475.063	102.62
475.282	94.62
475.501	100.62
475.72	101.62
475.939	104.62
476.158	93.62
476.377	103.62
476.596	90.62
476.814	90.62
477.033	78.62
477.252	80.62
477.471	97.62
477.69	98.62
477.908	102.62
478.127	112.62
478.346	85.62
478.564	104.62
478.783	95.62
479.002	103.62
479.22	121.62
479.439	88.62
479.658	94.62
479.876	84.62
480.095	82.62
480.313	89.62
480.532	96.62
480.751	78.62
480.969	78.62
481.188	81.62
481.406	97.62
481.624	84.62
481.843	80.62
482.061	80.62
482.28	81.62
482.498	98.62
482.717	98.62
482.935	102.62
483.153	87.62
483.372	81.62
483.59	95.62
483.808	93.62
484.027	96.62
484.245	93.62
484.463	100.62
484.681	90.62
484.9	89.62
485.118	92.62
485.336	96.62
485.554	87.62
485.772	94.62
485.99	86.62
486.209	83.62
486.427	81.62
486.645	95.62
486.863	99.62
487.081	99.62
487.299	101.62
487.517	105.62
487.735	116.62
487.953	108.62
488.171	113.62
488.389	105.62
488.607	100.62
488.825	83.62
489.043	82.62
489.261	98.62
489.479	98.62
489.696	106.62
489.914	102.62
490.132	98.62
490.35	117.62
490.568	94.62
490.786	119.62
491.003	118.62
491.221	120.62
491.439	109.62
491.657	112.62
491.874	121.62
492.092	130.62
492.31	133.62
492.527	114.62
492.745	102.62
492.963	127.62
493.18	125.62
493.398	112.62
493.615	119.62
493.833	123.62
494.05	102.62
494.268	107.62
494.485	110.62
494.703	96.62
494.92	112.62
495.138	105.62
495.355	110.62
495.573	107.62
495.79	119.62
496.008	102.62
496.225	120.62
496.442	95.62
496.66	111.62
496.877	114.62
497.094	106.62
497.312	94.62
497.529	101.62
497.746	102.62
497.963	80.62
498.181	90.62
498.398	102.62
498.615	77.62
498.832	78.62
499.049	79.62
499.267	96.62
499.484	89.62
499.701	102.62
499.918	102.62
500.135	96.62
500.352	89.62
500.569	104.62
500.786	99.62
501.003	102.62
501.22	87.62
501.437	102.62
501.654	100.62
501.871	108.62
502.088	94.62
502.305	93.62
502.522	91.62
502.739	80.62
502.956	88.62
503.172	98.62
503.389	91.62
503.606	93.62
503.823	112.62
504.04	91.62
504.256	88.62
504.473	102.62
504.69	88.62
504.907	92.62
505.123	89.62
505.34	92.62
505.557	88.62
505.773	102.62
505.99	93.62
506.207	84.62
506.423	92.62
506.64	95.62
506.856	90.62
507.073	88.62
507.289	94.62
507.506	93.62
507.722	85.62
507.939	88.62
508.155	86.62
508.372	79.62
508.588	98.62
508.805	72.62
509.021	84.62
509.238	88.62
509.454	86.62
509.67	92.62
509.887	73.62
510.103	94.62
510.319	94.62
510.536	87.62
510.752	84.62
510.968	86.62
511.184	77.62
511.401	93.62
511.617	100.62
511.833	79.62
512.049	74.62
512.265	83.62
512.481	90.62
512.698	81.62
512.914	75.62
513.13	88.62
513.346	89.62
513.562	88.62
513.778	86.62
513.994	80.62
514.21	86.62
514.426	89.62
514.642	90.62
514.858	87.62
515.074	82.62
515.29	88.62
515.506	94.62
515.721	92.62
515.937	92.62
516.153	89.62
516.369	98.62
516.585	83.62
516.801	78.62
517.016	78.62
517.232	77.62
517.448	90.62
517.664	86.62
517.879	91.62
