Data from Foil_3_HRD10591_00009.txt Node
Date: Wed Nov 05 16:18:47 EST 2025
User: Yrep
Spectrometer: HR+D1059
Trigger mode: 1
Integration Time (sec): 1.000000E-1
Scans to average: 1
Electric dark correction enabled: true
Nonlinearity correction enabled: false
Boxcar width: 0
XAxis mode: Wavelengths
Number of Pixels in Spectrum: 2048
>>>>>Begin Spectral Data<<<<<
223.165	-16.81
223.4	-16.81
223.635	-16.81
223.869	-1.81
224.104	-16.81
224.338	-13.81
224.573	-19.81
224.808	-10.81
225.042	-6.81
225.277	0.19
225.511	-11.81
225.746	-4.81
225.98	11.19
226.215	20.19
226.449	17.19
226.683	23.19
226.918	7.19
227.152	24.19
227.387	30.19
227.621	33.19
227.856	48.19
228.09	55.19
228.324	49.19
228.559	63.19
228.793	52.19
229.027	57.19
229.262	66.19
229.496	59.19
229.73	68.19
229.964	58.19
230.199	72.19
230.433	77.19
230.667	85.19
230.901	78.19
231.136	86.19
231.37	83.19
231.604	90.19
231.838	72.19
232.072	93.19
232.306	88.19
232.541	66.19
232.775	86.19
233.009	82.19
233.243	81.19
233.477	78.19
233.711	79.19
233.945	88.19
234.179	70.19
234.413	85.19
234.647	72.19
234.881	89.19
235.115	81.19
235.349	76.19
235.583	80.19
235.817	93.19
236.051	85.19
236.285	79.19
236.519	78.19
236.753	86.19
236.987	76.19
237.221	72.19
237.455	86.19
237.689	90.19
237.922	72.19
238.156	76.19
238.39	80.19
238.624	77.19
238.858	62.19
239.091	76.19
239.325	76.19
239.559	82.19
239.793	73.19
240.027	80.19
240.26	67.19
240.494	85.19
240.728	71.19
240.961	78.19
241.195	72.19
241.429	94.19
241.662	83.19
241.896	59.19
242.13	64.19
242.363	68.19
242.597	83.19
242.83	70.19
243.064	76.19
243.298	81.19
243.531	78.19
243.765	73.19
243.998	71.19
244.232	75.19
244.465	74.19
244.699	76.19
244.932	70.19
245.166	75.19
245.399	76.19
245.633	87.19
245.866	66.19
246.099	78.19
246.333	82.19
246.566	80.19
246.8	85.19
247.033	80.19
247.266	74.19
247.5	79.19
247.733	88.19
247.966	83.19
248.2	82.19
248.433	92.19
248.666	76.19
248.899	81.19
249.133	62.19
249.366	78.19
249.599	81.19
249.832	85.19
250.066	73.19
250.299	90.19
250.532	77.19
250.765	84.19
250.998	82.19
251.231	86.19
251.465	73.19
251.698	78.19
251.931	87.19
252.164	77.19
252.397	87.19
252.63	88.19
252.863	80.19
253.096	80.19
253.329	77.19
253.562	86.19
253.795	80.19
254.028	92.19
254.261	80.19
254.494	86.19
254.727	89.19
254.96	81.19
255.193	71.19
255.426	75.19
255.659	66.19
255.892	79.19
256.124	80.19
256.357	74.19
256.59	74.19
256.823	89.19
257.056	86.19
257.289	76.19
257.521	82.19
257.754	79.19
257.987	82.19
258.22	92.19
258.452	79.19
258.685	71.19
258.918	89.19
259.151	80.19
259.383	96.19
259.616	82.19
259.849	82.19
260.081	82.19
260.314	88.19
260.547	74.19
260.779	85.19
261.012	92.19
261.244	84.19
261.477	86.19
261.71	82.19
261.942	67.19
262.175	60.19
262.407	90.19
262.64	70.19
262.872	77.19
263.105	71.19
263.337	72.19
263.57	83.19
263.802	87.19
264.035	83.19
264.267	80.19
264.499	90.19
264.732	84.19
264.964	87.19
265.197	82.19
265.429	75.19
265.661	83.19
265.894	80.19
266.126	80.19
266.358	79.19
266.591	78.19
266.823	80.19
267.055	74.19
267.287	86.19
267.52	79.19
267.752	72.19
267.984	98.19
268.216	95.19
268.448	70.19
268.681	80.19
268.913	82.19
269.145	72.19
269.377	92.19
269.609	73.19
269.841	82.19
270.073	69.19
270.306	83.19
270.538	76.19
270.77	90.19
271.002	76.19
271.234	91.19
271.466	92.19
271.698	95.19
271.93	89.19
272.162	82.19
272.394	86.19
272.626	81.19
272.858	76.19
273.09	71.19
273.322	92.19
273.553	98.19
273.785	81.19
274.017	82.19
274.249	75.19
274.481	98.19
274.713	88.19
274.945	88.19
275.176	101.19
275.408	73.19
275.64	71.19
275.872	82.19
276.104	78.19
276.335	90.19
276.567	87.19
276.799	91.19
277.031	83.19
277.262	98.19
277.494	86.19
277.726	92.19
277.957	89.19
278.189	85.19
278.421	81.19
278.652	94.19
278.884	102.19
279.115	82.19
279.347	87.19
279.579	95.19
279.81	70.19
280.042	82.19
280.273	81.19
280.505	81.19
280.736	77.19
280.968	80.19
281.199	78.19
281.431	76.19
281.662	84.19
281.894	89.19
282.125	86.19
282.356	85.19
282.588	80.19
282.819	73.19
283.051	72.19
283.282	77.19
283.513	94.19
283.745	104.19
283.976	86.19
284.207	86.19
284.439	87.19
284.67	94.19
284.901	67.19
285.132	82.19
285.364	70.19
285.595	77.19
285.826	98.19
286.057	76.19
286.288	86.19
286.52	101.19
286.751	82.19
286.982	83.19
287.213	90.19
287.444	64.19
287.675	85.19
287.906	79.19
288.138	88.19
288.369	77.19
288.6	83.19
288.831	80.19
289.062	71.19
289.293	88.19
289.524	78.19
289.755	91.19
289.986	79.19
290.217	83.19
290.448	76.19
290.679	93.19
290.91	96.19
291.141	80.19
291.371	81.19
291.602	86.19
291.833	97.19
292.064	92.19
292.295	94.19
292.526	94.19
292.757	89.19
292.987	80.19
293.218	93.19
293.449	79.19
293.68	81.19
293.91	84.19
294.141	78.19
294.372	72.19
294.603	86.19
294.833	77.19
295.064	80.19
295.295	86.19
295.525	74.19
295.756	86.19
295.987	98.19
296.217	78.19
296.448	97.19
296.679	76.19
296.909	101.19
297.14	88.19
297.37	93.19
297.601	88.19
297.831	67.19
298.062	88.19
298.292	94.19
298.523	80.19
298.753	79.19
298.984	87.19
299.214	91.19
299.445	75.19
299.675	88.19
299.905	83.19
300.136	88.19
300.366	83.19
300.597	85.19
300.827	92.19
301.057	88.19
301.288	97.19
301.518	92.19
301.748	78.19
301.979	83.19
302.209	92.19
302.439	80.19
302.669	70.19
302.9	101.19
303.13	90.19
303.36	80.19
303.59	80.19
303.82	76.19
304.051	83.19
304.281	84.19
304.511	92.19
304.741	80.19
304.971	78.19
305.201	102.19
305.431	82.19
305.661	92.19
305.891	82.19
306.121	86.19
306.352	81.19
306.582	86.19
306.812	82.19
307.042	87.19
307.272	79.19
307.502	80.19
307.731	94.19
307.961	112.19
308.191	111.19
308.421	120.19
308.651	117.19
308.881	102.19
309.111	120.19
309.341	131.19
309.571	120.19
309.8	90.19
310.03	76.19
310.26	93.19
310.49	76.19
310.72	85.19
310.949	74.19
311.179	97.19
311.409	82.19
311.639	87.19
311.868	106.19
312.098	87.19
312.328	72.19
312.557	79.19
312.787	80.19
313.017	77.19
313.246	88.19
313.476	86.19
313.706	87.19
313.935	86.19
314.165	86.19
314.394	89.19
314.624	80.19
314.853	67.19
315.083	77.19
315.312	92.19
315.542	83.19
315.771	88.19
316.001	89.19
316.23	93.19
316.46	79.19
316.689	92.19
316.919	82.19
317.148	81.19
317.377	90.19
317.607	88.19
317.836	80.19
318.065	89.19
318.295	88.19
318.524	90.19
318.753	97.19
318.983	91.19
319.212	76.19
319.441	92.19
319.67	82.19
319.9	76.19
320.129	80.19
320.358	80.19
320.587	82.19
320.816	89.19
321.046	75.19
321.275	76.19
321.504	74.19
321.733	77.19
321.962	86.19
322.191	97.19
322.42	77.19
322.649	95.19
322.878	79.19
323.108	73.19
323.337	68.19
323.566	81.19
323.795	74.19
324.024	86.19
324.253	98.19
324.482	85.19
324.71	86.19
324.939	87.19
325.168	81.19
325.397	81.19
325.626	88.19
325.855	90.19
326.084	91.19
326.313	92.19
326.542	76.19
326.77	82.19
326.999	83.19
327.228	85.19
327.457	77.19
327.686	92.19
327.914	97.19
328.143	101.19
328.372	82.19
328.6	83.19
328.829	77.19
329.058	89.19
329.287	72.19
329.515	82.19
329.744	86.19
329.972	86.19
330.201	85.19
330.43	82.19
330.658	70.19
330.887	87.19
331.115	84.19
331.344	91.19
331.572	108.19
331.801	90.19
332.03	88.19
332.258	86.19
332.486	94.19
332.715	83.19
332.943	92.19
333.172	76.19
333.4	72.19
333.629	84.19
333.857	79.19
334.085	73.19
334.314	82.19
334.542	88.19
334.771	84.19
334.999	90.19
335.227	74.19
335.455	86.19
335.684	89.19
335.912	92.19
336.14	85.19
336.369	78.19
336.597	92.19
336.825	85.19
337.053	68.19
337.281	76.19
337.51	81.19
337.738	86.19
337.966	88.19
338.194	71.19
338.422	86.19
338.65	79.19
338.878	94.19
339.106	88.19
339.334	85.19
339.562	97.19
339.79	73.19
340.018	85.19
340.246	72.19
340.474	74.19
340.702	73.19
340.93	80.19
341.158	102.19
341.386	82.19
341.614	78.19
341.842	86.19
342.07	82.19
342.298	72.19
342.526	82.19
342.754	82.19
342.981	91.19
343.209	99.19
343.437	102.19
343.665	84.19
343.893	76.19
344.12	81.19
344.348	82.19
344.576	81.19
344.804	76.19
345.031	79.19
345.259	89.19
345.487	89.19
345.714	89.19
345.942	87.19
346.17	79.19
346.397	86.19
346.625	92.19
346.853	91.19
347.08	82.19
347.308	94.19
347.535	89.19
347.763	81.19
347.99	83.19
348.218	76.19
348.445	74.19
348.673	92.19
348.9	79.19
349.128	97.19
349.355	79.19
349.583	70.19
349.81	89.19
350.037	66.19
350.265	91.19
350.492	100.19
350.72	81.19
350.947	92.19
351.174	92.19
351.402	116.19
351.629	80.19
351.856	77.19
352.083	78.19
352.311	69.19
352.538	88.19
352.765	92.19
352.992	92.19
353.22	81.19
353.447	86.19
353.674	89.19
353.901	76.19
354.128	79.19
354.355	76.19
354.583	80.19
354.81	107.19
355.037	87.19
355.264	86.19
355.491	79.19
355.718	90.19
355.945	82.19
356.172	86.19
356.399	80.19
356.626	81.19
356.853	87.19
357.08	76.19
357.307	89.19
357.534	85.19
357.761	74.19
357.988	87.19
358.215	78.19
358.441	84.19
358.668	88.19
358.895	89.19
359.122	89.19
359.349	92.19
359.576	80.19
359.802	86.19
360.029	103.19
360.256	80.19
360.483	82.19
360.709	95.19
360.936	90.19
361.163	80.19
361.39	81.19
361.616	82.19
361.843	77.19
362.07	75.19
362.296	90.19
362.523	79.19
362.749	69.19
362.976	85.19
363.203	70.19
363.429	89.19
363.656	88.19
363.882	83.19
364.109	81.19
364.335	95.19
364.562	73.19
364.788	84.19
365.015	67.19
365.241	84.19
365.468	83.19
365.694	89.19
365.92	92.19
366.147	82.19
366.373	88.19
366.599	85.19
366.826	93.19
367.052	79.19
367.278	85.19
367.505	81.19
367.731	89.19
367.957	82.19
368.184	89.19
368.41	82.19
368.636	72.19
368.862	85.19
369.089	75.19
369.315	92.19
369.541	85.19
369.767	67.19
369.993	81.19
370.219	82.19
370.445	91.19
370.672	90.19
370.898	86.19
371.124	91.19
371.35	83.19
371.576	80.19
371.802	82.19
372.028	82.19
372.254	73.19
372.48	79.19
372.706	82.19
372.932	96.19
373.158	93.19
373.384	81.19
373.61	97.19
373.835	95.19
374.061	93.19
374.287	87.19
374.513	83.19
374.739	93.19
374.965	92.19
375.191	75.19
375.416	80.19
375.642	76.19
375.868	89.19
376.094	89.19
376.319	80.19
376.545	92.19
376.771	81.19
376.997	91.19
377.222	93.19
377.448	73.19
377.674	86.19
377.899	82.19
378.125	86.19
378.35	94.19
378.576	80.19
378.802	83.19
379.027	82.19
379.253	80.19
379.478	94.19
379.704	81.19
379.929	94.19
380.155	88.19
380.38	86.19
380.606	79.19
380.831	75.19
381.057	82.19
381.282	79.19
381.507	77.19
381.733	86.19
381.958	98.19
382.184	88.19
382.409	92.19
382.634	93.19
382.86	87.19
383.085	90.19
383.31	86.19
383.535	91.19
383.761	88.19
383.986	75.19
384.211	87.19
384.436	94.19
384.662	98.19
384.887	83.19
385.112	81.19
385.337	102.19
385.562	91.19
385.787	79.19
386.013	78.19
386.238	77.19
386.463	92.19
386.688	93.19
386.913	85.19
387.138	88.19
387.363	74.19
387.588	94.19
387.813	81.19
388.038	92.19
388.263	95.19
388.488	81.19
388.713	79.19
388.938	71.19
389.163	101.19
389.387	93.19
389.612	84.19
389.837	91.19
390.062	95.19
390.287	94.19
390.512	88.19
390.736	96.19
390.961	99.19
391.186	82.19
391.411	72.19
391.636	81.19
391.86	81.19
392.085	85.19
392.31	83.19
392.534	84.19
392.759	72.19
392.984	94.19
393.208	78.19
393.433	91.19
393.658	87.19
393.882	98.19
394.107	133.19
394.331	208.19
394.556	210.19
394.78	137.19
395.005	104.19
395.229	92.19
395.454	98.19
395.678	116.19
395.903	164.19
396.127	242.19
396.352	242.19
396.576	124.19
396.801	108.19
397.025	84.19
397.249	90.19
397.474	100.19
397.698	89.19
397.922	88.19
398.147	86.19
398.371	86.19
398.595	82.19
398.82	93.19
399.044	115.19
399.268	90.19
399.492	96.19
399.717	91.19
399.941	103.19
400.165	90.19
400.389	96.19
400.613	78.19
400.837	92.19
401.062	88.19
401.286	97.19
401.51	90.19
401.734	86.19
401.958	79.19
402.182	98.19
402.406	100.19
402.63	93.19
402.854	99.19
403.078	99.19
403.302	98.19
403.526	82.19
403.75	89.19
403.974	100.19
404.198	93.19
404.422	89.19
404.645	92.19
404.869	102.19
405.093	95.19
405.317	94.19
405.541	83.19
405.765	97.19
405.988	88.19
406.212	100.19
406.436	80.19
406.66	98.19
406.883	94.19
407.107	94.19
407.331	87.19
407.555	87.19
407.778	89.19
408.002	85.19
408.226	94.19
408.449	108.19
408.673	102.19
408.896	97.19
409.12	88.19
409.344	75.19
409.567	112.19
409.791	96.19
410.014	105.19
410.238	96.19
410.461	94.19
410.685	90.19
410.908	80.19
411.132	98.19
411.355	91.19
411.578	93.19
411.802	93.19
412.025	91.19
412.249	93.19
412.472	97.19
412.695	99.19
412.919	79.19
413.142	79.19
413.365	103.19
413.589	101.19
413.812	94.19
414.035	87.19
414.258	93.19
414.482	96.19
414.705	104.19
414.928	120.19
415.151	92.19
415.374	96.19
415.597	103.19
415.821	84.19
416.044	98.19
416.267	103.19
416.49	95.19
416.713	102.19
416.936	96.19
417.159	92.19
417.382	96.19
417.605	91.19
417.828	90.19
418.051	70.19
418.274	84.19
418.497	100.19
418.72	99.19
418.943	104.19
419.166	87.19
419.389	90.19
419.611	99.19
419.834	116.19
420.057	96.19
420.28	96.19
420.503	98.19
420.726	103.19
420.948	70.19
421.171	99.19
421.394	94.19
421.617	104.19
421.839	95.19
422.062	91.19
422.285	95.19
422.507	80.19
422.73	81.19
422.953	91.19
423.175	86.19
423.398	95.19
423.621	97.19
423.843	97.19
424.066	89.19
424.288	89.19
424.511	94.19
424.733	97.19
424.956	90.19
425.178	80.19
425.401	102.19
425.623	99.19
425.846	90.19
426.068	93.19
426.291	94.19
426.513	86.19
426.735	93.19
426.958	95.19
427.18	105.19
427.402	86.19
427.625	91.19
427.847	91.19
428.069	97.19
428.292	96.19
428.514	83.19
428.736	98.19
428.958	106.19
429.181	101.19
429.403	86.19
429.625	93.19
429.847	101.19
430.069	90.19
430.292	96.19
430.514	102.19
430.736	96.19
430.958	102.19
431.18	89.19
431.402	90.19
431.624	95.19
431.846	87.19
432.068	91.19
432.29	89.19
432.512	93.19
432.734	85.19
432.956	89.19
433.178	95.19
433.4	90.19
433.622	105.19
433.844	93.19
434.066	86.19
434.287	88.19
434.509	80.19
434.731	88.19
434.953	95.19
435.175	104.19
435.397	79.19
435.618	82.19
435.84	90.19
436.062	89.19
436.284	96.19
436.505	102.19
436.727	102.19
436.949	110.19
437.17	93.19
437.392	86.19
437.614	99.19
437.835	69.19
438.057	74.19
438.278	85.19
438.5	103.19
438.721	104.19
438.943	83.19
439.165	100.19
439.386	100.19
439.608	107.19
439.829	108.19
440.05	95.19
440.272	109.19
440.493	104.19
440.715	84.19
440.936	98.19
441.158	122.19
441.379	97.19
441.6	107.19
441.822	88.19
442.043	77.19
442.264	107.19
442.486	92.19
442.707	98.19
442.928	107.19
443.149	92.19
443.371	87.19
443.592	98.19
443.813	111.19
444.034	102.19
444.255	109.19
444.476	85.19
444.698	100.19
444.919	113.19
445.14	164.19
445.361	126.19
445.582	111.19
445.803	96.19
446.024	98.19
446.245	105.19
446.466	105.19
446.687	102.19
446.908	102.19
447.129	89.19
447.35	103.19
447.571	92.19
447.792	97.19
448.013	95.19
448.234	108.19
448.455	89.19
448.675	90.19
448.896	97.19
449.117	108.19
449.338	97.19
449.559	105.19
449.779	92.19
450	91.19
450.221	106.19
450.442	107.19
450.662	97.19
450.883	114.19
451.104	116.19
451.324	81.19
451.545	102.19
451.766	101.19
451.986	99.19
452.207	98.19
452.428	101.19
452.648	102.19
452.869	106.19
453.089	86.19
453.31	102.19
453.53	89.19
453.751	88.19
453.971	105.19
454.192	91.19
454.412	90.19
454.633	92.19
454.853	96.19
455.073	90.19
455.294	101.19
455.514	109.19
455.734	88.19
455.955	88.19
456.175	91.19
456.395	94.19
456.616	77.19
456.836	92.19
457.056	90.19
457.276	91.19
457.497	106.19
457.717	86.19
457.937	85.19
458.157	91.19
458.377	92.19
458.598	96.19
458.818	85.19
459.038	90.19
459.258	95.19
459.478	89.19
459.698	80.19
459.918	86.19
460.138	88.19
460.358	98.19
460.578	106.19
460.798	90.19
461.018	93.19
461.238	85.19
461.458	88.19
461.678	87.19
461.898	77.19
462.118	105.19
462.338	99.19
462.558	97.19
462.777	82.19
462.997	91.19
463.217	101.19
463.437	78.19
463.657	91.19
463.876	97.19
464.096	85.19
464.316	87.19
464.536	91.19
464.755	90.19
464.975	83.19
465.195	102.19
465.414	91.19
465.634	85.19
465.854	97.19
466.073	102.19
466.293	81.19
466.512	100.19
466.732	109.19
466.951	102.19
467.171	113.19
467.391	113.19
467.61	87.19
467.829	94.19
468.049	104.19
468.268	102.19
468.488	117.19
468.707	108.19
468.927	105.19
469.146	100.19
469.365	107.19
469.585	101.19
469.804	104.19
470.023	101.19
470.243	108.19
470.462	102.19
470.681	102.19
470.901	96.19
471.12	93.19
471.339	94.19
471.558	100.19
471.777	108.19
471.997	94.19
472.216	77.19
472.435	86.19
472.654	89.19
472.873	92.19
473.092	92.19
473.311	80.19
473.53	96.19
473.749	100.19
473.968	105.19
474.187	92.19
474.406	98.19
474.625	108.19
474.844	102.19
475.063	89.19
475.282	89.19
475.501	89.19
475.72	93.19
475.939	100.19
476.158	98.19
476.377	88.19
476.596	79.19
476.814	88.19
477.033	88.19
477.252	82.19
477.471	102.19
477.69	101.19
477.908	100.19
478.127	98.19
478.346	104.19
478.564	88.19
478.783	96.19
479.002	110.19
479.22	109.19
479.439	83.19
479.658	100.19
479.876	87.19
480.095	84.19
480.313	88.19
480.532	93.19
480.751	83.19
480.969	87.19
481.188	89.19
481.406	86.19
481.624	86.19
481.843	81.19
482.061	86.19
482.28	95.19
482.498	53.19
482.717	89.19
482.935	101.19
483.153	102.19
483.372	96.19
483.59	101.19
483.808	88.19
484.027	93.19
484.245	98.19
484.463	89.19
484.681	93.19
484.9	95.19
485.118	106.19
485.336	100.19
485.554	90.19
485.772	92.19
485.99	108.19
486.209	108.19
486.427	88.19
486.645	91.19
486.863	103.19
487.081	92.19
487.299	100.19
487.517	105.19
487.735	109.19
487.953	103.19
488.171	96.19
488.389	113.19
488.607	91.19
488.825	84.19
489.043	94.19
489.261	102.19
489.479	96.19
489.696	92.19
489.914	98.19
490.132	92.19
490.35	90.19
490.568	113.19
490.786	107.19
491.003	119.19
491.221	124.19
491.439	106.19
491.657	130.19
491.874	133.19
492.092	110.19
492.31	118.19
492.527	118.19
492.745	128.19
492.963	134.19
493.18	124.19
493.398	140.19
493.615	121.19
493.833	111.19
494.05	115.19
494.268	110.19
494.485	100.19
494.703	105.19
494.92	111.19
495.138	112.19
495.355	114.19
495.573	110.19
495.79	109.19
496.008	106.19
496.225	125.19
496.442	120.19
496.66	104.19
496.877	102.19
497.094	110.19
497.312	99.19
497.529	97.19
497.746	104.19
497.963	98.19
498.181	103.19
498.398	89.19
498.615	95.19
498.832	78.19
499.049	84.19
499.267	93.19
499.484	84.19
499.701	87.19
499.918	96.19
500.135	106.19
500.352	96.19
500.569	101.19
500.786	109.19
501.003	105.19
501.22	97.19
501.437	93.19
501.654	93.19
501.871	95.19
502.088	100.19
502.305	106.19
502.522	99.19
502.739	96.19
502.956	106.19
503.172	90.19
503.389	82.19
503.606	100.19
503.823	100.19
504.04	98.19
504.256	99.19
504.473	92.19
504.69	99.19
504.907	103.19
505.123	99.19
505.34	106.19
505.557	81.19
505.773	97.19
505.99	96.19
506.207	96.19
506.423	85.19
506.64	106.19
506.856	88.19
507.073	96.19
507.289	104.19
507.506	95.19
507.722	94.19
507.939	109.19
508.155	97.19
508.372	94.19
508.588	106.19
508.805	98.19
509.021	98.19
509.238	90.19
509.454	80.19
509.67	80.19
509.887	66.19
510.103	69.19
510.319	93.19
510.536	103.19
510.752	96.19
510.968	75.19
511.184	92.19
511.401	99.19
511.617	89.19
511.833	104.19
512.049	93.19
512.265	78.19
512.481	89.19
512.698	95.19
512.914	91.19
513.13	87.19
513.346	92.19
513.562	81.19
513.778	95.19
513.994	97.19
514.21	80.19
514.426	95.19
514.642	76.19
514.858	91.19
515.074	93.19
515.29	104.19
515.506	84.19
515.721	90.19
515.937	97.19
516.153	62.19
516.369	80.19
516.585	93.19
516.801	78.19
517.016	80.19
517.232	83.19
