Data from Foil_3_HRD10591_00012.txt Node
Date: Wed Nov 05 16:18:49 EST 2025
User: Yrep
Spectrometer: HR+D1059
Trigger mode: 1
Integration Time (sec): 1.000000E-1
Scans to average: 1
Electric dark correction enabled: true
Nonlinearity correction enabled: false
Boxcar width: 0
XAxis mode: Wavelengths
Number of Pixels in Spectrum: 2048
>>>>>Begin Spectral Data<<<<<
223.165	-11.19
223.4	-11.19
223.635	-11.19
223.869	-15.19
224.104	-28.19
224.338	-23.19
224.573	-34.19
224.808	-11.19
225.042	-5.19
225.277	1.81
225.511	-10.19
225.746	4.81
225.98	25.81
226.215	22.81
226.449	14.81
226.683	22.81
226.918	25.81
227.152	19.81
227.387	39.81
227.621	40.81
227.856	57.81
228.09	40.81
228.324	63.81
228.559	48.81
228.793	60.81
229.027	68.81
229.262	67.81
229.496	85.81
229.73	74.81
229.964	76.81
230.199	87.81
230.433	78.81
230.667	103.81
230.901	68.81
231.136	90.81
231.37	96.81
231.604	81.81
231.838	90.81
232.072	78.81
232.306	74.81
232.541	86.81
232.775	88.81
233.009	91.81
233.243	76.81
233.477	76.81
233.711	77.81
233.945	81.81
234.179	81.81
234.413	83.81
234.647	76.81
234.881	91.81
235.115	98.81
235.349	73.81
235.583	73.81
235.817	77.81
236.051	80.81
236.285	83.81
236.519	77.81
236.753	88.81
236.987	81.81
237.221	83.81
237.455	82.81
237.689	82.81
237.922	79.81
238.156	69.81
238.39	75.81
238.624	74.81
238.858	72.81
239.091	87.81
239.325	74.81
239.559	86.81
239.793	80.81
240.027	70.81
240.26	70.81
240.494	93.81
240.728	69.81
240.961	60.81
241.195	77.81
241.429	72.81
241.662	83.81
241.896	68.81
242.13	70.81
242.363	78.81
242.597	75.81
242.83	86.81
243.064	80.81
243.298	82.81
243.531	94.81
243.765	72.81
243.998	76.81
244.232	83.81
244.465	83.81
244.699	79.81
244.932	70.81
245.166	64.81
245.399	82.81
245.633	81.81
245.866	76.81
246.099	81.81
246.333	76.81
246.566	75.81
246.8	63.81
247.033	76.81
247.266	72.81
247.5	84.81
247.733	81.81
247.966	83.81
248.2	91.81
248.433	83.81
248.666	75.81
248.899	85.81
249.133	72.81
249.366	100.81
249.599	82.81
249.832	82.81
250.066	82.81
250.299	89.81
250.532	72.81
250.765	82.81
250.998	82.81
251.231	86.81
251.465	78.81
251.698	70.81
251.931	92.81
252.164	77.81
252.397	76.81
252.63	77.81
252.863	96.81
253.096	76.81
253.329	80.81
253.562	73.81
253.795	86.81
254.028	82.81
254.261	80.81
254.494	98.81
254.727	82.81
254.96	69.81
255.193	77.81
255.426	75.81
255.659	95.81
255.892	73.81
256.124	74.81
256.357	65.81
256.59	76.81
256.823	80.81
257.056	89.81
257.289	69.81
257.521	79.81
257.754	90.81
257.987	84.81
258.22	87.81
258.452	82.81
258.685	81.81
258.918	80.81
259.151	83.81
259.383	88.81
259.616	79.81
259.849	65.81
260.081	93.81
260.314	82.81
260.547	74.81
260.779	85.81
261.012	79.81
261.244	88.81
261.477	74.81
261.71	72.81
261.942	77.81
262.175	92.81
262.407	70.81
262.64	68.81
262.872	76.81
263.105	69.81
263.337	81.81
263.57	81.81
263.802	75.81
264.035	78.81
264.267	76.81
264.499	69.81
264.732	80.81
264.964	80.81
265.197	88.81
265.429	79.81
265.661	87.81
265.894	93.81
266.126	82.81
266.358	76.81
266.591	88.81
266.823	89.81
267.055	88.81
267.287	85.81
267.52	83.81
267.752	75.81
267.984	77.81
268.216	82.81
268.448	87.81
268.681	71.81
268.913	98.81
269.145	88.81
269.377	81.81
269.609	83.81
269.841	81.81
270.073	96.81
270.306	88.81
270.538	85.81
270.77	94.81
271.002	72.81
271.234	101.81
271.466	83.81
271.698	80.81
271.93	86.81
272.162	93.81
272.394	90.81
272.626	81.81
272.858	78.81
273.09	83.81
273.322	88.81
273.553	76.81
273.785	92.81
274.017	88.81
274.249	78.81
274.481	84.81
274.713	88.81
274.945	95.81
275.176	78.81
275.408	83.81
275.64	90.81
275.872	92.81
276.104	87.81
276.335	92.81
276.567	94.81
276.799	85.81
277.031	75.81
277.262	87.81
277.494	77.81
277.726	84.81
277.957	88.81
278.189	93.81
278.421	80.81
278.652	68.81
278.884	89.81
279.115	72.81
279.347	81.81
279.579	78.81
279.81	88.81
280.042	68.81
280.273	84.81
280.505	88.81
280.736	78.81
280.968	84.81
281.199	87.81
281.431	96.81
281.662	79.81
281.894	75.81
282.125	86.81
282.356	83.81
282.588	77.81
282.819	86.81
283.051	84.81
283.282	92.81
283.513	91.81
283.745	97.81
283.976	83.81
284.207	91.81
284.439	101.81
284.67	76.81
284.901	92.81
285.132	88.81
285.364	70.81
285.595	88.81
285.826	84.81
286.057	77.81
286.288	89.81
286.52	96.81
286.751	92.81
286.982	92.81
287.213	92.81
287.444	77.81
287.675	88.81
287.906	86.81
288.138	85.81
288.369	81.81
288.6	82.81
288.831	83.81
289.062	77.81
289.293	87.81
289.524	90.81
289.755	90.81
289.986	93.81
290.217	81.81
290.448	86.81
290.679	76.81
290.91	91.81
291.141	97.81
291.371	78.81
291.602	86.81
291.833	81.81
292.064	79.81
292.295	80.81
292.526	83.81
292.757	88.81
292.987	76.81
293.218	80.81
293.449	95.81
293.68	74.81
293.91	81.81
294.141	79.81
294.372	82.81
294.603	83.81
294.833	84.81
295.064	87.81
295.295	77.81
295.525	74.81
295.756	92.81
295.987	84.81
296.217	93.81
296.448	98.81
296.679	65.81
296.909	85.81
297.14	91.81
297.37	73.81
297.601	82.81
297.831	87.81
298.062	95.81
298.292	92.81
298.523	70.81
298.753	86.81
298.984	88.81
299.214	84.81
299.445	78.81
299.675	91.81
299.905	89.81
300.136	90.81
300.366	93.81
300.597	94.81
300.827	71.81
301.057	70.81
301.288	80.81
301.518	91.81
301.748	101.81
301.979	99.81
302.209	83.81
302.439	98.81
302.669	83.81
302.9	88.81
303.13	90.81
303.36	98.81
303.59	82.81
303.82	87.81
304.051	78.81
304.281	104.81
304.511	81.81
304.741	77.81
304.971	77.81
305.201	83.81
305.431	86.81
305.661	78.81
305.891	80.81
306.121	87.81
306.352	87.81
306.582	77.81
306.812	74.81
307.042	73.81
307.272	82.81
307.502	92.81
307.731	94.81
307.961	100.81
308.191	124.81
308.421	126.81
308.651	104.81
308.881	96.81
309.111	112.81
309.341	143.81
309.571	114.81
309.8	91.81
310.03	88.81
310.26	78.81
310.49	88.81
310.72	88.81
310.949	72.81
311.179	88.81
311.409	82.81
311.639	82.81
311.868	83.81
312.098	99.81
312.328	88.81
312.557	86.81
312.787	82.81
313.017	90.81
313.246	86.81
313.476	82.81
313.706	79.81
313.935	84.81
314.165	87.81
314.394	78.81
314.624	109.81
314.853	94.81
315.083	101.81
315.312	97.81
315.542	86.81
315.771	90.81
316.001	81.81
316.23	99.81
316.46	81.81
316.689	80.81
316.919	85.81
317.148	84.81
317.377	83.81
317.607	82.81
317.836	88.81
318.065	84.81
318.295	82.81
318.524	99.81
318.753	82.81
318.983	73.81
319.212	87.81
319.441	76.81
319.67	64.81
319.9	91.81
320.129	79.81
320.358	86.81
320.587	83.81
320.816	85.81
321.046	88.81
321.275	88.81
321.504	72.81
321.733	75.81
321.962	68.81
322.191	95.81
322.42	88.81
322.649	93.81
322.878	95.81
323.108	80.81
323.337	83.81
323.566	78.81
323.795	98.81
324.024	90.81
324.253	93.81
324.482	85.81
324.71	88.81
324.939	75.81
325.168	86.81
325.397	94.81
325.626	95.81
325.855	78.81
326.084	89.81
326.313	95.81
326.542	84.81
326.77	91.81
326.999	88.81
327.228	68.81
327.457	88.81
327.686	83.81
327.914	73.81
328.143	81.81
328.372	83.81
328.6	82.81
328.829	80.81
329.058	85.81
329.287	76.81
329.515	88.81
329.744	87.81
329.972	82.81
330.201	84.81
330.43	82.81
330.658	73.81
330.887	78.81
331.115	83.81
331.344	89.81
331.572	96.81
331.801	80.81
332.03	82.81
332.258	91.81
332.486	86.81
332.715	91.81
332.943	94.81
333.172	76.81
333.4	88.81
333.629	69.81
333.857	86.81
334.085	96.81
334.314	93.81
334.542	89.81
334.771	84.81
334.999	94.81
335.227	92.81
335.455	91.81
335.684	89.81
335.912	83.81
336.14	86.81
336.369	89.81
336.597	68.81
336.825	81.81
337.053	76.81
337.281	90.81
337.51	81.81
337.738	92.81
337.966	88.81
338.194	81.81
338.422	80.81
338.65	77.81
338.878	86.81
339.106	88.81
339.334	98.81
339.562	84.81
339.79	86.81
340.018	90.81
340.246	78.81
340.474	82.81
340.702	81.81
340.93	81.81
341.158	82.81
341.386	100.81
341.614	95.81
341.842	89.81
342.07	102.81
342.298	94.81
342.526	85.81
342.754	77.81
342.981	88.81
343.209	80.81
343.437	81.81
343.665	92.81
343.893	76.81
344.12	85.81
344.348	76.81
344.576	86.81
344.804	93.81
345.031	94.81
345.259	97.81
345.487	74.81
345.714	81.81
345.942	80.81
346.17	80.81
346.397	75.81
346.625	90.81
346.853	80.81
347.08	80.81
347.308	92.81
347.535	95.81
347.763	94.81
347.99	88.81
348.218	92.81
348.445	79.81
348.673	69.81
348.9	94.81
349.128	90.81
349.355	77.81
349.583	85.81
349.81	81.81
350.037	88.81
350.265	82.81
350.492	93.81
350.72	74.81
350.947	80.81
351.174	80.81
351.402	95.81
351.629	100.81
351.856	91.81
352.083	79.81
352.311	83.81
352.538	78.81
352.765	81.81
352.992	91.81
353.22	86.81
353.447	86.81
353.674	89.81
353.901	88.81
354.128	68.81
354.355	69.81
354.583	77.81
354.81	72.81
355.037	75.81
355.264	79.81
355.491	80.81
355.718	80.81
355.945	99.81
356.172	78.81
356.399	72.81
356.626	96.81
356.853	92.81
357.08	83.81
357.307	80.81
357.534	90.81
357.761	89.81
357.988	104.81
358.215	86.81
358.441	83.81
358.668	101.81
358.895	88.81
359.122	82.81
359.349	80.81
359.576	80.81
359.802	66.81
360.029	73.81
360.256	84.81
360.483	92.81
360.709	90.81
360.936	87.81
361.163	90.81
361.39	75.81
361.616	85.81
361.843	86.81
362.07	81.81
362.296	86.81
362.523	90.81
362.749	79.81
362.976	87.81
363.203	84.81
363.429	82.81
363.656	84.81
363.882	82.81
364.109	72.81
364.335	90.81
364.562	78.81
364.788	88.81
365.015	88.81
365.241	86.81
365.468	86.81
365.694	66.81
365.92	81.81
366.147	90.81
366.373	82.81
366.599	72.81
366.826	88.81
367.052	93.81
367.278	80.81
367.505	80.81
367.731	95.81
367.957	84.81
368.184	74.81
368.41	78.81
368.636	93.81
368.862	75.81
369.089	89.81
369.315	98.81
369.541	90.81
369.767	89.81
369.993	92.81
370.219	77.81
370.445	93.81
370.672	90.81
370.898	79.81
371.124	86.81
371.35	74.81
371.576	73.81
371.802	78.81
372.028	84.81
372.254	83.81
372.48	93.81
372.706	72.81
372.932	84.81
373.158	88.81
373.384	74.81
373.61	96.81
373.835	85.81
374.061	81.81
374.287	80.81
374.513	91.81
374.739	74.81
374.965	83.81
375.191	83.81
375.416	75.81
375.642	92.81
375.868	87.81
376.094	90.81
376.319	88.81
376.545	76.81
376.771	93.81
376.997	91.81
377.222	95.81
377.448	88.81
377.674	89.81
377.899	96.81
378.125	69.81
378.35	86.81
378.576	88.81
378.802	86.81
379.027	101.81
379.253	92.81
379.478	75.81
379.704	70.81
379.929	77.81
380.155	88.81
380.38	86.81
380.606	83.81
380.831	90.81
381.057	99.81
381.282	100.81
381.507	88.81
381.733	102.81
381.958	74.81
382.184	82.81
382.409	89.81
382.634	102.81
382.86	99.81
383.085	93.81
383.31	68.81
383.535	97.81
383.761	92.81
383.986	94.81
384.211	81.81
384.436	89.81
384.662	70.81
384.887	85.81
385.112	92.81
385.337	90.81
385.562	66.81
385.787	70.81
386.013	93.81
386.238	80.81
386.463	76.81
386.688	102.81
386.913	94.81
387.138	89.81
387.363	85.81
387.588	111.81
387.813	98.81
388.038	73.81
388.263	87.81
388.488	96.81
388.713	97.81
388.938	89.81
389.163	98.81
389.387	92.81
389.612	80.81
389.837	86.81
390.062	96.81
390.287	102.81
390.512	78.81
390.736	81.81
390.961	82.81
391.186	84.81
391.411	78.81
391.636	95.81
391.86	86.81
392.085	81.81
392.31	90.81
392.534	96.81
392.759	93.81
392.984	108.81
393.208	85.81
393.433	104.81
393.658	102.81
393.882	102.81
394.107	140.81
394.331	210.81
394.556	230.81
394.78	141.81
395.005	105.81
395.229	87.81
395.454	95.81
395.678	110.81
395.903	184.81
396.127	268.81
396.352	267.81
396.576	132.81
396.801	91.81
397.025	93.81
397.249	89.81
397.474	91.81
397.698	89.81
397.922	84.81
398.147	77.81
398.371	89.81
398.595	92.81
398.82	93.81
399.044	90.81
399.268	88.81
399.492	96.81
399.717	88.81
399.941	94.81
400.165	88.81
400.389	81.81
400.613	89.81
400.837	95.81
401.062	88.81
401.286	84.81
401.51	89.81
401.734	89.81
401.958	92.81
402.182	96.81
402.406	81.81
402.63	99.81
402.854	78.81
403.078	73.81
403.302	97.81
403.526	79.81
403.75	92.81
403.974	88.81
404.198	103.81
404.422	97.81
404.645	101.81
404.869	97.81
405.093	94.81
405.317	97.81
405.541	103.81
405.765	96.81
405.988	92.81
406.212	89.81
406.436	92.81
406.66	95.81
406.883	94.81
407.107	83.81
407.331	93.81
407.555	103.81
407.778	96.81
408.002	93.81
408.226	92.81
408.449	86.81
408.673	88.81
408.896	92.81
409.12	88.81
409.344	109.81
409.567	97.81
409.791	103.81
410.014	81.81
410.238	81.81
410.461	93.81
410.685	77.81
410.908	82.81
411.132	88.81
411.355	87.81
411.578	95.81
411.802	105.81
412.025	110.81
412.249	90.81
412.472	100.81
412.695	89.81
412.919	90.81
413.142	93.81
413.365	90.81
413.589	86.81
413.812	87.81
414.035	99.81
414.258	100.81
414.482	101.81
414.705	75.81
414.928	84.81
415.151	87.81
415.374	96.81
415.597	96.81
415.821	103.81
416.044	89.81
416.267	97.81
416.49	98.81
416.713	82.81
416.936	84.81
417.159	96.81
417.382	87.81
417.605	104.81
417.828	101.81
418.051	103.81
418.274	83.81
418.497	86.81
418.72	91.81
418.943	85.81
419.166	96.81
419.389	86.81
419.611	104.81
419.834	102.81
420.057	86.81
420.28	96.81
420.503	95.81
420.726	107.81
420.948	100.81
421.171	93.81
421.394	87.81
421.617	92.81
421.839	100.81
422.062	93.81
422.285	91.81
422.507	83.81
422.73	88.81
422.953	71.81
423.175	89.81
423.398	83.81
423.621	105.81
423.843	97.81
424.066	100.81
424.288	96.81
424.511	96.81
424.733	82.81
424.956	89.81
425.178	79.81
425.401	93.81
425.623	99.81
425.846	82.81
426.068	100.81
426.291	78.81
426.513	96.81
426.735	88.81
426.958	94.81
427.18	97.81
427.402	104.81
427.625	83.81
427.847	91.81
428.069	74.81
428.292	94.81
428.514	84.81
428.736	94.81
428.958	101.81
429.181	101.81
429.403	97.81
429.625	103.81
429.847	99.81
430.069	85.81
430.292	91.81
430.514	101.81
430.736	99.81
430.958	99.81
431.18	98.81
431.402	109.81
431.624	94.81
431.846	86.81
432.068	85.81
432.29	87.81
432.512	83.81
432.734	96.81
432.956	100.81
433.178	94.81
433.4	82.81
433.622	102.81
433.844	79.81
434.066	80.81
434.287	78.81
434.509	91.81
434.731	88.81
434.953	110.81
435.175	102.81
435.397	85.81
435.618	88.81
435.84	86.81
436.062	84.81
436.284	103.81
436.505	98.81
436.727	100.81
436.949	96.81
437.17	91.81
437.392	91.81
437.614	85.81
437.835	90.81
438.057	92.81
438.278	107.81
438.5	91.81
438.721	98.81
438.943	94.81
439.165	104.81
439.386	89.81
439.608	103.81
439.829	96.81
440.05	101.81
440.272	90.81
440.493	96.81
440.715	107.81
440.936	107.81
441.158	107.81
441.379	104.81
441.6	111.81
441.822	88.81
442.043	109.81
442.264	100.81
442.486	102.81
442.707	101.81
442.928	103.81
443.149	89.81
443.371	100.81
443.592	101.81
443.813	104.81
444.034	107.81
444.255	87.81
444.476	77.81
444.698	104.81
444.919	95.81
445.14	169.81
445.361	136.81
445.582	104.81
445.803	86.81
446.024	95.81
446.245	89.81
446.466	88.81
446.687	88.81
446.908	104.81
447.129	105.81
447.35	101.81
447.571	108.81
447.792	107.81
448.013	104.81
448.234	94.81
448.455	104.81
448.675	103.81
448.896	93.81
449.117	92.81
449.338	101.81
449.559	97.81
449.779	95.81
450	113.81
450.221	95.81
450.442	101.81
450.662	96.81
450.883	101.81
451.104	82.81
451.324	78.81
451.545	93.81
451.766	106.81
451.986	100.81
452.207	103.81
452.428	106.81
452.648	109.81
452.869	102.81
453.089	87.81
453.31	76.81
453.53	93.81
453.751	86.81
453.971	98.81
454.192	88.81
454.412	88.81
454.633	88.81
454.853	77.81
455.073	81.81
455.294	82.81
455.514	93.81
455.734	88.81
455.955	88.81
456.175	93.81
456.395	101.81
456.616	88.81
456.836	78.81
457.056	97.81
457.276	83.81
457.497	85.81
457.717	90.81
457.937	94.81
458.157	88.81
458.377	88.81
458.598	69.81
458.818	88.81
459.038	71.81
459.258	67.81
459.478	66.81
459.698	75.81
459.918	87.81
460.138	97.81
460.358	77.81
460.578	94.81
460.798	95.81
461.018	97.81
461.238	93.81
461.458	79.81
461.678	86.81
461.898	84.81
462.118	93.81
462.338	100.81
462.558	97.81
462.777	89.81
462.997	83.81
463.217	92.81
463.437	78.81
463.657	100.81
463.876	103.81
464.096	110.81
464.316	89.81
464.536	88.81
464.755	93.81
464.975	106.81
465.195	82.81
465.414	81.81
465.634	88.81
465.854	92.81
466.073	98.81
466.293	103.81
466.512	106.81
466.732	96.81
466.951	100.81
467.171	103.81
467.391	107.81
467.61	107.81
467.829	104.81
468.049	108.81
468.268	94.81
468.488	113.81
468.707	103.81
468.927	102.81
469.146	93.81
469.365	95.81
469.585	85.81
469.804	107.81
470.023	102.81
470.243	110.81
470.462	106.81
470.681	100.81
470.901	93.81
471.12	95.81
471.339	96.81
471.558	106.81
471.777	93.81
471.997	109.81
472.216	90.81
472.435	102.81
472.654	88.81
472.873	92.81
473.092	95.81
473.311	97.81
473.53	98.81
473.749	98.81
473.968	104.81
474.187	91.81
474.406	101.81
474.625	98.81
474.844	98.81
475.063	101.81
475.282	85.81
475.501	94.81
475.72	111.81
475.939	99.81
476.158	96.81
476.377	96.81
476.596	94.81
476.814	83.81
477.033	88.81
477.252	70.81
477.471	99.81
477.69	111.81
477.908	97.81
478.127	103.81
478.346	94.81
478.564	96.81
478.783	93.81
479.002	98.81
479.22	109.81
479.439	107.81
479.658	98.81
479.876	88.81
480.095	85.81
480.313	93.81
480.532	93.81
480.751	89.81
480.969	69.81
481.188	96.81
481.406	94.81
481.624	74.81
481.843	69.81
482.061	89.81
482.28	94.81
482.498	81.81
482.717	93.81
482.935	93.81
483.153	102.81
483.372	88.81
483.59	102.81
483.808	92.81
484.027	103.81
484.245	96.81
484.463	100.81
484.681	120.81
484.9	98.81
485.118	100.81
485.336	102.81
485.554	94.81
485.772	95.81
485.99	105.81
486.209	89.81
486.427	97.81
486.645	101.81
486.863	98.81
487.081	83.81
487.299	82.81
487.517	89.81
487.735	91.81
487.953	100.81
488.171	100.81
488.389	99.81
488.607	110.81
488.825	98.81
489.043	102.81
489.261	97.81
489.479	105.81
489.696	102.81
489.914	114.81
490.132	111.81
490.35	109.81
490.568	102.81
490.786	107.81
491.003	126.81
491.221	124.81
491.439	108.81
491.657	112.81
491.874	135.81
492.092	115.81
492.31	119.81
492.527	124.81
492.745	122.81
492.963	117.81
493.18	121.81
493.398	120.81
493.615	113.81
493.833	111.81
494.05	109.81
494.268	95.81
494.485	101.81
494.703	110.81
494.92	117.81
495.138	122.81
495.355	107.81
495.573	118.81
495.79	109.81
496.008	120.81
496.225	119.81
496.442	108.81
496.66	109.81
496.877	100.81
497.094	109.81
497.312	109.81
497.529	96.81
497.746	108.81
497.963	103.81
498.181	108.81
498.398	94.81
498.615	89.81
498.832	100.81
499.049	86.81
499.267	95.81
499.484	99.81
499.701	90.81
499.918	98.81
500.135	90.81
500.352	92.81
500.569	90.81
500.786	98.81
501.003	99.81
501.22	74.81
501.437	98.81
501.654	88.81
501.871	98.81
502.088	101.81
502.305	88.81
502.522	97.81
502.739	105.81
502.956	102.81
503.172	89.81
503.389	90.81
503.606	93.81
503.823	100.81
504.04	100.81
504.256	91.81
504.473	88.81
504.69	103.81
504.907	96.81
505.123	94.81
505.34	87.81
505.557	85.81
505.773	106.81
505.99	97.81
506.207	93.81
506.423	87.81
506.64	95.81
506.856	91.81
507.073	80.81
507.289	94.81
507.506	78.81
507.722	87.81
507.939	86.81
508.155	92.81
508.372	96.81
508.588	95.81
508.805	78.81
509.021	92.81
509.238	101.81
509.454	93.81
509.67	81.81
509.887	88.81
510.103	99.81
510.319	81.81
510.536	92.81
510.752	79.81
510.968	95.81
511.184	79.81
511.401	73.81
511.617	85.81
511.833	97.81
512.049	105.81
512.265	80.81
512.481	88.81
512.698	93.81
512.914	91.81
513.13	81.81
513.346	92.81
513.562	75.81
513.778	93.81
513.994	88.81
514.21	77.81
514.426	83.81
514.642	92.81
514.858	87.81
515.074	82.81
515.29	77.81
515.506	92.81
515.721	87.81
515.937	100.81
516.153	81.81
516.369	92.81
516.585	101.81
516.801	89.81
517.016	86.81
517.232	78.81
