Data from Foil_3_HRD10591_00005.txt Node
Date: Wed Nov 05 16:18:45 EST 2025
User: Yrep
Spectrometer: HR+D1059
Trigger mode: 1
Integration Time (sec): 1.000000E-1
Scans to average: 1
Electric dark correction enabled: true
Nonlinearity correction enabled: false
Boxcar width: 0
XAxis mode: Wavelengths
Number of Pixels in Spectrum: 2048
>>>>>Begin Spectral Data<<<<<
223.165	-20.19
223.4	-20.19
223.635	-20.19
223.869	-11.19
224.104	-24.19
224.338	-6.19
224.573	-16.19
224.808	-16.19
225.042	-14.19
225.277	-5.19
225.511	-15.19
225.746	-7.19
225.98	9.81
226.215	6.81
226.449	33.81
226.683	32.81
226.918	22.81
227.152	29.81
227.387	36.81
227.621	48.81
227.856	42.81
228.09	51.81
228.324	44.81
228.559	61.81
228.793	53.81
229.027	53.81
229.262	80.81
229.496	62.81
229.73	57.81
229.964	67.81
230.199	57.81
230.433	78.81
230.667	81.81
230.901	78.81
231.136	81.81
231.37	76.81
231.604	72.81
231.838	90.81
232.072	90.81
232.306	70.81
232.541	80.81
232.775	74.81
233.009	74.81
233.243	73.81
233.477	77.81
233.711	80.81
233.945	72.81
234.179	70.81
234.413	78.81
234.647	76.81
234.881	71.81
235.115	87.81
235.349	75.81
235.583	76.81
235.817	76.81
236.051	85.81
236.285	67.81
236.519	100.81
236.753	81.81
236.987	76.81
237.221	79.81
237.455	66.81
237.689	81.81
237.922	78.81
238.156	74.81
238.39	76.81
238.624	79.81
238.858	63.81
239.091	70.81
239.325	78.81
239.559	74.81
239.793	69.81
240.027	91.81
240.26	76.81
240.494	83.81
240.728	73.81
240.961	77.81
241.195	83.81
241.429	74.81
241.662	72.81
241.896	75.81
242.13	70.81
242.363	78.81
242.597	71.81
242.83	78.81
243.064	81.81
243.298	69.81
243.531	61.81
243.765	72.81
243.998	90.81
244.232	82.81
244.465	93.81
244.699	70.81
244.932	86.81
245.166	68.81
245.399	76.81
245.633	73.81
245.866	79.81
246.099	87.81
246.333	88.81
246.566	83.81
246.8	83.81
247.033	85.81
247.266	64.81
247.5	77.81
247.733	90.81
247.966	73.81
248.2	81.81
248.433	93.81
248.666	79.81
248.899	79.81
249.133	89.81
249.366	86.81
249.599	73.81
249.832	78.81
250.066	78.81
250.299	79.81
250.532	94.81
250.765	91.81
250.998	86.81
251.231	82.81
251.465	82.81
251.698	74.81
251.931	68.81
252.164	80.81
252.397	83.81
252.63	83.81
252.863	72.81
253.096	81.81
253.329	75.81
253.562	75.81
253.795	86.81
254.028	90.81
254.261	81.81
254.494	75.81
254.727	79.81
254.96	72.81
255.193	64.81
255.426	77.81
255.659	78.81
255.892	79.81
256.124	72.81
256.357	55.81
256.59	72.81
256.823	74.81
257.056	96.81
257.289	90.81
257.521	84.81
257.754	77.81
257.987	80.81
258.22	73.81
258.452	75.81
258.685	76.81
258.918	80.81
259.151	82.81
259.383	82.81
259.616	86.81
259.849	83.81
260.081	79.81
260.314	75.81
260.547	78.81
260.779	81.81
261.012	78.81
261.244	81.81
261.477	80.81
261.71	65.81
261.942	62.81
262.175	76.81
262.407	76.81
262.64	75.81
262.872	90.81
263.105	75.81
263.337	80.81
263.57	78.81
263.802	83.81
264.035	83.81
264.267	90.81
264.499	83.81
264.732	79.81
264.964	74.81
265.197	97.81
265.429	76.81
265.661	81.81
265.894	86.81
266.126	76.81
266.358	90.81
266.591	80.81
266.823	84.81
267.055	74.81
267.287	82.81
267.52	77.81
267.752	88.81
267.984	92.81
268.216	70.81
268.448	78.81
268.681	84.81
268.913	103.81
269.145	95.81
269.377	84.81
269.609	87.81
269.841	96.81
270.073	57.81
270.306	90.81
270.538	72.81
270.77	74.81
271.002	86.81
271.234	72.81
271.466	78.81
271.698	66.81
271.93	83.81
272.162	64.81
272.394	85.81
272.626	69.81
272.858	79.81
273.09	83.81
273.322	89.81
273.553	84.81
273.785	91.81
274.017	80.81
274.249	75.81
274.481	82.81
274.713	92.81
274.945	79.81
275.176	70.81
275.408	82.81
275.64	72.81
275.872	91.81
276.104	80.81
276.335	77.81
276.567	80.81
276.799	86.81
277.031	63.81
277.262	84.81
277.494	72.81
277.726	77.81
277.957	85.81
278.189	69.81
278.421	67.81
278.652	76.81
278.884	81.81
279.115	83.81
279.347	80.81
279.579	79.81
279.81	72.81
280.042	105.81
280.273	92.81
280.505	86.81
280.736	89.81
280.968	73.81
281.199	61.81
281.431	80.81
281.662	88.81
281.894	78.81
282.125	82.81
282.356	84.81
282.588	80.81
282.819	91.81
283.051	82.81
283.282	85.81
283.513	84.81
283.745	77.81
283.976	88.81
284.207	86.81
284.439	90.81
284.67	79.81
284.901	80.81
285.132	78.81
285.364	77.81
285.595	72.81
285.826	83.81
286.057	95.81
286.288	76.81
286.52	88.81
286.751	73.81
286.982	92.81
287.213	100.81
287.444	81.81
287.675	82.81
287.906	78.81
288.138	86.81
288.369	94.81
288.6	87.81
288.831	80.81
289.062	78.81
289.293	82.81
289.524	79.81
289.755	95.81
289.986	94.81
290.217	80.81
290.448	89.81
290.679	77.81
290.91	77.81
291.141	83.81
291.371	83.81
291.602	79.81
291.833	84.81
292.064	80.81
292.295	82.81
292.526	88.81
292.757	88.81
292.987	89.81
293.218	78.81
293.449	73.81
293.68	85.81
293.91	76.81
294.141	66.81
294.372	86.81
294.603	79.81
294.833	76.81
295.064	82.81
295.295	82.81
295.525	82.81
295.756	75.81
295.987	85.81
296.217	88.81
296.448	74.81
296.679	80.81
296.909	82.81
297.14	80.81
297.37	90.81
297.601	73.81
297.831	80.81
298.062	88.81
298.292	91.81
298.523	84.81
298.753	76.81
298.984	77.81
299.214	86.81
299.445	82.81
299.675	81.81
299.905	94.81
300.136	75.81
300.366	85.81
300.597	82.81
300.827	78.81
301.057	89.81
301.288	96.81
301.518	72.81
301.748	66.81
301.979	93.81
302.209	93.81
302.439	78.81
302.669	80.81
302.9	81.81
303.13	79.81
303.36	80.81
303.59	77.81
303.82	92.81
304.051	77.81
304.281	87.81
304.511	80.81
304.741	95.81
304.971	85.81
305.201	94.81
305.431	77.81
305.661	90.81
305.891	78.81
306.121	98.81
306.352	86.81
306.582	90.81
306.812	80.81
307.042	80.81
307.272	73.81
307.502	82.81
307.731	88.81
307.961	94.81
308.191	117.81
308.421	133.81
308.651	92.81
308.881	100.81
309.111	119.81
309.341	133.81
309.571	120.81
309.8	92.81
310.03	95.81
310.26	79.81
310.49	92.81
310.72	80.81
310.949	78.81
311.179	83.81
311.409	80.81
311.639	88.81
311.868	88.81
312.098	87.81
312.328	84.81
312.557	77.81
312.787	84.81
313.017	83.81
313.246	88.81
313.476	69.81
313.706	78.81
313.935	90.81
314.165	67.81
314.394	78.81
314.624	72.81
314.853	98.81
315.083	75.81
315.312	63.81
315.542	90.81
315.771	92.81
316.001	77.81
316.23	82.81
316.46	77.81
316.689	85.81
316.919	84.81
317.148	78.81
317.377	69.81
317.607	85.81
317.836	78.81
318.065	83.81
318.295	88.81
318.524	90.81
318.753	83.81
318.983	79.81
319.212	95.81
319.441	82.81
319.67	74.81
319.9	92.81
320.129	97.81
320.358	87.81
320.587	70.81
320.816	82.81
321.046	78.81
321.275	85.81
321.504	76.81
321.733	85.81
321.962	83.81
322.191	72.81
322.42	104.81
322.649	89.81
322.878	91.81
323.108	75.81
323.337	72.81
323.566	79.81
323.795	88.81
324.024	73.81
324.253	83.81
324.482	74.81
324.71	84.81
324.939	96.81
325.168	72.81
325.397	90.81
325.626	70.81
325.855	87.81
326.084	82.81
326.313	80.81
326.542	95.81
326.77	95.81
326.999	93.81
327.228	74.81
327.457	75.81
327.686	77.81
327.914	82.81
328.143	88.81
328.372	101.81
328.6	97.81
328.829	92.81
329.058	75.81
329.287	74.81
329.515	86.81
329.744	83.81
329.972	74.81
330.201	80.81
330.43	81.81
330.658	84.81
330.887	92.81
331.115	86.81
331.344	78.81
331.572	82.81
331.801	80.81
332.03	75.81
332.258	84.81
332.486	95.81
332.715	95.81
332.943	89.81
333.172	78.81
333.4	100.81
333.629	90.81
333.857	84.81
334.085	88.81
334.314	90.81
334.542	79.81
334.771	83.81
334.999	82.81
335.227	75.81
335.455	77.81
335.684	87.81
335.912	76.81
336.14	72.81
336.369	97.81
336.597	70.81
336.825	79.81
337.053	90.81
337.281	81.81
337.51	72.81
337.738	79.81
337.966	86.81
338.194	83.81
338.422	89.81
338.65	85.81
338.878	84.81
339.106	78.81
339.334	104.81
339.562	94.81
339.79	90.81
340.018	73.81
340.246	92.81
340.474	86.81
340.702	89.81
340.93	81.81
341.158	85.81
341.386	90.81
341.614	84.81
341.842	94.81
342.07	69.81
342.298	74.81
342.526	88.81
342.754	85.81
342.981	83.81
343.209	71.81
343.437	97.81
343.665	88.81
343.893	80.81
344.12	81.81
344.348	92.81
344.576	70.81
344.804	82.81
345.031	85.81
345.259	93.81
345.487	85.81
345.714	76.81
345.942	88.81
346.17	84.81
346.397	84.81
346.625	93.81
346.853	84.81
347.08	94.81
347.308	74.81
347.535	77.81
347.763	73.81
347.99	82.81
348.218	70.81
348.445	82.81
348.673	80.81
348.9	80.81
349.128	74.81
349.355	71.81
349.583	85.81
349.81	77.81
350.037	84.81
350.265	75.81
350.492	78.81
350.72	87.81
350.947	82.81
351.174	76.81
351.402	80.81
351.629	81.81
351.856	82.81
352.083	65.81
352.311	90.81
352.538	76.81
352.765	87.81
352.992	89.81
353.22	86.81
353.447	83.81
353.674	82.81
353.901	78.81
354.128	74.81
354.355	79.81
354.583	83.81
354.81	78.81
355.037	82.81
355.264	82.81
355.491	98.81
355.718	73.81
355.945	85.81
356.172	85.81
356.399	77.81
356.626	70.81
356.853	73.81
357.08	90.81
357.307	96.81
357.534	78.81
357.761	80.81
357.988	98.81
358.215	76.81
358.441	96.81
358.668	70.81
358.895	92.81
359.122	77.81
359.349	88.81
359.576	86.81
359.802	82.81
360.029	84.81
360.256	80.81
360.483	63.81
360.709	84.81
360.936	79.81
361.163	81.81
361.39	81.81
361.616	87.81
361.843	81.81
362.07	82.81
362.296	94.81
362.523	70.81
362.749	88.81
362.976	81.81
363.203	87.81
363.429	83.81
363.656	79.81
363.882	92.81
364.109	90.81
364.335	91.81
364.562	89.81
364.788	90.81
365.015	85.81
365.241	88.81
365.468	87.81
365.694	91.81
365.92	77.81
366.147	90.81
366.373	69.81
366.599	72.81
366.826	72.81
367.052	78.81
367.278	78.81
367.505	81.81
367.731	98.81
367.957	88.81
368.184	82.81
368.41	78.81
368.636	79.81
368.862	92.81
369.089	80.81
369.315	90.81
369.541	92.81
369.767	79.81
369.993	86.81
370.219	86.81
370.445	77.81
370.672	77.81
370.898	77.81
371.124	73.81
371.35	71.81
371.576	94.81
371.802	81.81
372.028	97.81
372.254	75.81
372.48	87.81
372.706	92.81
372.932	90.81
373.158	89.81
373.384	89.81
373.61	87.81
373.835	82.81
374.061	89.81
374.287	85.81
374.513	80.81
374.739	86.81
374.965	82.81
375.191	88.81
375.416	76.81
375.642	81.81
375.868	79.81
376.094	72.81
376.319	89.81
376.545	96.81
376.771	80.81
376.997	74.81
377.222	85.81
377.448	91.81
377.674	92.81
377.899	79.81
378.125	89.81
378.35	78.81
378.576	91.81
378.802	99.81
379.027	83.81
379.253	83.81
379.478	92.81
379.704	72.81
379.929	74.81
380.155	78.81
380.38	92.81
380.606	64.81
380.831	77.81
381.057	99.81
381.282	82.81
381.507	71.81
381.733	80.81
381.958	92.81
382.184	82.81
382.409	77.81
382.634	92.81
382.86	78.81
383.085	92.81
383.31	83.81
383.535	80.81
383.761	72.81
383.986	79.81
384.211	78.81
384.436	84.81
384.662	73.81
384.887	77.81
385.112	72.81
385.337	95.81
385.562	95.81
385.787	98.81
386.013	92.81
386.238	87.81
386.463	95.81
386.688	94.81
386.913	86.81
387.138	89.81
387.363	102.81
387.588	82.81
387.813	80.81
388.038	100.81
388.263	96.81
388.488	87.81
388.713	81.81
388.938	84.81
389.163	85.81
389.387	83.81
389.612	82.81
389.837	87.81
390.062	82.81
390.287	88.81
390.512	89.81
390.736	87.81
390.961	93.81
391.186	79.81
391.411	83.81
391.636	93.81
391.86	76.81
392.085	85.81
392.31	83.81
392.534	100.81
392.759	85.81
392.984	96.81
393.208	83.81
393.433	90.81
393.658	108.81
393.882	104.81
394.107	127.81
394.331	186.81
394.556	207.81
394.78	131.81
395.005	89.81
395.229	98.81
395.454	97.81
395.678	128.81
395.903	156.81
396.127	252.81
396.352	239.81
396.576	136.81
396.801	92.81
397.025	92.81
397.249	104.81
397.474	93.81
397.698	89.81
397.922	79.81
398.147	84.81
398.371	102.81
398.595	89.81
398.82	73.81
399.044	80.81
399.268	101.81
399.492	94.81
399.717	87.81
399.941	88.81
400.165	96.81
400.389	90.81
400.613	92.81
400.837	87.81
401.062	92.81
401.286	100.81
401.51	81.81
401.734	82.81
401.958	87.81
402.182	110.81
402.406	81.81
402.63	77.81
402.854	89.81
403.078	99.81
403.302	83.81
403.526	98.81
403.75	91.81
403.974	84.81
404.198	87.81
404.422	84.81
404.645	87.81
404.869	101.81
405.093	98.81
405.317	90.81
405.541	97.81
405.765	92.81
405.988	66.81
406.212	89.81
406.436	99.81
406.66	74.81
406.883	94.81
407.107	96.81
407.331	94.81
407.555	90.81
407.778	98.81
408.002	89.81
408.226	97.81
408.449	81.81
408.673	95.81
408.896	93.81
409.12	108.81
409.344	81.81
409.567	86.81
409.791	94.81
410.014	77.81
410.238	82.81
410.461	96.81
410.685	93.81
410.908	88.81
411.132	99.81
411.355	94.81
411.578	114.81
411.802	94.81
412.025	91.81
412.249	90.81
412.472	94.81
412.695	88.81
412.919	95.81
413.142	87.81
413.365	94.81
413.589	92.81
413.812	88.81
414.035	112.81
414.258	103.81
414.482	88.81
414.705	94.81
414.928	88.81
415.151	91.81
415.374	82.81
415.597	102.81
415.821	104.81
416.044	104.81
416.267	97.81
416.49	86.81
416.713	86.81
416.936	88.81
417.159	93.81
417.382	104.81
417.605	84.81
417.828	93.81
418.051	102.81
418.274	97.81
418.497	95.81
418.72	81.81
418.943	88.81
419.166	86.81
419.389	86.81
419.611	98.81
419.834	91.81
420.057	98.81
420.28	101.81
420.503	104.81
420.726	96.81
420.948	95.81
421.171	79.81
421.394	88.81
421.617	88.81
421.839	80.81
422.062	96.81
422.285	94.81
422.507	89.81
422.73	88.81
422.953	95.81
423.175	84.81
423.398	96.81
423.621	87.81
423.843	88.81
424.066	93.81
424.288	95.81
424.511	82.81
424.733	86.81
424.956	89.81
425.178	94.81
425.401	96.81
425.623	93.81
425.846	90.81
426.068	94.81
426.291	91.81
426.513	91.81
426.735	86.81
426.958	98.81
427.18	83.81
427.402	105.81
427.625	87.81
427.847	96.81
428.069	95.81
428.292	94.81
428.514	93.81
428.736	101.81
428.958	97.81
429.181	98.81
429.403	95.81
429.625	91.81
429.847	91.81
430.069	106.81
430.292	90.81
430.514	100.81
430.736	79.81
430.958	97.81
431.18	102.81
431.402	86.81
431.624	87.81
431.846	84.81
432.068	89.81
432.29	100.81
432.512	77.81
432.734	90.81
432.956	95.81
433.178	97.81
433.4	90.81
433.622	94.81
433.844	85.81
434.066	82.81
434.287	79.81
434.509	102.81
434.731	70.81
434.953	84.81
435.175	90.81
435.397	111.81
435.618	86.81
435.84	87.81
436.062	96.81
436.284	87.81
436.505	92.81
436.727	92.81
436.949	92.81
437.17	95.81
437.392	90.81
437.614	80.81
437.835	81.81
438.057	77.81
438.278	93.81
438.5	95.81
438.721	110.81
438.943	90.81
439.165	93.81
439.386	90.81
439.608	91.81
439.829	93.81
440.05	109.81
440.272	81.81
440.493	99.81
440.715	106.81
440.936	112.81
441.158	94.81
441.379	87.81
441.6	101.81
441.822	94.81
442.043	88.81
442.264	103.81
442.486	81.81
442.707	113.81
442.928	109.81
443.149	94.81
443.371	109.81
443.592	96.81
443.813	102.81
444.034	105.81
444.255	95.81
444.476	92.81
444.698	93.81
444.919	97.81
445.14	166.81
445.361	124.81
445.582	97.81
445.803	94.81
446.024	93.81
446.245	98.81
446.466	98.81
446.687	88.81
446.908	90.81
447.129	100.81
447.35	94.81
447.571	101.81
447.792	96.81
448.013	95.81
448.234	94.81
448.455	86.81
448.675	97.81
448.896	91.81
449.117	76.81
449.338	101.81
449.559	97.81
449.779	86.81
450	100.81
450.221	98.81
450.442	117.81
450.662	84.81
450.883	91.81
451.104	86.81
451.324	98.81
451.545	92.81
451.766	98.81
451.986	99.81
452.207	92.81
452.428	86.81
452.648	82.81
452.869	75.81
453.089	103.81
453.31	83.81
453.53	76.81
453.751	82.81
453.971	87.81
454.192	76.81
454.412	86.81
454.633	81.81
454.853	75.81
455.073	78.81
455.294	78.81
455.514	99.81
455.734	88.81
455.955	85.81
456.175	88.81
456.395	85.81
456.616	85.81
456.836	81.81
457.056	89.81
457.276	88.81
457.497	89.81
457.717	89.81
457.937	100.81
458.157	108.81
458.377	88.81
458.598	76.81
458.818	86.81
459.038	69.81
459.258	93.81
459.478	70.81
459.698	74.81
459.918	75.81
460.138	72.81
460.358	94.81
460.578	83.81
460.798	91.81
461.018	99.81
461.238	81.81
461.458	80.81
461.678	101.81
461.898	89.81
462.118	86.81
462.338	93.81
462.558	98.81
462.777	72.81
462.997	93.81
463.217	89.81
463.437	87.81
463.657	97.81
463.876	87.81
464.096	90.81
464.316	94.81
464.536	96.81
464.755	78.81
464.975	84.81
465.195	80.81
465.414	97.81
465.634	90.81
465.854	101.81
466.073	86.81
466.293	88.81
466.512	90.81
466.732	75.81
466.951	112.81
467.171	116.81
467.391	116.81
467.61	109.81
467.829	105.81
468.049	102.81
468.268	111.81
468.488	109.81
468.707	101.81
468.927	100.81
469.146	87.81
469.365	92.81
469.585	107.81
469.804	107.81
470.023	100.81
470.243	116.81
470.462	100.81
470.681	93.81
470.901	100.81
471.12	100.81
471.339	97.81
471.558	104.81
471.777	85.81
471.997	111.81
472.216	100.81
472.435	99.81
472.654	88.81
472.873	74.81
473.092	98.81
473.311	100.81
473.53	96.81
473.749	98.81
473.968	98.81
474.187	101.81
474.406	96.81
474.625	94.81
474.844	102.81
475.063	101.81
475.282	97.81
475.501	85.81
475.72	85.81
475.939	90.81
476.158	102.81
476.377	103.81
476.596	94.81
476.814	107.81
477.033	93.81
477.252	84.81
477.471	111.81
477.69	87.81
477.908	106.81
478.127	109.81
478.346	98.81
478.564	89.81
478.783	96.81
479.002	88.81
479.22	86.81
479.439	89.81
479.658	85.81
479.876	88.81
480.095	91.81
480.313	97.81
480.532	96.81
480.751	95.81
480.969	88.81
481.188	79.81
481.406	86.81
481.624	86.81
481.843	79.81
482.061	95.81
482.28	101.81
482.498	87.81
482.717	75.81
482.935	96.81
483.153	98.81
483.372	106.81
483.59	90.81
483.808	81.81
484.027	88.81
484.245	97.81
484.463	101.81
484.681	116.81
484.9	94.81
485.118	100.81
485.336	101.81
485.554	83.81
485.772	89.81
485.99	93.81
486.209	97.81
486.427	100.81
486.645	107.81
486.863	107.81
487.081	101.81
487.299	104.81
487.517	99.81
487.735	114.81
487.953	102.81
488.171	116.81
488.389	93.81
488.607	104.81
488.825	91.81
489.043	94.81
489.261	86.81
489.479	98.81
489.696	94.81
489.914	101.81
490.132	106.81
490.35	101.81
490.568	109.81
490.786	112.81
491.003	104.81
491.221	119.81
491.439	102.81
491.657	112.81
491.874	134.81
492.092	128.81
492.31	126.81
492.527	138.81
492.745	111.81
492.963	119.81
493.18	126.81
493.398	120.81
493.615	113.81
493.833	118.81
494.05	109.81
494.268	116.81
494.485	112.81
494.703	108.81
494.92	112.81
495.138	98.81
495.355	107.81
495.573	109.81
495.79	111.81
496.008	128.81
496.225	114.81
496.442	113.81
496.66	91.81
496.877	105.81
497.094	102.81
497.312	117.81
497.529	107.81
497.746	86.81
497.963	96.81
498.181	102.81
498.398	81.81
498.615	74.81
498.832	83.81
499.049	86.81
499.267	88.81
499.484	95.81
499.701	97.81
499.918	98.81
500.135	91.81
500.352	100.81
500.569	91.81
500.786	107.81
501.003	101.81
501.22	94.81
501.437	94.81
501.654	101.81
501.871	104.81
502.088	91.81
502.305	95.81
502.522	91.81
502.739	96.81
502.956	80.81
503.172	94.81
503.389	92.81
503.606	86.81
503.823	99.81
504.04	89.81
504.256	89.81
504.473	90.81
504.69	86.81
504.907	88.81
505.123	88.81
505.34	93.81
505.557	89.81
505.773	86.81
505.99	92.81
506.207	90.81
506.423	98.81
506.64	86.81
506.856	85.81
507.073	99.81
507.289	109.81
507.506	75.81
507.722	86.81
507.939	93.81
508.155	87.81
508.372	93.81
508.588	77.81
508.805	78.81
509.021	93.81
509.238	90.81
509.454	84.81
509.67	94.81
509.887	74.81
510.103	91.81
510.319	88.81
510.536	101.81
510.752	88.81
510.968	83.81
511.184	89.81
511.401	81.81
511.617	109.81
511.833	102.81
512.049	83.81
512.265	97.81
512.481	94.81
512.698	82.81
512.914	74.81
513.13	86.81
513.346	81.81
513.562	92.81
513.778	86.81
513.994	91.81
514.21	85.81
514.426	85.81
514.642	100.81
514.858	77.81
515.074	79.81
515.29	98.81
515.506	95.81
515.721	93.81
515.937	79.81
516.153	81.81
516.369	96.81
516.585	81.81
516.801	78.81
517.016	85.81
517.232	92.81
517.448	82.81
517.664	83.81
517.879	79.81
