Data from Foil_3_HRD10591_00008.txt Node
Date: Wed Nov 05 16:18:47 EST 2025
User: Yrep
Spectrometer: HR+D1059
Trigger mode: 1
Integration Time (sec): 1.000000E-1
Scans to average: 1
Electric dark correction enabled: true
Nonlinearity correction enabled: false
Boxcar width: 0
XAxis mode: Wavelengths
Number of Pixels in Spectrum: 2048
>>>>>Begin Spectral Data<<<<<
223.165	-15.75
223.4	-15.75
223.635	-15.75
223.869	-7.75
224.104	-20.75
224.338	-18.75
224.573	-4.75
224.808	-14.75
225.042	-3.75
225.277	1.25
225.511	2.25
225.746	2.25
225.98	1.25
226.215	5.25
226.449	17.25
226.683	20.25
226.918	14.25
227.152	22.25
227.387	31.25
227.621	37.25
227.856	48.25
228.09	32.25
228.324	54.25
228.559	48.25
228.793	73.25
229.027	73.25
229.262	74.25
229.496	69.25
229.73	72.25
229.964	68.25
230.199	70.25
230.433	62.25
230.667	74.25
230.901	94.25
231.136	71.25
231.37	66.25
231.604	77.25
231.838	63.25
232.072	87.25
232.306	87.25
232.541	69.25
232.775	79.25
233.009	78.25
233.243	76.25
233.477	75.25
233.711	90.25
233.945	80.25
234.179	78.25
234.413	87.25
234.647	75.25
234.881	65.25
235.115	75.25
235.349	67.25
235.583	85.25
235.817	81.25
236.051	73.25
236.285	84.25
236.519	66.25
236.753	78.25
236.987	76.25
237.221	81.25
237.455	62.25
237.689	82.25
237.922	66.25
238.156	75.25
238.39	71.25
238.624	76.25
238.858	67.25
239.091	64.25
239.325	72.25
239.559	74.25
239.793	78.25
240.027	73.25
240.26	68.25
240.494	82.25
240.728	78.25
240.961	78.25
241.195	89.25
241.429	87.25
241.662	75.25
241.896	80.25
242.13	79.25
242.363	71.25
242.597	77.25
242.83	68.25
243.064	77.25
243.298	73.25
243.531	75.25
243.765	86.25
243.998	80.25
244.232	89.25
244.465	87.25
244.699	73.25
244.932	74.25
245.166	94.25
245.399	74.25
245.633	74.25
245.866	74.25
246.099	83.25
246.333	85.25
246.566	79.25
246.8	77.25
247.033	74.25
247.266	91.25
247.5	75.25
247.733	72.25
247.966	78.25
248.2	79.25
248.433	74.25
248.666	78.25
248.899	85.25
249.133	72.25
249.366	78.25
249.599	79.25
249.832	84.25
250.066	72.25
250.299	78.25
250.532	62.25
250.765	74.25
250.998	75.25
251.231	77.25
251.465	69.25
251.698	70.25
251.931	81.25
252.164	66.25
252.397	81.25
252.63	83.25
252.863	73.25
253.096	74.25
253.329	73.25
253.562	59.25
253.795	91.25
254.028	82.25
254.261	66.25
254.494	79.25
254.727	87.25
254.96	87.25
255.193	82.25
255.426	98.25
255.659	82.25
255.892	80.25
256.124	77.25
256.357	83.25
256.59	83.25
256.823	84.25
257.056	69.25
257.289	84.25
257.521	87.25
257.754	99.25
257.987	92.25
258.22	85.25
258.452	74.25
258.685	77.25
258.918	81.25
259.151	78.25
259.383	81.25
259.616	87.25
259.849	78.25
260.081	73.25
260.314	73.25
260.547	79.25
260.779	82.25
261.012	91.25
261.244	81.25
261.477	83.25
261.71	75.25
261.942	88.25
262.175	77.25
262.407	81.25
262.64	84.25
262.872	74.25
263.105	87.25
263.337	79.25
263.57	79.25
263.802	78.25
264.035	77.25
264.267	84.25
264.499	81.25
264.732	94.25
264.964	72.25
265.197	81.25
265.429	93.25
265.661	82.25
265.894	83.25
266.126	93.25
266.358	73.25
266.591	63.25
266.823	89.25
267.055	83.25
267.287	97.25
267.52	90.25
267.752	92.25
267.984	77.25
268.216	81.25
268.448	74.25
268.681	90.25
268.913	94.25
269.145	75.25
269.377	89.25
269.609	70.25
269.841	87.25
270.073	78.25
270.306	85.25
270.538	93.25
270.77	74.25
271.002	77.25
271.234	82.25
271.466	78.25
271.698	89.25
271.93	74.25
272.162	69.25
272.394	93.25
272.626	78.25
272.858	71.25
273.09	89.25
273.322	87.25
273.553	79.25
273.785	79.25
274.017	82.25
274.249	80.25
274.481	81.25
274.713	69.25
274.945	78.25
275.176	82.25
275.408	89.25
275.64	86.25
275.872	89.25
276.104	98.25
276.335	101.25
276.567	74.25
276.799	85.25
277.031	83.25
277.262	79.25
277.494	88.25
277.726	83.25
277.957	79.25
278.189	78.25
278.421	93.25
278.652	81.25
278.884	87.25
279.115	81.25
279.347	83.25
279.579	80.25
279.81	82.25
280.042	70.25
280.273	75.25
280.505	83.25
280.736	66.25
280.968	94.25
281.199	77.25
281.431	78.25
281.662	80.25
281.894	78.25
282.125	103.25
282.356	89.25
282.588	86.25
282.819	79.25
283.051	78.25
283.282	68.25
283.513	80.25
283.745	76.25
283.976	76.25
284.207	86.25
284.439	93.25
284.67	95.25
284.901	83.25
285.132	83.25
285.364	77.25
285.595	74.25
285.826	87.25
286.057	97.25
286.288	78.25
286.52	82.25
286.751	83.25
286.982	88.25
287.213	84.25
287.444	80.25
287.675	84.25
287.906	88.25
288.138	73.25
288.369	86.25
288.6	79.25
288.831	83.25
289.062	87.25
289.293	79.25
289.524	82.25
289.755	96.25
289.986	94.25
290.217	92.25
290.448	77.25
290.679	93.25
290.91	85.25
291.141	84.25
291.371	91.25
291.602	77.25
291.833	83.25
292.064	84.25
292.295	89.25
292.526	82.25
292.757	86.25
292.987	91.25
293.218	77.25
293.449	79.25
293.68	84.25
293.91	77.25
294.141	90.25
294.372	79.25
294.603	98.25
294.833	86.25
295.064	94.25
295.295	82.25
295.525	73.25
295.756	78.25
295.987	79.25
296.217	68.25
296.448	84.25
296.679	94.25
296.909	85.25
297.14	80.25
297.37	89.25
297.601	80.25
297.831	69.25
298.062	82.25
298.292	75.25
298.523	89.25
298.753	107.25
298.984	73.25
299.214	82.25
299.445	84.25
299.675	71.25
299.905	77.25
300.136	87.25
300.366	73.25
300.597	92.25
300.827	88.25
301.057	87.25
301.288	71.25
301.518	79.25
301.748	90.25
301.979	95.25
302.209	87.25
302.439	82.25
302.669	77.25
302.9	93.25
303.13	81.25
303.36	82.25
303.59	89.25
303.82	78.25
304.051	101.25
304.281	82.25
304.511	93.25
304.741	95.25
304.971	73.25
305.201	61.25
305.431	79.25
305.661	100.25
305.891	81.25
306.121	85.25
306.352	100.25
306.582	70.25
306.812	79.25
307.042	97.25
307.272	97.25
307.502	83.25
307.731	96.25
307.961	96.25
308.191	110.25
308.421	114.25
308.651	110.25
308.881	119.25
309.111	119.25
309.341	143.25
309.571	124.25
309.8	95.25
310.03	81.25
310.26	87.25
310.49	84.25
310.72	92.25
310.949	78.25
311.179	66.25
311.409	70.25
311.639	90.25
311.868	85.25
312.098	85.25
312.328	62.25
312.557	94.25
312.787	102.25
313.017	90.25
313.246	92.25
313.476	79.25
313.706	91.25
313.935	78.25
314.165	90.25
314.394	81.25
314.624	81.25
314.853	73.25
315.083	90.25
315.312	88.25
315.542	96.25
315.771	89.25
316.001	90.25
316.23	98.25
316.46	80.25
316.689	89.25
316.919	99.25
317.148	91.25
317.377	73.25
317.607	89.25
317.836	75.25
318.065	79.25
318.295	90.25
318.524	97.25
318.753	86.25
318.983	85.25
319.212	84.25
319.441	86.25
319.67	102.25
319.9	81.25
320.129	93.25
320.358	90.25
320.587	69.25
320.816	88.25
321.046	76.25
321.275	82.25
321.504	76.25
321.733	85.25
321.962	85.25
322.191	82.25
322.42	87.25
322.649	89.25
322.878	84.25
323.108	86.25
323.337	84.25
323.566	76.25
323.795	83.25
324.024	80.25
324.253	77.25
324.482	85.25
324.71	92.25
324.939	70.25
325.168	89.25
325.397	71.25
325.626	71.25
325.855	91.25
326.084	84.25
326.313	89.25
326.542	91.25
326.77	75.25
326.999	80.25
327.228	79.25
327.457	88.25
327.686	97.25
327.914	78.25
328.143	85.25
328.372	87.25
328.6	74.25
328.829	75.25
329.058	90.25
329.287	88.25
329.515	85.25
329.744	89.25
329.972	75.25
330.201	75.25
330.43	82.25
330.658	71.25
330.887	81.25
331.115	82.25
331.344	97.25
331.572	97.25
331.801	98.25
332.03	84.25
332.258	83.25
332.486	80.25
332.715	81.25
332.943	98.25
333.172	93.25
333.4	66.25
333.629	77.25
333.857	89.25
334.085	82.25
334.314	81.25
334.542	83.25
334.771	87.25
334.999	87.25
335.227	83.25
335.455	91.25
335.684	79.25
335.912	79.25
336.14	80.25
336.369	86.25
336.597	77.25
336.825	81.25
337.053	94.25
337.281	83.25
337.51	88.25
337.738	82.25
337.966	80.25
338.194	85.25
338.422	71.25
338.65	89.25
338.878	90.25
339.106	73.25
339.334	84.25
339.562	93.25
339.79	77.25
340.018	84.25
340.246	77.25
340.474	74.25
340.702	78.25
340.93	78.25
341.158	84.25
341.386	78.25
341.614	81.25
341.842	83.25
342.07	75.25
342.298	81.25
342.526	73.25
342.754	95.25
342.981	74.25
343.209	74.25
343.437	87.25
343.665	77.25
343.893	74.25
344.12	89.25
344.348	88.25
344.576	87.25
344.804	85.25
345.031	86.25
345.259	87.25
345.487	86.25
345.714	88.25
345.942	78.25
346.17	79.25
346.397	74.25
346.625	75.25
346.853	75.25
347.08	80.25
347.308	87.25
347.535	79.25
347.763	99.25
347.99	88.25
348.218	93.25
348.445	90.25
348.673	83.25
348.9	89.25
349.128	82.25
349.355	90.25
349.583	89.25
349.81	92.25
350.037	92.25
350.265	80.25
350.492	71.25
350.72	98.25
350.947	82.25
351.174	87.25
351.402	80.25
351.629	69.25
351.856	80.25
352.083	91.25
352.311	85.25
352.538	87.25
352.765	81.25
352.992	80.25
353.22	76.25
353.447	79.25
353.674	83.25
353.901	72.25
354.128	101.25
354.355	70.25
354.583	70.25
354.81	81.25
355.037	97.25
355.264	81.25
355.491	78.25
355.718	76.25
355.945	99.25
356.172	94.25
356.399	87.25
356.626	82.25
356.853	77.25
357.08	83.25
357.307	94.25
357.534	79.25
357.761	83.25
357.988	94.25
358.215	80.25
358.441	81.25
358.668	81.25
358.895	70.25
359.122	91.25
359.349	81.25
359.576	104.25
359.802	83.25
360.029	82.25
360.256	86.25
360.483	81.25
360.709	69.25
360.936	90.25
361.163	76.25
361.39	88.25
361.616	90.25
361.843	82.25
362.07	77.25
362.296	90.25
362.523	93.25
362.749	88.25
362.976	83.25
363.203	84.25
363.429	77.25
363.656	82.25
363.882	81.25
364.109	78.25
364.335	90.25
364.562	79.25
364.788	87.25
365.015	76.25
365.241	83.25
365.468	73.25
365.694	92.25
365.92	78.25
366.147	79.25
366.373	61.25
366.599	91.25
366.826	83.25
367.052	88.25
367.278	83.25
367.505	91.25
367.731	85.25
367.957	74.25
368.184	87.25
368.41	82.25
368.636	88.25
368.862	84.25
369.089	85.25
369.315	90.25
369.541	82.25
369.767	86.25
369.993	95.25
370.219	80.25
370.445	82.25
370.672	81.25
370.898	76.25
371.124	81.25
371.35	86.25
371.576	84.25
371.802	87.25
372.028	87.25
372.254	90.25
372.48	84.25
372.706	91.25
372.932	93.25
373.158	93.25
373.384	86.25
373.61	100.25
373.835	82.25
374.061	87.25
374.287	87.25
374.513	94.25
374.739	77.25
374.965	96.25
375.191	87.25
375.416	93.25
375.642	86.25
375.868	79.25
376.094	76.25
376.319	84.25
376.545	102.25
376.771	99.25
376.997	76.25
377.222	83.25
377.448	80.25
377.674	78.25
377.899	87.25
378.125	91.25
378.35	84.25
378.576	83.25
378.802	79.25
379.027	90.25
379.253	84.25
379.478	82.25
379.704	98.25
379.929	88.25
380.155	96.25
380.38	88.25
380.606	86.25
380.831	87.25
381.057	96.25
381.282	79.25
381.507	80.25
381.733	71.25
381.958	80.25
382.184	101.25
382.409	86.25
382.634	81.25
382.86	85.25
383.085	73.25
383.31	78.25
383.535	82.25
383.761	74.25
383.986	88.25
384.211	89.25
384.436	90.25
384.662	81.25
384.887	93.25
385.112	94.25
385.337	80.25
385.562	73.25
385.787	89.25
386.013	80.25
386.238	94.25
386.463	81.25
386.688	101.25
386.913	105.25
387.138	96.25
387.363	90.25
387.588	98.25
387.813	79.25
388.038	82.25
388.263	67.25
388.488	77.25
388.713	81.25
388.938	73.25
389.163	71.25
389.387	75.25
389.612	83.25
389.837	72.25
390.062	93.25
390.287	98.25
390.512	82.25
390.736	89.25
390.961	87.25
391.186	85.25
391.411	72.25
391.636	90.25
391.86	79.25
392.085	73.25
392.31	79.25
392.534	89.25
392.759	102.25
392.984	95.25
393.208	89.25
393.433	94.25
393.658	101.25
393.882	91.25
394.107	137.25
394.331	222.25
394.556	225.25
394.78	140.25
395.005	104.25
395.229	88.25
395.454	105.25
395.678	115.25
395.903	150.25
396.127	242.25
396.352	262.25
396.576	132.25
396.801	97.25
397.025	82.25
397.249	93.25
397.474	87.25
397.698	87.25
397.922	96.25
398.147	83.25
398.371	90.25
398.595	78.25
398.82	85.25
399.044	95.25
399.268	84.25
399.492	87.25
399.717	97.25
399.941	81.25
400.165	94.25
400.389	94.25
400.613	90.25
400.837	81.25
401.062	92.25
401.286	86.25
401.51	89.25
401.734	94.25
401.958	101.25
402.182	90.25
402.406	97.25
402.63	84.25
402.854	79.25
403.078	84.25
403.302	85.25
403.526	111.25
403.75	93.25
403.974	87.25
404.198	89.25
404.422	89.25
404.645	96.25
404.869	106.25
405.093	95.25
405.317	84.25
405.541	96.25
405.765	95.25
405.988	82.25
406.212	106.25
406.436	100.25
406.66	101.25
406.883	90.25
407.107	87.25
407.331	90.25
407.555	102.25
407.778	91.25
408.002	78.25
408.226	104.25
408.449	82.25
408.673	95.25
408.896	103.25
409.12	109.25
409.344	83.25
409.567	86.25
409.791	99.25
410.014	106.25
410.238	93.25
410.461	92.25
410.685	83.25
410.908	106.25
411.132	90.25
411.355	105.25
411.578	94.25
411.802	105.25
412.025	89.25
412.249	98.25
412.472	90.25
412.695	86.25
412.919	97.25
413.142	96.25
413.365	77.25
413.589	78.25
413.812	96.25
414.035	90.25
414.258	99.25
414.482	103.25
414.705	93.25
414.928	97.25
415.151	95.25
415.374	93.25
415.597	86.25
415.821	83.25
416.044	82.25
416.267	81.25
416.49	92.25
416.713	92.25
416.936	92.25
417.159	80.25
417.382	95.25
417.605	104.25
417.828	95.25
418.051	95.25
418.274	81.25
418.497	73.25
418.72	97.25
418.943	105.25
419.166	106.25
419.389	98.25
419.611	85.25
419.834	97.25
420.057	89.25
420.28	79.25
420.503	82.25
420.726	88.25
420.948	81.25
421.171	93.25
421.394	77.25
421.617	106.25
421.839	96.25
422.062	103.25
422.285	87.25
422.507	94.25
422.73	85.25
422.953	89.25
423.175	87.25
423.398	87.25
423.621	95.25
423.843	97.25
424.066	94.25
424.288	105.25
424.511	106.25
424.733	94.25
424.956	89.25
425.178	81.25
425.401	87.25
425.623	96.25
425.846	76.25
426.068	91.25
426.291	94.25
426.513	94.25
426.735	91.25
426.958	84.25
427.18	103.25
427.402	91.25
427.625	97.25
427.847	89.25
428.069	98.25
428.292	82.25
428.514	88.25
428.736	94.25
428.958	103.25
429.181	97.25
429.403	99.25
429.625	94.25
429.847	102.25
430.069	99.25
430.292	98.25
430.514	93.25
430.736	93.25
430.958	94.25
431.18	89.25
431.402	104.25
431.624	101.25
431.846	78.25
432.068	86.25
432.29	88.25
432.512	98.25
432.734	88.25
432.956	87.25
433.178	99.25
433.4	105.25
433.622	104.25
433.844	90.25
434.066	91.25
434.287	78.25
434.509	79.25
434.731	101.25
434.953	88.25
435.175	81.25
435.397	77.25
435.618	90.25
435.84	91.25
436.062	96.25
436.284	94.25
436.505	102.25
436.727	82.25
436.949	99.25
437.17	86.25
437.392	82.25
437.614	93.25
437.835	89.25
438.057	91.25
438.278	86.25
438.5	89.25
438.721	98.25
438.943	111.25
439.165	97.25
439.386	86.25
439.608	90.25
439.829	102.25
440.05	98.25
440.272	92.25
440.493	110.25
440.715	105.25
440.936	104.25
441.158	114.25
441.379	103.25
441.6	101.25
441.822	100.25
442.043	100.25
442.264	92.25
442.486	84.25
442.707	104.25
442.928	98.25
443.149	91.25
443.371	105.25
443.592	80.25
443.813	87.25
444.034	97.25
444.255	98.25
444.476	110.25
444.698	111.25
444.919	82.25
445.14	170.25
445.361	130.25
445.582	95.25
445.803	99.25
446.024	105.25
446.245	103.25
446.466	101.25
446.687	85.25
446.908	111.25
447.129	96.25
447.35	96.25
447.571	90.25
447.792	90.25
448.013	106.25
448.234	103.25
448.455	98.25
448.675	108.25
448.896	93.25
449.117	96.25
449.338	105.25
449.559	99.25
449.779	110.25
450	96.25
450.221	89.25
450.442	102.25
450.662	103.25
450.883	93.25
451.104	93.25
451.324	122.25
451.545	82.25
451.766	90.25
451.986	101.25
452.207	98.25
452.428	79.25
452.648	103.25
452.869	85.25
453.089	90.25
453.31	96.25
453.53	85.25
453.751	86.25
453.971	97.25
454.192	92.25
454.412	99.25
454.633	90.25
454.853	85.25
455.073	89.25
455.294	91.25
455.514	94.25
455.734	96.25
455.955	89.25
456.175	98.25
456.395	84.25
456.616	91.25
456.836	92.25
457.056	82.25
457.276	87.25
457.497	84.25
457.717	87.25
457.937	84.25
458.157	91.25
458.377	89.25
458.598	79.25
458.818	77.25
459.038	81.25
459.258	80.25
459.478	96.25
459.698	90.25
459.918	82.25
460.138	81.25
460.358	97.25
460.578	82.25
460.798	86.25
461.018	91.25
461.238	87.25
461.458	82.25
461.678	85.25
461.898	95.25
462.118	104.25
462.338	81.25
462.558	88.25
462.777	88.25
462.997	94.25
463.217	92.25
463.437	80.25
463.657	94.25
463.876	97.25
464.096	74.25
464.316	89.25
464.536	89.25
464.755	87.25
464.975	91.25
465.195	99.25
465.414	99.25
465.634	114.25
465.854	80.25
466.073	95.25
466.293	95.25
466.512	102.25
466.732	97.25
466.951	107.25
467.171	121.25
467.391	117.25
467.61	94.25
467.829	98.25
468.049	109.25
468.268	84.25
468.488	87.25
468.707	95.25
468.927	91.25
469.146	99.25
469.365	105.25
469.585	97.25
469.804	105.25
470.023	102.25
470.243	103.25
470.462	111.25
470.681	105.25
470.901	96.25
471.12	93.25
471.339	102.25
471.558	89.25
471.777	95.25
471.997	112.25
472.216	101.25
472.435	87.25
472.654	78.25
472.873	98.25
473.092	93.25
473.311	95.25
473.53	110.25
473.749	106.25
473.968	102.25
474.187	99.25
474.406	98.25
474.625	96.25
474.844	97.25
475.063	105.25
475.282	94.25
475.501	101.25
475.72	103.25
475.939	86.25
476.158	104.25
476.377	87.25
476.596	82.25
476.814	89.25
477.033	85.25
477.252	99.25
477.471	85.25
477.69	77.25
477.908	95.25
478.127	90.25
478.346	93.25
478.564	106.25
478.783	101.25
479.002	94.25
479.22	84.25
479.439	101.25
479.658	85.25
479.876	92.25
480.095	85.25
480.313	91.25
480.532	82.25
480.751	79.25
480.969	87.25
481.188	96.25
481.406	97.25
481.624	72.25
481.843	83.25
482.061	98.25
482.28	91.25
482.498	81.25
482.717	95.25
482.935	89.25
483.153	107.25
483.372	82.25
483.59	79.25
483.808	105.25
484.027	92.25
484.245	93.25
484.463	112.25
484.681	105.25
484.9	96.25
485.118	98.25
485.336	107.25
485.554	95.25
485.772	88.25
485.99	97.25
486.209	99.25
486.427	84.25
486.645	98.25
486.863	113.25
487.081	106.25
487.299	96.25
487.517	110.25
487.735	111.25
487.953	103.25
488.171	104.25
488.389	102.25
488.607	102.25
488.825	92.25
489.043	117.25
489.261	104.25
489.479	97.25
489.696	101.25
489.914	95.25
490.132	92.25
490.35	107.25
490.568	101.25
490.786	93.25
491.003	112.25
491.221	108.25
491.439	118.25
491.657	118.25
491.874	123.25
492.092	136.25
492.31	114.25
492.527	131.25
492.745	121.25
492.963	126.25
493.18	123.25
493.398	116.25
493.615	115.25
493.833	109.25
494.05	125.25
494.268	128.25
494.485	121.25
494.703	107.25
494.92	123.25
495.138	112.25
495.355	95.25
495.573	121.25
495.79	117.25
496.008	111.25
496.225	101.25
496.442	110.25
496.66	119.25
496.877	109.25
497.094	101.25
497.312	100.25
497.529	112.25
497.746	99.25
497.963	93.25
498.181	89.25
498.398	76.25
498.615	91.25
498.832	69.25
499.049	85.25
499.267	102.25
499.484	82.25
499.701	78.25
499.918	92.25
500.135	95.25
500.352	94.25
500.569	106.25
500.786	98.25
501.003	96.25
501.22	91.25
501.437	106.25
501.654	84.25
501.871	96.25
502.088	91.25
502.305	93.25
502.522	87.25
502.739	84.25
502.956	87.25
503.172	84.25
503.389	85.25
503.606	94.25
503.823	95.25
504.04	101.25
504.256	102.25
504.473	81.25
504.69	82.25
504.907	102.25
505.123	100.25
505.34	88.25
505.557	98.25
505.773	113.25
505.99	91.25
506.207	95.25
506.423	81.25
506.64	89.25
506.856	98.25
507.073	86.25
507.289	73.25
507.506	76.25
507.722	78.25
507.939	86.25
508.155	93.25
508.372	99.25
508.588	102.25
508.805	85.25
509.021	92.25
509.238	109.25
509.454	88.25
509.67	70.25
509.887	92.25
510.103	99.25
510.319	78.25
510.536	79.25
510.752	84.25
510.968	90.25
511.184	104.25
511.401	94.25
511.617	80.25
511.833	87.25
512.049	89.25
512.265	85.25
512.481	90.25
512.698	90.25
512.914	82.25
513.13	84.25
513.346	100.25
513.562	94.25
513.778	89.25
513.994	87.25
514.21	84.25
514.426	81.25
514.642	92.25
514.858	77.25
515.074	81.25
515.29	90.25
515.506	99.25
515.721	86.25
515.937	89.25
516.153	82.25
516.369	85.25
516.585	89.25
516.801	89.25
517.016	77.25
517.232	93.25
517.448	88.25
517.664	89.25
