Data from Foil_3_HRD10591_00015.txt Node
Date: Wed Nov 05 16:18:50 EST 2025
User: Yrep
Spectrometer: HR+D1059
Trigger mode: 1
Integration Time (sec): 1.000000E-1
Scans to average: 1
Electric dark correction enabled: true
Nonlinearity correction enabled: false
Boxcar width: 0
XAxis mode: Wavelengths
Number of Pixels in Spectrum: 2048
>>>>>Begin Spectral Data<<<<<
223.165	-6.56
223.4	-6.56
223.635	-6.56
223.869	-9.56
224.104	-28.56
224.338	-24.56
224.573	-14.56
224.808	-12.56
225.042	0.44
225.277	-7.56
225.511	-6.56
225.746	7.44
225.98	4.44
226.215	11.44
226.449	4.44
226.683	28.44
226.918	24.44
227.152	29.44
227.387	25.44
227.621	40.44
227.856	32.44
228.09	32.44
228.324	49.44
228.559	64.44
228.793	69.44
229.027	61.44
229.262	65.44
229.496	62.44
229.73	71.44
229.964	71.44
230.199	78.44
230.433	75.44
230.667	65.44
230.901	72.44
231.136	69.44
231.37	89.44
231.604	74.44
231.838	73.44
232.072	86.44
232.306	77.44
232.541	81.44
232.775	65.44
233.009	80.44
233.243	85.44
233.477	63.44
233.711	79.44
233.945	73.44
234.179	77.44
234.413	81.44
234.647	77.44
234.881	73.44
235.115	71.44
235.349	84.44
235.583	73.44
235.817	79.44
236.051	73.44
236.285	79.44
236.519	74.44
236.753	74.44
236.987	65.44
237.221	91.44
237.455	67.44
237.689	85.44
237.922	75.44
238.156	70.44
238.39	90.44
238.624	69.44
238.858	61.44
239.091	62.44
239.325	79.44
239.559	87.44
239.793	77.44
240.027	78.44
240.26	79.44
240.494	82.44
240.728	77.44
240.961	73.44
241.195	76.44
241.429	67.44
241.662	82.44
241.896	61.44
242.13	75.44
242.363	72.44
242.597	73.44
242.83	64.44
243.064	71.44
243.298	59.44
243.531	63.44
243.765	82.44
243.998	72.44
244.232	69.44
244.465	87.44
244.699	80.44
244.932	78.44
245.166	83.44
245.399	73.44
245.633	76.44
245.866	95.44
246.099	84.44
246.333	81.44
246.566	63.44
246.8	76.44
247.033	81.44
247.266	74.44
247.5	77.44
247.733	77.44
247.966	80.44
248.2	78.44
248.433	78.44
248.666	83.44
248.899	75.44
249.133	79.44
249.366	81.44
249.599	54.44
249.832	73.44
250.066	78.44
250.299	65.44
250.532	79.44
250.765	77.44
250.998	93.44
251.231	69.44
251.465	79.44
251.698	64.44
251.931	77.44
252.164	72.44
252.397	78.44
252.63	68.44
252.863	76.44
253.096	69.44
253.329	78.44
253.562	84.44
253.795	77.44
254.028	77.44
254.261	81.44
254.494	76.44
254.727	92.44
254.96	75.44
255.193	84.44
255.426	87.44
255.659	80.44
255.892	71.44
256.124	75.44
256.357	71.44
256.59	84.44
256.823	93.44
257.056	89.44
257.289	75.44
257.521	84.44
257.754	73.44
257.987	77.44
258.22	80.44
258.452	59.44
258.685	67.44
258.918	83.44
259.151	86.44
259.383	98.44
259.616	75.44
259.849	68.44
260.081	72.44
260.314	67.44
260.547	65.44
260.779	77.44
261.012	81.44
261.244	92.44
261.477	87.44
261.71	80.44
261.942	79.44
262.175	85.44
262.407	74.44
262.64	79.44
262.872	80.44
263.105	79.44
263.337	72.44
263.57	84.44
263.802	92.44
264.035	81.44
264.267	79.44
264.499	80.44
264.732	68.44
264.964	72.44
265.197	76.44
265.429	72.44
265.661	93.44
265.894	79.44
266.126	91.44
266.358	80.44
266.591	74.44
266.823	84.44
267.055	69.44
267.287	84.44
267.52	73.44
267.752	91.44
267.984	81.44
268.216	65.44
268.448	94.44
268.681	73.44
268.913	70.44
269.145	85.44
269.377	84.44
269.609	82.44
269.841	72.44
270.073	93.44
270.306	79.44
270.538	74.44
270.77	71.44
271.002	72.44
271.234	87.44
271.466	80.44
271.698	79.44
271.93	71.44
272.162	84.44
272.394	74.44
272.626	73.44
272.858	83.44
273.09	63.44
273.322	80.44
273.553	86.44
273.785	74.44
274.017	69.44
274.249	76.44
274.481	89.44
274.713	77.44
274.945	96.44
275.176	60.44
275.408	75.44
275.64	86.44
275.872	91.44
276.104	76.44
276.335	91.44
276.567	71.44
276.799	81.44
277.031	80.44
277.262	84.44
277.494	80.44
277.726	79.44
277.957	67.44
278.189	72.44
278.421	73.44
278.652	79.44
278.884	87.44
279.115	85.44
279.347	78.44
279.579	74.44
279.81	68.44
280.042	91.44
280.273	86.44
280.505	80.44
280.736	69.44
280.968	81.44
281.199	91.44
281.431	79.44
281.662	85.44
281.894	95.44
282.125	83.44
282.356	79.44
282.588	85.44
282.819	79.44
283.051	82.44
283.282	73.44
283.513	78.44
283.745	90.44
283.976	86.44
284.207	67.44
284.439	81.44
284.67	92.44
284.901	92.44
285.132	79.44
285.364	78.44
285.595	84.44
285.826	72.44
286.057	75.44
286.288	61.44
286.52	80.44
286.751	75.44
286.982	88.44
287.213	87.44
287.444	80.44
287.675	76.44
287.906	97.44
288.138	67.44
288.369	79.44
288.6	85.44
288.831	87.44
289.062	75.44
289.293	80.44
289.524	75.44
289.755	85.44
289.986	80.44
290.217	76.44
290.448	75.44
290.679	81.44
290.91	110.44
291.141	85.44
291.371	83.44
291.602	83.44
291.833	77.44
292.064	83.44
292.295	88.44
292.526	87.44
292.757	85.44
292.987	90.44
293.218	76.44
293.449	83.44
293.68	90.44
293.91	75.44
294.141	77.44
294.372	80.44
294.603	84.44
294.833	82.44
295.064	71.44
295.295	89.44
295.525	77.44
295.756	89.44
295.987	76.44
296.217	85.44
296.448	83.44
296.679	78.44
296.909	89.44
297.14	79.44
297.37	97.44
297.601	91.44
297.831	80.44
298.062	82.44
298.292	79.44
298.523	77.44
298.753	75.44
298.984	85.44
299.214	99.44
299.445	81.44
299.675	82.44
299.905	70.44
300.136	95.44
300.366	87.44
300.597	85.44
300.827	91.44
301.057	76.44
301.288	76.44
301.518	88.44
301.748	82.44
301.979	101.44
302.209	77.44
302.439	82.44
302.669	70.44
302.9	82.44
303.13	78.44
303.36	77.44
303.59	92.44
303.82	85.44
304.051	86.44
304.281	91.44
304.511	92.44
304.741	89.44
304.971	82.44
305.201	79.44
305.431	87.44
305.661	92.44
305.891	75.44
306.121	93.44
306.352	82.44
306.582	90.44
306.812	78.44
307.042	79.44
307.272	85.44
307.502	88.44
307.731	91.44
307.961	91.44
308.191	132.44
308.421	116.44
308.651	101.44
308.881	101.44
309.111	107.44
309.341	139.44
309.571	125.44
309.8	91.44
310.03	100.44
310.26	91.44
310.49	95.44
310.72	76.44
310.949	83.44
311.179	83.44
311.409	84.44
311.639	75.44
311.868	90.44
312.098	94.44
312.328	78.44
312.557	81.44
312.787	78.44
313.017	71.44
313.246	86.44
313.476	89.44
313.706	76.44
313.935	89.44
314.165	75.44
314.394	93.44
314.624	89.44
314.853	79.44
315.083	85.44
315.312	95.44
315.542	80.44
315.771	71.44
316.001	84.44
316.23	89.44
316.46	85.44
316.689	80.44
316.919	78.44
317.148	87.44
317.377	86.44
317.607	86.44
317.836	77.44
318.065	93.44
318.295	87.44
318.524	70.44
318.753	90.44
318.983	81.44
319.212	87.44
319.441	84.44
319.67	87.44
319.9	91.44
320.129	84.44
320.358	85.44
320.587	78.44
320.816	77.44
321.046	91.44
321.275	81.44
321.504	78.44
321.733	88.44
321.962	91.44
322.191	71.44
322.42	84.44
322.649	77.44
322.878	90.44
323.108	79.44
323.337	73.44
323.566	79.44
323.795	86.44
324.024	75.44
324.253	77.44
324.482	72.44
324.71	85.44
324.939	84.44
325.168	81.44
325.397	90.44
325.626	106.44
325.855	76.44
326.084	84.44
326.313	87.44
326.542	79.44
326.77	88.44
326.999	85.44
327.228	63.44
327.457	94.44
327.686	86.44
327.914	78.44
328.143	78.44
328.372	76.44
328.6	74.44
328.829	74.44
329.058	92.44
329.287	77.44
329.515	86.44
329.744	87.44
329.972	80.44
330.201	80.44
330.43	78.44
330.658	86.44
330.887	81.44
331.115	86.44
331.344	82.44
331.572	80.44
331.801	71.44
332.03	93.44
332.258	79.44
332.486	91.44
332.715	82.44
332.943	84.44
333.172	72.44
333.4	83.44
333.629	95.44
333.857	71.44
334.085	85.44
334.314	80.44
334.542	78.44
334.771	85.44
334.999	85.44
335.227	89.44
335.455	99.44
335.684	91.44
335.912	88.44
336.14	83.44
336.369	90.44
336.597	86.44
336.825	82.44
337.053	72.44
337.281	83.44
337.51	85.44
337.738	72.44
337.966	83.44
338.194	47.44
338.422	74.44
338.65	85.44
338.878	104.44
339.106	92.44
339.334	88.44
339.562	91.44
339.79	100.44
340.018	78.44
340.246	81.44
340.474	79.44
340.702	102.44
340.93	80.44
341.158	73.44
341.386	88.44
341.614	81.44
341.842	75.44
342.07	72.44
342.298	65.44
342.526	82.44
342.754	81.44
342.981	81.44
343.209	95.44
343.437	91.44
343.665	87.44
343.893	87.44
344.12	79.44
344.348	78.44
344.576	82.44
344.804	87.44
345.031	75.44
345.259	89.44
345.487	79.44
345.714	64.44
345.942	70.44
346.17	77.44
346.397	77.44
346.625	81.44
346.853	71.44
347.08	73.44
347.308	84.44
347.535	81.44
347.763	86.44
347.99	83.44
348.218	87.44
348.445	76.44
348.673	85.44
348.9	80.44
349.128	79.44
349.355	87.44
349.583	88.44
349.81	96.44
350.037	74.44
350.265	88.44
350.492	85.44
350.72	93.44
350.947	79.44
351.174	83.44
351.402	87.44
351.629	78.44
351.856	80.44
352.083	70.44
352.311	83.44
352.538	85.44
352.765	92.44
352.992	88.44
353.22	75.44
353.447	74.44
353.674	85.44
353.901	79.44
354.128	97.44
354.355	87.44
354.583	78.44
354.81	77.44
355.037	82.44
355.264	76.44
355.491	80.44
355.718	92.44
355.945	67.44
356.172	89.44
356.399	71.44
356.626	81.44
356.853	79.44
357.08	89.44
357.307	80.44
357.534	95.44
357.761	94.44
357.988	91.44
358.215	79.44
358.441	73.44
358.668	87.44
358.895	73.44
359.122	89.44
359.349	86.44
359.576	84.44
359.802	75.44
360.029	86.44
360.256	86.44
360.483	85.44
360.709	69.44
360.936	88.44
361.163	72.44
361.39	73.44
361.616	89.44
361.843	81.44
362.07	97.44
362.296	79.44
362.523	72.44
362.749	68.44
362.976	82.44
363.203	75.44
363.429	69.44
363.656	85.44
363.882	70.44
364.109	97.44
364.335	83.44
364.562	90.44
364.788	71.44
365.015	93.44
365.241	77.44
365.468	93.44
365.694	87.44
365.92	76.44
366.147	76.44
366.373	85.44
366.599	74.44
366.826	79.44
367.052	91.44
367.278	92.44
367.505	99.44
367.731	88.44
367.957	84.44
368.184	85.44
368.41	81.44
368.636	96.44
368.862	83.44
369.089	81.44
369.315	73.44
369.541	85.44
369.767	85.44
369.993	89.44
370.219	83.44
370.445	78.44
370.672	93.44
370.898	81.44
371.124	87.44
371.35	73.44
371.576	79.44
371.802	77.44
372.028	68.44
372.254	86.44
372.48	79.44
372.706	79.44
372.932	81.44
373.158	85.44
373.384	70.44
373.61	87.44
373.835	92.44
374.061	91.44
374.287	81.44
374.513	74.44
374.739	88.44
374.965	95.44
375.191	93.44
375.416	86.44
375.642	68.44
375.868	88.44
376.094	93.44
376.319	78.44
376.545	85.44
376.771	78.44
376.997	87.44
377.222	89.44
377.448	72.44
377.674	87.44
377.899	77.44
378.125	81.44
378.35	81.44
378.576	63.44
378.802	72.44
379.027	88.44
379.253	102.44
379.478	87.44
379.704	78.44
379.929	79.44
380.155	76.44
380.38	91.44
380.606	83.44
380.831	72.44
381.057	78.44
381.282	80.44
381.507	77.44
381.733	87.44
381.958	76.44
382.184	82.44
382.409	79.44
382.634	89.44
382.86	89.44
383.085	90.44
383.31	81.44
383.535	81.44
383.761	90.44
383.986	89.44
384.211	75.44
384.436	91.44
384.662	92.44
384.887	93.44
385.112	91.44
385.337	88.44
385.562	83.44
385.787	99.44
386.013	78.44
386.238	83.44
386.463	95.44
386.688	102.44
386.913	85.44
387.138	88.44
387.363	90.44
387.588	90.44
387.813	88.44
388.038	93.44
388.263	87.44
388.488	90.44
388.713	96.44
388.938	98.44
389.163	84.44
389.387	85.44
389.612	81.44
389.837	105.44
390.062	90.44
390.287	89.44
390.512	79.44
390.736	90.44
390.961	88.44
391.186	84.44
391.411	99.44
391.636	86.44
391.86	84.44
392.085	69.44
392.31	91.44
392.534	86.44
392.759	97.44
392.984	85.44
393.208	82.44
393.433	96.44
393.658	102.44
393.882	105.44
394.107	110.44
394.331	206.44
394.556	218.44
394.78	123.44
395.005	91.44
395.229	97.44
395.454	109.44
395.678	110.44
395.903	168.44
396.127	262.44
396.352	269.44
396.576	131.44
396.801	101.44
397.025	85.44
397.249	83.44
397.474	90.44
397.698	93.44
397.922	92.44
398.147	74.44
398.371	94.44
398.595	86.44
398.82	88.44
399.044	83.44
399.268	91.44
399.492	97.44
399.717	89.44
399.941	80.44
400.165	94.44
400.389	82.44
400.613	86.44
400.837	88.44
401.062	97.44
401.286	90.44
401.51	80.44
401.734	90.44
401.958	86.44
402.182	90.44
402.406	89.44
402.63	87.44
402.854	88.44
403.078	95.44
403.302	69.44
403.526	91.44
403.75	80.44
403.974	89.44
404.198	88.44
404.422	86.44
404.645	79.44
404.869	88.44
405.093	98.44
405.317	85.44
405.541	95.44
405.765	82.44
405.988	86.44
406.212	95.44
406.436	77.44
406.66	101.44
406.883	87.44
407.107	81.44
407.331	100.44
407.555	87.44
407.778	71.44
408.002	95.44
408.226	85.44
408.449	93.44
408.673	84.44
408.896	87.44
409.12	87.44
409.344	96.44
409.567	85.44
409.791	82.44
410.014	104.44
410.238	102.44
410.461	78.44
410.685	91.44
410.908	100.44
411.132	95.44
411.355	98.44
411.578	85.44
411.802	99.44
412.025	95.44
412.249	97.44
412.472	108.44
412.695	82.44
412.919	92.44
413.142	94.44
413.365	90.44
413.589	84.44
413.812	83.44
414.035	90.44
414.258	94.44
414.482	99.44
414.705	87.44
414.928	96.44
415.151	87.44
415.374	76.44
415.597	102.44
415.821	93.44
416.044	85.44
416.267	80.44
416.49	77.44
416.713	89.44
416.936	74.44
417.159	87.44
417.382	95.44
417.605	82.44
417.828	86.44
418.051	82.44
418.274	88.44
418.497	93.44
418.72	91.44
418.943	100.44
419.166	95.44
419.389	101.44
419.611	81.44
419.834	92.44
420.057	92.44
420.28	91.44
420.503	87.44
420.726	83.44
420.948	80.44
421.171	95.44
421.394	79.44
421.617	90.44
421.839	89.44
422.062	103.44
422.285	101.44
422.507	93.44
422.73	88.44
422.953	89.44
423.175	89.44
423.398	100.44
423.621	90.44
423.843	91.44
424.066	86.44
424.288	91.44
424.511	91.44
424.733	98.44
424.956	100.44
425.178	100.44
425.401	90.44
425.623	85.44
425.846	88.44
426.068	99.44
426.291	99.44
426.513	87.44
426.735	100.44
426.958	100.44
427.18	86.44
427.402	81.44
427.625	87.44
427.847	96.44
428.069	119.44
428.292	107.44
428.514	83.44
428.736	87.44
428.958	93.44
429.181	105.44
429.403	85.44
429.625	78.44
429.847	92.44
430.069	101.44
430.292	84.44
430.514	84.44
430.736	99.44
430.958	80.44
431.18	89.44
431.402	87.44
431.624	92.44
431.846	82.44
432.068	84.44
432.29	76.44
432.512	85.44
432.734	91.44
432.956	100.44
433.178	89.44
433.4	95.44
433.622	78.44
433.844	82.44
434.066	89.44
434.287	83.44
434.509	79.44
434.731	82.44
434.953	93.44
435.175	89.44
435.397	89.44
435.618	95.44
435.84	72.44
436.062	92.44
436.284	91.44
436.505	99.44
436.727	88.44
436.949	84.44
437.17	94.44
437.392	83.44
437.614	101.44
437.835	86.44
438.057	81.44
438.278	93.44
438.5	80.44
438.721	78.44
438.943	100.44
439.165	91.44
439.386	99.44
439.608	104.44
439.829	93.44
440.05	99.44
440.272	87.44
440.493	99.44
440.715	91.44
440.936	94.44
441.158	102.44
441.379	87.44
441.6	91.44
441.822	100.44
442.043	120.44
442.264	92.44
442.486	81.44
442.707	82.44
442.928	105.44
443.149	102.44
443.371	103.44
443.592	108.44
443.813	108.44
444.034	95.44
444.255	105.44
444.476	100.44
444.698	96.44
444.919	104.44
445.14	176.44
445.361	131.44
445.582	109.44
445.803	107.44
446.024	94.44
446.245	99.44
446.466	101.44
446.687	91.44
446.908	105.44
447.129	109.44
447.35	91.44
447.571	76.44
447.792	92.44
448.013	89.44
448.234	90.44
448.455	105.44
448.675	99.44
448.896	103.44
449.117	95.44
449.338	94.44
449.559	97.44
449.779	95.44
450	103.44
450.221	101.44
450.442	107.44
450.662	98.44
450.883	85.44
451.104	108.44
451.324	93.44
451.545	111.44
451.766	85.44
451.986	86.44
452.207	89.44
452.428	85.44
452.648	104.44
452.869	79.44
453.089	91.44
453.31	91.44
453.53	76.44
453.751	85.44
453.971	97.44
454.192	96.44
454.412	76.44
454.633	80.44
454.853	95.44
455.073	92.44
455.294	100.44
455.514	93.44
455.734	93.44
455.955	84.44
456.175	91.44
456.395	81.44
456.616	86.44
456.836	93.44
457.056	90.44
457.276	74.44
457.497	79.44
457.717	87.44
457.937	88.44
458.157	74.44
458.377	75.44
458.598	86.44
458.818	85.44
459.038	79.44
459.258	91.44
459.478	93.44
459.698	72.44
459.918	79.44
460.138	89.44
460.358	86.44
460.578	92.44
460.798	81.44
461.018	81.44
461.238	94.44
461.458	92.44
461.678	92.44
461.898	95.44
462.118	95.44
462.338	90.44
462.558	89.44
462.777	83.44
462.997	88.44
463.217	85.44
463.437	88.44
463.657	73.44
463.876	93.44
464.096	83.44
464.316	82.44
464.536	84.44
464.755	81.44
464.975	91.44
465.195	101.44
465.414	90.44
465.634	91.44
465.854	94.44
466.073	95.44
466.293	97.44
466.512	97.44
466.732	98.44
466.951	104.44
467.171	101.44
467.391	102.44
467.61	104.44
467.829	102.44
468.049	117.44
468.268	105.44
468.488	104.44
468.707	98.44
468.927	104.44
469.146	103.44
469.365	113.44
469.585	100.44
469.804	107.44
470.023	106.44
470.243	102.44
470.462	90.44
470.681	99.44
470.901	87.44
471.12	101.44
471.339	91.44
471.558	96.44
471.777	90.44
471.997	99.44
472.216	89.44
472.435	94.44
472.654	95.44
472.873	90.44
473.092	79.44
473.311	81.44
473.53	101.44
473.749	102.44
473.968	90.44
474.187	91.44
474.406	81.44
474.625	95.44
474.844	89.44
475.063	97.44
475.282	82.44
475.501	89.44
475.72	95.44
475.939	105.44
476.158	101.44
476.377	97.44
476.596	84.44
476.814	86.44
477.033	84.44
477.252	75.44
477.471	94.44
477.69	87.44
477.908	92.44
478.127	96.44
478.346	90.44
478.564	80.44
478.783	86.44
479.002	96.44
479.22	85.44
479.439	94.44
479.658	85.44
479.876	91.44
480.095	82.44
480.313	97.44
480.532	91.44
480.751	92.44
480.969	80.44
481.188	91.44
481.406	85.44
481.624	99.44
481.843	71.44
482.061	91.44
482.28	86.44
482.498	103.44
482.717	81.44
482.935	86.44
483.153	104.44
483.372	79.44
483.59	84.44
483.808	97.44
484.027	103.44
484.245	108.44
484.463	116.44
484.681	103.44
484.9	89.44
485.118	100.44
485.336	97.44
485.554	91.44
485.772	82.44
485.99	96.44
486.209	79.44
486.427	101.44
486.645	88.44
486.863	90.44
487.081	107.44
487.299	98.44
487.517	90.44
487.735	104.44
487.953	116.44
488.171	100.44
488.389	80.44
488.607	98.44
488.825	97.44
489.043	93.44
489.261	93.44
489.479	104.44
489.696	102.44
489.914	96.44
490.132	102.44
490.35	112.44
490.568	105.44
490.786	105.44
491.003	111.44
491.221	116.44
491.439	117.44
491.657	118.44
491.874	123.44
492.092	127.44
492.31	124.44
492.527	127.44
492.745	118.44
492.963	121.44
493.18	102.44
493.398	105.44
493.615	96.44
493.833	110.44
494.05	113.44
494.268	107.44
494.485	100.44
494.703	111.44
494.92	85.44
495.138	102.44
495.355	112.44
495.573	111.44
495.79	112.44
496.008	111.44
496.225	102.44
496.442	96.44
496.66	103.44
496.877	113.44
497.094	103.44
497.312	103.44
497.529	98.44
497.746	101.44
497.963	95.44
498.181	89.44
498.398	73.44
498.615	89.44
498.832	78.44
499.049	82.44
499.267	98.44
499.484	70.44
499.701	94.44
499.918	94.44
500.135	90.44
500.352	111.44
500.569	101.44
500.786	108.44
501.003	108.44
501.22	105.44
501.437	110.44
501.654	93.44
501.871	99.44
502.088	95.44
502.305	87.44
502.522	100.44
502.739	89.44
502.956	103.44
503.172	88.44
503.389	87.44
503.606	80.44
503.823	80.44
504.04	82.44
504.256	88.44
504.473	84.44
504.69	85.44
504.907	94.44
505.123	103.44
505.34	99.44
505.557	94.44
505.773	91.44
505.99	110.44
506.207	92.44
506.423	78.44
506.64	92.44
506.856	89.44
507.073	94.44
507.289	82.44
507.506	85.44
507.722	93.44
507.939	88.44
508.155	116.44
508.372	78.44
508.588	92.44
508.805	100.44
509.021	81.44
509.238	86.44
509.454	85.44
509.67	67.44
509.887	89.44
510.103	80.44
510.319	84.44
510.536	87.44
510.752	93.44
510.968	95.44
511.184	86.44
511.401	78.44
511.617	80.44
511.833	89.44
512.049	85.44
512.265	93.44
512.481	92.44
512.698	94.44
512.914	91.44
513.13	87.44
513.346	86.44
513.562	92.44
513.778	88.44
513.994	92.44
514.21	103.44
514.426	75.44
514.642	88.44
514.858	80.44
515.074	99.44
515.29	87.44
515.506	95.44
515.721	80.44
515.937	79.44
516.153	77.44
516.369	89.44
516.585	70.44
516.801	96.44
517.016	62.44
517.232	89.44
517.448	80.44
517.664	91.44
517.879	79.44
518.095	83.44
