Data from Foil_3_HRD10591_00002.txt Node
Date: Wed Nov 05 16:18:44 EST 2025
User: Yrep
Spectrometer: HR+D1059
Trigger mode: 1
Integration Time (sec): 1.000000E-1
Scans to average: 1
Electric dark correction enabled: true
Nonlinearity correction enabled: false
Boxcar width: 0
XAxis mode: Wavelengths
Number of Pixels in Spectrum: 2048
>>>>>Begin Spectral Data<<<<<
223.165	-4.06
223.4	-4.06
223.635	-4.06
223.869	-16.06
224.104	-23.06
224.338	-20.06
224.573	-10.06
224.808	-21.06
225.042	-14.06
225.277	-10.06
225.511	11.94
225.746	7.94
225.98	-1.06
226.215	7.94
226.449	23.94
226.683	20.94
226.918	22.94
227.152	23.94
227.387	34.94
227.621	42.94
227.856	50.94
228.09	59.94
228.324	46.94
228.559	59.94
228.793	53.94
229.027	54.94
229.262	58.94
229.496	58.94
229.73	69.94
229.964	61.94
230.199	70.94
230.433	69.94
230.667	67.94
230.901	69.94
231.136	82.94
231.37	68.94
231.604	73.94
231.838	87.94
232.072	83.94
232.306	77.94
232.541	76.94
232.775	82.94
233.009	89.94
233.243	77.94
233.477	79.94
233.711	92.94
233.945	79.94
234.179	75.94
234.413	71.94
234.647	78.94
234.881	85.94
235.115	69.94
235.349	77.94
235.583	89.94
235.817	79.94
236.051	77.94
236.285	71.94
236.519	68.94
236.753	78.94
236.987	85.94
237.221	69.94
237.455	77.94
237.689	89.94
237.922	80.94
238.156	83.94
238.39	65.94
238.624	68.94
238.858	69.94
239.091	75.94
239.325	63.94
239.559	62.94
239.793	73.94
240.027	76.94
240.26	66.94
240.494	83.94
240.728	72.94
240.961	71.94
241.195	84.94
241.429	69.94
241.662	68.94
241.896	60.94
242.13	80.94
242.363	84.94
242.597	73.94
242.83	74.94
243.064	74.94
243.298	64.94
243.531	73.94
243.765	69.94
243.998	89.94
244.232	72.94
244.465	69.94
244.699	84.94
244.932	70.94
245.166	65.94
245.399	92.94
245.633	50.94
245.866	57.94
246.099	68.94
246.333	70.94
246.566	76.94
246.8	75.94
247.033	76.94
247.266	75.94
247.5	80.94
247.733	81.94
247.966	64.94
248.2	77.94
248.433	75.94
248.666	80.94
248.899	77.94
249.133	77.94
249.366	90.94
249.599	82.94
249.832	55.94
250.066	82.94
250.299	74.94
250.532	90.94
250.765	82.94
250.998	71.94
251.231	76.94
251.465	71.94
251.698	82.94
251.931	77.94
252.164	72.94
252.397	91.94
252.63	61.94
252.863	78.94
253.096	86.94
253.329	89.94
253.562	65.94
253.795	74.94
254.028	78.94
254.261	71.94
254.494	71.94
254.727	75.94
254.96	76.94
255.193	80.94
255.426	74.94
255.659	63.94
255.892	76.94
256.124	87.94
256.357	64.94
256.59	86.94
256.823	76.94
257.056	79.94
257.289	74.94
257.521	89.94
257.754	97.94
257.987	71.94
258.22	79.94
258.452	77.94
258.685	76.94
258.918	82.94
259.151	80.94
259.383	86.94
259.616	78.94
259.849	84.94
260.081	85.94
260.314	80.94
260.547	89.94
260.779	69.94
261.012	73.94
261.244	79.94
261.477	81.94
261.71	81.94
261.942	78.94
262.175	69.94
262.407	61.94
262.64	80.94
262.872	85.94
263.105	79.94
263.337	75.94
263.57	79.94
263.802	71.94
264.035	76.94
264.267	74.94
264.499	70.94
264.732	77.94
264.964	85.94
265.197	75.94
265.429	73.94
265.661	74.94
265.894	71.94
266.126	91.94
266.358	75.94
266.591	83.94
266.823	83.94
267.055	75.94
267.287	82.94
267.52	76.94
267.752	74.94
267.984	91.94
268.216	65.94
268.448	74.94
268.681	91.94
268.913	77.94
269.145	77.94
269.377	88.94
269.609	70.94
269.841	83.94
270.073	78.94
270.306	76.94
270.538	89.94
270.77	79.94
271.002	68.94
271.234	78.94
271.466	84.94
271.698	78.94
271.93	85.94
272.162	81.94
272.394	102.94
272.626	85.94
272.858	88.94
273.09	79.94
273.322	90.94
273.553	63.94
273.785	78.94
274.017	84.94
274.249	78.94
274.481	81.94
274.713	89.94
274.945	77.94
275.176	70.94
275.408	79.94
275.64	84.94
275.872	65.94
276.104	80.94
276.335	78.94
276.567	69.94
276.799	85.94
277.031	82.94
277.262	77.94
277.494	63.94
277.726	82.94
277.957	79.94
278.189	75.94
278.421	74.94
278.652	83.94
278.884	80.94
279.115	81.94
279.347	89.94
279.579	85.94
279.81	77.94
280.042	83.94
280.273	58.94
280.505	74.94
280.736	78.94
280.968	90.94
281.199	85.94
281.431	81.94
281.662	73.94
281.894	75.94
282.125	77.94
282.356	88.94
282.588	90.94
282.819	80.94
283.051	82.94
283.282	86.94
283.513	89.94
283.745	74.94
283.976	93.94
284.207	66.94
284.439	77.94
284.67	88.94
284.901	85.94
285.132	64.94
285.364	93.94
285.595	80.94
285.826	77.94
286.057	78.94
286.288	84.94
286.52	89.94
286.751	87.94
286.982	83.94
287.213	70.94
287.444	69.94
287.675	73.94
287.906	77.94
288.138	86.94
288.369	81.94
288.6	80.94
288.831	87.94
289.062	91.94
289.293	68.94
289.524	79.94
289.755	88.94
289.986	85.94
290.217	77.94
290.448	81.94
290.679	83.94
290.91	95.94
291.141	94.94
291.371	85.94
291.602	78.94
291.833	69.94
292.064	86.94
292.295	87.94
292.526	84.94
292.757	76.94
292.987	63.94
293.218	85.94
293.449	84.94
293.68	91.94
293.91	81.94
294.141	89.94
294.372	74.94
294.603	76.94
294.833	91.94
295.064	78.94
295.295	78.94
295.525	75.94
295.756	77.94
295.987	84.94
296.217	87.94
296.448	84.94
296.679	88.94
296.909	94.94
297.14	85.94
297.37	89.94
297.601	82.94
297.831	90.94
298.062	71.94
298.292	80.94
298.523	85.94
298.753	70.94
298.984	81.94
299.214	86.94
299.445	91.94
299.675	75.94
299.905	83.94
300.136	72.94
300.366	76.94
300.597	93.94
300.827	87.94
301.057	88.94
301.288	87.94
301.518	69.94
301.748	85.94
301.979	108.94
302.209	74.94
302.439	72.94
302.669	84.94
302.9	90.94
303.13	70.94
303.36	87.94
303.59	82.94
303.82	93.94
304.051	87.94
304.281	82.94
304.511	83.94
304.741	84.94
304.971	75.94
305.201	76.94
305.431	87.94
305.661	75.94
305.891	88.94
306.121	81.94
306.352	86.94
306.582	82.94
306.812	86.94
307.042	92.94
307.272	77.94
307.502	85.94
307.731	92.94
307.961	98.94
308.191	114.94
308.421	109.94
308.651	93.94
308.881	102.94
309.111	115.94
309.341	151.94
309.571	124.94
309.8	102.94
310.03	85.94
310.26	72.94
310.49	77.94
310.72	80.94
310.949	94.94
311.179	82.94
311.409	85.94
311.639	77.94
311.868	92.94
312.098	95.94
312.328	90.94
312.557	79.94
312.787	80.94
313.017	83.94
313.246	72.94
313.476	71.94
313.706	88.94
313.935	89.94
314.165	81.94
314.394	83.94
314.624	84.94
314.853	81.94
315.083	81.94
315.312	85.94
315.542	91.94
315.771	81.94
316.001	99.94
316.23	86.94
316.46	91.94
316.689	95.94
316.919	86.94
317.148	75.94
317.377	85.94
317.607	93.94
317.836	85.94
318.065	71.94
318.295	90.94
318.524	88.94
318.753	82.94
318.983	91.94
319.212	94.94
319.441	88.94
319.67	77.94
319.9	71.94
320.129	80.94
320.358	85.94
320.587	70.94
320.816	78.94
321.046	87.94
321.275	83.94
321.504	94.94
321.733	84.94
321.962	72.94
322.191	81.94
322.42	68.94
322.649	83.94
322.878	71.94
323.108	70.94
323.337	73.94
323.566	75.94
323.795	90.94
324.024	85.94
324.253	77.94
324.482	93.94
324.71	82.94
324.939	77.94
325.168	87.94
325.397	102.94
325.626	81.94
325.855	77.94
326.084	76.94
326.313	85.94
326.542	79.94
326.77	82.94
326.999	81.94
327.228	89.94
327.457	91.94
327.686	94.94
327.914	81.94
328.143	81.94
328.372	90.94
328.6	77.94
328.829	92.94
329.058	88.94
329.287	87.94
329.515	85.94
329.744	88.94
329.972	83.94
330.201	81.94
330.43	90.94
330.658	86.94
330.887	76.94
331.115	75.94
331.344	90.94
331.572	85.94
331.801	88.94
332.03	87.94
332.258	80.94
332.486	77.94
332.715	73.94
332.943	74.94
333.172	83.94
333.4	73.94
333.629	76.94
333.857	89.94
334.085	76.94
334.314	79.94
334.542	100.94
334.771	83.94
334.999	86.94
335.227	74.94
335.455	80.94
335.684	78.94
335.912	77.94
336.14	82.94
336.369	73.94
336.597	77.94
336.825	70.94
337.053	73.94
337.281	80.94
337.51	89.94
337.738	75.94
337.966	68.94
338.194	89.94
338.422	69.94
338.65	67.94
338.878	79.94
339.106	87.94
339.334	69.94
339.562	81.94
339.79	92.94
340.018	61.94
340.246	68.94
340.474	79.94
340.702	86.94
340.93	94.94
341.158	75.94
341.386	86.94
341.614	79.94
341.842	85.94
342.07	79.94
342.298	81.94
342.526	89.94
342.754	85.94
342.981	85.94
343.209	90.94
343.437	87.94
343.665	91.94
343.893	84.94
344.12	87.94
344.348	92.94
344.576	77.94
344.804	75.94
345.031	80.94
345.259	79.94
345.487	77.94
345.714	83.94
345.942	70.94
346.17	97.94
346.397	91.94
346.625	73.94
346.853	85.94
347.08	99.94
347.308	82.94
347.535	96.94
347.763	86.94
347.99	91.94
348.218	85.94
348.445	80.94
348.673	87.94
348.9	93.94
349.128	70.94
349.355	87.94
349.583	73.94
349.81	102.94
350.037	86.94
350.265	70.94
350.492	77.94
350.72	69.94
350.947	77.94
351.174	66.94
351.402	93.94
351.629	81.94
351.856	74.94
352.083	93.94
352.311	85.94
352.538	71.94
352.765	85.94
352.992	73.94
353.22	63.94
353.447	90.94
353.674	79.94
353.901	91.94
354.128	87.94
354.355	86.94
354.583	77.94
354.81	99.94
355.037	89.94
355.264	84.94
355.491	81.94
355.718	91.94
355.945	87.94
356.172	74.94
356.399	93.94
356.626	89.94
356.853	79.94
357.08	85.94
357.307	86.94
357.534	83.94
357.761	83.94
357.988	82.94
358.215	85.94
358.441	86.94
358.668	77.94
358.895	85.94
359.122	79.94
359.349	81.94
359.576	77.94
359.802	71.94
360.029	84.94
360.256	84.94
360.483	81.94
360.709	61.94
360.936	83.94
361.163	85.94
361.39	76.94
361.616	80.94
361.843	91.94
362.07	79.94
362.296	80.94
362.523	80.94
362.749	93.94
362.976	79.94
363.203	90.94
363.429	89.94
363.656	78.94
363.882	73.94
364.109	80.94
364.335	67.94
364.562	90.94
364.788	78.94
365.015	92.94
365.241	89.94
365.468	72.94
365.694	71.94
365.92	71.94
366.147	79.94
366.373	66.94
366.599	85.94
366.826	80.94
367.052	70.94
367.278	83.94
367.505	79.94
367.731	89.94
367.957	78.94
368.184	84.94
368.41	91.94
368.636	73.94
368.862	79.94
369.089	69.94
369.315	85.94
369.541	75.94
369.767	88.94
369.993	85.94
370.219	71.94
370.445	74.94
370.672	87.94
370.898	80.94
371.124	85.94
371.35	84.94
371.576	81.94
371.802	87.94
372.028	78.94
372.254	85.94
372.48	81.94
372.706	85.94
372.932	82.94
373.158	91.94
373.384	84.94
373.61	82.94
373.835	87.94
374.061	85.94
374.287	87.94
374.513	82.94
374.739	86.94
374.965	95.94
375.191	72.94
375.416	92.94
375.642	77.94
375.868	91.94
376.094	86.94
376.319	86.94
376.545	78.94
376.771	73.94
376.997	86.94
377.222	73.94
377.448	87.94
377.674	65.94
377.899	88.94
378.125	75.94
378.35	74.94
378.576	73.94
378.802	86.94
379.027	84.94
379.253	78.94
379.478	94.94
379.704	83.94
379.929	81.94
380.155	78.94
380.38	91.94
380.606	74.94
380.831	94.94
381.057	109.94
381.282	77.94
381.507	76.94
381.733	79.94
381.958	93.94
382.184	86.94
382.409	69.94
382.634	75.94
382.86	83.94
383.085	97.94
383.31	93.94
383.535	76.94
383.761	68.94
383.986	100.94
384.211	93.94
384.436	81.94
384.662	73.94
384.887	77.94
385.112	79.94
385.337	86.94
385.562	79.94
385.787	76.94
386.013	81.94
386.238	96.94
386.463	88.94
386.688	89.94
386.913	87.94
387.138	79.94
387.363	87.94
387.588	85.94
387.813	67.94
388.038	78.94
388.263	83.94
388.488	81.94
388.713	73.94
388.938	79.94
389.163	87.94
389.387	89.94
389.612	80.94
389.837	89.94
390.062	99.94
390.287	82.94
390.512	85.94
390.736	94.94
390.961	83.94
391.186	83.94
391.411	78.94
391.636	71.94
391.86	82.94
392.085	83.94
392.31	77.94
392.534	84.94
392.759	102.94
392.984	87.94
393.208	99.94
393.433	97.94
393.658	89.94
393.882	95.94
394.107	136.94
394.331	197.94
394.556	221.94
394.78	137.94
395.005	104.94
395.229	93.94
395.454	94.94
395.678	106.94
395.903	177.94
396.127	254.94
396.352	237.94
396.576	149.94
396.801	94.94
397.025	94.94
397.249	77.94
397.474	100.94
397.698	91.94
397.922	91.94
398.147	93.94
398.371	88.94
398.595	100.94
398.82	93.94
399.044	88.94
399.268	99.94
399.492	93.94
399.717	93.94
399.941	89.94
400.165	91.94
400.389	71.94
400.613	97.94
400.837	114.94
401.062	100.94
401.286	92.94
401.51	95.94
401.734	92.94
401.958	86.94
402.182	89.94
402.406	75.94
402.63	83.94
402.854	84.94
403.078	100.94
403.302	83.94
403.526	93.94
403.75	90.94
403.974	73.94
404.198	95.94
404.422	79.94
404.645	88.94
404.869	85.94
405.093	87.94
405.317	90.94
405.541	109.94
405.765	91.94
405.988	98.94
406.212	96.94
406.436	86.94
406.66	97.94
406.883	79.94
407.107	81.94
407.331	94.94
407.555	88.94
407.778	84.94
408.002	90.94
408.226	96.94
408.449	81.94
408.673	97.94
408.896	101.94
409.12	92.94
409.344	99.94
409.567	85.94
409.791	79.94
410.014	92.94
410.238	89.94
410.461	81.94
410.685	85.94
410.908	85.94
411.132	88.94
411.355	90.94
411.578	89.94
411.802	87.94
412.025	95.94
412.249	99.94
412.472	93.94
412.695	94.94
412.919	86.94
413.142	79.94
413.365	93.94
413.589	96.94
413.812	91.94
414.035	99.94
414.258	97.94
414.482	79.94
414.705	97.94
414.928	81.94
415.151	90.94
415.374	83.94
415.597	98.94
415.821	100.94
416.044	89.94
416.267	86.94
416.49	91.94
416.713	96.94
416.936	115.94
417.159	87.94
417.382	76.94
417.605	85.94
417.828	90.94
418.051	91.94
418.274	115.94
418.497	89.94
418.72	89.94
418.943	94.94
419.166	83.94
419.389	90.94
419.611	76.94
419.834	91.94
420.057	89.94
420.28	80.94
420.503	81.94
420.726	85.94
420.948	77.94
421.171	85.94
421.394	89.94
421.617	76.94
421.839	95.94
422.062	88.94
422.285	94.94
422.507	82.94
422.73	94.94
422.953	106.94
423.175	94.94
423.398	99.94
423.621	93.94
423.843	109.94
424.066	108.94
424.288	92.94
424.511	99.94
424.733	96.94
424.956	81.94
425.178	93.94
425.401	90.94
425.623	88.94
425.846	89.94
426.068	94.94
426.291	70.94
426.513	97.94
426.735	86.94
426.958	87.94
427.18	87.94
427.402	93.94
427.625	93.94
427.847	76.94
428.069	103.94
428.292	94.94
428.514	102.94
428.736	89.94
428.958	87.94
429.181	83.94
429.403	87.94
429.625	83.94
429.847	100.94
430.069	102.94
430.292	101.94
430.514	99.94
430.736	86.94
430.958	84.94
431.18	101.94
431.402	85.94
431.624	90.94
431.846	89.94
432.068	84.94
432.29	77.94
432.512	92.94
432.734	85.94
432.956	92.94
433.178	106.94
433.4	93.94
433.622	90.94
433.844	91.94
434.066	94.94
434.287	69.94
434.509	74.94
434.731	82.94
434.953	81.94
435.175	97.94
435.397	98.94
435.618	83.94
435.84	85.94
436.062	97.94
436.284	103.94
436.505	94.94
436.727	93.94
436.949	78.94
437.17	107.94
437.392	100.94
437.614	81.94
437.835	87.94
438.057	75.94
438.278	75.94
438.5	97.94
438.721	99.94
438.943	87.94
439.165	84.94
439.386	103.94
439.608	87.94
439.829	92.94
440.05	102.94
440.272	95.94
440.493	82.94
440.715	105.94
440.936	93.94
441.158	98.94
441.379	95.94
441.6	97.94
441.822	97.94
442.043	94.94
442.264	83.94
442.486	98.94
442.707	88.94
442.928	99.94
443.149	98.94
443.371	92.94
443.592	87.94
443.813	94.94
444.034	82.94
444.255	91.94
444.476	76.94
444.698	78.94
444.919	76.94
445.14	153.94
445.361	116.94
445.582	106.94
445.803	87.94
446.024	100.94
446.245	85.94
446.466	97.94
446.687	101.94
446.908	97.94
447.129	97.94
447.35	87.94
447.571	92.94
447.792	94.94
448.013	102.94
448.234	104.94
448.455	104.94
448.675	96.94
448.896	84.94
449.117	110.94
449.338	94.94
449.559	105.94
449.779	95.94
450	93.94
450.221	96.94
450.442	105.94
450.662	104.94
450.883	100.94
451.104	82.94
451.324	92.94
451.545	92.94
451.766	95.94
451.986	97.94
452.207	92.94
452.428	92.94
452.648	87.94
452.869	94.94
453.089	91.94
453.31	89.94
453.53	80.94
453.751	91.94
453.971	82.94
454.192	76.94
454.412	95.94
454.633	75.94
454.853	91.94
455.073	88.94
455.294	100.94
455.514	94.94
455.734	86.94
455.955	78.94
456.175	88.94
456.395	93.94
456.616	80.94
456.836	77.94
457.056	94.94
457.276	83.94
457.497	58.94
457.717	79.94
457.937	75.94
458.157	82.94
458.377	89.94
458.598	92.94
458.818	80.94
459.038	78.94
459.258	87.94
459.478	71.94
459.698	85.94
459.918	69.94
460.138	96.94
460.358	83.94
460.578	83.94
460.798	91.94
461.018	70.94
461.238	89.94
461.458	77.94
461.678	93.94
461.898	98.94
462.118	85.94
462.338	79.94
462.558	84.94
462.777	86.94
462.997	82.94
463.217	82.94
463.437	88.94
463.657	93.94
463.876	76.94
464.096	71.94
464.316	84.94
464.536	100.94
464.755	92.94
464.975	87.94
465.195	93.94
465.414	80.94
465.634	91.94
465.854	91.94
466.073	89.94
466.293	90.94
466.512	96.94
466.732	90.94
466.951	102.94
467.171	108.94
467.391	122.94
467.61	109.94
467.829	111.94
468.049	97.94
468.268	93.94
468.488	92.94
468.707	104.94
468.927	87.94
469.146	93.94
469.365	100.94
469.585	107.94
469.804	108.94
470.023	93.94
470.243	109.94
470.462	104.94
470.681	99.94
470.901	94.94
471.12	93.94
471.339	100.94
471.558	106.94
471.777	97.94
471.997	91.94
472.216	84.94
472.435	77.94
472.654	91.94
472.873	96.94
473.092	89.94
473.311	95.94
473.53	98.94
473.749	121.94
473.968	98.94
474.187	87.94
474.406	87.94
474.625	104.94
474.844	89.94
475.063	93.94
475.282	91.94
475.501	95.94
475.72	93.94
475.939	86.94
476.158	107.94
476.377	87.94
476.596	99.94
476.814	85.94
477.033	83.94
477.252	78.94
477.471	92.94
477.69	108.94
477.908	106.94
478.127	98.94
478.346	83.94
478.564	85.94
478.783	98.94
479.002	94.94
479.22	78.94
479.439	104.94
479.658	92.94
479.876	91.94
480.095	84.94
480.313	76.94
480.532	94.94
480.751	93.94
480.969	75.94
481.188	69.94
481.406	82.94
481.624	78.94
481.843	84.94
482.061	88.94
482.28	76.94
482.498	78.94
482.717	90.94
482.935	80.94
483.153	102.94
483.372	99.94
483.59	90.94
483.808	92.94
484.027	92.94
484.245	95.94
484.463	94.94
484.681	96.94
484.9	97.94
485.118	103.94
485.336	85.94
485.554	86.94
485.772	94.94
485.99	86.94
486.209	94.94
486.427	80.94
486.645	82.94
486.863	96.94
487.081	98.94
487.299	90.94
487.517	113.94
487.735	90.94
487.953	111.94
488.171	109.94
488.389	113.94
488.607	93.94
488.825	102.94
489.043	88.94
489.261	100.94
489.479	95.94
489.696	93.94
489.914	104.94
490.132	115.94
490.35	113.94
490.568	101.94
490.786	121.94
491.003	119.94
491.221	100.94
491.439	109.94
491.657	117.94
491.874	130.94
492.092	117.94
492.31	131.94
492.527	115.94
492.745	118.94
492.963	114.94
493.18	126.94
493.398	120.94
493.615	121.94
493.833	115.94
494.05	119.94
494.268	122.94
494.485	114.94
494.703	121.94
494.92	119.94
495.138	106.94
495.355	110.94
495.573	117.94
495.79	117.94
496.008	99.94
496.225	118.94
496.442	98.94
496.66	124.94
496.877	116.94
497.094	93.94
497.312	99.94
497.529	110.94
497.746	98.94
497.963	100.94
498.181	79.94
498.398	97.94
498.615	98.94
498.832	83.94
499.049	102.94
499.267	88.94
499.484	89.94
499.701	91.94
499.918	87.94
500.135	108.94
500.352	106.94
500.569	95.94
500.786	97.94
501.003	85.94
501.22	80.94
501.437	96.94
501.654	73.94
501.871	89.94
502.088	99.94
502.305	87.94
502.522	97.94
502.739	96.94
502.956	86.94
503.172	87.94
503.389	94.94
503.606	76.94
503.823	98.94
504.04	92.94
504.256	89.94
504.473	97.94
504.69	98.94
504.907	90.94
505.123	82.94
505.34	75.94
505.557	87.94
505.773	92.94
505.99	98.94
506.207	84.94
506.423	85.94
506.64	74.94
506.856	90.94
507.073	77.94
507.289	84.94
507.506	86.94
507.722	98.94
507.939	86.94
508.155	90.94
508.372	89.94
508.588	97.94
508.805	75.94
509.021	83.94
509.238	93.94
509.454	78.94
509.67	81.94
509.887	95.94
510.103	85.94
510.319	89.94
510.536	78.94
510.752	92.94
510.968	84.94
511.184	86.94
511.401	89.94
511.617	91.94
511.833	79.94
512.049	75.94
512.265	85.94
512.481	81.94
512.698	90.94
512.914	84.94
513.13	85.94
513.346	78.94
513.562	79.94
513.778	88.94
513.994	89.94
514.21	85.94
514.426	82.94
514.642	91.94
514.858	92.94
515.074	75.94
515.29	87.94
515.506	89.94
515.721	83.94
515.937	85.94
516.153	101.94
516.369	77.94
516.585	76.94
516.801	78.94
517.016	76.94
517.232	83.94
517.448	77.94
517.664	91.94
517.879	89.94
518.095	90.94
518.311	69.94
518.527	75.94
