Data from Foil_3_HRD10591_00004.txt Node
Date: Wed Nov 05 16:18:45 EST 2025
User: Yrep
Spectrometer: HR+D1059
Trigger mode: 1
Integration Time (sec): 1.000000E-1
Scans to average: 1
Electric dark correction enabled: true
Nonlinearity correction enabled: false
Boxcar width: 0
XAxis mode: Wavelengths
Number of Pixels in Spectrum: 2048
>>>>>Begin Spectral Data<<<<<
223.165	-11.31
223.4	-11.31
223.635	-11.31
223.869	-13.31
224.104	-20.31
224.338	-15.31
224.573	-18.31
224.808	-3.31
225.042	-2.31
225.277	-13.31
225.511	9.69
225.746	0.69
225.98	6.69
226.215	17.69
226.449	13.69
226.683	4.69
226.918	23.69
227.152	20.69
227.387	33.69
227.621	39.69
227.856	48.69
228.09	53.69
228.324	54.69
228.559	67.69
228.793	65.69
229.027	66.69
229.262	76.69
229.496	66.69
229.73	59.69
229.964	73.69
230.199	75.69
230.433	74.69
230.667	80.69
230.901	60.69
231.136	97.69
231.37	69.69
231.604	82.69
231.838	76.69
232.072	83.69
232.306	95.69
232.541	74.69
232.775	87.69
233.009	86.69
233.243	79.69
233.477	88.69
233.711	78.69
233.945	65.69
234.179	90.69
234.413	87.69
234.647	86.69
234.881	69.69
235.115	73.69
235.349	73.69
235.583	74.69
235.817	73.69
236.051	82.69
236.285	68.69
236.519	93.69
236.753	88.69
236.987	77.69
237.221	88.69
237.455	90.69
237.689	80.69
237.922	72.69
238.156	67.69
238.39	75.69
238.624	78.69
238.858	80.69
239.091	64.69
239.325	64.69
239.559	78.69
239.793	86.69
240.027	70.69
240.26	83.69
240.494	82.69
240.728	76.69
240.961	75.69
241.195	82.69
241.429	70.69
241.662	74.69
241.896	77.69
242.13	66.69
242.363	56.69
242.597	83.69
242.83	72.69
243.064	89.69
243.298	70.69
243.531	76.69
243.765	74.69
243.998	74.69
244.232	69.69
244.465	93.69
244.699	89.69
244.932	104.69
245.166	78.69
245.399	81.69
245.633	82.69
245.866	81.69
246.099	91.69
246.333	78.69
246.566	71.69
246.8	64.69
247.033	78.69
247.266	82.69
247.5	76.69
247.733	75.69
247.966	81.69
248.2	81.69
248.433	84.69
248.666	74.69
248.899	85.69
249.133	76.69
249.366	75.69
249.599	84.69
249.832	73.69
250.066	88.69
250.299	82.69
250.532	92.69
250.765	70.69
250.998	62.69
251.231	69.69
251.465	84.69
251.698	88.69
251.931	78.69
252.164	84.69
252.397	84.69
252.63	80.69
252.863	78.69
253.096	72.69
253.329	109.69
253.562	89.69
253.795	90.69
254.028	84.69
254.261	88.69
254.494	75.69
254.727	66.69
254.96	87.69
255.193	74.69
255.426	80.69
255.659	75.69
255.892	103.69
256.124	85.69
256.357	79.69
256.59	68.69
256.823	79.69
257.056	79.69
257.289	85.69
257.521	71.69
257.754	96.69
257.987	90.69
258.22	96.69
258.452	61.69
258.685	75.69
258.918	78.69
259.151	82.69
259.383	88.69
259.616	83.69
259.849	82.69
260.081	76.69
260.314	82.69
260.547	68.69
260.779	98.69
261.012	80.69
261.244	68.69
261.477	83.69
261.71	78.69
261.942	78.69
262.175	62.69
262.407	83.69
262.64	72.69
262.872	82.69
263.105	91.69
263.337	80.69
263.57	89.69
263.802	88.69
264.035	76.69
264.267	86.69
264.499	74.69
264.732	92.69
264.964	86.69
265.197	79.69
265.429	78.69
265.661	84.69
265.894	74.69
266.126	94.69
266.358	84.69
266.591	83.69
266.823	78.69
267.055	85.69
267.287	74.69
267.52	94.69
267.752	80.69
267.984	85.69
268.216	78.69
268.448	81.69
268.681	78.69
268.913	94.69
269.145	81.69
269.377	94.69
269.609	90.69
269.841	86.69
270.073	73.69
270.306	79.69
270.538	88.69
270.77	83.69
271.002	67.69
271.234	80.69
271.466	75.69
271.698	83.69
271.93	82.69
272.162	86.69
272.394	83.69
272.626	86.69
272.858	81.69
273.09	90.69
273.322	88.69
273.553	80.69
273.785	93.69
274.017	95.69
274.249	87.69
274.481	82.69
274.713	80.69
274.945	81.69
275.176	68.69
275.408	90.69
275.64	88.69
275.872	87.69
276.104	73.69
276.335	73.69
276.567	85.69
276.799	95.69
277.031	79.69
277.262	82.69
277.494	81.69
277.726	87.69
277.957	82.69
278.189	95.69
278.421	82.69
278.652	90.69
278.884	78.69
279.115	79.69
279.347	78.69
279.579	75.69
279.81	93.69
280.042	86.69
280.273	97.69
280.505	85.69
280.736	82.69
280.968	85.69
281.199	88.69
281.431	68.69
281.662	85.69
281.894	80.69
282.125	90.69
282.356	96.69
282.588	82.69
282.819	72.69
283.051	86.69
283.282	77.69
283.513	94.69
283.745	89.69
283.976	78.69
284.207	74.69
284.439	76.69
284.67	94.69
284.901	87.69
285.132	88.69
285.364	82.69
285.595	93.69
285.826	80.69
286.057	74.69
286.288	81.69
286.52	92.69
286.751	86.69
286.982	85.69
287.213	85.69
287.444	88.69
287.675	76.69
287.906	81.69
288.138	82.69
288.369	88.69
288.6	78.69
288.831	76.69
289.062	98.69
289.293	80.69
289.524	74.69
289.755	81.69
289.986	80.69
290.217	80.69
290.448	85.69
290.679	84.69
290.91	86.69
291.141	83.69
291.371	83.69
291.602	87.69
291.833	75.69
292.064	78.69
292.295	76.69
292.526	93.69
292.757	89.69
292.987	81.69
293.218	83.69
293.449	80.69
293.68	94.69
293.91	80.69
294.141	93.69
294.372	74.69
294.603	87.69
294.833	76.69
295.064	79.69
295.295	87.69
295.525	77.69
295.756	83.69
295.987	95.69
296.217	77.69
296.448	70.69
296.679	81.69
296.909	89.69
297.14	88.69
297.37	89.69
297.601	68.69
297.831	88.69
298.062	90.69
298.292	90.69
298.523	86.69
298.753	88.69
298.984	87.69
299.214	86.69
299.445	90.69
299.675	101.69
299.905	89.69
300.136	68.69
300.366	61.69
300.597	89.69
300.827	90.69
301.057	72.69
301.288	96.69
301.518	83.69
301.748	82.69
301.979	88.69
302.209	88.69
302.439	83.69
302.669	94.69
302.9	76.69
303.13	89.69
303.36	88.69
303.59	83.69
303.82	85.69
304.051	88.69
304.281	82.69
304.511	89.69
304.741	88.69
304.971	85.69
305.201	74.69
305.431	80.69
305.661	89.69
305.891	82.69
306.121	100.69
306.352	74.69
306.582	89.69
306.812	92.69
307.042	85.69
307.272	88.69
307.502	72.69
307.731	97.69
307.961	107.69
308.191	117.69
308.421	119.69
308.651	102.69
308.881	107.69
309.111	113.69
309.341	155.69
309.571	129.69
309.8	93.69
310.03	74.69
310.26	89.69
310.49	69.69
310.72	75.69
310.949	83.69
311.179	93.69
311.409	80.69
311.639	72.69
311.868	99.69
312.098	100.69
312.328	79.69
312.557	100.69
312.787	67.69
313.017	94.69
313.246	96.69
313.476	76.69
313.706	88.69
313.935	89.69
314.165	77.69
314.394	86.69
314.624	92.69
314.853	80.69
315.083	88.69
315.312	77.69
315.542	86.69
315.771	80.69
316.001	78.69
316.23	97.69
316.46	87.69
316.689	68.69
316.919	86.69
317.148	89.69
317.377	90.69
317.607	101.69
317.836	81.69
318.065	79.69
318.295	78.69
318.524	81.69
318.753	81.69
318.983	82.69
319.212	96.69
319.441	80.69
319.67	83.69
319.9	84.69
320.129	83.69
320.358	80.69
320.587	76.69
320.816	85.69
321.046	68.69
321.275	90.69
321.504	89.69
321.733	74.69
321.962	87.69
322.191	64.69
322.42	77.69
322.649	78.69
322.878	85.69
323.108	68.69
323.337	94.69
323.566	94.69
323.795	81.69
324.024	80.69
324.253	92.69
324.482	86.69
324.71	92.69
324.939	78.69
325.168	76.69
325.397	76.69
325.626	97.69
325.855	80.69
326.084	74.69
326.313	72.69
326.542	85.69
326.77	74.69
326.999	90.69
327.228	80.69
327.457	90.69
327.686	82.69
327.914	87.69
328.143	92.69
328.372	77.69
328.6	78.69
328.829	86.69
329.058	72.69
329.287	75.69
329.515	86.69
329.744	85.69
329.972	79.69
330.201	90.69
330.43	88.69
330.658	88.69
330.887	91.69
331.115	72.69
331.344	89.69
331.572	96.69
331.801	86.69
332.03	95.69
332.258	85.69
332.486	87.69
332.715	91.69
332.943	77.69
333.172	76.69
333.4	85.69
333.629	74.69
333.857	101.69
334.085	81.69
334.314	82.69
334.542	90.69
334.771	78.69
334.999	84.69
335.227	82.69
335.455	77.69
335.684	76.69
335.912	76.69
336.14	82.69
336.369	78.69
336.597	87.69
336.825	92.69
337.053	86.69
337.281	77.69
337.51	79.69
337.738	96.69
337.966	81.69
338.194	80.69
338.422	82.69
338.65	77.69
338.878	89.69
339.106	96.69
339.334	87.69
339.562	87.69
339.79	81.69
340.018	86.69
340.246	78.69
340.474	87.69
340.702	82.69
340.93	78.69
341.158	74.69
341.386	90.69
341.614	72.69
341.842	71.69
342.07	91.69
342.298	86.69
342.526	89.69
342.754	90.69
342.981	87.69
343.209	64.69
343.437	100.69
343.665	109.69
343.893	78.69
344.12	89.69
344.348	98.69
344.576	72.69
344.804	83.69
345.031	104.69
345.259	84.69
345.487	87.69
345.714	76.69
345.942	84.69
346.17	72.69
346.397	88.69
346.625	79.69
346.853	85.69
347.08	80.69
347.308	74.69
347.535	68.69
347.763	73.69
347.99	83.69
348.218	95.69
348.445	80.69
348.673	81.69
348.9	87.69
349.128	76.69
349.355	72.69
349.583	81.69
349.81	83.69
350.037	86.69
350.265	86.69
350.492	93.69
350.72	87.69
350.947	87.69
351.174	95.69
351.402	75.69
351.629	77.69
351.856	90.69
352.083	76.69
352.311	85.69
352.538	76.69
352.765	79.69
352.992	103.69
353.22	88.69
353.447	82.69
353.674	88.69
353.901	94.69
354.128	66.69
354.355	88.69
354.583	86.69
354.81	81.69
355.037	100.69
355.264	96.69
355.491	72.69
355.718	76.69
355.945	82.69
356.172	88.69
356.399	70.69
356.626	79.69
356.853	92.69
357.08	92.69
357.307	73.69
357.534	79.69
357.761	76.69
357.988	86.69
358.215	80.69
358.441	80.69
358.668	89.69
358.895	77.69
359.122	79.69
359.349	87.69
359.576	77.69
359.802	73.69
360.029	78.69
360.256	81.69
360.483	83.69
360.709	81.69
360.936	112.69
361.163	86.69
361.39	92.69
361.616	85.69
361.843	70.69
362.07	93.69
362.296	84.69
362.523	76.69
362.749	92.69
362.976	81.69
363.203	82.69
363.429	88.69
363.656	86.69
363.882	77.69
364.109	76.69
364.335	64.69
364.562	80.69
364.788	74.69
365.015	81.69
365.241	76.69
365.468	82.69
365.694	80.69
365.92	86.69
366.147	66.69
366.373	75.69
366.599	92.69
366.826	83.69
367.052	97.69
367.278	82.69
367.505	84.69
367.731	96.69
367.957	87.69
368.184	86.69
368.41	75.69
368.636	81.69
368.862	88.69
369.089	86.69
369.315	79.69
369.541	91.69
369.767	90.69
369.993	81.69
370.219	85.69
370.445	80.69
370.672	81.69
370.898	83.69
371.124	91.69
371.35	100.69
371.576	76.69
371.802	71.69
372.028	79.69
372.254	78.69
372.48	71.69
372.706	73.69
372.932	91.69
373.158	99.69
373.384	97.69
373.61	70.69
373.835	84.69
374.061	81.69
374.287	86.69
374.513	84.69
374.739	89.69
374.965	76.69
375.191	82.69
375.416	68.69
375.642	84.69
375.868	93.69
376.094	84.69
376.319	89.69
376.545	74.69
376.771	90.69
376.997	82.69
377.222	74.69
377.448	87.69
377.674	80.69
377.899	91.69
378.125	89.69
378.35	90.69
378.576	93.69
378.802	85.69
379.027	95.69
379.253	92.69
379.478	89.69
379.704	76.69
379.929	80.69
380.155	87.69
380.38	84.69
380.606	81.69
380.831	96.69
381.057	74.69
381.282	89.69
381.507	88.69
381.733	109.69
381.958	84.69
382.184	84.69
382.409	96.69
382.634	91.69
382.86	93.69
383.085	90.69
383.31	97.69
383.535	74.69
383.761	82.69
383.986	97.69
384.211	81.69
384.436	77.69
384.662	90.69
384.887	89.69
385.112	82.69
385.337	104.69
385.562	101.69
385.787	95.69
386.013	90.69
386.238	78.69
386.463	83.69
386.688	97.69
386.913	90.69
387.138	84.69
387.363	78.69
387.588	76.69
387.813	101.69
388.038	88.69
388.263	88.69
388.488	85.69
388.713	93.69
388.938	89.69
389.163	86.69
389.387	72.69
389.612	92.69
389.837	86.69
390.062	99.69
390.287	86.69
390.512	97.69
390.736	78.69
390.961	86.69
391.186	82.69
391.411	81.69
391.636	78.69
391.86	84.69
392.085	84.69
392.31	79.69
392.534	88.69
392.759	88.69
392.984	96.69
393.208	88.69
393.433	91.69
393.658	105.69
393.882	122.69
394.107	144.69
394.331	215.69
394.556	251.69
394.78	135.69
395.005	102.69
395.229	103.69
395.454	94.69
395.678	109.69
395.903	185.69
396.127	273.69
396.352	272.69
396.576	132.69
396.801	105.69
397.025	86.69
397.249	94.69
397.474	84.69
397.698	81.69
397.922	92.69
398.147	89.69
398.371	88.69
398.595	96.69
398.82	109.69
399.044	86.69
399.268	83.69
399.492	97.69
399.717	93.69
399.941	94.69
400.165	88.69
400.389	82.69
400.613	94.69
400.837	83.69
401.062	93.69
401.286	93.69
401.51	82.69
401.734	93.69
401.958	96.69
402.182	108.69
402.406	97.69
402.63	93.69
402.854	105.69
403.078	89.69
403.302	78.69
403.526	98.69
403.75	96.69
403.974	88.69
404.198	95.69
404.422	97.69
404.645	96.69
404.869	102.69
405.093	88.69
405.317	92.69
405.541	95.69
405.765	88.69
405.988	90.69
406.212	89.69
406.436	92.69
406.66	97.69
406.883	92.69
407.107	96.69
407.331	80.69
407.555	95.69
407.778	94.69
408.002	92.69
408.226	89.69
408.449	93.69
408.673	96.69
408.896	107.69
409.12	100.69
409.344	97.69
409.567	86.69
409.791	91.69
410.014	93.69
410.238	97.69
410.461	101.69
410.685	104.69
410.908	109.69
411.132	105.69
411.355	97.69
411.578	103.69
411.802	86.69
412.025	82.69
412.249	111.69
412.472	91.69
412.695	93.69
412.919	96.69
413.142	101.69
413.365	104.69
413.589	104.69
413.812	95.69
414.035	89.69
414.258	92.69
414.482	104.69
414.705	94.69
414.928	102.69
415.151	92.69
415.374	107.69
415.597	96.69
415.821	88.69
416.044	87.69
416.267	82.69
416.49	87.69
416.713	99.69
416.936	87.69
417.159	92.69
417.382	93.69
417.605	93.69
417.828	97.69
418.051	99.69
418.274	94.69
418.497	100.69
418.72	93.69
418.943	88.69
419.166	91.69
419.389	92.69
419.611	97.69
419.834	106.69
420.057	97.69
420.28	102.69
420.503	97.69
420.726	102.69
420.948	116.69
421.171	96.69
421.394	84.69
421.617	101.69
421.839	96.69
422.062	98.69
422.285	95.69
422.507	112.69
422.73	92.69
422.953	96.69
423.175	88.69
423.398	93.69
423.621	98.69
423.843	94.69
424.066	107.69
424.288	111.69
424.511	88.69
424.733	89.69
424.956	95.69
425.178	87.69
425.401	87.69
425.623	89.69
425.846	84.69
426.068	84.69
426.291	100.69
426.513	90.69
426.735	89.69
426.958	88.69
427.18	82.69
427.402	103.69
427.625	94.69
427.847	95.69
428.069	97.69
428.292	109.69
428.514	98.69
428.736	105.69
428.958	95.69
429.181	113.69
429.403	100.69
429.625	96.69
429.847	93.69
430.069	96.69
430.292	79.69
430.514	103.69
430.736	94.69
430.958	95.69
431.18	93.69
431.402	95.69
431.624	100.69
431.846	76.69
432.068	81.69
432.29	86.69
432.512	88.69
432.734	107.69
432.956	100.69
433.178	110.69
433.4	111.69
433.622	106.69
433.844	85.69
434.066	81.69
434.287	86.69
434.509	75.69
434.731	93.69
434.953	89.69
435.175	88.69
435.397	98.69
435.618	96.69
435.84	94.69
436.062	89.69
436.284	84.69
436.505	92.69
436.727	81.69
436.949	90.69
437.17	94.69
437.392	90.69
437.614	82.69
437.835	84.69
438.057	97.69
438.278	99.69
438.5	97.69
438.721	86.69
438.943	98.69
439.165	87.69
439.386	96.69
439.608	97.69
439.829	106.69
440.05	103.69
440.272	90.69
440.493	98.69
440.715	116.69
440.936	119.69
441.158	121.69
441.379	86.69
441.6	100.69
441.822	102.69
442.043	89.69
442.264	92.69
442.486	104.69
442.707	90.69
442.928	91.69
443.149	96.69
443.371	112.69
443.592	101.69
443.813	113.69
444.034	106.69
444.255	94.69
444.476	95.69
444.698	99.69
444.919	109.69
445.14	171.69
445.361	133.69
445.582	97.69
445.803	90.69
446.024	97.69
446.245	109.69
446.466	85.69
446.687	104.69
446.908	97.69
447.129	97.69
447.35	119.69
447.571	103.69
447.792	109.69
448.013	77.69
448.234	101.69
448.455	92.69
448.675	98.69
448.896	96.69
449.117	103.69
449.338	89.69
449.559	94.69
449.779	86.69
450	101.69
450.221	112.69
450.442	110.69
450.662	88.69
450.883	87.69
451.104	97.69
451.324	83.69
451.545	95.69
451.766	92.69
451.986	94.69
452.207	93.69
452.428	86.69
452.648	98.69
452.869	95.69
453.089	96.69
453.31	86.69
453.53	88.69
453.751	88.69
453.971	87.69
454.192	100.69
454.412	106.69
454.633	89.69
454.853	86.69
455.073	92.69
455.294	101.69
455.514	96.69
455.734	88.69
455.955	97.69
456.175	84.69
456.395	85.69
456.616	82.69
456.836	98.69
457.056	81.69
457.276	88.69
457.497	88.69
457.717	106.69
457.937	90.69
458.157	78.69
458.377	93.69
458.598	92.69
458.818	94.69
459.038	92.69
459.258	103.69
459.478	86.69
459.698	75.69
459.918	100.69
460.138	89.69
460.358	70.69
460.578	89.69
460.798	80.69
461.018	104.69
461.238	88.69
461.458	93.69
461.678	101.69
461.898	99.69
462.118	93.69
462.338	93.69
462.558	93.69
462.777	87.69
462.997	96.69
463.217	88.69
463.437	94.69
463.657	90.69
463.876	86.69
464.096	97.69
464.316	88.69
464.536	79.69
464.755	94.69
464.975	90.69
465.195	97.69
465.414	91.69
465.634	93.69
465.854	94.69
466.073	99.69
466.293	100.69
466.512	104.69
466.732	105.69
466.951	98.69
467.171	92.69
467.391	111.69
467.61	107.69
467.829	125.69
468.049	101.69
468.268	111.69
468.488	101.69
468.707	89.69
468.927	109.69
469.146	104.69
469.365	112.69
469.585	127.69
469.804	108.69
470.023	109.69
470.243	107.69
470.462	108.69
470.681	91.69
470.901	112.69
471.12	96.69
471.339	99.69
471.558	108.69
471.777	92.69
471.997	90.69
472.216	101.69
472.435	99.69
472.654	81.69
472.873	86.69
473.092	103.69
473.311	105.69
473.53	114.69
473.749	110.69
473.968	94.69
474.187	102.69
474.406	79.69
474.625	94.69
474.844	96.69
475.063	102.69
475.282	91.69
475.501	81.69
475.72	79.69
475.939	97.69
476.158	90.69
476.377	85.69
476.596	94.69
476.814	91.69
477.033	94.69
477.252	93.69
477.471	101.69
477.69	103.69
477.908	97.69
478.127	109.69
478.346	96.69
478.564	92.69
478.783	84.69
479.002	106.69
479.22	110.69
479.439	108.69
479.658	81.69
479.876	88.69
480.095	86.69
480.313	86.69
480.532	93.69
480.751	86.69
480.969	81.69
481.188	92.69
481.406	89.69
481.624	93.69
481.843	76.69
482.061	91.69
482.28	100.69
482.498	88.69
482.717	89.69
482.935	93.69
483.153	91.69
483.372	91.69
483.59	100.69
483.808	100.69
484.027	99.69
484.245	98.69
484.463	90.69
484.681	91.69
484.9	100.69
485.118	105.69
485.336	88.69
485.554	96.69
485.772	98.69
485.99	94.69
486.209	82.69
486.427	92.69
486.645	95.69
486.863	95.69
487.081	98.69
487.299	104.69
487.517	110.69
487.735	104.69
487.953	109.69
488.171	109.69
488.389	87.69
488.607	100.69
488.825	102.69
489.043	107.69
489.261	111.69
489.479	89.69
489.696	79.69
489.914	93.69
490.132	80.69
490.35	109.69
490.568	116.69
490.786	109.69
491.003	119.69
491.221	116.69
491.439	116.69
491.657	118.69
491.874	120.69
492.092	141.69
492.31	119.69
492.527	113.69
492.745	113.69
492.963	114.69
493.18	113.69
493.398	122.69
493.615	113.69
493.833	105.69
494.05	104.69
494.268	105.69
494.485	112.69
494.703	120.69
494.92	125.69
495.138	112.69
495.355	119.69
495.573	113.69
495.79	113.69
496.008	108.69
496.225	112.69
496.442	113.69
496.66	107.69
496.877	101.69
497.094	103.69
497.312	98.69
497.529	113.69
497.746	114.69
497.963	93.69
498.181	108.69
498.398	92.69
498.615	97.69
498.832	92.69
499.049	74.69
499.267	96.69
499.484	102.69
499.701	108.69
499.918	109.69
500.135	109.69
500.352	97.69
500.569	103.69
500.786	113.69
501.003	107.69
501.22	89.69
501.437	95.69
501.654	98.69
501.871	94.69
502.088	109.69
502.305	99.69
502.522	79.69
502.739	98.69
502.956	94.69
503.172	104.69
503.389	90.69
503.606	90.69
503.823	105.69
504.04	93.69
504.256	104.69
504.473	92.69
504.69	90.69
504.907	90.69
505.123	88.69
505.34	92.69
505.557	91.69
505.773	89.69
505.99	86.69
506.207	84.69
506.423	83.69
506.64	97.69
506.856	100.69
507.073	91.69
507.289	93.69
507.506	99.69
507.722	109.69
507.939	104.69
508.155	98.69
508.372	104.69
508.588	98.69
508.805	89.69
509.021	105.69
509.238	92.69
509.454	81.69
509.67	86.69
509.887	82.69
510.103	85.69
510.319	86.69
510.536	103.69
510.752	86.69
510.968	93.69
511.184	88.69
511.401	86.69
511.617	94.69
511.833	94.69
512.049	84.69
512.265	93.69
512.481	83.69
512.698	88.69
512.914	93.69
513.13	89.69
513.346	95.69
513.562	88.69
513.778	78.69
513.994	72.69
514.21	94.69
514.426	91.69
514.642	89.69
514.858	71.69
515.074	92.69
515.29	89.69
515.506	101.69
515.721	93.69
515.937	82.69
516.153	82.69
516.369	103.69
516.585	83.69
516.801	100.69
517.016	102.69
517.232	78.69
