Data from Foil_3_HRD10591_00018.txt Node
Date: Wed Nov 05 16:18:52 EST 2025
User: Yrep
Spectrometer: HR+D1059
Trigger mode: 1
Integration Time (sec): 1.000000E-1
Scans to average: 1
Electric dark correction enabled: true
Nonlinearity correction enabled: false
Boxcar width: 0
XAxis mode: Wavelengths
Number of Pixels in Spectrum: 2048
>>>>>Begin Spectral Data<<<<<
223.165	-22.5
223.4	-22.5
223.635	-22.5
223.869	-23.5
224.104	-19.5
224.338	-18.5
224.573	-20.5
224.808	-8.5
225.042	-6.5
225.277	-7.5
225.511	-5.5
225.746	4.5
225.98	1.5
226.215	11.5
226.449	16.5
226.683	29.5
226.918	28.5
227.152	40.5
227.387	21.5
227.621	41.5
227.856	49.5
228.09	44.5
228.324	53.5
228.559	57.5
228.793	68.5
229.027	74.5
229.262	65.5
229.496	62.5
229.73	69.5
229.964	72.5
230.199	86.5
230.433	68.5
230.667	76.5
230.901	77.5
231.136	78.5
231.37	81.5
231.604	91.5
231.838	90.5
232.072	84.5
232.306	83.5
232.541	89.5
232.775	75.5
233.009	90.5
233.243	87.5
233.477	79.5
233.711	79.5
233.945	87.5
234.179	94.5
234.413	74.5
234.647	80.5
234.881	80.5
235.115	84.5
235.349	60.5
235.583	68.5
235.817	82.5
236.051	96.5
236.285	78.5
236.519	80.5
236.753	76.5
236.987	93.5
237.221	88.5
237.455	88.5
237.689	94.5
237.922	84.5
238.156	73.5
238.39	72.5
238.624	74.5
238.858	88.5
239.091	64.5
239.325	79.5
239.559	73.5
239.793	72.5
240.027	83.5
240.26	70.5
240.494	78.5
240.728	92.5
240.961	74.5
241.195	82.5
241.429	80.5
241.662	79.5
241.896	82.5
242.13	82.5
242.363	82.5
242.597	65.5
242.83	81.5
243.064	81.5
243.298	77.5
243.531	77.5
243.765	80.5
243.998	72.5
244.232	81.5
244.465	77.5
244.699	73.5
244.932	65.5
245.166	76.5
245.399	76.5
245.633	76.5
245.866	72.5
246.099	73.5
246.333	73.5
246.566	69.5
246.8	75.5
247.033	79.5
247.266	81.5
247.5	92.5
247.733	88.5
247.966	93.5
248.2	76.5
248.433	86.5
248.666	66.5
248.899	83.5
249.133	69.5
249.366	80.5
249.599	74.5
249.832	75.5
250.066	85.5
250.299	64.5
250.532	80.5
250.765	76.5
250.998	80.5
251.231	65.5
251.465	69.5
251.698	78.5
251.931	73.5
252.164	95.5
252.397	83.5
252.63	74.5
252.863	68.5
253.096	74.5
253.329	67.5
253.562	73.5
253.795	80.5
254.028	78.5
254.261	80.5
254.494	78.5
254.727	80.5
254.96	89.5
255.193	77.5
255.426	88.5
255.659	87.5
255.892	88.5
256.124	75.5
256.357	74.5
256.59	82.5
256.823	77.5
257.056	86.5
257.289	89.5
257.521	84.5
257.754	84.5
257.987	71.5
258.22	76.5
258.452	91.5
258.685	77.5
258.918	71.5
259.151	79.5
259.383	92.5
259.616	80.5
259.849	80.5
260.081	73.5
260.314	82.5
260.547	88.5
260.779	74.5
261.012	80.5
261.244	73.5
261.477	98.5
261.71	78.5
261.942	79.5
262.175	74.5
262.407	63.5
262.64	90.5
262.872	91.5
263.105	66.5
263.337	90.5
263.57	83.5
263.802	88.5
264.035	72.5
264.267	87.5
264.499	70.5
264.732	87.5
264.964	80.5
265.197	76.5
265.429	72.5
265.661	88.5
265.894	81.5
266.126	91.5
266.358	80.5
266.591	80.5
266.823	74.5
267.055	80.5
267.287	100.5
267.52	82.5
267.752	96.5
267.984	98.5
268.216	88.5
268.448	87.5
268.681	76.5
268.913	77.5
269.145	92.5
269.377	85.5
269.609	85.5
269.841	77.5
270.073	104.5
270.306	82.5
270.538	72.5
270.77	76.5
271.002	101.5
271.234	88.5
271.466	74.5
271.698	89.5
271.93	85.5
272.162	99.5
272.394	86.5
272.626	76.5
272.858	71.5
273.09	74.5
273.322	83.5
273.553	80.5
273.785	80.5
274.017	93.5
274.249	72.5
274.481	86.5
274.713	79.5
274.945	101.5
275.176	76.5
275.408	91.5
275.64	92.5
275.872	100.5
276.104	73.5
276.335	83.5
276.567	89.5
276.799	88.5
277.031	70.5
277.262	88.5
277.494	78.5
277.726	84.5
277.957	79.5
278.189	83.5
278.421	82.5
278.652	68.5
278.884	72.5
279.115	79.5
279.347	68.5
279.579	88.5
279.81	108.5
280.042	96.5
280.273	84.5
280.505	90.5
280.736	74.5
280.968	80.5
281.199	88.5
281.431	89.5
281.662	77.5
281.894	94.5
282.125	109.5
282.356	76.5
282.588	79.5
282.819	88.5
283.051	79.5
283.282	82.5
283.513	86.5
283.745	86.5
283.976	92.5
284.207	72.5
284.439	75.5
284.67	90.5
284.901	92.5
285.132	81.5
285.364	90.5
285.595	89.5
285.826	93.5
286.057	78.5
286.288	93.5
286.52	66.5
286.751	79.5
286.982	98.5
287.213	87.5
287.444	92.5
287.675	95.5
287.906	86.5
288.138	88.5
288.369	92.5
288.6	83.5
288.831	76.5
289.062	90.5
289.293	82.5
289.524	93.5
289.755	81.5
289.986	84.5
290.217	80.5
290.448	98.5
290.679	78.5
290.91	85.5
291.141	80.5
291.371	76.5
291.602	86.5
291.833	84.5
292.064	84.5
292.295	88.5
292.526	89.5
292.757	85.5
292.987	82.5
293.218	79.5
293.449	78.5
293.68	90.5
293.91	68.5
294.141	95.5
294.372	89.5
294.603	95.5
294.833	88.5
295.064	82.5
295.295	86.5
295.525	76.5
295.756	84.5
295.987	80.5
296.217	80.5
296.448	77.5
296.679	94.5
296.909	85.5
297.14	101.5
297.37	85.5
297.601	85.5
297.831	80.5
298.062	90.5
298.292	86.5
298.523	98.5
298.753	89.5
298.984	89.5
299.214	98.5
299.445	79.5
299.675	87.5
299.905	94.5
300.136	82.5
300.366	95.5
300.597	86.5
300.827	94.5
301.057	95.5
301.288	97.5
301.518	90.5
301.748	82.5
301.979	92.5
302.209	90.5
302.439	91.5
302.669	82.5
302.9	77.5
303.13	64.5
303.36	80.5
303.59	78.5
303.82	85.5
304.051	89.5
304.281	89.5
304.511	88.5
304.741	79.5
304.971	86.5
305.201	86.5
305.431	88.5
305.661	89.5
305.891	82.5
306.121	96.5
306.352	90.5
306.582	80.5
306.812	80.5
307.042	79.5
307.272	90.5
307.502	86.5
307.731	104.5
307.961	111.5
308.191	135.5
308.421	127.5
308.651	97.5
308.881	103.5
309.111	125.5
309.341	140.5
309.571	138.5
309.8	70.5
310.03	74.5
310.26	79.5
310.49	73.5
310.72	89.5
310.949	93.5
311.179	94.5
311.409	83.5
311.639	94.5
311.868	105.5
312.098	102.5
312.328	84.5
312.557	92.5
312.787	75.5
313.017	89.5
313.246	81.5
313.476	80.5
313.706	88.5
313.935	75.5
314.165	85.5
314.394	72.5
314.624	74.5
314.853	93.5
315.083	73.5
315.312	85.5
315.542	63.5
315.771	96.5
316.001	90.5
316.23	77.5
316.46	76.5
316.689	68.5
316.919	85.5
317.148	91.5
317.377	88.5
317.607	97.5
317.836	85.5
318.065	74.5
318.295	88.5
318.524	82.5
318.753	68.5
318.983	77.5
319.212	90.5
319.441	77.5
319.67	74.5
319.9	86.5
320.129	86.5
320.358	95.5
320.587	78.5
320.816	98.5
321.046	72.5
321.275	96.5
321.504	74.5
321.733	77.5
321.962	82.5
322.191	90.5
322.42	95.5
322.649	89.5
322.878	88.5
323.108	101.5
323.337	92.5
323.566	92.5
323.795	95.5
324.024	93.5
324.253	93.5
324.482	80.5
324.71	90.5
324.939	91.5
325.168	81.5
325.397	77.5
325.626	99.5
325.855	80.5
326.084	88.5
326.313	74.5
326.542	95.5
326.77	99.5
326.999	98.5
327.228	78.5
327.457	89.5
327.686	80.5
327.914	74.5
328.143	98.5
328.372	90.5
328.6	89.5
328.829	83.5
329.058	93.5
329.287	88.5
329.515	76.5
329.744	84.5
329.972	89.5
330.201	87.5
330.43	85.5
330.658	90.5
330.887	82.5
331.115	86.5
331.344	80.5
331.572	86.5
331.801	101.5
332.03	86.5
332.258	101.5
332.486	82.5
332.715	76.5
332.943	81.5
333.172	80.5
333.4	84.5
333.629	90.5
333.857	80.5
334.085	86.5
334.314	92.5
334.542	77.5
334.771	80.5
334.999	88.5
335.227	84.5
335.455	80.5
335.684	78.5
335.912	97.5
336.14	98.5
336.369	92.5
336.597	90.5
336.825	86.5
337.053	82.5
337.281	83.5
337.51	80.5
337.738	76.5
337.966	80.5
338.194	97.5
338.422	82.5
338.65	79.5
338.878	83.5
339.106	93.5
339.334	93.5
339.562	81.5
339.79	83.5
340.018	65.5
340.246	88.5
340.474	81.5
340.702	84.5
340.93	83.5
341.158	89.5
341.386	81.5
341.614	90.5
341.842	88.5
342.07	86.5
342.298	80.5
342.526	90.5
342.754	90.5
342.981	88.5
343.209	81.5
343.437	105.5
343.665	90.5
343.893	80.5
344.12	82.5
344.348	77.5
344.576	72.5
344.804	79.5
345.031	77.5
345.259	91.5
345.487	89.5
345.714	77.5
345.942	76.5
346.17	86.5
346.397	82.5
346.625	86.5
346.853	82.5
347.08	76.5
347.308	91.5
347.535	76.5
347.763	92.5
347.99	76.5
348.218	83.5
348.445	93.5
348.673	74.5
348.9	97.5
349.128	98.5
349.355	80.5
349.583	88.5
349.81	82.5
350.037	76.5
350.265	78.5
350.492	81.5
350.72	76.5
350.947	84.5
351.174	80.5
351.402	91.5
351.629	75.5
351.856	88.5
352.083	80.5
352.311	77.5
352.538	96.5
352.765	87.5
352.992	85.5
353.22	80.5
353.447	75.5
353.674	93.5
353.901	81.5
354.128	78.5
354.355	85.5
354.583	74.5
354.81	82.5
355.037	88.5
355.264	85.5
355.491	80.5
355.718	76.5
355.945	73.5
356.172	85.5
356.399	93.5
356.626	94.5
356.853	71.5
357.08	93.5
357.307	81.5
357.534	66.5
357.761	79.5
357.988	84.5
358.215	100.5
358.441	77.5
358.668	64.5
358.895	74.5
359.122	92.5
359.349	90.5
359.576	87.5
359.802	89.5
360.029	76.5
360.256	80.5
360.483	87.5
360.709	92.5
360.936	77.5
361.163	78.5
361.39	97.5
361.616	89.5
361.843	95.5
362.07	84.5
362.296	81.5
362.523	74.5
362.749	86.5
362.976	82.5
363.203	75.5
363.429	81.5
363.656	97.5
363.882	92.5
364.109	81.5
364.335	94.5
364.562	71.5
364.788	91.5
365.015	93.5
365.241	73.5
365.468	77.5
365.694	90.5
365.92	86.5
366.147	86.5
366.373	81.5
366.599	76.5
366.826	88.5
367.052	92.5
367.278	81.5
367.505	78.5
367.731	95.5
367.957	84.5
368.184	87.5
368.41	78.5
368.636	77.5
368.862	80.5
369.089	76.5
369.315	86.5
369.541	77.5
369.767	85.5
369.993	94.5
370.219	79.5
370.445	91.5
370.672	82.5
370.898	76.5
371.124	90.5
371.35	80.5
371.576	68.5
371.802	90.5
372.028	90.5
372.254	81.5
372.48	92.5
372.706	84.5
372.932	75.5
373.158	86.5
373.384	73.5
373.61	88.5
373.835	86.5
374.061	83.5
374.287	85.5
374.513	92.5
374.739	97.5
374.965	83.5
375.191	101.5
375.416	79.5
375.642	80.5
375.868	91.5
376.094	94.5
376.319	85.5
376.545	102.5
376.771	80.5
376.997	88.5
377.222	89.5
377.448	86.5
377.674	97.5
377.899	88.5
378.125	84.5
378.35	85.5
378.576	89.5
378.802	74.5
379.027	73.5
379.253	90.5
379.478	95.5
379.704	84.5
379.929	97.5
380.155	72.5
380.38	75.5
380.606	81.5
380.831	95.5
381.057	89.5
381.282	100.5
381.507	91.5
381.733	89.5
381.958	88.5
382.184	70.5
382.409	92.5
382.634	101.5
382.86	88.5
383.085	79.5
383.31	104.5
383.535	78.5
383.761	76.5
383.986	77.5
384.211	88.5
384.436	84.5
384.662	61.5
384.887	88.5
385.112	93.5
385.337	93.5
385.562	74.5
385.787	89.5
386.013	84.5
386.238	80.5
386.463	82.5
386.688	108.5
386.913	85.5
387.138	86.5
387.363	74.5
387.588	90.5
387.813	77.5
388.038	104.5
388.263	95.5
388.488	82.5
388.713	85.5
388.938	88.5
389.163	80.5
389.387	75.5
389.612	88.5
389.837	69.5
390.062	98.5
390.287	88.5
390.512	94.5
390.736	78.5
390.961	97.5
391.186	76.5
391.411	90.5
391.636	93.5
391.86	94.5
392.085	97.5
392.31	83.5
392.534	89.5
392.759	86.5
392.984	90.5
393.208	80.5
393.433	77.5
393.658	80.5
393.882	96.5
394.107	132.5
394.331	212.5
394.556	237.5
394.78	137.5
395.005	101.5
395.229	108.5
395.454	101.5
395.678	113.5
395.903	173.5
396.127	260.5
396.352	256.5
396.576	131.5
396.801	102.5
397.025	90.5
397.249	96.5
397.474	100.5
397.698	100.5
397.922	103.5
398.147	98.5
398.371	85.5
398.595	87.5
398.82	104.5
399.044	77.5
399.268	95.5
399.492	100.5
399.717	89.5
399.941	91.5
400.165	90.5
400.389	97.5
400.613	93.5
400.837	86.5
401.062	85.5
401.286	89.5
401.51	94.5
401.734	80.5
401.958	84.5
402.182	81.5
402.406	95.5
402.63	92.5
402.854	96.5
403.078	83.5
403.302	89.5
403.526	100.5
403.75	76.5
403.974	92.5
404.198	78.5
404.422	95.5
404.645	77.5
404.869	104.5
405.093	97.5
405.317	92.5
405.541	96.5
405.765	90.5
405.988	73.5
406.212	90.5
406.436	100.5
406.66	104.5
406.883	82.5
407.107	93.5
407.331	81.5
407.555	96.5
407.778	102.5
408.002	83.5
408.226	98.5
408.449	79.5
408.673	82.5
408.896	90.5
409.12	90.5
409.344	80.5
409.567	75.5
409.791	76.5
410.014	93.5
410.238	101.5
410.461	95.5
410.685	92.5
410.908	100.5
411.132	102.5
411.355	87.5
411.578	94.5
411.802	91.5
412.025	88.5
412.249	89.5
412.472	100.5
412.695	90.5
412.919	103.5
413.142	81.5
413.365	85.5
413.589	102.5
413.812	92.5
414.035	96.5
414.258	102.5
414.482	86.5
414.705	109.5
414.928	93.5
415.151	101.5
415.374	100.5
415.597	88.5
415.821	92.5
416.044	102.5
416.267	101.5
416.49	95.5
416.713	94.5
416.936	100.5
417.159	88.5
417.382	90.5
417.605	90.5
417.828	92.5
418.051	90.5
418.274	110.5
418.497	88.5
418.72	104.5
418.943	99.5
419.166	90.5
419.389	102.5
419.611	81.5
419.834	92.5
420.057	100.5
420.28	86.5
420.503	103.5
420.726	88.5
420.948	92.5
421.171	98.5
421.394	97.5
421.617	90.5
421.839	92.5
422.062	100.5
422.285	91.5
422.507	92.5
422.73	81.5
422.953	88.5
423.175	79.5
423.398	99.5
423.621	91.5
423.843	96.5
424.066	90.5
424.288	98.5
424.511	91.5
424.733	93.5
424.956	97.5
425.178	102.5
425.401	101.5
425.623	112.5
425.846	97.5
426.068	99.5
426.291	95.5
426.513	87.5
426.735	89.5
426.958	99.5
427.18	111.5
427.402	112.5
427.625	96.5
427.847	80.5
428.069	97.5
428.292	93.5
428.514	94.5
428.736	97.5
428.958	95.5
429.181	92.5
429.403	101.5
429.625	92.5
429.847	92.5
430.069	107.5
430.292	84.5
430.514	97.5
430.736	88.5
430.958	90.5
431.18	82.5
431.402	110.5
431.624	93.5
431.846	84.5
432.068	97.5
432.29	77.5
432.512	82.5
432.734	98.5
432.956	99.5
433.178	98.5
433.4	90.5
433.622	84.5
433.844	84.5
434.066	89.5
434.287	73.5
434.509	91.5
434.731	79.5
434.953	80.5
435.175	92.5
435.397	93.5
435.618	90.5
435.84	89.5
436.062	95.5
436.284	83.5
436.505	96.5
436.727	83.5
436.949	90.5
437.17	88.5
437.392	87.5
437.614	100.5
437.835	92.5
438.057	90.5
438.278	88.5
438.5	99.5
438.721	86.5
438.943	84.5
439.165	111.5
439.386	96.5
439.608	98.5
439.829	95.5
440.05	97.5
440.272	77.5
440.493	97.5
440.715	104.5
440.936	107.5
441.158	114.5
441.379	99.5
441.6	84.5
441.822	89.5
442.043	104.5
442.264	95.5
442.486	98.5
442.707	107.5
442.928	98.5
443.149	104.5
443.371	92.5
443.592	83.5
443.813	108.5
444.034	99.5
444.255	90.5
444.476	105.5
444.698	108.5
444.919	110.5
445.14	178.5
445.361	133.5
445.582	96.5
445.803	96.5
446.024	92.5
446.245	92.5
446.466	110.5
446.687	121.5
446.908	96.5
447.129	84.5
447.35	102.5
447.571	95.5
447.792	112.5
448.013	94.5
448.234	98.5
448.455	100.5
448.675	109.5
448.896	94.5
449.117	95.5
449.338	88.5
449.559	102.5
449.779	96.5
450	95.5
450.221	99.5
450.442	100.5
450.662	86.5
450.883	95.5
451.104	107.5
451.324	108.5
451.545	97.5
451.766	96.5
451.986	100.5
452.207	95.5
452.428	92.5
452.648	89.5
452.869	94.5
453.089	100.5
453.31	88.5
453.53	76.5
453.751	92.5
453.971	96.5
454.192	82.5
454.412	90.5
454.633	98.5
454.853	99.5
455.073	106.5
455.294	87.5
455.514	96.5
455.734	91.5
455.955	75.5
456.175	91.5
456.395	94.5
456.616	74.5
456.836	91.5
457.056	90.5
457.276	81.5
457.497	92.5
457.717	94.5
457.937	81.5
458.157	90.5
458.377	82.5
458.598	92.5
458.818	78.5
459.038	90.5
459.258	83.5
459.478	82.5
459.698	89.5
459.918	78.5
460.138	86.5
460.358	82.5
460.578	100.5
460.798	92.5
461.018	85.5
461.238	92.5
461.458	89.5
461.678	88.5
461.898	94.5
462.118	85.5
462.338	81.5
462.558	89.5
462.777	90.5
462.997	104.5
463.217	81.5
463.437	85.5
463.657	90.5
463.876	83.5
464.096	82.5
464.316	89.5
464.536	94.5
464.755	110.5
464.975	90.5
465.195	101.5
465.414	91.5
465.634	84.5
465.854	88.5
466.073	88.5
466.293	91.5
466.512	107.5
466.732	86.5
466.951	96.5
467.171	102.5
467.391	111.5
467.61	112.5
467.829	108.5
468.049	113.5
468.268	95.5
468.488	99.5
468.707	98.5
468.927	103.5
469.146	94.5
469.365	96.5
469.585	103.5
469.804	106.5
470.023	120.5
470.243	103.5
470.462	106.5
470.681	91.5
470.901	95.5
471.12	100.5
471.339	105.5
471.558	102.5
471.777	105.5
471.997	100.5
472.216	92.5
472.435	71.5
472.654	85.5
472.873	91.5
473.092	98.5
473.311	87.5
473.53	104.5
473.749	108.5
473.968	106.5
474.187	92.5
474.406	82.5
474.625	100.5
474.844	79.5
475.063	105.5
475.282	94.5
475.501	92.5
475.72	102.5
475.939	91.5
476.158	85.5
476.377	104.5
476.596	96.5
476.814	86.5
477.033	82.5
477.252	98.5
477.471	98.5
477.69	107.5
477.908	103.5
478.127	116.5
478.346	91.5
478.564	96.5
478.783	98.5
479.002	110.5
479.22	84.5
479.439	88.5
479.658	110.5
479.876	90.5
480.095	100.5
480.313	105.5
480.532	88.5
480.751	85.5
480.969	83.5
481.188	76.5
481.406	88.5
481.624	92.5
481.843	88.5
482.061	78.5
482.28	97.5
482.498	100.5
482.717	84.5
482.935	98.5
483.153	88.5
483.372	83.5
483.59	77.5
483.808	93.5
484.027	88.5
484.245	93.5
484.463	98.5
484.681	104.5
484.9	104.5
485.118	103.5
485.336	99.5
485.554	97.5
485.772	87.5
485.99	92.5
486.209	84.5
486.427	86.5
486.645	93.5
486.863	96.5
487.081	92.5
487.299	92.5
487.517	90.5
487.735	120.5
487.953	93.5
488.171	107.5
488.389	105.5
488.607	89.5
488.825	74.5
489.043	88.5
489.261	100.5
489.479	94.5
489.696	98.5
489.914	92.5
490.132	104.5
490.35	113.5
490.568	109.5
490.786	110.5
491.003	107.5
491.221	101.5
491.439	110.5
491.657	133.5
491.874	126.5
492.092	134.5
492.31	126.5
492.527	125.5
492.745	121.5
492.963	126.5
493.18	119.5
493.398	118.5
493.615	121.5
493.833	99.5
494.05	110.5
494.268	112.5
494.485	109.5
494.703	109.5
494.92	112.5
495.138	104.5
495.355	108.5
495.573	126.5
495.79	109.5
496.008	103.5
496.225	105.5
496.442	119.5
496.66	127.5
496.877	103.5
497.094	105.5
497.312	102.5
497.529	101.5
497.746	102.5
497.963	96.5
498.181	101.5
498.398	89.5
498.615	86.5
498.832	82.5
499.049	89.5
499.267	104.5
499.484	99.5
499.701	97.5
499.918	100.5
500.135	101.5
500.352	101.5
500.569	103.5
500.786	112.5
501.003	100.5
501.22	97.5
501.437	82.5
501.654	94.5
501.871	100.5
502.088	96.5
502.305	102.5
502.522	109.5
502.739	106.5
502.956	94.5
503.172	96.5
503.389	82.5
503.606	103.5
503.823	83.5
504.04	100.5
504.256	81.5
504.473	90.5
504.69	92.5
504.907	95.5
505.123	88.5
505.34	93.5
505.557	96.5
505.773	88.5
505.99	84.5
506.207	118.5
506.423	87.5
506.64	76.5
506.856	102.5
507.073	91.5
507.289	89.5
507.506	93.5
507.722	74.5
507.939	83.5
508.155	92.5
508.372	87.5
508.588	82.5
508.805	96.5
509.021	85.5
509.238	103.5
509.454	90.5
509.67	92.5
509.887	71.5
510.103	88.5
510.319	75.5
510.536	93.5
510.752	86.5
510.968	88.5
511.184	92.5
511.401	93.5
511.617	91.5
511.833	75.5
512.049	78.5
512.265	94.5
512.481	89.5
512.698	97.5
512.914	78.5
513.13	96.5
513.346	82.5
513.562	102.5
513.778	96.5
513.994	77.5
514.21	84.5
514.426	100.5
514.642	84.5
514.858	85.5
515.074	96.5
515.29	89.5
515.506	98.5
515.721	82.5
515.937	71.5
516.153	76.5
516.369	78.5
516.585	100.5
516.801	78.5
517.016	87.5
517.232	95.5
517.448	95.5
517.664	96.5
517.879	86.5
518.095	65.5
518.311	80.5
518.527	87.5
518.742	79.5
518.958	88.5
519.173	93.5
519.389	82.5
519.605	80.5
519.82	77.5
520.036	102.5
520.251	77.5
520.467	85.5
520.682	88.5
520.898	93.5
521.113	75.5
521.329	80.5
521.544	80.5
521.76	73.5
521.975	89.5
522.19	88.5
522.406	80.5
522.621	89.5
522.836	78.5
523.052	81.5
523.267	95.5
523.482	90.5
523.698	91.5
523.913	85.5
524.128	81.5
524.343	84.5
524.559	104.5
524.774	86.5
524.989	92.5
525.204	104.5
525.419	100.5
525.634	95.5
525.849	90.5
526.064	96.5
526.28	89.5
526.495	83.5
526.71	82.5
526.925	81.5
527.14	87.5
527.355	87.5
527.57	91.5
527.785	85.5
527.999	82.5
528.214	82.5
528.429	74.5
528.644	89.5
528.859	85.5
529.074	99.5
529.289	86.5
529.503	81.5
529.718	89.5
529.933	103.5
530.148	79.5
530.363	89.5
530.577	81.5
530.792	82.5
531.007	82.5
531.221	69.5
531.436	83.5
531.651	100.5
531.865	82.5
532.08	80.5
532.295	79.5
532.509	86.5
532.724	86.5
532.938	70.5
533.153	91.5
533.367	82.5
533.582	83.5
533.796	74.5
534.011	90.5
534.225	78.5
534.44	81.5
534.654	98.5
534.868	89.5
535.083	95.5
535.297	96.5
535.511	83.5
535.726	89.5
535.94	93.5
536.154	90.5
536.369	74.5
536.583	75.5
536.797	86.5
537.011	74.5
537.225	81.5
537.44	72.5
