Data from Foil_3_HRD10591_00006.txt Node
Date: Wed Nov 05 16:18:46 EST 2025
User: Yrep
Spectrometer: HR+D1059
Trigger mode: 1
Integration Time (sec): 1.000000E-1
Scans to average: 1
Electric dark correction enabled: true
Nonlinearity correction enabled: false
Boxcar width: 0
XAxis mode: Wavelengths
Number of Pixels in Spectrum: 2048
>>>>>Begin Spectral Data<<<<<
223.165	-5.5
223.4	-5.5
223.635	-5.5
223.869	-23.5
224.104	-23.5
224.338	-19.5
224.573	-17.5
224.808	-10.5
225.042	5.5
225.277	-7.5
225.511	-10.5
225.746	9.5
225.98	-2.5
226.215	4.5
226.449	7.5
226.683	33.5
226.918	22.5
227.152	37.5
227.387	27.5
227.621	56.5
227.856	44.5
228.09	39.5
228.324	58.5
228.559	57.5
228.793	64.5
229.027	60.5
229.262	67.5
229.496	62.5
229.73	62.5
229.964	71.5
230.199	67.5
230.433	66.5
230.667	88.5
230.901	87.5
231.136	75.5
231.37	71.5
231.604	65.5
231.838	80.5
232.072	82.5
232.306	75.5
232.541	91.5
232.775	91.5
233.009	95.5
233.243	82.5
233.477	77.5
233.711	86.5
233.945	72.5
234.179	77.5
234.413	83.5
234.647	61.5
234.881	68.5
235.115	77.5
235.349	78.5
235.583	82.5
235.817	86.5
236.051	78.5
236.285	86.5
236.519	77.5
236.753	70.5
236.987	75.5
237.221	87.5
237.455	75.5
237.689	75.5
237.922	78.5
238.156	67.5
238.39	68.5
238.624	82.5
238.858	85.5
239.091	82.5
239.325	68.5
239.559	76.5
239.793	75.5
240.027	72.5
240.26	75.5
240.494	81.5
240.728	80.5
240.961	77.5
241.195	66.5
241.429	69.5
241.662	71.5
241.896	78.5
242.13	80.5
242.363	89.5
242.597	60.5
242.83	71.5
243.064	73.5
243.298	86.5
243.531	68.5
243.765	74.5
243.998	63.5
244.232	69.5
244.465	68.5
244.699	56.5
244.932	68.5
245.166	68.5
245.399	80.5
245.633	80.5
245.866	75.5
246.099	78.5
246.333	71.5
246.566	88.5
246.8	82.5
247.033	82.5
247.266	76.5
247.5	73.5
247.733	76.5
247.966	71.5
248.2	89.5
248.433	78.5
248.666	92.5
248.899	60.5
249.133	87.5
249.366	85.5
249.599	73.5
249.832	74.5
250.066	77.5
250.299	75.5
250.532	70.5
250.765	67.5
250.998	62.5
251.231	67.5
251.465	88.5
251.698	88.5
251.931	81.5
252.164	85.5
252.397	74.5
252.63	78.5
252.863	87.5
253.096	79.5
253.329	72.5
253.562	79.5
253.795	93.5
254.028	94.5
254.261	86.5
254.494	71.5
254.727	85.5
254.96	73.5
255.193	69.5
255.426	79.5
255.659	76.5
255.892	95.5
256.124	84.5
256.357	82.5
256.59	74.5
256.823	89.5
257.056	85.5
257.289	100.5
257.521	86.5
257.754	76.5
257.987	73.5
258.22	89.5
258.452	82.5
258.685	88.5
258.918	82.5
259.151	79.5
259.383	59.5
259.616	65.5
259.849	81.5
260.081	64.5
260.314	80.5
260.547	63.5
260.779	73.5
261.012	81.5
261.244	79.5
261.477	79.5
261.71	90.5
261.942	85.5
262.175	71.5
262.407	62.5
262.64	81.5
262.872	83.5
263.105	93.5
263.337	81.5
263.57	75.5
263.802	77.5
264.035	58.5
264.267	89.5
264.499	81.5
264.732	75.5
264.964	82.5
265.197	82.5
265.429	72.5
265.661	78.5
265.894	67.5
266.126	87.5
266.358	76.5
266.591	87.5
266.823	75.5
267.055	75.5
267.287	92.5
267.52	89.5
267.752	76.5
267.984	81.5
268.216	74.5
268.448	89.5
268.681	69.5
268.913	80.5
269.145	76.5
269.377	79.5
269.609	87.5
269.841	89.5
270.073	86.5
270.306	80.5
270.538	84.5
270.77	76.5
271.002	76.5
271.234	71.5
271.466	81.5
271.698	75.5
271.93	93.5
272.162	74.5
272.394	86.5
272.626	75.5
272.858	76.5
273.09	91.5
273.322	69.5
273.553	79.5
273.785	86.5
274.017	89.5
274.249	79.5
274.481	72.5
274.713	75.5
274.945	87.5
275.176	69.5
275.408	85.5
275.64	77.5
275.872	82.5
276.104	85.5
276.335	76.5
276.567	67.5
276.799	85.5
277.031	82.5
277.262	89.5
277.494	91.5
277.726	88.5
277.957	71.5
278.189	87.5
278.421	78.5
278.652	70.5
278.884	81.5
279.115	84.5
279.347	94.5
279.579	79.5
279.81	82.5
280.042	81.5
280.273	95.5
280.505	88.5
280.736	74.5
280.968	77.5
281.199	77.5
281.431	78.5
281.662	68.5
281.894	74.5
282.125	60.5
282.356	76.5
282.588	80.5
282.819	83.5
283.051	84.5
283.282	78.5
283.513	78.5
283.745	93.5
283.976	81.5
284.207	100.5
284.439	87.5
284.67	95.5
284.901	70.5
285.132	82.5
285.364	82.5
285.595	70.5
285.826	75.5
286.057	79.5
286.288	87.5
286.52	76.5
286.751	71.5
286.982	71.5
287.213	95.5
287.444	87.5
287.675	80.5
287.906	83.5
288.138	77.5
288.369	93.5
288.6	108.5
288.831	73.5
289.062	58.5
289.293	90.5
289.524	67.5
289.755	91.5
289.986	76.5
290.217	86.5
290.448	79.5
290.679	92.5
290.91	87.5
291.141	79.5
291.371	80.5
291.602	91.5
291.833	69.5
292.064	73.5
292.295	88.5
292.526	80.5
292.757	82.5
292.987	83.5
293.218	78.5
293.449	87.5
293.68	82.5
293.91	82.5
294.141	84.5
294.372	78.5
294.603	81.5
294.833	92.5
295.064	81.5
295.295	79.5
295.525	79.5
295.756	90.5
295.987	79.5
296.217	96.5
296.448	87.5
296.679	73.5
296.909	80.5
297.14	73.5
297.37	84.5
297.601	84.5
297.831	91.5
298.062	81.5
298.292	77.5
298.523	75.5
298.753	80.5
298.984	81.5
299.214	71.5
299.445	78.5
299.675	76.5
299.905	84.5
300.136	88.5
300.366	81.5
300.597	75.5
300.827	74.5
301.057	69.5
301.288	88.5
301.518	99.5
301.748	82.5
301.979	85.5
302.209	72.5
302.439	85.5
302.669	73.5
302.9	85.5
303.13	90.5
303.36	87.5
303.59	83.5
303.82	90.5
304.051	75.5
304.281	92.5
304.511	75.5
304.741	76.5
304.971	75.5
305.201	85.5
305.431	79.5
305.661	86.5
305.891	87.5
306.121	79.5
306.352	82.5
306.582	83.5
306.812	86.5
307.042	86.5
307.272	89.5
307.502	87.5
307.731	93.5
307.961	98.5
308.191	97.5
308.421	124.5
308.651	101.5
308.881	109.5
309.111	138.5
309.341	131.5
309.571	113.5
309.8	103.5
310.03	82.5
310.26	87.5
310.49	71.5
310.72	77.5
310.949	75.5
311.179	71.5
311.409	71.5
311.639	78.5
311.868	88.5
312.098	84.5
312.328	78.5
312.557	78.5
312.787	82.5
313.017	77.5
313.246	93.5
313.476	71.5
313.706	86.5
313.935	85.5
314.165	85.5
314.394	92.5
314.624	84.5
314.853	80.5
315.083	89.5
315.312	105.5
315.542	78.5
315.771	75.5
316.001	84.5
316.23	79.5
316.46	63.5
316.689	84.5
316.919	103.5
317.148	78.5
317.377	87.5
317.607	88.5
317.836	92.5
318.065	79.5
318.295	88.5
318.524	89.5
318.753	87.5
318.983	85.5
319.212	79.5
319.441	97.5
319.67	71.5
319.9	79.5
320.129	86.5
320.358	88.5
320.587	72.5
320.816	84.5
321.046	96.5
321.275	85.5
321.504	79.5
321.733	76.5
321.962	81.5
322.191	93.5
322.42	90.5
322.649	96.5
322.878	87.5
323.108	81.5
323.337	69.5
323.566	78.5
323.795	89.5
324.024	81.5
324.253	85.5
324.482	72.5
324.71	88.5
324.939	74.5
325.168	75.5
325.397	78.5
325.626	73.5
325.855	63.5
326.084	75.5
326.313	92.5
326.542	77.5
326.77	76.5
326.999	85.5
327.228	90.5
327.457	95.5
327.686	81.5
327.914	74.5
328.143	89.5
328.372	85.5
328.6	69.5
328.829	91.5
329.058	69.5
329.287	95.5
329.515	75.5
329.744	83.5
329.972	92.5
330.201	70.5
330.43	69.5
330.658	93.5
330.887	89.5
331.115	76.5
331.344	88.5
331.572	89.5
331.801	81.5
332.03	87.5
332.258	76.5
332.486	80.5
332.715	86.5
332.943	79.5
333.172	82.5
333.4	72.5
333.629	76.5
333.857	83.5
334.085	77.5
334.314	81.5
334.542	81.5
334.771	77.5
334.999	72.5
335.227	91.5
335.455	81.5
335.684	87.5
335.912	81.5
336.14	73.5
336.369	78.5
336.597	86.5
336.825	89.5
337.053	80.5
337.281	75.5
337.51	82.5
337.738	84.5
337.966	87.5
338.194	71.5
338.422	80.5
338.65	90.5
338.878	77.5
339.106	95.5
339.334	90.5
339.562	69.5
339.79	80.5
340.018	61.5
340.246	77.5
340.474	81.5
340.702	81.5
340.93	73.5
341.158	81.5
341.386	85.5
341.614	91.5
341.842	90.5
342.07	84.5
342.298	86.5
342.526	81.5
342.754	82.5
342.981	77.5
343.209	81.5
343.437	82.5
343.665	67.5
343.893	86.5
344.12	79.5
344.348	80.5
344.576	77.5
344.804	70.5
345.031	80.5
345.259	85.5
345.487	79.5
345.714	85.5
345.942	95.5
346.17	81.5
346.397	73.5
346.625	89.5
346.853	98.5
347.08	79.5
347.308	82.5
347.535	84.5
347.763	85.5
347.99	94.5
348.218	83.5
348.445	92.5
348.673	87.5
348.9	81.5
349.128	76.5
349.355	71.5
349.583	73.5
349.81	84.5
350.037	78.5
350.265	81.5
350.492	93.5
350.72	82.5
350.947	77.5
351.174	93.5
351.402	79.5
351.629	87.5
351.856	79.5
352.083	77.5
352.311	92.5
352.538	88.5
352.765	82.5
352.992	79.5
353.22	79.5
353.447	74.5
353.674	81.5
353.901	87.5
354.128	90.5
354.355	88.5
354.583	81.5
354.81	75.5
355.037	83.5
355.264	86.5
355.491	63.5
355.718	79.5
355.945	66.5
356.172	69.5
356.399	90.5
356.626	74.5
356.853	89.5
357.08	86.5
357.307	90.5
357.534	90.5
357.761	79.5
357.988	93.5
358.215	87.5
358.441	88.5
358.668	90.5
358.895	85.5
359.122	86.5
359.349	83.5
359.576	90.5
359.802	87.5
360.029	89.5
360.256	88.5
360.483	89.5
360.709	91.5
360.936	84.5
361.163	77.5
361.39	80.5
361.616	74.5
361.843	71.5
362.07	87.5
362.296	88.5
362.523	82.5
362.749	81.5
362.976	75.5
363.203	77.5
363.429	74.5
363.656	81.5
363.882	95.5
364.109	95.5
364.335	92.5
364.562	75.5
364.788	95.5
365.015	78.5
365.241	91.5
365.468	105.5
365.694	72.5
365.92	85.5
366.147	91.5
366.373	85.5
366.599	79.5
366.826	73.5
367.052	91.5
367.278	76.5
367.505	88.5
367.731	102.5
367.957	87.5
368.184	80.5
368.41	77.5
368.636	87.5
368.862	86.5
369.089	79.5
369.315	91.5
369.541	93.5
369.767	85.5
369.993	83.5
370.219	76.5
370.445	87.5
370.672	79.5
370.898	81.5
371.124	100.5
371.35	86.5
371.576	88.5
371.802	83.5
372.028	88.5
372.254	95.5
372.48	78.5
372.706	79.5
372.932	90.5
373.158	80.5
373.384	88.5
373.61	92.5
373.835	83.5
374.061	96.5
374.287	77.5
374.513	79.5
374.739	85.5
374.965	79.5
375.191	75.5
375.416	95.5
375.642	87.5
375.868	81.5
376.094	94.5
376.319	85.5
376.545	86.5
376.771	73.5
376.997	83.5
377.222	86.5
377.448	76.5
377.674	79.5
377.899	75.5
378.125	92.5
378.35	79.5
378.576	74.5
378.802	75.5
379.027	78.5
379.253	91.5
379.478	88.5
379.704	96.5
379.929	79.5
380.155	85.5
380.38	65.5
380.606	80.5
380.831	85.5
381.057	85.5
381.282	93.5
381.507	85.5
381.733	77.5
381.958	80.5
382.184	87.5
382.409	85.5
382.634	81.5
382.86	81.5
383.085	80.5
383.31	77.5
383.535	80.5
383.761	88.5
383.986	85.5
384.211	68.5
384.436	109.5
384.662	73.5
384.887	72.5
385.112	80.5
385.337	82.5
385.562	90.5
385.787	82.5
386.013	85.5
386.238	77.5
386.463	73.5
386.688	91.5
386.913	77.5
387.138	87.5
387.363	84.5
387.588	88.5
387.813	87.5
388.038	82.5
388.263	81.5
388.488	103.5
388.713	95.5
388.938	81.5
389.163	71.5
389.387	82.5
389.612	85.5
389.837	82.5
390.062	88.5
390.287	98.5
390.512	103.5
390.736	87.5
390.961	80.5
391.186	81.5
391.411	77.5
391.636	91.5
391.86	101.5
392.085	73.5
392.31	65.5
392.534	74.5
392.759	101.5
392.984	88.5
393.208	79.5
393.433	80.5
393.658	83.5
393.882	109.5
394.107	126.5
394.331	204.5
394.556	228.5
394.78	130.5
395.005	101.5
395.229	95.5
395.454	93.5
395.678	117.5
395.903	175.5
396.127	251.5
396.352	260.5
396.576	140.5
396.801	96.5
397.025	78.5
397.249	79.5
397.474	84.5
397.698	85.5
397.922	85.5
398.147	97.5
398.371	83.5
398.595	87.5
398.82	91.5
399.044	90.5
399.268	92.5
399.492	86.5
399.717	89.5
399.941	88.5
400.165	81.5
400.389	88.5
400.613	80.5
400.837	80.5
401.062	81.5
401.286	94.5
401.51	82.5
401.734	82.5
401.958	84.5
402.182	89.5
402.406	91.5
402.63	94.5
402.854	92.5
403.078	91.5
403.302	92.5
403.526	87.5
403.75	91.5
403.974	89.5
404.198	105.5
404.422	89.5
404.645	96.5
404.869	105.5
405.093	89.5
405.317	95.5
405.541	78.5
405.765	87.5
405.988	91.5
406.212	89.5
406.436	91.5
406.66	92.5
406.883	88.5
407.107	104.5
407.331	89.5
407.555	91.5
407.778	96.5
408.002	85.5
408.226	89.5
408.449	87.5
408.673	83.5
408.896	80.5
409.12	89.5
409.344	98.5
409.567	86.5
409.791	93.5
410.014	96.5
410.238	101.5
410.461	91.5
410.685	88.5
410.908	93.5
411.132	96.5
411.355	82.5
411.578	92.5
411.802	84.5
412.025	111.5
412.249	89.5
412.472	90.5
412.695	91.5
412.919	97.5
413.142	88.5
413.365	86.5
413.589	85.5
413.812	104.5
414.035	92.5
414.258	85.5
414.482	86.5
414.705	91.5
414.928	98.5
415.151	96.5
415.374	72.5
415.597	87.5
415.821	67.5
416.044	80.5
416.267	90.5
416.49	89.5
416.713	98.5
416.936	100.5
417.159	100.5
417.382	77.5
417.605	99.5
417.828	91.5
418.051	104.5
418.274	91.5
418.497	99.5
418.72	91.5
418.943	101.5
419.166	100.5
419.389	80.5
419.611	92.5
419.834	80.5
420.057	92.5
420.28	88.5
420.503	104.5
420.726	90.5
420.948	99.5
421.171	86.5
421.394	87.5
421.617	84.5
421.839	72.5
422.062	92.5
422.285	96.5
422.507	93.5
422.73	89.5
422.953	90.5
423.175	77.5
423.398	92.5
423.621	87.5
423.843	96.5
424.066	96.5
424.288	107.5
424.511	81.5
424.733	81.5
424.956	97.5
425.178	96.5
425.401	89.5
425.623	94.5
425.846	81.5
426.068	95.5
426.291	89.5
426.513	100.5
426.735	83.5
426.958	103.5
427.18	107.5
427.402	87.5
427.625	91.5
427.847	95.5
428.069	86.5
428.292	83.5
428.514	80.5
428.736	99.5
428.958	99.5
429.181	102.5
429.403	93.5
429.625	102.5
429.847	85.5
430.069	98.5
430.292	95.5
430.514	77.5
430.736	95.5
430.958	84.5
431.18	96.5
431.402	97.5
431.624	95.5
431.846	98.5
432.068	80.5
432.29	78.5
432.512	79.5
432.734	84.5
432.956	98.5
433.178	102.5
433.4	81.5
433.622	103.5
433.844	96.5
434.066	92.5
434.287	75.5
434.509	83.5
434.731	74.5
434.953	97.5
435.175	83.5
435.397	96.5
435.618	81.5
435.84	89.5
436.062	77.5
436.284	95.5
436.505	91.5
436.727	104.5
436.949	87.5
437.17	101.5
437.392	100.5
437.614	91.5
437.835	87.5
438.057	96.5
438.278	93.5
438.5	95.5
438.721	88.5
438.943	122.5
439.165	100.5
439.386	93.5
439.608	91.5
439.829	100.5
440.05	91.5
440.272	87.5
440.493	104.5
440.715	108.5
440.936	111.5
441.158	93.5
441.379	85.5
441.6	104.5
441.822	95.5
442.043	99.5
442.264	99.5
442.486	88.5
442.707	99.5
442.928	97.5
443.149	99.5
443.371	91.5
443.592	81.5
443.813	87.5
444.034	96.5
444.255	94.5
444.476	92.5
444.698	85.5
444.919	111.5
445.14	156.5
445.361	125.5
445.582	110.5
445.803	91.5
446.024	100.5
446.245	105.5
446.466	99.5
446.687	84.5
446.908	89.5
447.129	87.5
447.35	111.5
447.571	79.5
447.792	88.5
448.013	90.5
448.234	99.5
448.455	97.5
448.675	108.5
448.896	94.5
449.117	107.5
449.338	102.5
449.559	105.5
449.779	89.5
450	94.5
450.221	89.5
450.442	104.5
450.662	105.5
450.883	106.5
451.104	106.5
451.324	89.5
451.545	94.5
451.766	95.5
451.986	81.5
452.207	95.5
452.428	88.5
452.648	99.5
452.869	91.5
453.089	94.5
453.31	76.5
453.53	95.5
453.751	84.5
453.971	92.5
454.192	76.5
454.412	84.5
454.633	81.5
454.853	88.5
455.073	78.5
455.294	93.5
455.514	76.5
455.734	102.5
455.955	89.5
456.175	87.5
456.395	73.5
456.616	95.5
456.836	93.5
457.056	90.5
457.276	80.5
457.497	89.5
457.717	97.5
457.937	88.5
458.157	81.5
458.377	88.5
458.598	80.5
458.818	88.5
459.038	79.5
459.258	75.5
459.478	89.5
459.698	83.5
459.918	86.5
460.138	79.5
460.358	89.5
460.578	89.5
460.798	96.5
461.018	81.5
461.238	85.5
461.458	97.5
461.678	92.5
461.898	95.5
462.118	84.5
462.338	91.5
462.558	81.5
462.777	79.5
462.997	89.5
463.217	88.5
463.437	72.5
463.657	88.5
463.876	86.5
464.096	86.5
464.316	76.5
464.536	83.5
464.755	96.5
464.975	94.5
465.195	81.5
465.414	102.5
465.634	102.5
465.854	88.5
466.073	96.5
466.293	91.5
466.512	96.5
466.732	84.5
466.951	101.5
467.171	117.5
467.391	117.5
467.61	100.5
467.829	100.5
468.049	108.5
468.268	90.5
468.488	118.5
468.707	112.5
468.927	112.5
469.146	108.5
469.365	92.5
469.585	117.5
469.804	115.5
470.023	88.5
470.243	92.5
470.462	118.5
470.681	95.5
470.901	102.5
471.12	98.5
471.339	101.5
471.558	96.5
471.777	91.5
471.997	96.5
472.216	89.5
472.435	86.5
472.654	87.5
472.873	97.5
473.092	98.5
473.311	102.5
473.53	103.5
473.749	106.5
473.968	103.5
474.187	91.5
474.406	104.5
474.625	98.5
474.844	107.5
475.063	92.5
475.282	84.5
475.501	94.5
475.72	95.5
475.939	84.5
476.158	90.5
476.377	102.5
476.596	94.5
476.814	92.5
477.033	90.5
477.252	94.5
477.471	109.5
477.69	100.5
477.908	105.5
478.127	88.5
478.346	84.5
478.564	95.5
478.783	87.5
479.002	93.5
479.22	97.5
479.439	92.5
479.658	84.5
479.876	88.5
480.095	91.5
480.313	99.5
480.532	93.5
480.751	80.5
480.969	84.5
481.188	90.5
481.406	87.5
481.624	100.5
481.843	82.5
482.061	80.5
482.28	91.5
482.498	73.5
482.717	85.5
482.935	95.5
483.153	90.5
483.372	99.5
483.59	102.5
483.808	100.5
484.027	78.5
484.245	83.5
484.463	109.5
484.681	106.5
484.9	103.5
485.118	112.5
485.336	115.5
485.554	98.5
485.772	72.5
485.99	80.5
486.209	107.5
486.427	91.5
486.645	100.5
486.863	101.5
487.081	111.5
487.299	95.5
487.517	96.5
487.735	97.5
487.953	99.5
488.171	103.5
488.389	116.5
488.607	99.5
488.825	78.5
489.043	107.5
489.261	94.5
489.479	101.5
489.696	96.5
489.914	102.5
490.132	94.5
490.35	94.5
490.568	115.5
490.786	119.5
491.003	111.5
491.221	108.5
491.439	115.5
491.657	123.5
491.874	121.5
492.092	123.5
492.31	112.5
492.527	111.5
492.745	115.5
492.963	110.5
493.18	129.5
493.398	123.5
493.615	121.5
493.833	108.5
494.05	106.5
494.268	100.5
494.485	108.5
494.703	102.5
494.92	115.5
495.138	111.5
495.355	120.5
495.573	105.5
495.79	107.5
496.008	101.5
496.225	95.5
496.442	100.5
496.66	112.5
496.877	100.5
497.094	100.5
497.312	104.5
497.529	105.5
497.746	100.5
497.963	94.5
498.181	87.5
498.398	84.5
498.615	96.5
498.832	97.5
499.049	94.5
499.267	90.5
499.484	94.5
499.701	108.5
499.918	84.5
500.135	88.5
500.352	100.5
500.569	96.5
500.786	105.5
501.003	103.5
501.22	97.5
501.437	87.5
501.654	89.5
501.871	101.5
502.088	81.5
502.305	117.5
502.522	99.5
502.739	107.5
502.956	107.5
503.172	94.5
503.389	100.5
503.606	87.5
503.823	88.5
504.04	82.5
504.256	91.5
504.473	80.5
504.69	82.5
504.907	89.5
505.123	91.5
505.34	88.5
505.557	90.5
505.773	91.5
505.99	77.5
506.207	81.5
506.423	82.5
506.64	71.5
506.856	90.5
507.073	78.5
507.289	73.5
507.506	99.5
507.722	91.5
507.939	94.5
508.155	100.5
508.372	79.5
508.588	83.5
508.805	88.5
509.021	96.5
509.238	85.5
509.454	80.5
509.67	94.5
509.887	89.5
510.103	91.5
510.319	88.5
510.536	85.5
510.752	81.5
510.968	82.5
511.184	91.5
511.401	73.5
511.617	87.5
511.833	88.5
512.049	79.5
512.265	79.5
512.481	76.5
512.698	98.5
512.914	94.5
513.13	80.5
513.346	91.5
513.562	83.5
513.778	103.5
513.994	94.5
514.21	93.5
514.426	89.5
514.642	82.5
514.858	90.5
515.074	89.5
515.29	101.5
515.506	89.5
515.721	77.5
515.937	95.5
516.153	86.5
516.369	83.5
516.585	77.5
516.801	83.5
517.016	76.5
517.232	100.5
517.448	92.5
517.664	91.5
517.879	70.5
518.095	78.5
518.311	85.5
518.527	76.5
518.742	78.5
518.958	87.5
519.173	94.5
519.389	81.5
519.605	90.5
519.82	81.5
520.036	92.5
520.251	83.5
520.467	77.5
520.682	83.5
520.898	94.5
521.113	98.5
521.329	79.5
521.544	74.5
521.76	80.5
521.975	64.5
522.19	86.5
522.406	73.5
522.621	93.5
522.836	100.5
523.052	86.5
523.267	86.5
523.482	89.5
523.698	92.5
523.913	91.5
524.128	87.5
524.343	91.5
524.559	89.5
524.774	99.5
524.989	96.5
525.204	86.5
525.419	93.5
525.634	82.5
525.849	63.5
526.064	97.5
526.28	91.5
526.495	80.5
526.71	84.5
526.925	80.5
527.14	81.5
527.355	75.5
527.57	96.5
527.785	80.5
527.999	73.5
528.214	94.5
528.429	79.5
528.644	93.5
528.859	92.5
529.074	90.5
529.289	86.5
529.503	84.5
529.718	78.5
529.933	79.5
530.148	91.5
530.363	83.5
530.577	86.5
530.792	91.5
531.007	74.5
531.221	79.5
531.436	83.5
531.651	82.5
531.865	85.5
532.08	78.5
532.295	69.5
532.509	79.5
532.724	88.5
532.938	75.5
533.153	93.5
533.367	102.5
533.582	102.5
533.796	92.5
534.011	67.5
534.225	93.5
534.44	91.5
534.654	84.5
534.868	81.5
535.083	91.5
535.297	79.5
535.511	93.5
535.726	91.5
535.94	110.5
536.154	92.5
536.369	92.5
536.583	80.5
536.797	76.5
537.011	96.5
537.225	83.5
537.44	77.5
537.654	78.5
537.868	76.5
538.082	83.5
