Data from Foil_3_HRD10591_00014.txt Node
Date: Wed Nov 05 16:18:50 EST 2025
User: Yrep
Spectrometer: HR+D1059
Trigger mode: 1
Integration Time (sec): 1.000000E-1
Scans to average: 1
Electric dark correction enabled: true
Nonlinearity correction enabled: false
Boxcar width: 0
XAxis mode: Wavelengths
Number of Pixels in Spectrum: 2048
>>>>>Begin Spectral Data<<<<<
223.165	-8.31
223.4	-8.31
223.635	-8.31
223.869	-8.31
224.104	-23.31
224.338	-12.31
224.573	-13.31
224.808	-5.31
225.042	-14.31
225.277	-6.31
225.511	6.69
225.746	18.69
225.98	16.69
226.215	8.69
226.449	1.69
226.683	1.69
226.918	15.69
227.152	21.69
227.387	46.69
227.621	40.69
227.856	41.69
228.09	48.69
228.324	63.69
228.559	46.69
228.793	52.69
229.027	70.69
229.262	60.69
229.496	76.69
229.73	82.69
229.964	70.69
230.199	73.69
230.433	81.69
230.667	73.69
230.901	86.69
231.136	75.69
231.37	96.69
231.604	94.69
231.838	82.69
232.072	77.69
232.306	89.69
232.541	77.69
232.775	85.69
233.009	82.69
233.243	83.69
233.477	87.69
233.711	94.69
233.945	81.69
234.179	83.69
234.413	76.69
234.647	73.69
234.881	85.69
235.115	79.69
235.349	74.69
235.583	64.69
235.817	74.69
236.051	86.69
236.285	81.69
236.519	81.69
236.753	84.69
236.987	77.69
237.221	65.69
237.455	61.69
237.689	76.69
237.922	77.69
238.156	78.69
238.39	72.69
238.624	82.69
238.858	81.69
239.091	66.69
239.325	67.69
239.559	83.69
239.793	76.69
240.027	78.69
240.26	81.69
240.494	76.69
240.728	94.69
240.961	66.69
241.195	83.69
241.429	75.69
241.662	74.69
241.896	93.69
242.13	86.69
242.363	65.69
242.597	78.69
242.83	73.69
243.064	64.69
243.298	73.69
243.531	78.69
243.765	79.69
243.998	71.69
244.232	78.69
244.465	65.69
244.699	89.69
244.932	75.69
245.166	76.69
245.399	83.69
245.633	82.69
245.866	78.69
246.099	74.69
246.333	74.69
246.566	74.69
246.8	77.69
247.033	67.69
247.266	68.69
247.5	66.69
247.733	91.69
247.966	90.69
248.2	81.69
248.433	78.69
248.666	77.69
248.899	82.69
249.133	80.69
249.366	81.69
249.599	58.69
249.832	75.69
250.066	92.69
250.299	76.69
250.532	84.69
250.765	76.69
250.998	96.69
251.231	72.69
251.465	84.69
251.698	79.69
251.931	81.69
252.164	79.69
252.397	76.69
252.63	83.69
252.863	81.69
253.096	78.69
253.329	81.69
253.562	81.69
253.795	84.69
254.028	80.69
254.261	77.69
254.494	81.69
254.727	76.69
254.96	87.69
255.193	88.69
255.426	77.69
255.659	80.69
255.892	77.69
256.124	76.69
256.357	80.69
256.59	95.69
256.823	83.69
257.056	81.69
257.289	91.69
257.521	94.69
257.754	76.69
257.987	92.69
258.22	82.69
258.452	74.69
258.685	78.69
258.918	74.69
259.151	72.69
259.383	91.69
259.616	82.69
259.849	72.69
260.081	84.69
260.314	85.69
260.547	88.69
260.779	87.69
261.012	66.69
261.244	75.69
261.477	92.69
261.71	78.69
261.942	96.69
262.175	74.69
262.407	83.69
262.64	71.69
262.872	85.69
263.105	78.69
263.337	90.69
263.57	94.69
263.802	74.69
264.035	79.69
264.267	72.69
264.499	90.69
264.732	79.69
264.964	91.69
265.197	74.69
265.429	93.69
265.661	76.69
265.894	102.69
266.126	95.69
266.358	82.69
266.591	78.69
266.823	87.69
267.055	84.69
267.287	82.69
267.52	72.69
267.752	80.69
267.984	89.69
268.216	88.69
268.448	87.69
268.681	82.69
268.913	81.69
269.145	85.69
269.377	102.69
269.609	76.69
269.841	94.69
270.073	75.69
270.306	94.69
270.538	90.69
270.77	85.69
271.002	86.69
271.234	79.69
271.466	76.69
271.698	84.69
271.93	92.69
272.162	78.69
272.394	90.69
272.626	82.69
272.858	83.69
273.09	82.69
273.322	87.69
273.553	88.69
273.785	89.69
274.017	105.69
274.249	83.69
274.481	75.69
274.713	84.69
274.945	96.69
275.176	106.69
275.408	88.69
275.64	81.69
275.872	92.69
276.104	81.69
276.335	97.69
276.567	75.69
276.799	83.69
277.031	83.69
277.262	83.69
277.494	91.69
277.726	77.69
277.957	76.69
278.189	91.69
278.421	71.69
278.652	80.69
278.884	76.69
279.115	85.69
279.347	83.69
279.579	80.69
279.81	96.69
280.042	94.69
280.273	84.69
280.505	59.69
280.736	88.69
280.968	79.69
281.199	74.69
281.431	72.69
281.662	84.69
281.894	88.69
282.125	96.69
282.356	93.69
282.588	83.69
282.819	87.69
283.051	60.69
283.282	76.69
283.513	85.69
283.745	83.69
283.976	83.69
284.207	96.69
284.439	86.69
284.67	71.69
284.901	81.69
285.132	90.69
285.364	92.69
285.595	74.69
285.826	74.69
286.057	87.69
286.288	87.69
286.52	83.69
286.751	82.69
286.982	93.69
287.213	88.69
287.444	84.69
287.675	90.69
287.906	90.69
288.138	81.69
288.369	94.69
288.6	70.69
288.831	89.69
289.062	78.69
289.293	87.69
289.524	88.69
289.755	85.69
289.986	90.69
290.217	91.69
290.448	80.69
290.679	89.69
290.91	90.69
291.141	76.69
291.371	91.69
291.602	78.69
291.833	92.69
292.064	80.69
292.295	81.69
292.526	90.69
292.757	82.69
292.987	96.69
293.218	87.69
293.449	90.69
293.68	94.69
293.91	76.69
294.141	80.69
294.372	91.69
294.603	82.69
294.833	87.69
295.064	84.69
295.295	86.69
295.525	91.69
295.756	93.69
295.987	84.69
296.217	76.69
296.448	77.69
296.679	92.69
296.909	76.69
297.14	73.69
297.37	93.69
297.601	91.69
297.831	79.69
298.062	79.69
298.292	73.69
298.523	90.69
298.753	89.69
298.984	103.69
299.214	78.69
299.445	85.69
299.675	62.69
299.905	80.69
300.136	76.69
300.366	83.69
300.597	93.69
300.827	97.69
301.057	84.69
301.288	75.69
301.518	81.69
301.748	88.69
301.979	83.69
302.209	82.69
302.439	84.69
302.669	84.69
302.9	100.69
303.13	83.69
303.36	62.69
303.59	92.69
303.82	78.69
304.051	104.69
304.281	91.69
304.511	85.69
304.741	98.69
304.971	73.69
305.201	73.69
305.431	75.69
305.661	88.69
305.891	93.69
306.121	85.69
306.352	86.69
306.582	97.69
306.812	91.69
307.042	91.69
307.272	92.69
307.502	97.69
307.731	91.69
307.961	108.69
308.191	143.69
308.421	134.69
308.651	121.69
308.881	115.69
309.111	136.69
309.341	135.69
309.571	135.69
309.8	95.69
310.03	74.69
310.26	90.69
310.49	91.69
310.72	82.69
310.949	98.69
311.179	84.69
311.409	90.69
311.639	88.69
311.868	92.69
312.098	77.69
312.328	82.69
312.557	99.69
312.787	94.69
313.017	103.69
313.246	87.69
313.476	92.69
313.706	87.69
313.935	66.69
314.165	74.69
314.394	91.69
314.624	91.69
314.853	83.69
315.083	90.69
315.312	88.69
315.542	80.69
315.771	106.69
316.001	84.69
316.23	90.69
316.46	75.69
316.689	95.69
316.919	88.69
317.148	93.69
317.377	70.69
317.607	81.69
317.836	97.69
318.065	87.69
318.295	83.69
318.524	71.69
318.753	84.69
318.983	84.69
319.212	76.69
319.441	82.69
319.67	91.69
319.9	88.69
320.129	87.69
320.358	80.69
320.587	75.69
320.816	90.69
321.046	83.69
321.275	101.69
321.504	83.69
321.733	81.69
321.962	84.69
322.191	87.69
322.42	74.69
322.649	84.69
322.878	85.69
323.108	74.69
323.337	81.69
323.566	79.69
323.795	86.69
324.024	82.69
324.253	73.69
324.482	86.69
324.71	84.69
324.939	80.69
325.168	73.69
325.397	70.69
325.626	81.69
325.855	78.69
326.084	72.69
326.313	101.69
326.542	85.69
326.77	84.69
326.999	86.69
327.228	76.69
327.457	92.69
327.686	84.69
327.914	79.69
328.143	94.69
328.372	75.69
328.6	82.69
328.829	93.69
329.058	88.69
329.287	70.69
329.515	99.69
329.744	83.69
329.972	94.69
330.201	91.69
330.43	85.69
330.658	88.69
330.887	82.69
331.115	84.69
331.344	81.69
331.572	96.69
331.801	84.69
332.03	91.69
332.258	93.69
332.486	82.69
332.715	77.69
332.943	66.69
333.172	83.69
333.4	80.69
333.629	95.69
333.857	74.69
334.085	85.69
334.314	88.69
334.542	99.69
334.771	67.69
334.999	88.69
335.227	79.69
335.455	93.69
335.684	84.69
335.912	85.69
336.14	94.69
336.369	84.69
336.597	95.69
336.825	88.69
337.053	85.69
337.281	72.69
337.51	93.69
337.738	97.69
337.966	67.69
338.194	90.69
338.422	85.69
338.65	99.69
338.878	98.69
339.106	81.69
339.334	76.69
339.562	96.69
339.79	94.69
340.018	92.69
340.246	85.69
340.474	82.69
340.702	74.69
340.93	86.69
341.158	77.69
341.386	90.69
341.614	91.69
341.842	75.69
342.07	83.69
342.298	80.69
342.526	73.69
342.754	83.69
342.981	100.69
343.209	81.69
343.437	103.69
343.665	80.69
343.893	82.69
344.12	88.69
344.348	94.69
344.576	76.69
344.804	90.69
345.031	71.69
345.259	84.69
345.487	74.69
345.714	84.69
345.942	72.69
346.17	81.69
346.397	77.69
346.625	79.69
346.853	80.69
347.08	94.69
347.308	81.69
347.535	92.69
347.763	86.69
347.99	86.69
348.218	83.69
348.445	75.69
348.673	103.69
348.9	85.69
349.128	80.69
349.355	81.69
349.583	81.69
349.81	84.69
350.037	90.69
350.265	94.69
350.492	86.69
350.72	76.69
350.947	88.69
351.174	93.69
351.402	91.69
351.629	87.69
351.856	87.69
352.083	84.69
352.311	83.69
352.538	78.69
352.765	82.69
352.992	79.69
353.22	79.69
353.447	91.69
353.674	78.69
353.901	79.69
354.128	100.69
354.355	81.69
354.583	78.69
354.81	86.69
355.037	92.69
355.264	86.69
355.491	79.69
355.718	82.69
355.945	91.69
356.172	82.69
356.399	81.69
356.626	75.69
356.853	84.69
357.08	84.69
357.307	81.69
357.534	80.69
357.761	97.69
357.988	77.69
358.215	85.69
358.441	90.69
358.668	84.69
358.895	89.69
359.122	80.69
359.349	94.69
359.576	74.69
359.802	78.69
360.029	82.69
360.256	89.69
360.483	80.69
360.709	76.69
360.936	91.69
361.163	79.69
361.39	87.69
361.616	82.69
361.843	67.69
362.07	88.69
362.296	82.69
362.523	84.69
362.749	98.69
362.976	75.69
363.203	99.69
363.429	83.69
363.656	81.69
363.882	85.69
364.109	79.69
364.335	76.69
364.562	87.69
364.788	85.69
365.015	80.69
365.241	90.69
365.468	90.69
365.694	77.69
365.92	80.69
366.147	89.69
366.373	83.69
366.599	82.69
366.826	89.69
367.052	79.69
367.278	80.69
367.505	92.69
367.731	103.69
367.957	82.69
368.184	84.69
368.41	76.69
368.636	78.69
368.862	75.69
369.089	96.69
369.315	88.69
369.541	64.69
369.767	88.69
369.993	80.69
370.219	87.69
370.445	82.69
370.672	84.69
370.898	83.69
371.124	76.69
371.35	76.69
371.576	88.69
371.802	92.69
372.028	72.69
372.254	89.69
372.48	74.69
372.706	87.69
372.932	91.69
373.158	77.69
373.384	95.69
373.61	93.69
373.835	81.69
374.061	73.69
374.287	72.69
374.513	94.69
374.739	94.69
374.965	92.69
375.191	81.69
375.416	81.69
375.642	92.69
375.868	78.69
376.094	97.69
376.319	77.69
376.545	83.69
376.771	94.69
376.997	95.69
377.222	85.69
377.448	94.69
377.674	96.69
377.899	82.69
378.125	85.69
378.35	87.69
378.576	70.69
378.802	75.69
379.027	87.69
379.253	67.69
379.478	93.69
379.704	75.69
379.929	83.69
380.155	110.69
380.38	90.69
380.606	75.69
380.831	100.69
381.057	95.69
381.282	88.69
381.507	85.69
381.733	88.69
381.958	94.69
382.184	78.69
382.409	85.69
382.634	78.69
382.86	82.69
383.085	88.69
383.31	98.69
383.535	96.69
383.761	94.69
383.986	81.69
384.211	76.69
384.436	79.69
384.662	92.69
384.887	81.69
385.112	76.69
385.337	82.69
385.562	88.69
385.787	94.69
386.013	82.69
386.238	80.69
386.463	93.69
386.688	92.69
386.913	96.69
387.138	75.69
387.363	106.69
387.588	100.69
387.813	90.69
388.038	85.69
388.263	83.69
388.488	85.69
388.713	88.69
388.938	82.69
389.163	88.69
389.387	88.69
389.612	93.69
389.837	87.69
390.062	102.69
390.287	84.69
390.512	78.69
390.736	90.69
390.961	83.69
391.186	92.69
391.411	94.69
391.636	98.69
391.86	88.69
392.085	84.69
392.31	88.69
392.534	89.69
392.759	86.69
392.984	99.69
393.208	92.69
393.433	106.69
393.658	94.69
393.882	114.69
394.107	134.69
394.331	212.69
394.556	236.69
394.78	144.69
395.005	91.69
395.229	112.69
395.454	113.69
395.678	130.69
395.903	180.69
396.127	290.69
396.352	302.69
396.576	141.69
396.801	94.69
397.025	91.69
397.249	78.69
397.474	102.69
397.698	96.69
397.922	100.69
398.147	97.69
398.371	93.69
398.595	78.69
398.82	95.69
399.044	80.69
399.268	80.69
399.492	108.69
399.717	92.69
399.941	89.69
400.165	97.69
400.389	87.69
400.613	97.69
400.837	84.69
401.062	86.69
401.286	95.69
401.51	101.69
401.734	89.69
401.958	97.69
402.182	105.69
402.406	100.69
402.63	82.69
402.854	88.69
403.078	79.69
403.302	102.69
403.526	100.69
403.75	90.69
403.974	95.69
404.198	88.69
404.422	90.69
404.645	97.69
404.869	93.69
405.093	91.69
405.317	86.69
405.541	105.69
405.765	98.69
405.988	92.69
406.212	106.69
406.436	96.69
406.66	84.69
406.883	79.69
407.107	102.69
407.331	88.69
407.555	84.69
407.778	106.69
408.002	88.69
408.226	85.69
408.449	80.69
408.673	84.69
408.896	102.69
409.12	94.69
409.344	85.69
409.567	101.69
409.791	92.69
410.014	102.69
410.238	108.69
410.461	109.69
410.685	92.69
410.908	93.69
411.132	96.69
411.355	94.69
411.578	99.69
411.802	98.69
412.025	94.69
412.249	91.69
412.472	96.69
412.695	84.69
412.919	102.69
413.142	94.69
413.365	113.69
413.589	99.69
413.812	86.69
414.035	90.69
414.258	91.69
414.482	81.69
414.705	106.69
414.928	111.69
415.151	101.69
415.374	97.69
415.597	99.69
415.821	90.69
416.044	76.69
416.267	88.69
416.49	110.69
416.713	107.69
416.936	92.69
417.159	88.69
417.382	97.69
417.605	86.69
417.828	110.69
418.051	102.69
418.274	95.69
418.497	94.69
418.72	83.69
418.943	104.69
419.166	98.69
419.389	98.69
419.611	88.69
419.834	100.69
420.057	92.69
420.28	97.69
420.503	103.69
420.726	102.69
420.948	113.69
421.171	88.69
421.394	95.69
421.617	100.69
421.839	83.69
422.062	106.69
422.285	102.69
422.507	82.69
422.73	83.69
422.953	90.69
423.175	73.69
423.398	87.69
423.621	84.69
423.843	80.69
424.066	81.69
424.288	79.69
424.511	89.69
424.733	94.69
424.956	82.69
425.178	84.69
425.401	103.69
425.623	83.69
425.846	89.69
426.068	97.69
426.291	100.69
426.513	103.69
426.735	97.69
426.958	97.69
427.18	74.69
427.402	91.69
427.625	92.69
427.847	88.69
428.069	98.69
428.292	92.69
428.514	98.69
428.736	109.69
428.958	108.69
429.181	84.69
429.403	90.69
429.625	97.69
429.847	102.69
430.069	97.69
430.292	88.69
430.514	98.69
430.736	91.69
430.958	86.69
431.18	98.69
431.402	92.69
431.624	89.69
431.846	80.69
432.068	88.69
432.29	96.69
432.512	100.69
432.734	76.69
432.956	102.69
433.178	91.69
433.4	102.69
433.622	82.69
433.844	96.69
434.066	94.69
434.287	80.69
434.509	79.69
434.731	85.69
434.953	91.69
435.175	104.69
435.397	95.69
435.618	97.69
435.84	92.69
436.062	107.69
436.284	102.69
436.505	106.69
436.727	88.69
436.949	90.69
437.17	94.69
437.392	98.69
437.614	103.69
437.835	88.69
438.057	104.69
438.278	107.69
438.5	81.69
438.721	91.69
438.943	89.69
439.165	86.69
439.386	103.69
439.608	102.69
439.829	91.69
440.05	112.69
440.272	106.69
440.493	89.69
440.715	88.69
440.936	106.69
441.158	101.69
441.379	102.69
441.6	86.69
441.822	98.69
442.043	88.69
442.264	102.69
442.486	93.69
442.707	102.69
442.928	92.69
443.149	94.69
443.371	96.69
443.592	102.69
443.813	108.69
444.034	90.69
444.255	102.69
444.476	100.69
444.698	100.69
444.919	103.69
445.14	161.69
445.361	118.69
445.582	110.69
445.803	97.69
446.024	108.69
446.245	105.69
446.466	100.69
446.687	92.69
446.908	91.69
447.129	99.69
447.35	102.69
447.571	95.69
447.792	91.69
448.013	99.69
448.234	91.69
448.455	98.69
448.675	93.69
448.896	95.69
449.117	106.69
449.338	88.69
449.559	85.69
449.779	104.69
450	110.69
450.221	92.69
450.442	97.69
450.662	98.69
450.883	97.69
451.104	93.69
451.324	104.69
451.545	89.69
451.766	103.69
451.986	102.69
452.207	92.69
452.428	85.69
452.648	105.69
452.869	88.69
453.089	86.69
453.31	96.69
453.53	79.69
453.751	93.69
453.971	93.69
454.192	94.69
454.412	89.69
454.633	95.69
454.853	93.69
455.073	83.69
455.294	88.69
455.514	89.69
455.734	87.69
455.955	91.69
456.175	86.69
456.395	81.69
456.616	92.69
456.836	82.69
457.056	85.69
457.276	85.69
457.497	79.69
457.717	97.69
457.937	90.69
458.157	88.69
458.377	84.69
458.598	76.69
458.818	95.69
459.038	76.69
459.258	74.69
459.478	79.69
459.698	77.69
459.918	83.69
460.138	79.69
460.358	76.69
460.578	82.69
460.798	82.69
461.018	89.69
461.238	92.69
461.458	85.69
461.678	85.69
461.898	90.69
462.118	102.69
462.338	96.69
462.558	100.69
462.777	87.69
462.997	92.69
463.217	85.69
463.437	71.69
463.657	86.69
463.876	89.69
464.096	83.69
464.316	83.69
464.536	94.69
464.755	98.69
464.975	91.69
465.195	102.69
465.414	98.69
465.634	113.69
465.854	93.69
466.073	89.69
466.293	107.69
466.512	102.69
466.732	94.69
466.951	105.69
467.171	100.69
467.391	110.69
467.61	89.69
467.829	97.69
468.049	116.69
468.268	111.69
468.488	96.69
468.707	94.69
468.927	99.69
469.146	104.69
469.365	101.69
469.585	101.69
469.804	103.69
470.023	102.69
470.243	98.69
470.462	119.69
470.681	105.69
470.901	107.69
471.12	85.69
471.339	105.69
471.558	104.69
471.777	105.69
471.997	111.69
472.216	104.69
472.435	97.69
472.654	82.69
472.873	85.69
473.092	94.69
473.311	94.69
473.53	102.69
473.749	93.69
473.968	116.69
474.187	98.69
474.406	96.69
474.625	115.69
474.844	111.69
475.063	108.69
475.282	80.69
475.501	91.69
475.72	114.69
475.939	87.69
476.158	95.69
476.377	89.69
476.596	92.69
476.814	80.69
477.033	93.69
477.252	94.69
477.471	101.69
477.69	92.69
477.908	120.69
478.127	99.69
478.346	90.69
478.564	107.69
478.783	89.69
479.002	84.69
479.22	95.69
479.439	95.69
479.658	83.69
479.876	79.69
480.095	91.69
480.313	82.69
480.532	77.69
480.751	82.69
480.969	88.69
481.188	78.69
481.406	84.69
481.624	93.69
481.843	80.69
482.061	84.69
482.28	102.69
482.498	108.69
482.717	100.69
482.935	89.69
483.153	99.69
483.372	111.69
483.59	91.69
483.808	85.69
484.027	84.69
484.245	84.69
484.463	89.69
484.681	106.69
484.9	87.69
485.118	95.69
485.336	104.69
485.554	89.69
485.772	78.69
485.99	98.69
486.209	88.69
486.427	97.69
486.645	98.69
486.863	101.69
487.081	113.69
487.299	107.69
487.517	105.69
487.735	104.69
487.953	110.69
488.171	101.69
488.389	103.69
488.607	121.69
488.825	83.69
489.043	100.69
489.261	98.69
489.479	96.69
489.696	99.69
489.914	87.69
490.132	100.69
490.35	108.69
490.568	96.69
490.786	109.69
491.003	96.69
491.221	115.69
491.439	107.69
491.657	119.69
491.874	126.69
492.092	114.69
492.31	121.69
492.527	136.69
492.745	120.69
492.963	128.69
493.18	119.69
493.398	120.69
493.615	126.69
493.833	120.69
494.05	128.69
494.268	119.69
494.485	114.69
494.703	102.69
494.92	99.69
495.138	107.69
495.355	120.69
495.573	106.69
495.79	108.69
496.008	108.69
496.225	111.69
496.442	105.69
496.66	111.69
496.877	106.69
497.094	111.69
497.312	100.69
497.529	98.69
497.746	103.69
497.963	88.69
498.181	102.69
498.398	102.69
498.615	83.69
498.832	94.69
499.049	95.69
499.267	96.69
499.484	79.69
499.701	99.69
499.918	99.69
500.135	118.69
500.352	114.69
500.569	99.69
500.786	91.69
501.003	103.69
501.22	102.69
501.437	98.69
501.654	99.69
501.871	85.69
502.088	99.69
502.305	95.69
502.522	83.69
502.739	102.69
502.956	98.69
503.172	98.69
503.389	93.69
503.606	90.69
503.823	92.69
504.04	91.69
504.256	91.69
504.473	77.69
504.69	91.69
504.907	96.69
505.123	95.69
505.34	94.69
505.557	80.69
505.773	96.69
505.99	92.69
506.207	100.69
506.423	100.69
506.64	98.69
506.856	83.69
507.073	83.69
507.289	83.69
507.506	88.69
507.722	95.69
507.939	97.69
508.155	92.69
508.372	90.69
508.588	84.69
508.805	88.69
509.021	82.69
509.238	101.69
509.454	94.69
509.67	92.69
509.887	109.69
510.103	97.69
510.319	92.69
510.536	93.69
510.752	82.69
510.968	80.69
511.184	91.69
511.401	82.69
511.617	85.69
511.833	88.69
512.049	95.69
512.265	82.69
512.481	97.69
512.698	106.69
512.914	89.69
513.13	87.69
513.346	94.69
513.562	84.69
513.778	78.69
513.994	78.69
514.21	85.69
514.426	93.69
514.642	92.69
514.858	95.69
515.074	90.69
515.29	90.69
515.506	90.69
515.721	70.69
515.937	86.69
516.153	88.69
516.369	84.69
516.585	85.69
516.801	86.69
517.016	99.69
517.232	66.69
