Data from Foil_3_HRD10591_00007.txt Node
Date: Wed Nov 05 16:18:46 EST 2025
User: Yrep
Spectrometer: HR+D1059
Trigger mode: 1
Integration Time (sec): 1.000000E-1
Scans to average: 1
Electric dark correction enabled: true
Nonlinearity correction enabled: false
Boxcar width: 0
XAxis mode: Wavelengths
Number of Pixels in Spectrum: 2048
>>>>>Begin Spectral Data<<<<<
223.165	-19.62
223.4	-19.62
223.635	-19.62
223.869	-25.62
224.104	-7.62
224.338	-15.62
224.573	-14.62
224.808	-5.62
225.042	-1.62
225.277	-15.62
225.511	-7.62
225.746	-3.62
225.98	9.38
226.215	17.38
226.449	12.38
226.683	16.38
226.918	32.38
227.152	29.38
227.387	46.38
227.621	43.38
227.856	38.38
228.09	52.38
228.324	49.38
228.559	57.38
228.793	83.38
229.027	63.38
229.262	53.38
229.496	59.38
229.73	70.38
229.964	65.38
230.199	68.38
230.433	84.38
230.667	73.38
230.901	74.38
231.136	85.38
231.37	82.38
231.604	86.38
231.838	88.38
232.072	69.38
232.306	75.38
232.541	81.38
232.775	92.38
233.009	82.38
233.243	93.38
233.477	78.38
233.711	84.38
233.945	80.38
234.179	86.38
234.413	85.38
234.647	80.38
234.881	86.38
235.115	74.38
235.349	75.38
235.583	77.38
235.817	77.38
236.051	88.38
236.285	82.38
236.519	75.38
236.753	73.38
236.987	87.38
237.221	89.38
237.455	91.38
237.689	69.38
237.922	64.38
238.156	78.38
238.39	75.38
238.624	72.38
238.858	66.38
239.091	74.38
239.325	70.38
239.559	73.38
239.793	80.38
240.027	79.38
240.26	77.38
240.494	70.38
240.728	74.38
240.961	73.38
241.195	66.38
241.429	72.38
241.662	86.38
241.896	87.38
242.13	66.38
242.363	72.38
242.597	82.38
242.83	78.38
243.064	76.38
243.298	77.38
243.531	70.38
243.765	78.38
243.998	69.38
244.232	70.38
244.465	80.38
244.699	86.38
244.932	64.38
245.166	82.38
245.399	74.38
245.633	91.38
245.866	74.38
246.099	76.38
246.333	78.38
246.566	81.38
246.8	74.38
247.033	85.38
247.266	69.38
247.5	74.38
247.733	78.38
247.966	94.38
248.2	78.38
248.433	74.38
248.666	63.38
248.899	72.38
249.133	78.38
249.366	79.38
249.599	80.38
249.832	81.38
250.066	87.38
250.299	83.38
250.532	84.38
250.765	78.38
250.998	80.38
251.231	64.38
251.465	64.38
251.698	77.38
251.931	72.38
252.164	79.38
252.397	78.38
252.63	79.38
252.863	72.38
253.096	62.38
253.329	77.38
253.562	66.38
253.795	90.38
254.028	72.38
254.261	68.38
254.494	84.38
254.727	87.38
254.96	84.38
255.193	74.38
255.426	74.38
255.659	72.38
255.892	79.38
256.124	78.38
256.357	73.38
256.59	72.38
256.823	75.38
257.056	80.38
257.289	83.38
257.521	79.38
257.754	89.38
257.987	86.38
258.22	93.38
258.452	77.38
258.685	80.38
258.918	79.38
259.151	75.38
259.383	76.38
259.616	82.38
259.849	78.38
260.081	78.38
260.314	83.38
260.547	85.38
260.779	92.38
261.012	77.38
261.244	80.38
261.477	90.38
261.71	78.38
261.942	85.38
262.175	72.38
262.407	73.38
262.64	68.38
262.872	76.38
263.105	73.38
263.337	82.38
263.57	78.38
263.802	68.38
264.035	88.38
264.267	82.38
264.499	82.38
264.732	76.38
264.964	74.38
265.197	82.38
265.429	92.38
265.661	79.38
265.894	68.38
266.126	82.38
266.358	90.38
266.591	80.38
266.823	90.38
267.055	86.38
267.287	80.38
267.52	85.38
267.752	78.38
267.984	82.38
268.216	89.38
268.448	82.38
268.681	71.38
268.913	94.38
269.145	63.38
269.377	78.38
269.609	83.38
269.841	93.38
270.073	95.38
270.306	82.38
270.538	88.38
270.77	85.38
271.002	82.38
271.234	77.38
271.466	79.38
271.698	82.38
271.93	70.38
272.162	91.38
272.394	80.38
272.626	79.38
272.858	86.38
273.09	96.38
273.322	90.38
273.553	65.38
273.785	83.38
274.017	78.38
274.249	86.38
274.481	83.38
274.713	81.38
274.945	88.38
275.176	79.38
275.408	69.38
275.64	80.38
275.872	81.38
276.104	96.38
276.335	71.38
276.567	82.38
276.799	82.38
277.031	84.38
277.262	67.38
277.494	86.38
277.726	81.38
277.957	72.38
278.189	73.38
278.421	92.38
278.652	96.38
278.884	79.38
279.115	73.38
279.347	78.38
279.579	98.38
279.81	85.38
280.042	85.38
280.273	87.38
280.505	82.38
280.736	85.38
280.968	93.38
281.199	88.38
281.431	78.38
281.662	84.38
281.894	84.38
282.125	77.38
282.356	83.38
282.588	79.38
282.819	79.38
283.051	81.38
283.282	85.38
283.513	96.38
283.745	92.38
283.976	97.38
284.207	73.38
284.439	81.38
284.67	84.38
284.901	90.38
285.132	87.38
285.364	81.38
285.595	82.38
285.826	86.38
286.057	80.38
286.288	80.38
286.52	79.38
286.751	89.38
286.982	93.38
287.213	81.38
287.444	90.38
287.675	103.38
287.906	89.38
288.138	88.38
288.369	85.38
288.6	79.38
288.831	83.38
289.062	81.38
289.293	69.38
289.524	74.38
289.755	68.38
289.986	94.38
290.217	84.38
290.448	85.38
290.679	86.38
290.91	95.38
291.141	80.38
291.371	93.38
291.602	84.38
291.833	78.38
292.064	84.38
292.295	82.38
292.526	77.38
292.757	97.38
292.987	86.38
293.218	93.38
293.449	85.38
293.68	81.38
293.91	76.38
294.141	88.38
294.372	84.38
294.603	80.38
294.833	90.38
295.064	77.38
295.295	77.38
295.525	82.38
295.756	93.38
295.987	100.38
296.217	78.38
296.448	80.38
296.679	77.38
296.909	85.38
297.14	80.38
297.37	102.38
297.601	100.38
297.831	95.38
298.062	73.38
298.292	84.38
298.523	76.38
298.753	80.38
298.984	68.38
299.214	72.38
299.445	76.38
299.675	68.38
299.905	85.38
300.136	92.38
300.366	89.38
300.597	94.38
300.827	94.38
301.057	81.38
301.288	93.38
301.518	85.38
301.748	72.38
301.979	102.38
302.209	80.38
302.439	90.38
302.669	92.38
302.9	84.38
303.13	81.38
303.36	84.38
303.59	77.38
303.82	81.38
304.051	88.38
304.281	70.38
304.511	72.38
304.741	92.38
304.971	92.38
305.201	87.38
305.431	92.38
305.661	85.38
305.891	82.38
306.121	82.38
306.352	87.38
306.582	88.38
306.812	88.38
307.042	90.38
307.272	94.38
307.502	88.38
307.731	85.38
307.961	94.38
308.191	106.38
308.421	125.38
308.651	95.38
308.881	103.38
309.111	120.38
309.341	147.38
309.571	114.38
309.8	80.38
310.03	77.38
310.26	82.38
310.49	76.38
310.72	86.38
310.949	82.38
311.179	83.38
311.409	76.38
311.639	86.38
311.868	85.38
312.098	90.38
312.328	86.38
312.557	92.38
312.787	80.38
313.017	92.38
313.246	67.38
313.476	90.38
313.706	96.38
313.935	98.38
314.165	82.38
314.394	76.38
314.624	63.38
314.853	86.38
315.083	72.38
315.312	82.38
315.542	85.38
315.771	81.38
316.001	78.38
316.23	94.38
316.46	88.38
316.689	73.38
316.919	71.38
317.148	89.38
317.377	78.38
317.607	85.38
317.836	91.38
318.065	82.38
318.295	68.38
318.524	82.38
318.753	84.38
318.983	86.38
319.212	73.38
319.441	80.38
319.67	80.38
319.9	78.38
320.129	98.38
320.358	93.38
320.587	92.38
320.816	76.38
321.046	67.38
321.275	93.38
321.504	74.38
321.733	96.38
321.962	77.38
322.191	92.38
322.42	78.38
322.649	79.38
322.878	74.38
323.108	91.38
323.337	86.38
323.566	89.38
323.795	83.38
324.024	85.38
324.253	82.38
324.482	86.38
324.71	88.38
324.939	70.38
325.168	90.38
325.397	78.38
325.626	95.38
325.855	86.38
326.084	83.38
326.313	78.38
326.542	93.38
326.77	79.38
326.999	76.38
327.228	99.38
327.457	74.38
327.686	77.38
327.914	78.38
328.143	96.38
328.372	82.38
328.6	65.38
328.829	88.38
329.058	74.38
329.287	85.38
329.515	96.38
329.744	86.38
329.972	84.38
330.201	81.38
330.43	77.38
330.658	80.38
330.887	82.38
331.115	94.38
331.344	78.38
331.572	73.38
331.801	92.38
332.03	105.38
332.258	72.38
332.486	87.38
332.715	84.38
332.943	82.38
333.172	81.38
333.4	88.38
333.629	88.38
333.857	81.38
334.085	90.38
334.314	82.38
334.542	86.38
334.771	91.38
334.999	81.38
335.227	79.38
335.455	87.38
335.684	80.38
335.912	79.38
336.14	82.38
336.369	87.38
336.597	79.38
336.825	86.38
337.053	81.38
337.281	86.38
337.51	82.38
337.738	79.38
337.966	90.38
338.194	73.38
338.422	93.38
338.65	94.38
338.878	92.38
339.106	79.38
339.334	68.38
339.562	76.38
339.79	71.38
340.018	73.38
340.246	82.38
340.474	77.38
340.702	78.38
340.93	89.38
341.158	72.38
341.386	89.38
341.614	72.38
341.842	92.38
342.07	79.38
342.298	85.38
342.526	82.38
342.754	88.38
342.981	90.38
343.209	80.38
343.437	90.38
343.665	78.38
343.893	75.38
344.12	89.38
344.348	68.38
344.576	70.38
344.804	96.38
345.031	82.38
345.259	72.38
345.487	88.38
345.714	89.38
345.942	87.38
346.17	79.38
346.397	90.38
346.625	74.38
346.853	80.38
347.08	92.38
347.308	85.38
347.535	98.38
347.763	89.38
347.99	78.38
348.218	84.38
348.445	76.38
348.673	77.38
348.9	84.38
349.128	81.38
349.355	74.38
349.583	80.38
349.81	76.38
350.037	86.38
350.265	72.38
350.492	89.38
350.72	89.38
350.947	81.38
351.174	87.38
351.402	86.38
351.629	81.38
351.856	76.38
352.083	71.38
352.311	86.38
352.538	82.38
352.765	83.38
352.992	98.38
353.22	73.38
353.447	76.38
353.674	80.38
353.901	91.38
354.128	80.38
354.355	87.38
354.583	91.38
354.81	89.38
355.037	77.38
355.264	95.38
355.491	91.38
355.718	90.38
355.945	82.38
356.172	93.38
356.399	105.38
356.626	76.38
356.853	79.38
357.08	76.38
357.307	83.38
357.534	76.38
357.761	75.38
357.988	81.38
358.215	72.38
358.441	86.38
358.668	86.38
358.895	79.38
359.122	92.38
359.349	72.38
359.576	85.38
359.802	64.38
360.029	82.38
360.256	81.38
360.483	74.38
360.709	77.38
360.936	82.38
361.163	90.38
361.39	98.38
361.616	82.38
361.843	92.38
362.07	90.38
362.296	83.38
362.523	84.38
362.749	82.38
362.976	76.38
363.203	83.38
363.429	78.38
363.656	86.38
363.882	82.38
364.109	83.38
364.335	86.38
364.562	82.38
364.788	79.38
365.015	87.38
365.241	68.38
365.468	88.38
365.694	80.38
365.92	78.38
366.147	82.38
366.373	69.38
366.599	76.38
366.826	83.38
367.052	79.38
367.278	89.38
367.505	87.38
367.731	79.38
367.957	86.38
368.184	81.38
368.41	82.38
368.636	76.38
368.862	82.38
369.089	84.38
369.315	95.38
369.541	80.38
369.767	82.38
369.993	89.38
370.219	82.38
370.445	73.38
370.672	88.38
370.898	79.38
371.124	98.38
371.35	84.38
371.576	89.38
371.802	80.38
372.028	83.38
372.254	94.38
372.48	90.38
372.706	86.38
372.932	71.38
373.158	85.38
373.384	89.38
373.61	86.38
373.835	92.38
374.061	90.38
374.287	84.38
374.513	98.38
374.739	90.38
374.965	84.38
375.191	82.38
375.416	79.38
375.642	80.38
375.868	91.38
376.094	81.38
376.319	89.38
376.545	94.38
376.771	95.38
376.997	92.38
377.222	75.38
377.448	91.38
377.674	90.38
377.899	88.38
378.125	85.38
378.35	88.38
378.576	71.38
378.802	93.38
379.027	96.38
379.253	80.38
379.478	70.38
379.704	84.38
379.929	98.38
380.155	81.38
380.38	72.38
380.606	90.38
380.831	92.38
381.057	89.38
381.282	87.38
381.507	83.38
381.733	87.38
381.958	78.38
382.184	86.38
382.409	95.38
382.634	81.38
382.86	91.38
383.085	74.38
383.31	72.38
383.535	87.38
383.761	83.38
383.986	94.38
384.211	80.38
384.436	85.38
384.662	96.38
384.887	77.38
385.112	100.38
385.337	86.38
385.562	87.38
385.787	86.38
386.013	88.38
386.238	88.38
386.463	93.38
386.688	92.38
386.913	89.38
387.138	86.38
387.363	95.38
387.588	98.38
387.813	87.38
388.038	94.38
388.263	101.38
388.488	88.38
388.713	83.38
388.938	81.38
389.163	96.38
389.387	88.38
389.612	82.38
389.837	92.38
390.062	92.38
390.287	83.38
390.512	83.38
390.736	87.38
390.961	69.38
391.186	83.38
391.411	69.38
391.636	79.38
391.86	92.38
392.085	96.38
392.31	77.38
392.534	87.38
392.759	89.38
392.984	87.38
393.208	99.38
393.433	97.38
393.658	99.38
393.882	109.38
394.107	148.38
394.331	182.38
394.556	208.38
394.78	130.38
395.005	86.38
395.229	100.38
395.454	109.38
395.678	110.38
395.903	163.38
396.127	244.38
396.352	257.38
396.576	122.38
396.801	95.38
397.025	95.38
397.249	89.38
397.474	80.38
397.698	90.38
397.922	91.38
398.147	81.38
398.371	98.38
398.595	89.38
398.82	103.38
399.044	92.38
399.268	78.38
399.492	80.38
399.717	84.38
399.941	92.38
400.165	92.38
400.389	87.38
400.613	84.38
400.837	103.38
401.062	102.38
401.286	95.38
401.51	91.38
401.734	88.38
401.958	76.38
402.182	86.38
402.406	90.38
402.63	86.38
402.854	90.38
403.078	91.38
403.302	104.38
403.526	81.38
403.75	93.38
403.974	82.38
404.198	75.38
404.422	94.38
404.645	86.38
404.869	81.38
405.093	100.38
405.317	88.38
405.541	71.38
405.765	92.38
405.988	97.38
406.212	83.38
406.436	92.38
406.66	92.38
406.883	85.38
407.107	89.38
407.331	83.38
407.555	87.38
407.778	79.38
408.002	81.38
408.226	85.38
408.449	94.38
408.673	92.38
408.896	81.38
409.12	87.38
409.344	104.38
409.567	96.38
409.791	75.38
410.014	89.38
410.238	95.38
410.461	82.38
410.685	100.38
410.908	94.38
411.132	87.38
411.355	100.38
411.578	90.38
411.802	86.38
412.025	91.38
412.249	101.38
412.472	78.38
412.695	100.38
412.919	96.38
413.142	89.38
413.365	94.38
413.589	100.38
413.812	88.38
414.035	90.38
414.258	97.38
414.482	90.38
414.705	99.38
414.928	104.38
415.151	77.38
415.374	100.38
415.597	97.38
415.821	82.38
416.044	96.38
416.267	92.38
416.49	84.38
416.713	93.38
416.936	98.38
417.159	73.38
417.382	81.38
417.605	98.38
417.828	89.38
418.051	97.38
418.274	84.38
418.497	97.38
418.72	92.38
418.943	94.38
419.166	103.38
419.389	112.38
419.611	101.38
419.834	97.38
420.057	98.38
420.28	94.38
420.503	105.38
420.726	99.38
420.948	96.38
421.171	96.38
421.394	89.38
421.617	87.38
421.839	88.38
422.062	104.38
422.285	85.38
422.507	87.38
422.73	86.38
422.953	83.38
423.175	96.38
423.398	79.38
423.621	94.38
423.843	104.38
424.066	96.38
424.288	94.38
424.511	95.38
424.733	101.38
424.956	96.38
425.178	93.38
425.401	85.38
425.623	83.38
425.846	82.38
426.068	90.38
426.291	89.38
426.513	79.38
426.735	95.38
426.958	92.38
427.18	87.38
427.402	96.38
427.625	95.38
427.847	89.38
428.069	98.38
428.292	91.38
428.514	91.38
428.736	107.38
428.958	105.38
429.181	88.38
429.403	100.38
429.625	112.38
429.847	79.38
430.069	86.38
430.292	74.38
430.514	95.38
430.736	94.38
430.958	93.38
431.18	100.38
431.402	82.38
431.624	80.38
431.846	92.38
432.068	87.38
432.29	65.38
432.512	85.38
432.734	89.38
432.956	97.38
433.178	102.38
433.4	102.38
433.622	97.38
433.844	85.38
434.066	91.38
434.287	70.38
434.509	88.38
434.731	94.38
434.953	96.38
435.175	79.38
435.397	101.38
435.618	84.38
435.84	85.38
436.062	99.38
436.284	111.38
436.505	95.38
436.727	89.38
436.949	92.38
437.17	90.38
437.392	87.38
437.614	88.38
437.835	87.38
438.057	89.38
438.278	89.38
438.5	107.38
438.721	84.38
438.943	110.38
439.165	108.38
439.386	111.38
439.608	98.38
439.829	91.38
440.05	89.38
440.272	81.38
440.493	95.38
440.715	104.38
440.936	108.38
441.158	98.38
441.379	89.38
441.6	97.38
441.822	113.38
442.043	86.38
442.264	80.38
442.486	86.38
442.707	89.38
442.928	94.38
443.149	98.38
443.371	91.38
443.592	96.38
443.813	106.38
444.034	90.38
444.255	89.38
444.476	100.38
444.698	101.38
444.919	100.38
445.14	156.38
445.361	126.38
445.582	94.38
445.803	99.38
446.024	90.38
446.245	111.38
446.466	92.38
446.687	92.38
446.908	108.38
447.129	92.38
447.35	110.38
447.571	94.38
447.792	92.38
448.013	78.38
448.234	92.38
448.455	101.38
448.675	85.38
448.896	98.38
449.117	108.38
449.338	88.38
449.559	93.38
449.779	98.38
450	96.38
450.221	101.38
450.442	104.38
450.662	92.38
450.883	110.38
451.104	93.38
451.324	89.38
451.545	89.38
451.766	85.38
451.986	92.38
452.207	104.38
452.428	88.38
452.648	95.38
452.869	98.38
453.089	74.38
453.31	78.38
453.53	89.38
453.751	86.38
453.971	88.38
454.192	87.38
454.412	87.38
454.633	85.38
454.853	89.38
455.073	87.38
455.294	98.38
455.514	96.38
455.734	92.38
455.955	85.38
456.175	75.38
456.395	92.38
456.616	88.38
456.836	98.38
457.056	83.38
457.276	90.38
457.497	78.38
457.717	83.38
457.937	83.38
458.157	87.38
458.377	87.38
458.598	85.38
458.818	94.38
459.038	86.38
459.258	83.38
459.478	66.38
459.698	72.38
459.918	81.38
460.138	80.38
460.358	92.38
460.578	88.38
460.798	85.38
461.018	90.38
461.238	81.38
461.458	82.38
461.678	95.38
461.898	94.38
462.118	91.38
462.338	96.38
462.558	88.38
462.777	101.38
462.997	104.38
463.217	84.38
463.437	102.38
463.657	96.38
463.876	96.38
464.096	93.38
464.316	84.38
464.536	85.38
464.755	82.38
464.975	86.38
465.195	92.38
465.414	95.38
465.634	90.38
465.854	92.38
466.073	95.38
466.293	100.38
466.512	107.38
466.732	94.38
466.951	104.38
467.171	107.38
467.391	120.38
467.61	110.38
467.829	101.38
468.049	106.38
468.268	100.38
468.488	100.38
468.707	113.38
468.927	105.38
469.146	110.38
469.365	101.38
469.585	101.38
469.804	100.38
470.023	103.38
470.243	117.38
470.462	107.38
470.681	102.38
470.901	98.38
471.12	96.38
471.339	94.38
471.558	104.38
471.777	87.38
471.997	95.38
472.216	99.38
472.435	100.38
472.654	82.38
472.873	91.38
473.092	91.38
473.311	84.38
473.53	92.38
473.749	100.38
473.968	98.38
474.187	96.38
474.406	82.38
474.625	104.38
474.844	105.38
475.063	91.38
475.282	93.38
475.501	95.38
475.72	105.38
475.939	92.38
476.158	88.38
476.377	99.38
476.596	106.38
476.814	81.38
477.033	86.38
477.252	86.38
477.471	96.38
477.69	84.38
477.908	100.38
478.127	97.38
478.346	78.38
478.564	93.38
478.783	98.38
479.002	105.38
479.22	102.38
479.439	86.38
479.658	83.38
479.876	92.38
480.095	86.38
480.313	83.38
480.532	86.38
480.751	83.38
480.969	88.38
481.188	81.38
481.406	80.38
481.624	86.38
481.843	88.38
482.061	77.38
482.28	54.38
482.498	98.38
482.717	83.38
482.935	98.38
483.153	96.38
483.372	93.38
483.59	99.38
483.808	98.38
484.027	94.38
484.245	88.38
484.463	88.38
484.681	117.38
484.9	98.38
485.118	93.38
485.336	89.38
485.554	87.38
485.772	76.38
485.99	86.38
486.209	73.38
486.427	68.38
486.645	95.38
486.863	97.38
487.081	94.38
487.299	94.38
487.517	99.38
487.735	100.38
487.953	111.38
488.171	98.38
488.389	99.38
488.607	98.38
488.825	78.38
489.043	90.38
489.261	85.38
489.479	108.38
489.696	107.38
489.914	96.38
490.132	93.38
490.35	94.38
490.568	105.38
490.786	126.38
491.003	110.38
491.221	120.38
491.439	114.38
491.657	104.38
491.874	118.38
492.092	134.38
492.31	123.38
492.527	124.38
492.745	128.38
492.963	121.38
493.18	134.38
493.398	111.38
493.615	132.38
493.833	121.38
494.05	116.38
494.268	100.38
494.485	99.38
494.703	125.38
494.92	122.38
495.138	108.38
495.355	113.38
495.573	122.38
495.79	111.38
496.008	100.38
496.225	109.38
496.442	120.38
496.66	100.38
496.877	101.38
497.094	98.38
497.312	93.38
497.529	104.38
497.746	96.38
497.963	100.38
498.181	97.38
498.398	88.38
498.615	85.38
498.832	78.38
499.049	100.38
499.267	97.38
499.484	94.38
499.701	94.38
499.918	101.38
500.135	101.38
500.352	92.38
500.569	103.38
500.786	90.38
501.003	102.38
501.22	91.38
501.437	102.38
501.654	90.38
501.871	100.38
502.088	105.38
502.305	101.38
502.522	94.38
502.739	92.38
502.956	91.38
503.172	96.38
503.389	98.38
503.606	72.38
503.823	85.38
504.04	96.38
504.256	89.38
504.473	81.38
504.69	96.38
504.907	99.38
505.123	94.38
505.34	103.38
505.557	93.38
505.773	94.38
505.99	99.38
506.207	96.38
506.423	88.38
506.64	101.38
506.856	94.38
507.073	93.38
507.289	102.38
507.506	88.38
507.722	82.38
507.939	89.38
508.155	96.38
508.372	100.38
508.588	72.38
508.805	88.38
509.021	83.38
509.238	85.38
509.454	85.38
509.67	83.38
509.887	73.38
510.103	86.38
510.319	86.38
510.536	103.38
510.752	82.38
510.968	77.38
511.184	83.38
511.401	82.38
511.617	82.38
511.833	75.38
512.049	82.38
512.265	92.38
512.481	73.38
512.698	92.38
512.914	88.38
513.13	91.38
513.346	95.38
513.562	82.38
513.778	105.38
513.994	99.38
514.21	73.38
514.426	91.38
514.642	101.38
514.858	76.38
515.074	86.38
515.29	79.38
515.506	74.38
515.721	79.38
515.937	71.38
516.153	75.38
516.369	88.38
516.585	76.38
516.801	77.38
517.016	77.38
517.232	88.38
517.448	86.38
517.664	69.38
517.879	96.38
