Data from Foil_3_HRD10591_00003.txt Node
Date: Wed Nov 05 16:18:44 EST 2025
User: Yrep
Spectrometer: HR+D1059
Trigger mode: 1
Integration Time (sec): 1.000000E-1
Scans to average: 1
Electric dark correction enabled: true
Nonlinearity correction enabled: false
Boxcar width: 0
XAxis mode: Wavelengths
Number of Pixels in Spectrum: 2048
>>>>>Begin Spectral Data<<<<<
223.165	-7.88
223.4	-7.88
223.635	-7.88
223.869	-20.88
224.104	-16.88
224.338	-3.88
224.573	-23.88
224.808	-1.88
225.042	-3.88
225.277	-10.88
225.511	-7.88
225.746	-3.88
225.98	10.12
226.215	11.12
226.449	9.12
226.683	13.12
226.918	27.12
227.152	31.12
227.387	30.12
227.621	54.12
227.856	37.12
228.09	40.12
228.324	44.12
228.559	58.12
228.793	58.12
229.027	70.12
229.262	70.12
229.496	66.12
229.73	71.12
229.964	74.12
230.199	81.12
230.433	68.12
230.667	82.12
230.901	81.12
231.136	82.12
231.37	86.12
231.604	81.12
231.838	74.12
232.072	95.12
232.306	82.12
232.541	88.12
232.775	72.12
233.009	65.12
233.243	80.12
233.477	79.12
233.711	73.12
233.945	94.12
234.179	84.12
234.413	90.12
234.647	73.12
234.881	90.12
235.115	78.12
235.349	76.12
235.583	75.12
235.817	78.12
236.051	76.12
236.285	77.12
236.519	73.12
236.753	77.12
236.987	80.12
237.221	78.12
237.455	64.12
237.689	82.12
237.922	81.12
238.156	80.12
238.39	88.12
238.624	78.12
238.858	81.12
239.091	78.12
239.325	70.12
239.559	74.12
239.793	70.12
240.027	82.12
240.26	78.12
240.494	77.12
240.728	78.12
240.961	83.12
241.195	86.12
241.429	72.12
241.662	68.12
241.896	84.12
242.13	79.12
242.363	57.12
242.597	76.12
242.83	87.12
243.064	77.12
243.298	75.12
243.531	62.12
243.765	74.12
243.998	80.12
244.232	82.12
244.465	83.12
244.699	73.12
244.932	84.12
245.166	64.12
245.399	92.12
245.633	80.12
245.866	68.12
246.099	78.12
246.333	86.12
246.566	92.12
246.8	73.12
247.033	81.12
247.266	88.12
247.5	78.12
247.733	88.12
247.966	71.12
248.2	82.12
248.433	86.12
248.666	80.12
248.899	86.12
249.133	73.12
249.366	78.12
249.599	77.12
249.832	77.12
250.066	72.12
250.299	77.12
250.532	88.12
250.765	65.12
250.998	80.12
251.231	82.12
251.465	80.12
251.698	81.12
251.931	69.12
252.164	77.12
252.397	68.12
252.63	71.12
252.863	79.12
253.096	100.12
253.329	76.12
253.562	77.12
253.795	84.12
254.028	82.12
254.261	82.12
254.494	78.12
254.727	76.12
254.96	84.12
255.193	87.12
255.426	72.12
255.659	58.12
255.892	68.12
256.124	59.12
256.357	88.12
256.59	84.12
256.823	69.12
257.056	73.12
257.289	104.12
257.521	98.12
257.754	76.12
257.987	90.12
258.22	77.12
258.452	82.12
258.685	90.12
258.918	90.12
259.151	92.12
259.383	82.12
259.616	72.12
259.849	83.12
260.081	73.12
260.314	66.12
260.547	68.12
260.779	71.12
261.012	89.12
261.244	90.12
261.477	69.12
261.71	76.12
261.942	86.12
262.175	76.12
262.407	79.12
262.64	73.12
262.872	71.12
263.105	84.12
263.337	90.12
263.57	87.12
263.802	91.12
264.035	72.12
264.267	80.12
264.499	76.12
264.732	80.12
264.964	74.12
265.197	76.12
265.429	86.12
265.661	69.12
265.894	79.12
266.126	84.12
266.358	64.12
266.591	88.12
266.823	77.12
267.055	77.12
267.287	62.12
267.52	89.12
267.752	74.12
267.984	74.12
268.216	89.12
268.448	89.12
268.681	81.12
268.913	82.12
269.145	72.12
269.377	77.12
269.609	75.12
269.841	76.12
270.073	81.12
270.306	85.12
270.538	100.12
270.77	85.12
271.002	93.12
271.234	81.12
271.466	64.12
271.698	74.12
271.93	76.12
272.162	88.12
272.394	79.12
272.626	86.12
272.858	90.12
273.09	81.12
273.322	80.12
273.553	70.12
273.785	84.12
274.017	85.12
274.249	94.12
274.481	82.12
274.713	80.12
274.945	92.12
275.176	78.12
275.408	83.12
275.64	80.12
275.872	86.12
276.104	75.12
276.335	83.12
276.567	93.12
276.799	78.12
277.031	84.12
277.262	78.12
277.494	73.12
277.726	86.12
277.957	90.12
278.189	73.12
278.421	73.12
278.652	77.12
278.884	84.12
279.115	85.12
279.347	80.12
279.579	78.12
279.81	81.12
280.042	72.12
280.273	94.12
280.505	100.12
280.736	86.12
280.968	79.12
281.199	92.12
281.431	86.12
281.662	81.12
281.894	80.12
282.125	78.12
282.356	89.12
282.588	98.12
282.819	86.12
283.051	74.12
283.282	76.12
283.513	100.12
283.745	86.12
283.976	90.12
284.207	76.12
284.439	84.12
284.67	92.12
284.901	83.12
285.132	88.12
285.364	81.12
285.595	97.12
285.826	90.12
286.057	87.12
286.288	67.12
286.52	82.12
286.751	65.12
286.982	91.12
287.213	79.12
287.444	81.12
287.675	87.12
287.906	74.12
288.138	75.12
288.369	76.12
288.6	76.12
288.831	88.12
289.062	79.12
289.293	80.12
289.524	90.12
289.755	84.12
289.986	78.12
290.217	88.12
290.448	90.12
290.679	82.12
290.91	74.12
291.141	87.12
291.371	93.12
291.602	92.12
291.833	69.12
292.064	79.12
292.295	83.12
292.526	88.12
292.757	92.12
292.987	83.12
293.218	90.12
293.449	72.12
293.68	92.12
293.91	84.12
294.141	78.12
294.372	83.12
294.603	80.12
294.833	79.12
295.064	90.12
295.295	88.12
295.525	79.12
295.756	90.12
295.987	80.12
296.217	79.12
296.448	86.12
296.679	96.12
296.909	83.12
297.14	84.12
297.37	75.12
297.601	72.12
297.831	88.12
298.062	104.12
298.292	83.12
298.523	79.12
298.753	80.12
298.984	80.12
299.214	84.12
299.445	88.12
299.675	97.12
299.905	74.12
300.136	83.12
300.366	80.12
300.597	86.12
300.827	92.12
301.057	78.12
301.288	85.12
301.518	94.12
301.748	83.12
301.979	93.12
302.209	93.12
302.439	95.12
302.669	80.12
302.9	84.12
303.13	82.12
303.36	86.12
303.59	95.12
303.82	76.12
304.051	92.12
304.281	93.12
304.511	85.12
304.741	86.12
304.971	76.12
305.201	92.12
305.431	95.12
305.661	86.12
305.891	81.12
306.121	88.12
306.352	79.12
306.582	87.12
306.812	83.12
307.042	76.12
307.272	87.12
307.502	95.12
307.731	95.12
307.961	88.12
308.191	116.12
308.421	126.12
308.651	104.12
308.881	115.12
309.111	122.12
309.341	152.12
309.571	117.12
309.8	104.12
310.03	79.12
310.26	90.12
310.49	88.12
310.72	84.12
310.949	77.12
311.179	72.12
311.409	83.12
311.639	81.12
311.868	84.12
312.098	94.12
312.328	88.12
312.557	82.12
312.787	80.12
313.017	82.12
313.246	88.12
313.476	72.12
313.706	74.12
313.935	77.12
314.165	87.12
314.394	78.12
314.624	92.12
314.853	83.12
315.083	90.12
315.312	88.12
315.542	77.12
315.771	72.12
316.001	110.12
316.23	82.12
316.46	75.12
316.689	57.12
316.919	75.12
317.148	74.12
317.377	91.12
317.607	94.12
317.836	97.12
318.065	82.12
318.295	70.12
318.524	83.12
318.753	91.12
318.983	82.12
319.212	70.12
319.441	73.12
319.67	88.12
319.9	78.12
320.129	84.12
320.358	81.12
320.587	86.12
320.816	79.12
321.046	92.12
321.275	86.12
321.504	90.12
321.733	80.12
321.962	76.12
322.191	60.12
322.42	75.12
322.649	99.12
322.878	84.12
323.108	94.12
323.337	99.12
323.566	75.12
323.795	92.12
324.024	83.12
324.253	83.12
324.482	87.12
324.71	86.12
324.939	87.12
325.168	82.12
325.397	90.12
325.626	94.12
325.855	83.12
326.084	81.12
326.313	86.12
326.542	86.12
326.77	95.12
326.999	77.12
327.228	74.12
327.457	66.12
327.686	72.12
327.914	82.12
328.143	76.12
328.372	80.12
328.6	93.12
328.829	86.12
329.058	81.12
329.287	79.12
329.515	62.12
329.744	89.12
329.972	80.12
330.201	86.12
330.43	80.12
330.658	97.12
330.887	80.12
331.115	72.12
331.344	93.12
331.572	86.12
331.801	87.12
332.03	100.12
332.258	80.12
332.486	81.12
332.715	87.12
332.943	74.12
333.172	70.12
333.4	73.12
333.629	81.12
333.857	86.12
334.085	88.12
334.314	78.12
334.542	79.12
334.771	88.12
334.999	92.12
335.227	86.12
335.455	81.12
335.684	82.12
335.912	90.12
336.14	81.12
336.369	92.12
336.597	76.12
336.825	92.12
337.053	81.12
337.281	78.12
337.51	100.12
337.738	80.12
337.966	77.12
338.194	86.12
338.422	76.12
338.65	84.12
338.878	86.12
339.106	91.12
339.334	92.12
339.562	88.12
339.79	79.12
340.018	80.12
340.246	65.12
340.474	72.12
340.702	81.12
340.93	93.12
341.158	72.12
341.386	82.12
341.614	96.12
341.842	88.12
342.07	90.12
342.298	77.12
342.526	88.12
342.754	80.12
342.981	86.12
343.209	76.12
343.437	108.12
343.665	87.12
343.893	86.12
344.12	81.12
344.348	100.12
344.576	85.12
344.804	82.12
345.031	92.12
345.259	67.12
345.487	69.12
345.714	96.12
345.942	87.12
346.17	79.12
346.397	80.12
346.625	89.12
346.853	77.12
347.08	88.12
347.308	83.12
347.535	82.12
347.763	81.12
347.99	86.12
348.218	90.12
348.445	89.12
348.673	92.12
348.9	88.12
349.128	93.12
349.355	98.12
349.583	70.12
349.81	86.12
350.037	92.12
350.265	89.12
350.492	68.12
350.72	76.12
350.947	79.12
351.174	94.12
351.402	89.12
351.629	96.12
351.856	86.12
352.083	74.12
352.311	91.12
352.538	82.12
352.765	89.12
352.992	86.12
353.22	89.12
353.447	83.12
353.674	73.12
353.901	82.12
354.128	90.12
354.355	85.12
354.583	69.12
354.81	62.12
355.037	88.12
355.264	79.12
355.491	84.12
355.718	92.12
355.945	96.12
356.172	73.12
356.399	84.12
356.626	91.12
356.853	86.12
357.08	83.12
357.307	82.12
357.534	84.12
357.761	81.12
357.988	96.12
358.215	92.12
358.441	95.12
358.668	77.12
358.895	91.12
359.122	79.12
359.349	80.12
359.576	90.12
359.802	100.12
360.029	92.12
360.256	80.12
360.483	75.12
360.709	79.12
360.936	97.12
361.163	84.12
361.39	81.12
361.616	95.12
361.843	88.12
362.07	76.12
362.296	83.12
362.523	98.12
362.749	80.12
362.976	80.12
363.203	77.12
363.429	89.12
363.656	89.12
363.882	78.12
364.109	95.12
364.335	92.12
364.562	92.12
364.788	106.12
365.015	88.12
365.241	96.12
365.468	86.12
365.694	81.12
365.92	87.12
366.147	100.12
366.373	89.12
366.599	74.12
366.826	82.12
367.052	71.12
367.278	81.12
367.505	85.12
367.731	90.12
367.957	79.12
368.184	88.12
368.41	90.12
368.636	97.12
368.862	104.12
369.089	80.12
369.315	86.12
369.541	90.12
369.767	81.12
369.993	72.12
370.219	80.12
370.445	96.12
370.672	91.12
370.898	82.12
371.124	75.12
371.35	80.12
371.576	90.12
371.802	89.12
372.028	79.12
372.254	89.12
372.48	77.12
372.706	91.12
372.932	82.12
373.158	91.12
373.384	81.12
373.61	86.12
373.835	88.12
374.061	79.12
374.287	96.12
374.513	87.12
374.739	84.12
374.965	78.12
375.191	78.12
375.416	72.12
375.642	79.12
375.868	94.12
376.094	77.12
376.319	94.12
376.545	90.12
376.771	79.12
376.997	90.12
377.222	72.12
377.448	87.12
377.674	78.12
377.899	86.12
378.125	78.12
378.35	95.12
378.576	78.12
378.802	93.12
379.027	81.12
379.253	78.12
379.478	97.12
379.704	90.12
379.929	90.12
380.155	81.12
380.38	92.12
380.606	98.12
380.831	88.12
381.057	93.12
381.282	76.12
381.507	83.12
381.733	70.12
381.958	86.12
382.184	85.12
382.409	82.12
382.634	86.12
382.86	86.12
383.085	98.12
383.31	88.12
383.535	73.12
383.761	90.12
383.986	88.12
384.211	90.12
384.436	67.12
384.662	80.12
384.887	76.12
385.112	75.12
385.337	98.12
385.562	82.12
385.787	93.12
386.013	88.12
386.238	78.12
386.463	98.12
386.688	104.12
386.913	70.12
387.138	87.12
387.363	73.12
387.588	95.12
387.813	89.12
388.038	81.12
388.263	84.12
388.488	90.12
388.713	77.12
388.938	78.12
389.163	88.12
389.387	96.12
389.612	88.12
389.837	88.12
390.062	74.12
390.287	81.12
390.512	101.12
390.736	103.12
390.961	86.12
391.186	91.12
391.411	91.12
391.636	89.12
391.86	89.12
392.085	98.12
392.31	88.12
392.534	105.12
392.759	97.12
392.984	107.12
393.208	88.12
393.433	97.12
393.658	87.12
393.882	81.12
394.107	145.12
394.331	200.12
394.556	233.12
394.78	146.12
395.005	104.12
395.229	99.12
395.454	104.12
395.678	112.12
395.903	180.12
396.127	263.12
396.352	246.12
396.576	127.12
396.801	104.12
397.025	86.12
397.249	98.12
397.474	93.12
397.698	89.12
397.922	90.12
398.147	73.12
398.371	83.12
398.595	81.12
398.82	85.12
399.044	91.12
399.268	91.12
399.492	96.12
399.717	86.12
399.941	92.12
400.165	94.12
400.389	96.12
400.613	93.12
400.837	78.12
401.062	80.12
401.286	96.12
401.51	108.12
401.734	90.12
401.958	83.12
402.182	88.12
402.406	98.12
402.63	75.12
402.854	78.12
403.078	92.12
403.302	96.12
403.526	95.12
403.75	94.12
403.974	92.12
404.198	90.12
404.422	89.12
404.645	89.12
404.869	86.12
405.093	83.12
405.317	90.12
405.541	93.12
405.765	89.12
405.988	59.12
406.212	92.12
406.436	94.12
406.66	85.12
406.883	94.12
407.107	90.12
407.331	86.12
407.555	77.12
407.778	105.12
408.002	92.12
408.226	90.12
408.449	86.12
408.673	108.12
408.896	93.12
409.12	81.12
409.344	90.12
409.567	91.12
409.791	88.12
410.014	92.12
410.238	99.12
410.461	92.12
410.685	93.12
410.908	91.12
411.132	86.12
411.355	103.12
411.578	102.12
411.802	94.12
412.025	97.12
412.249	107.12
412.472	76.12
412.695	94.12
412.919	77.12
413.142	87.12
413.365	97.12
413.589	93.12
413.812	88.12
414.035	89.12
414.258	110.12
414.482	102.12
414.705	93.12
414.928	100.12
415.151	90.12
415.374	77.12
415.597	95.12
415.821	108.12
416.044	94.12
416.267	96.12
416.49	91.12
416.713	95.12
416.936	91.12
417.159	86.12
417.382	97.12
417.605	94.12
417.828	78.12
418.051	108.12
418.274	102.12
418.497	88.12
418.72	92.12
418.943	104.12
419.166	93.12
419.389	95.12
419.611	102.12
419.834	101.12
420.057	96.12
420.28	100.12
420.503	79.12
420.726	90.12
420.948	94.12
421.171	91.12
421.394	97.12
421.617	104.12
421.839	105.12
422.062	88.12
422.285	98.12
422.507	102.12
422.73	78.12
422.953	94.12
423.175	92.12
423.398	88.12
423.621	112.12
423.843	110.12
424.066	96.12
424.288	82.12
424.511	92.12
424.733	84.12
424.956	97.12
425.178	92.12
425.401	86.12
425.623	94.12
425.846	91.12
426.068	92.12
426.291	89.12
426.513	92.12
426.735	87.12
426.958	86.12
427.18	95.12
427.402	111.12
427.625	102.12
427.847	96.12
428.069	104.12
428.292	98.12
428.514	90.12
428.736	89.12
428.958	76.12
429.181	90.12
429.403	98.12
429.625	90.12
429.847	117.12
430.069	102.12
430.292	87.12
430.514	104.12
430.736	101.12
430.958	94.12
431.18	88.12
431.402	85.12
431.624	95.12
431.846	101.12
432.068	92.12
432.29	88.12
432.512	88.12
432.734	97.12
432.956	100.12
433.178	114.12
433.4	100.12
433.622	95.12
433.844	92.12
434.066	88.12
434.287	85.12
434.509	82.12
434.731	82.12
434.953	103.12
435.175	96.12
435.397	86.12
435.618	83.12
435.84	104.12
436.062	94.12
436.284	111.12
436.505	100.12
436.727	120.12
436.949	86.12
437.17	101.12
437.392	92.12
437.614	86.12
437.835	80.12
438.057	87.12
438.278	92.12
438.5	99.12
438.721	85.12
438.943	99.12
439.165	92.12
439.386	83.12
439.608	105.12
439.829	83.12
440.05	90.12
440.272	109.12
440.493	96.12
440.715	105.12
440.936	94.12
441.158	92.12
441.379	108.12
441.6	90.12
441.822	98.12
442.043	88.12
442.264	93.12
442.486	100.12
442.707	90.12
442.928	90.12
443.149	106.12
443.371	97.12
443.592	99.12
443.813	99.12
444.034	97.12
444.255	110.12
444.476	100.12
444.698	96.12
444.919	99.12
445.14	149.12
445.361	139.12
445.582	97.12
445.803	98.12
446.024	95.12
446.245	110.12
446.466	115.12
446.687	96.12
446.908	105.12
447.129	95.12
447.35	104.12
447.571	103.12
447.792	96.12
448.013	105.12
448.234	91.12
448.455	101.12
448.675	97.12
448.896	87.12
449.117	112.12
449.338	96.12
449.559	109.12
449.779	110.12
450	109.12
450.221	113.12
450.442	101.12
450.662	101.12
450.883	73.12
451.104	112.12
451.324	86.12
451.545	95.12
451.766	97.12
451.986	106.12
452.207	93.12
452.428	105.12
452.648	106.12
452.869	102.12
453.089	99.12
453.31	102.12
453.53	72.12
453.751	107.12
453.971	88.12
454.192	92.12
454.412	100.12
454.633	89.12
454.853	90.12
455.073	99.12
455.294	87.12
455.514	89.12
455.734	99.12
455.955	92.12
456.175	86.12
456.395	88.12
456.616	96.12
456.836	96.12
457.056	97.12
457.276	84.12
457.497	92.12
457.717	91.12
457.937	86.12
458.157	101.12
458.377	79.12
458.598	76.12
458.818	77.12
459.038	78.12
459.258	87.12
459.478	77.12
459.698	89.12
459.918	100.12
460.138	92.12
460.358	97.12
460.578	98.12
460.798	92.12
461.018	86.12
461.238	100.12
461.458	94.12
461.678	84.12
461.898	78.12
462.118	99.12
462.338	95.12
462.558	95.12
462.777	75.12
462.997	80.12
463.217	92.12
463.437	97.12
463.657	82.12
463.876	97.12
464.096	87.12
464.316	94.12
464.536	89.12
464.755	84.12
464.975	83.12
465.195	93.12
465.414	104.12
465.634	85.12
465.854	89.12
466.073	89.12
466.293	97.12
466.512	95.12
466.732	102.12
466.951	88.12
467.171	105.12
467.391	123.12
467.61	103.12
467.829	97.12
468.049	102.12
468.268	93.12
468.488	101.12
468.707	101.12
468.927	114.12
469.146	106.12
469.365	108.12
469.585	88.12
469.804	103.12
470.023	120.12
470.243	122.12
470.462	97.12
470.681	111.12
470.901	111.12
471.12	87.12
471.339	118.12
471.558	106.12
471.777	102.12
471.997	95.12
472.216	104.12
472.435	101.12
472.654	93.12
472.873	93.12
473.092	89.12
473.311	91.12
473.53	102.12
473.749	97.12
473.968	107.12
474.187	96.12
474.406	86.12
474.625	121.12
474.844	111.12
475.063	93.12
475.282	102.12
475.501	99.12
475.72	102.12
475.939	82.12
476.158	96.12
476.377	96.12
476.596	87.12
476.814	101.12
477.033	88.12
477.252	94.12
477.471	96.12
477.69	102.12
477.908	111.12
478.127	101.12
478.346	89.12
478.564	104.12
478.783	92.12
479.002	96.12
479.22	91.12
479.439	97.12
479.658	107.12
479.876	87.12
480.095	86.12
480.313	90.12
480.532	86.12
480.751	87.12
480.969	90.12
481.188	92.12
481.406	88.12
481.624	96.12
481.843	79.12
482.061	100.12
482.28	80.12
482.498	84.12
482.717	94.12
482.935	82.12
483.153	109.12
483.372	100.12
483.59	97.12
483.808	97.12
484.027	76.12
484.245	91.12
484.463	103.12
484.681	113.12
484.9	94.12
485.118	98.12
485.336	105.12
485.554	98.12
485.772	95.12
485.99	91.12
486.209	97.12
486.427	105.12
486.645	105.12
486.863	96.12
487.081	98.12
487.299	89.12
487.517	103.12
487.735	111.12
487.953	108.12
488.171	109.12
488.389	118.12
488.607	105.12
488.825	85.12
489.043	98.12
489.261	105.12
489.479	98.12
489.696	114.12
489.914	110.12
490.132	95.12
490.35	101.12
490.568	105.12
490.786	91.12
491.003	94.12
491.221	116.12
491.439	106.12
491.657	119.12
491.874	113.12
492.092	138.12
492.31	139.12
492.527	118.12
492.745	110.12
492.963	124.12
493.18	113.12
493.398	96.12
493.615	110.12
493.833	118.12
494.05	108.12
494.268	113.12
494.485	108.12
494.703	101.12
494.92	104.12
495.138	108.12
495.355	111.12
495.573	120.12
495.79	128.12
496.008	109.12
496.225	107.12
496.442	103.12
496.66	117.12
496.877	114.12
497.094	91.12
497.312	78.12
497.529	92.12
497.746	91.12
497.963	111.12
498.181	102.12
498.398	85.12
498.615	89.12
498.832	92.12
499.049	94.12
499.267	102.12
499.484	89.12
499.701	100.12
499.918	106.12
500.135	96.12
500.352	88.12
500.569	96.12
500.786	100.12
501.003	96.12
501.22	92.12
501.437	99.12
501.654	101.12
501.871	79.12
502.088	105.12
502.305	96.12
502.522	89.12
502.739	86.12
502.956	88.12
503.172	92.12
503.389	92.12
503.606	82.12
503.823	102.12
504.04	92.12
504.256	87.12
504.473	102.12
504.69	94.12
504.907	101.12
505.123	91.12
505.34	100.12
505.557	108.12
505.773	80.12
505.99	94.12
506.207	92.12
506.423	83.12
506.64	91.12
506.856	76.12
507.073	76.12
507.289	97.12
507.506	91.12
507.722	92.12
507.939	92.12
508.155	87.12
508.372	96.12
508.588	103.12
508.805	92.12
509.021	94.12
509.238	96.12
509.454	88.12
509.67	86.12
509.887	82.12
510.103	86.12
510.319	79.12
510.536	80.12
510.752	96.12
510.968	81.12
511.184	84.12
511.401	84.12
511.617	94.12
511.833	81.12
512.049	87.12
512.265	82.12
512.481	90.12
512.698	81.12
512.914	81.12
513.13	83.12
513.346	89.12
513.562	91.12
513.778	89.12
513.994	82.12
514.21	86.12
514.426	101.12
514.642	83.12
514.858	109.12
515.074	85.12
515.29	95.12
515.506	87.12
515.721	86.12
515.937	80.12
516.153	73.12
516.369	84.12
516.585	88.12
516.801	89.12
517.016	84.12
517.232	88.12
517.448	93.12
