Data from Foil_3_HRD10591_00019.txt Node
Date: Wed Nov 05 16:18:52 EST 2025
User: Yrep
Spectrometer: HR+D1059
Trigger mode: 1
Integration Time (sec): 1.000000E-1
Scans to average: 1
Electric dark correction enabled: true
Nonlinearity correction enabled: false
Boxcar width: 0
XAxis mode: Wavelengths
Number of Pixels in Spectrum: 2048
>>>>>Begin Spectral Data<<<<<
223.165	-13.44
223.4	-13.44
223.635	-13.44
223.869	-23.44
224.104	-13.44
224.338	-13.44
224.573	-9.44
224.808	-1.44
225.042	-5.44
225.277	-3.44
225.511	0.56
225.746	0.56
225.98	0.56
226.215	3.56
226.449	14.56
226.683	6.56
226.918	30.56
227.152	26.56
227.387	39.56
227.621	50.56
227.856	41.56
228.09	50.56
228.324	44.56
228.559	58.56
228.793	44.56
229.027	60.56
229.262	59.56
229.496	70.56
229.73	65.56
229.964	63.56
230.199	76.56
230.433	77.56
230.667	75.56
230.901	79.56
231.136	72.56
231.37	78.56
231.604	91.56
231.838	86.56
232.072	84.56
232.306	70.56
232.541	72.56
232.775	96.56
233.009	80.56
233.243	74.56
233.477	72.56
233.711	79.56
233.945	84.56
234.179	84.56
234.413	95.56
234.647	70.56
234.881	75.56
235.115	75.56
235.349	77.56
235.583	84.56
235.817	78.56
236.051	82.56
236.285	84.56
236.519	80.56
236.753	76.56
236.987	80.56
237.221	85.56
237.455	88.56
237.689	83.56
237.922	73.56
238.156	86.56
238.39	72.56
238.624	74.56
238.858	65.56
239.091	64.56
239.325	75.56
239.559	70.56
239.793	71.56
240.027	78.56
240.26	68.56
240.494	65.56
240.728	68.56
240.961	54.56
241.195	75.56
241.429	75.56
241.662	75.56
241.896	69.56
242.13	83.56
242.363	83.56
242.597	77.56
242.83	88.56
243.064	74.56
243.298	76.56
243.531	57.56
243.765	76.56
243.998	70.56
244.232	82.56
244.465	62.56
244.699	70.56
244.932	74.56
245.166	70.56
245.399	81.56
245.633	68.56
245.866	66.56
246.099	60.56
246.333	74.56
246.566	83.56
246.8	66.56
247.033	92.56
247.266	73.56
247.5	89.56
247.733	86.56
247.966	82.56
248.2	79.56
248.433	69.56
248.666	77.56
248.899	80.56
249.133	78.56
249.366	88.56
249.599	72.56
249.832	77.56
250.066	70.56
250.299	65.56
250.532	67.56
250.765	79.56
250.998	84.56
251.231	72.56
251.465	81.56
251.698	75.56
251.931	85.56
252.164	68.56
252.397	76.56
252.63	92.56
252.863	94.56
253.096	81.56
253.329	82.56
253.562	85.56
253.795	71.56
254.028	68.56
254.261	61.56
254.494	90.56
254.727	69.56
254.96	87.56
255.193	88.56
255.426	79.56
255.659	87.56
255.892	87.56
256.124	69.56
256.357	77.56
256.59	68.56
256.823	82.56
257.056	88.56
257.289	82.56
257.521	78.56
257.754	70.56
257.987	86.56
258.22	81.56
258.452	77.56
258.685	73.56
258.918	63.56
259.151	83.56
259.383	87.56
259.616	78.56
259.849	83.56
260.081	98.56
260.314	86.56
260.547	87.56
260.779	81.56
261.012	79.56
261.244	86.56
261.477	71.56
261.71	79.56
261.942	75.56
262.175	82.56
262.407	70.56
262.64	91.56
262.872	79.56
263.105	75.56
263.337	84.56
263.57	61.56
263.802	75.56
264.035	90.56
264.267	76.56
264.499	97.56
264.732	100.56
264.964	75.56
265.197	86.56
265.429	89.56
265.661	84.56
265.894	90.56
266.126	94.56
266.358	86.56
266.591	88.56
266.823	76.56
267.055	75.56
267.287	72.56
267.52	84.56
267.752	87.56
267.984	86.56
268.216	75.56
268.448	76.56
268.681	85.56
268.913	74.56
269.145	67.56
269.377	86.56
269.609	74.56
269.841	77.56
270.073	87.56
270.306	92.56
270.538	87.56
270.77	84.56
271.002	69.56
271.234	72.56
271.466	70.56
271.698	86.56
271.93	65.56
272.162	70.56
272.394	88.56
272.626	88.56
272.858	88.56
273.09	91.56
273.322	85.56
273.553	84.56
273.785	72.56
274.017	72.56
274.249	85.56
274.481	71.56
274.713	80.56
274.945	71.56
275.176	76.56
275.408	85.56
275.64	79.56
275.872	89.56
276.104	79.56
276.335	97.56
276.567	84.56
276.799	69.56
277.031	74.56
277.262	77.56
277.494	75.56
277.726	93.56
277.957	82.56
278.189	84.56
278.421	78.56
278.652	76.56
278.884	76.56
279.115	75.56
279.347	88.56
279.579	84.56
279.81	86.56
280.042	86.56
280.273	70.56
280.505	86.56
280.736	98.56
280.968	79.56
281.199	74.56
281.431	83.56
281.662	86.56
281.894	87.56
282.125	72.56
282.356	73.56
282.588	83.56
282.819	78.56
283.051	78.56
283.282	82.56
283.513	86.56
283.745	75.56
283.976	84.56
284.207	75.56
284.439	78.56
284.67	75.56
284.901	74.56
285.132	86.56
285.364	84.56
285.595	88.56
285.826	84.56
286.057	70.56
286.288	82.56
286.52	90.56
286.751	83.56
286.982	64.56
287.213	86.56
287.444	93.56
287.675	85.56
287.906	77.56
288.138	84.56
288.369	80.56
288.6	83.56
288.831	87.56
289.062	87.56
289.293	88.56
289.524	84.56
289.755	89.56
289.986	81.56
290.217	92.56
290.448	87.56
290.679	75.56
290.91	82.56
291.141	90.56
291.371	87.56
291.602	79.56
291.833	80.56
292.064	87.56
292.295	82.56
292.526	79.56
292.757	72.56
292.987	69.56
293.218	82.56
293.449	76.56
293.68	84.56
293.91	93.56
294.141	86.56
294.372	82.56
294.603	86.56
294.833	98.56
295.064	68.56
295.295	80.56
295.525	83.56
295.756	95.56
295.987	88.56
296.217	66.56
296.448	90.56
296.679	81.56
296.909	81.56
297.14	78.56
297.37	81.56
297.601	90.56
297.831	76.56
298.062	90.56
298.292	78.56
298.523	93.56
298.753	66.56
298.984	69.56
299.214	76.56
299.445	85.56
299.675	95.56
299.905	86.56
300.136	77.56
300.366	90.56
300.597	71.56
300.827	81.56
301.057	86.56
301.288	88.56
301.518	89.56
301.748	88.56
301.979	104.56
302.209	77.56
302.439	95.56
302.669	88.56
302.9	81.56
303.13	90.56
303.36	77.56
303.59	80.56
303.82	93.56
304.051	90.56
304.281	79.56
304.511	78.56
304.741	84.56
304.971	78.56
305.201	80.56
305.431	78.56
305.661	88.56
305.891	80.56
306.121	94.56
306.352	85.56
306.582	85.56
306.812	77.56
307.042	80.56
307.272	82.56
307.502	81.56
307.731	76.56
307.961	97.56
308.191	101.56
308.421	109.56
308.651	104.56
308.881	116.56
309.111	117.56
309.341	132.56
309.571	128.56
309.8	94.56
310.03	81.56
310.26	74.56
310.49	94.56
310.72	80.56
310.949	91.56
311.179	70.56
311.409	76.56
311.639	78.56
311.868	80.56
312.098	80.56
312.328	78.56
312.557	77.56
312.787	80.56
313.017	84.56
313.246	83.56
313.476	89.56
313.706	91.56
313.935	76.56
314.165	91.56
314.394	87.56
314.624	82.56
314.853	80.56
315.083	69.56
315.312	74.56
315.542	86.56
315.771	79.56
316.001	89.56
316.23	77.56
316.46	82.56
316.689	87.56
316.919	87.56
317.148	78.56
317.377	83.56
317.607	94.56
317.836	86.56
318.065	90.56
318.295	94.56
318.524	74.56
318.753	83.56
318.983	78.56
319.212	96.56
319.441	84.56
319.67	92.56
319.9	87.56
320.129	91.56
320.358	78.56
320.587	91.56
320.816	88.56
321.046	69.56
321.275	87.56
321.504	79.56
321.733	81.56
321.962	92.56
322.191	78.56
322.42	94.56
322.649	82.56
322.878	79.56
323.108	98.56
323.337	84.56
323.566	89.56
323.795	70.56
324.024	77.56
324.253	70.56
324.482	78.56
324.71	83.56
324.939	79.56
325.168	98.56
325.397	80.56
325.626	89.56
325.855	91.56
326.084	82.56
326.313	76.56
326.542	74.56
326.77	88.56
326.999	77.56
327.228	86.56
327.457	78.56
327.686	86.56
327.914	84.56
328.143	85.56
328.372	101.56
328.6	84.56
328.829	83.56
329.058	86.56
329.287	81.56
329.515	79.56
329.744	96.56
329.972	107.56
330.201	77.56
330.43	80.56
330.658	74.56
330.887	91.56
331.115	83.56
331.344	81.56
331.572	71.56
331.801	83.56
332.03	85.56
332.258	79.56
332.486	77.56
332.715	78.56
332.943	87.56
333.172	84.56
333.4	87.56
333.629	86.56
333.857	86.56
334.085	88.56
334.314	81.56
334.542	93.56
334.771	76.56
334.999	86.56
335.227	84.56
335.455	77.56
335.684	80.56
335.912	95.56
336.14	98.56
336.369	78.56
336.597	82.56
336.825	75.56
337.053	85.56
337.281	86.56
337.51	86.56
337.738	87.56
337.966	75.56
338.194	76.56
338.422	81.56
338.65	84.56
338.878	75.56
339.106	91.56
339.334	93.56
339.562	70.56
339.79	72.56
340.018	88.56
340.246	85.56
340.474	77.56
340.702	89.56
340.93	84.56
341.158	84.56
341.386	74.56
341.614	84.56
341.842	88.56
342.07	74.56
342.298	84.56
342.526	72.56
342.754	85.56
342.981	96.56
343.209	81.56
343.437	98.56
343.665	79.56
343.893	71.56
344.12	82.56
344.348	78.56
344.576	88.56
344.804	84.56
345.031	78.56
345.259	79.56
345.487	74.56
345.714	76.56
345.942	87.56
346.17	99.56
346.397	95.56
346.625	94.56
346.853	76.56
347.08	88.56
347.308	86.56
347.535	80.56
347.763	86.56
347.99	88.56
348.218	80.56
348.445	81.56
348.673	84.56
348.9	95.56
349.128	104.56
349.355	95.56
349.583	92.56
349.81	90.56
350.037	86.56
350.265	95.56
350.492	80.56
350.72	62.56
350.947	76.56
351.174	84.56
351.402	68.56
351.629	89.56
351.856	80.56
352.083	88.56
352.311	79.56
352.538	81.56
352.765	75.56
352.992	92.56
353.22	80.56
353.447	69.56
353.674	88.56
353.901	80.56
354.128	91.56
354.355	75.56
354.583	77.56
354.81	81.56
355.037	91.56
355.264	85.56
355.491	85.56
355.718	90.56
355.945	75.56
356.172	71.56
356.399	92.56
356.626	87.56
356.853	79.56
357.08	82.56
357.307	93.56
357.534	86.56
357.761	91.56
357.988	95.56
358.215	91.56
358.441	81.56
358.668	72.56
358.895	86.56
359.122	96.56
359.349	80.56
359.576	89.56
359.802	86.56
360.029	106.56
360.256	78.56
360.483	81.56
360.709	84.56
360.936	90.56
361.163	87.56
361.39	75.56
361.616	92.56
361.843	80.56
362.07	86.56
362.296	84.56
362.523	75.56
362.749	82.56
362.976	82.56
363.203	88.56
363.429	91.56
363.656	72.56
363.882	78.56
364.109	92.56
364.335	84.56
364.562	90.56
364.788	87.56
365.015	76.56
365.241	78.56
365.468	80.56
365.694	78.56
365.92	91.56
366.147	68.56
366.373	81.56
366.599	84.56
366.826	90.56
367.052	86.56
367.278	70.56
367.505	75.56
367.731	88.56
367.957	84.56
368.184	81.56
368.41	81.56
368.636	90.56
368.862	84.56
369.089	75.56
369.315	83.56
369.541	71.56
369.767	84.56
369.993	90.56
370.219	77.56
370.445	84.56
370.672	92.56
370.898	85.56
371.124	79.56
371.35	80.56
371.576	74.56
371.802	81.56
372.028	82.56
372.254	89.56
372.48	90.56
372.706	83.56
372.932	80.56
373.158	87.56
373.384	95.56
373.61	80.56
373.835	72.56
374.061	64.56
374.287	76.56
374.513	92.56
374.739	70.56
374.965	70.56
375.191	79.56
375.416	87.56
375.642	96.56
375.868	80.56
376.094	74.56
376.319	83.56
376.545	86.56
376.771	82.56
376.997	86.56
377.222	87.56
377.448	81.56
377.674	87.56
377.899	72.56
378.125	82.56
378.35	74.56
378.576	97.56
378.802	89.56
379.027	78.56
379.253	72.56
379.478	89.56
379.704	78.56
379.929	84.56
380.155	76.56
380.38	89.56
380.606	84.56
380.831	92.56
381.057	86.56
381.282	86.56
381.507	89.56
381.733	98.56
381.958	84.56
382.184	90.56
382.409	94.56
382.634	92.56
382.86	87.56
383.085	94.56
383.31	87.56
383.535	83.56
383.761	99.56
383.986	64.56
384.211	80.56
384.436	84.56
384.662	86.56
384.887	85.56
385.112	82.56
385.337	95.56
385.562	84.56
385.787	92.56
386.013	99.56
386.238	95.56
386.463	94.56
386.688	98.56
386.913	82.56
387.138	92.56
387.363	88.56
387.588	89.56
387.813	80.56
388.038	94.56
388.263	86.56
388.488	85.56
388.713	90.56
388.938	78.56
389.163	93.56
389.387	92.56
389.612	91.56
389.837	74.56
390.062	80.56
390.287	102.56
390.512	73.56
390.736	73.56
390.961	65.56
391.186	98.56
391.411	95.56
391.636	82.56
391.86	74.56
392.085	88.56
392.31	93.56
392.534	88.56
392.759	91.56
392.984	83.56
393.208	84.56
393.433	87.56
393.658	92.56
393.882	96.56
394.107	142.56
394.331	192.56
394.556	221.56
394.78	127.56
395.005	96.56
395.229	93.56
395.454	105.56
395.678	115.56
395.903	166.56
396.127	268.56
396.352	255.56
396.576	129.56
396.801	96.56
397.025	86.56
397.249	90.56
397.474	98.56
397.698	81.56
397.922	102.56
398.147	92.56
398.371	86.56
398.595	76.56
398.82	76.56
399.044	90.56
399.268	98.56
399.492	98.56
399.717	94.56
399.941	81.56
400.165	104.56
400.389	100.56
400.613	87.56
400.837	84.56
401.062	80.56
401.286	84.56
401.51	91.56
401.734	93.56
401.958	86.56
402.182	88.56
402.406	87.56
402.63	89.56
402.854	102.56
403.078	84.56
403.302	84.56
403.526	79.56
403.75	92.56
403.974	82.56
404.198	85.56
404.422	64.56
404.645	93.56
404.869	69.56
405.093	84.56
405.317	103.56
405.541	92.56
405.765	95.56
405.988	96.56
406.212	77.56
406.436	91.56
406.66	93.56
406.883	91.56
407.107	87.56
407.331	87.56
407.555	74.56
407.778	72.56
408.002	93.56
408.226	96.56
408.449	83.56
408.673	94.56
408.896	90.56
409.12	89.56
409.344	84.56
409.567	94.56
409.791	105.56
410.014	93.56
410.238	80.56
410.461	86.56
410.685	90.56
410.908	88.56
411.132	102.56
411.355	102.56
411.578	102.56
411.802	81.56
412.025	101.56
412.249	100.56
412.472	85.56
412.695	98.56
412.919	95.56
413.142	97.56
413.365	87.56
413.589	80.56
413.812	90.56
414.035	107.56
414.258	87.56
414.482	88.56
414.705	87.56
414.928	109.56
415.151	92.56
415.374	74.56
415.597	108.56
415.821	109.56
416.044	86.56
416.267	94.56
416.49	79.56
416.713	95.56
416.936	103.56
417.159	97.56
417.382	102.56
417.605	94.56
417.828	95.56
418.051	107.56
418.274	104.56
418.497	86.56
418.72	89.56
418.943	90.56
419.166	95.56
419.389	71.56
419.611	83.56
419.834	108.56
420.057	88.56
420.28	98.56
420.503	99.56
420.726	88.56
420.948	96.56
421.171	87.56
421.394	83.56
421.617	94.56
421.839	79.56
422.062	96.56
422.285	99.56
422.507	84.56
422.73	86.56
422.953	90.56
423.175	83.56
423.398	82.56
423.621	101.56
423.843	102.56
424.066	92.56
424.288	86.56
424.511	85.56
424.733	103.56
424.956	88.56
425.178	86.56
425.401	106.56
425.623	78.56
425.846	106.56
426.068	91.56
426.291	101.56
426.513	97.56
426.735	80.56
426.958	91.56
427.18	74.56
427.402	100.56
427.625	95.56
427.847	83.56
428.069	100.56
428.292	85.56
428.514	98.56
428.736	84.56
428.958	90.56
429.181	93.56
429.403	98.56
429.625	104.56
429.847	88.56
430.069	88.56
430.292	95.56
430.514	86.56
430.736	103.56
430.958	88.56
431.18	83.56
431.402	95.56
431.624	86.56
431.846	85.56
432.068	87.56
432.29	75.56
432.512	82.56
432.734	97.56
432.956	103.56
433.178	87.56
433.4	101.56
433.622	91.56
433.844	103.56
434.066	103.56
434.287	92.56
434.509	83.56
434.731	84.56
434.953	77.56
435.175	108.56
435.397	91.56
435.618	72.56
435.84	96.56
436.062	80.56
436.284	91.56
436.505	97.56
436.727	86.56
436.949	93.56
437.17	90.56
437.392	85.56
437.614	85.56
437.835	79.56
438.057	94.56
438.278	88.56
438.5	94.56
438.721	92.56
438.943	77.56
439.165	88.56
439.386	98.56
439.608	107.56
439.829	109.56
440.05	103.56
440.272	96.56
440.493	94.56
440.715	95.56
440.936	101.56
441.158	98.56
441.379	104.56
441.6	106.56
441.822	91.56
442.043	107.56
442.264	92.56
442.486	100.56
442.707	94.56
442.928	100.56
443.149	92.56
443.371	95.56
443.592	89.56
443.813	78.56
444.034	92.56
444.255	99.56
444.476	86.56
444.698	106.56
444.919	102.56
445.14	183.56
445.361	136.56
445.582	105.56
445.803	108.56
446.024	94.56
446.245	110.56
446.466	107.56
446.687	92.56
446.908	86.56
447.129	94.56
447.35	87.56
447.571	94.56
447.792	102.56
448.013	104.56
448.234	79.56
448.455	98.56
448.675	104.56
448.896	94.56
449.117	84.56
449.338	95.56
449.559	109.56
449.779	90.56
450	98.56
450.221	107.56
450.442	96.56
450.662	110.56
450.883	94.56
451.104	100.56
451.324	91.56
451.545	93.56
451.766	75.56
451.986	92.56
452.207	86.56
452.428	102.56
452.648	100.56
452.869	88.56
453.089	96.56
453.31	92.56
453.53	85.56
453.751	80.56
453.971	84.56
454.192	84.56
454.412	80.56
454.633	96.56
454.853	78.56
455.073	90.56
455.294	83.56
455.514	102.56
455.734	96.56
455.955	100.56
456.175	95.56
456.395	106.56
456.616	92.56
456.836	76.56
457.056	87.56
457.276	94.56
457.497	93.56
457.717	93.56
457.937	75.56
458.157	89.56
458.377	83.56
458.598	79.56
458.818	82.56
459.038	83.56
459.258	90.56
459.478	87.56
459.698	83.56
459.918	80.56
460.138	84.56
460.358	77.56
460.578	81.56
460.798	82.56
461.018	89.56
461.238	92.56
461.458	84.56
461.678	76.56
461.898	87.56
462.118	78.56
462.338	86.56
462.558	94.56
462.777	83.56
462.997	88.56
463.217	87.56
463.437	87.56
463.657	94.56
463.876	78.56
464.096	91.56
464.316	74.56
464.536	97.56
464.755	87.56
464.975	95.56
465.195	93.56
465.414	87.56
465.634	86.56
465.854	87.56
466.073	93.56
466.293	100.56
466.512	86.56
466.732	94.56
466.951	97.56
467.171	110.56
467.391	106.56
467.61	104.56
467.829	109.56
468.049	118.56
468.268	107.56
468.488	92.56
468.707	84.56
468.927	92.56
469.146	92.56
469.365	91.56
469.585	92.56
469.804	111.56
470.023	114.56
470.243	104.56
470.462	90.56
470.681	104.56
470.901	102.56
471.12	77.56
471.339	91.56
471.558	103.56
471.777	105.56
471.997	107.56
472.216	100.56
472.435	76.56
472.654	90.56
472.873	86.56
473.092	88.56
473.311	99.56
473.53	95.56
473.749	98.56
473.968	88.56
474.187	100.56
474.406	94.56
474.625	100.56
474.844	89.56
475.063	89.56
475.282	101.56
475.501	100.56
475.72	90.56
475.939	117.56
476.158	98.56
476.377	101.56
476.596	86.56
476.814	89.56
477.033	81.56
477.252	102.56
477.471	83.56
477.69	104.56
477.908	86.56
478.127	94.56
478.346	97.56
478.564	93.56
478.783	83.56
479.002	100.56
479.22	99.56
479.439	107.56
479.658	92.56
479.876	91.56
480.095	93.56
480.313	87.56
480.532	91.56
480.751	83.56
480.969	74.56
481.188	86.56
481.406	80.56
481.624	85.56
481.843	80.56
482.061	89.56
482.28	96.56
482.498	90.56
482.717	79.56
482.935	87.56
483.153	90.56
483.372	91.56
483.59	99.56
483.808	96.56
484.027	94.56
484.245	93.56
484.463	81.56
484.681	92.56
484.9	89.56
485.118	90.56
485.336	95.56
485.554	93.56
485.772	82.56
485.99	88.56
486.209	92.56
486.427	83.56
486.645	102.56
486.863	99.56
487.081	95.56
487.299	94.56
487.517	102.56
487.735	95.56
487.953	111.56
488.171	108.56
488.389	102.56
488.607	86.56
488.825	91.56
489.043	78.56
489.261	100.56
489.479	95.56
489.696	102.56
489.914	89.56
490.132	101.56
490.35	109.56
490.568	108.56
490.786	111.56
491.003	102.56
491.221	106.56
491.439	109.56
491.657	103.56
491.874	117.56
492.092	121.56
492.31	128.56
492.527	118.56
492.745	121.56
492.963	126.56
493.18	122.56
493.398	127.56
493.615	119.56
493.833	131.56
494.05	118.56
494.268	107.56
494.485	128.56
494.703	108.56
494.92	106.56
495.138	95.56
495.355	107.56
495.573	114.56
495.79	100.56
496.008	113.56
496.225	110.56
496.442	106.56
496.66	109.56
496.877	108.56
497.094	126.56
497.312	92.56
497.529	103.56
497.746	98.56
497.963	85.56
498.181	109.56
498.398	87.56
498.615	93.56
498.832	95.56
499.049	67.56
499.267	83.56
499.484	85.56
499.701	89.56
499.918	110.56
500.135	79.56
500.352	108.56
500.569	91.56
500.786	102.56
501.003	87.56
501.22	98.56
501.437	103.56
501.654	99.56
501.871	93.56
502.088	99.56
502.305	96.56
502.522	80.56
502.739	94.56
502.956	107.56
503.172	90.56
503.389	76.56
503.606	86.56
503.823	91.56
504.04	82.56
504.256	93.56
504.473	93.56
504.69	105.56
504.907	95.56
505.123	93.56
505.34	83.56
505.557	96.56
505.773	81.56
505.99	98.56
506.207	85.56
506.423	96.56
506.64	89.56
506.856	97.56
507.073	98.56
507.289	95.56
507.506	107.56
507.722	90.56
507.939	85.56
508.155	88.56
508.372	102.56
508.588	86.56
508.805	80.56
509.021	81.56
509.238	89.56
509.454	87.56
509.67	88.56
509.887	83.56
510.103	87.56
510.319	80.56
510.536	79.56
510.752	88.56
510.968	80.56
511.184	83.56
511.401	77.56
511.617	73.56
511.833	92.56
512.049	87.56
512.265	90.56
512.481	95.56
512.698	81.56
512.914	75.56
513.13	69.56
513.346	91.56
513.562	87.56
513.778	104.56
513.994	89.56
514.21	83.56
514.426	95.56
514.642	92.56
514.858	90.56
515.074	78.56
515.29	111.56
515.506	89.56
515.721	86.56
515.937	87.56
516.153	101.56
516.369	84.56
516.585	96.56
516.801	78.56
517.016	88.56
517.232	75.56
517.448	92.56
517.664	74.56
517.879	82.56
518.095	82.56
