Data from Foil_3_HRD10591_00016.txt Node
Date: Wed Nov 05 16:18:51 EST 2025
User: Yrep
Spectrometer: HR+D1059
Trigger mode: 1
Integration Time (sec): 1.000000E-1
Scans to average: 1
Electric dark correction enabled: true
Nonlinearity correction enabled: false
Boxcar width: 0
XAxis mode: Wavelengths
Number of Pixels in Spectrum: 2048
>>>>>Begin Spectral Data<<<<<
223.165	-7.94
223.4	-7.94
223.635	-7.94
223.869	-9.94
224.104	-3.94
224.338	-19.94
224.573	-34.94
224.808	-20.94
225.042	-12.94
225.277	-11.94
225.511	-6.94
225.746	-1.94
225.98	5.06
226.215	27.06
226.449	21.06
226.683	25.06
226.918	18.06
227.152	35.06
227.387	34.06
227.621	35.06
227.856	36.06
228.09	40.06
228.324	41.06
228.559	41.06
228.793	57.06
229.027	68.06
229.262	72.06
229.496	62.06
229.73	70.06
229.964	67.06
230.199	63.06
230.433	85.06
230.667	61.06
230.901	60.06
231.136	69.06
231.37	76.06
231.604	76.06
231.838	78.06
232.072	78.06
232.306	76.06
232.541	89.06
232.775	63.06
233.009	77.06
233.243	86.06
233.477	74.06
233.711	74.06
233.945	69.06
234.179	75.06
234.413	78.06
234.647	69.06
234.881	84.06
235.115	76.06
235.349	74.06
235.583	66.06
235.817	77.06
236.051	68.06
236.285	65.06
236.519	65.06
236.753	86.06
236.987	81.06
237.221	78.06
237.455	82.06
237.689	63.06
237.922	85.06
238.156	62.06
238.39	64.06
238.624	85.06
238.858	73.06
239.091	81.06
239.325	81.06
239.559	68.06
239.793	61.06
240.027	68.06
240.26	69.06
240.494	74.06
240.728	67.06
240.961	88.06
241.195	75.06
241.429	81.06
241.662	62.06
241.896	77.06
242.13	79.06
242.363	70.06
242.597	75.06
242.83	62.06
243.064	77.06
243.298	73.06
243.531	62.06
243.765	74.06
243.998	75.06
244.232	75.06
244.465	78.06
244.699	86.06
244.932	77.06
245.166	77.06
245.399	61.06
245.633	69.06
245.866	57.06
246.099	73.06
246.333	74.06
246.566	73.06
246.8	86.06
247.033	65.06
247.266	73.06
247.5	83.06
247.733	77.06
247.966	77.06
248.2	70.06
248.433	71.06
248.666	92.06
248.899	79.06
249.133	86.06
249.366	78.06
249.599	64.06
249.832	69.06
250.066	95.06
250.299	71.06
250.532	75.06
250.765	82.06
250.998	67.06
251.231	85.06
251.465	85.06
251.698	86.06
251.931	85.06
252.164	65.06
252.397	71.06
252.63	78.06
252.863	72.06
253.096	71.06
253.329	61.06
253.562	65.06
253.795	70.06
254.028	83.06
254.261	85.06
254.494	69.06
254.727	84.06
254.96	83.06
255.193	80.06
255.426	77.06
255.659	87.06
255.892	80.06
256.124	97.06
256.357	65.06
256.59	90.06
256.823	79.06
257.056	76.06
257.289	86.06
257.521	74.06
257.754	81.06
257.987	80.06
258.22	79.06
258.452	87.06
258.685	79.06
258.918	79.06
259.151	71.06
259.383	82.06
259.616	65.06
259.849	72.06
260.081	75.06
260.314	85.06
260.547	90.06
260.779	92.06
261.012	88.06
261.244	86.06
261.477	81.06
261.71	84.06
261.942	80.06
262.175	69.06
262.407	75.06
262.64	81.06
262.872	71.06
263.105	76.06
263.337	73.06
263.57	80.06
263.802	75.06
264.035	74.06
264.267	86.06
264.499	89.06
264.732	83.06
264.964	78.06
265.197	92.06
265.429	91.06
265.661	81.06
265.894	104.06
266.126	94.06
266.358	98.06
266.591	86.06
266.823	74.06
267.055	74.06
267.287	69.06
267.52	76.06
267.752	74.06
267.984	86.06
268.216	69.06
268.448	68.06
268.681	85.06
268.913	85.06
269.145	77.06
269.377	83.06
269.609	70.06
269.841	71.06
270.073	87.06
270.306	87.06
270.538	91.06
270.77	79.06
271.002	64.06
271.234	89.06
271.466	85.06
271.698	92.06
271.93	72.06
272.162	81.06
272.394	78.06
272.626	77.06
272.858	83.06
273.09	70.06
273.322	69.06
273.553	82.06
273.785	91.06
274.017	78.06
274.249	81.06
274.481	86.06
274.713	84.06
274.945	68.06
275.176	89.06
275.408	83.06
275.64	83.06
275.872	97.06
276.104	62.06
276.335	81.06
276.567	90.06
276.799	62.06
277.031	80.06
277.262	70.06
277.494	79.06
277.726	84.06
277.957	88.06
278.189	86.06
278.421	80.06
278.652	91.06
278.884	83.06
279.115	89.06
279.347	89.06
279.579	90.06
279.81	80.06
280.042	92.06
280.273	81.06
280.505	78.06
280.736	85.06
280.968	85.06
281.199	86.06
281.431	76.06
281.662	76.06
281.894	80.06
282.125	87.06
282.356	85.06
282.588	88.06
282.819	84.06
283.051	77.06
283.282	80.06
283.513	81.06
283.745	79.06
283.976	97.06
284.207	73.06
284.439	78.06
284.67	88.06
284.901	73.06
285.132	71.06
285.364	89.06
285.595	76.06
285.826	79.06
286.057	85.06
286.288	64.06
286.52	76.06
286.751	91.06
286.982	91.06
287.213	71.06
287.444	105.06
287.675	81.06
287.906	85.06
288.138	83.06
288.369	85.06
288.6	82.06
288.831	90.06
289.062	84.06
289.293	72.06
289.524	68.06
289.755	94.06
289.986	80.06
290.217	73.06
290.448	80.06
290.679	85.06
290.91	84.06
291.141	87.06
291.371	100.06
291.602	81.06
291.833	88.06
292.064	99.06
292.295	90.06
292.526	93.06
292.757	92.06
292.987	80.06
293.218	86.06
293.449	85.06
293.68	91.06
293.91	85.06
294.141	88.06
294.372	83.06
294.603	77.06
294.833	83.06
295.064	85.06
295.295	77.06
295.525	80.06
295.756	92.06
295.987	79.06
296.217	76.06
296.448	84.06
296.679	87.06
296.909	71.06
297.14	85.06
297.37	87.06
297.601	75.06
297.831	89.06
298.062	83.06
298.292	87.06
298.523	81.06
298.753	81.06
298.984	77.06
299.214	89.06
299.445	85.06
299.675	80.06
299.905	78.06
300.136	80.06
300.366	82.06
300.597	82.06
300.827	85.06
301.057	77.06
301.288	85.06
301.518	71.06
301.748	85.06
301.979	106.06
302.209	84.06
302.439	79.06
302.669	76.06
302.9	83.06
303.13	74.06
303.36	69.06
303.59	91.06
303.82	90.06
304.051	76.06
304.281	77.06
304.511	84.06
304.741	69.06
304.971	80.06
305.201	79.06
305.431	85.06
305.661	85.06
305.891	87.06
306.121	91.06
306.352	93.06
306.582	86.06
306.812	81.06
307.042	99.06
307.272	76.06
307.502	86.06
307.731	99.06
307.961	109.06
308.191	100.06
308.421	125.06
308.651	107.06
308.881	118.06
309.111	127.06
309.341	152.06
309.571	129.06
309.8	94.06
310.03	77.06
310.26	74.06
310.49	95.06
310.72	87.06
310.949	82.06
311.179	79.06
311.409	87.06
311.639	87.06
311.868	68.06
312.098	87.06
312.328	83.06
312.557	91.06
312.787	80.06
313.017	78.06
313.246	78.06
313.476	74.06
313.706	86.06
313.935	81.06
314.165	96.06
314.394	81.06
314.624	93.06
314.853	103.06
315.083	85.06
315.312	94.06
315.542	96.06
315.771	100.06
316.001	88.06
316.23	76.06
316.46	78.06
316.689	73.06
316.919	78.06
317.148	90.06
317.377	77.06
317.607	85.06
317.836	87.06
318.065	88.06
318.295	89.06
318.524	86.06
318.753	79.06
318.983	92.06
319.212	80.06
319.441	74.06
319.67	83.06
319.9	80.06
320.129	80.06
320.358	90.06
320.587	96.06
320.816	73.06
321.046	83.06
321.275	83.06
321.504	76.06
321.733	87.06
321.962	65.06
322.191	70.06
322.42	83.06
322.649	101.06
322.878	91.06
323.108	75.06
323.337	85.06
323.566	75.06
323.795	79.06
324.024	78.06
324.253	90.06
324.482	73.06
324.71	92.06
324.939	89.06
325.168	87.06
325.397	84.06
325.626	97.06
325.855	71.06
326.084	81.06
326.313	87.06
326.542	80.06
326.77	63.06
326.999	75.06
327.228	87.06
327.457	90.06
327.686	90.06
327.914	83.06
328.143	102.06
328.372	76.06
328.6	91.06
328.829	73.06
329.058	70.06
329.287	88.06
329.515	69.06
329.744	74.06
329.972	65.06
330.201	76.06
330.43	71.06
330.658	71.06
330.887	92.06
331.115	71.06
331.344	83.06
331.572	88.06
331.801	85.06
332.03	90.06
332.258	82.06
332.486	76.06
332.715	88.06
332.943	79.06
333.172	93.06
333.4	84.06
333.629	80.06
333.857	78.06
334.085	87.06
334.314	89.06
334.542	86.06
334.771	79.06
334.999	89.06
335.227	85.06
335.455	76.06
335.684	69.06
335.912	84.06
336.14	66.06
336.369	80.06
336.597	85.06
336.825	89.06
337.053	70.06
337.281	101.06
337.51	95.06
337.738	90.06
337.966	79.06
338.194	91.06
338.422	84.06
338.65	77.06
338.878	87.06
339.106	93.06
339.334	78.06
339.562	81.06
339.79	62.06
340.018	75.06
340.246	83.06
340.474	90.06
340.702	88.06
340.93	83.06
341.158	78.06
341.386	89.06
341.614	91.06
341.842	79.06
342.07	80.06
342.298	95.06
342.526	76.06
342.754	72.06
342.981	85.06
343.209	92.06
343.437	104.06
343.665	89.06
343.893	63.06
344.12	86.06
344.348	72.06
344.576	67.06
344.804	81.06
345.031	76.06
345.259	83.06
345.487	77.06
345.714	75.06
345.942	69.06
346.17	80.06
346.397	85.06
346.625	90.06
346.853	85.06
347.08	77.06
347.308	71.06
347.535	83.06
347.763	77.06
347.99	77.06
348.218	80.06
348.445	75.06
348.673	95.06
348.9	92.06
349.128	78.06
349.355	63.06
349.583	97.06
349.81	87.06
350.037	78.06
350.265	77.06
350.492	77.06
350.72	65.06
350.947	81.06
351.174	82.06
351.402	89.06
351.629	82.06
351.856	87.06
352.083	76.06
352.311	67.06
352.538	93.06
352.765	79.06
352.992	93.06
353.22	79.06
353.447	77.06
353.674	86.06
353.901	89.06
354.128	87.06
354.355	65.06
354.583	94.06
354.81	83.06
355.037	82.06
355.264	82.06
355.491	73.06
355.718	85.06
355.945	66.06
356.172	76.06
356.399	87.06
356.626	76.06
356.853	77.06
357.08	100.06
357.307	79.06
357.534	70.06
357.761	79.06
357.988	83.06
358.215	82.06
358.441	83.06
358.668	87.06
358.895	81.06
359.122	79.06
359.349	89.06
359.576	80.06
359.802	100.06
360.029	101.06
360.256	88.06
360.483	78.06
360.709	79.06
360.936	95.06
361.163	89.06
361.39	77.06
361.616	85.06
361.843	85.06
362.07	82.06
362.296	72.06
362.523	75.06
362.749	82.06
362.976	67.06
363.203	79.06
363.429	78.06
363.656	90.06
363.882	73.06
364.109	73.06
364.335	66.06
364.562	79.06
364.788	77.06
365.015	75.06
365.241	91.06
365.468	85.06
365.694	70.06
365.92	83.06
366.147	86.06
366.373	77.06
366.599	81.06
366.826	78.06
367.052	77.06
367.278	89.06
367.505	85.06
367.731	89.06
367.957	91.06
368.184	78.06
368.41	89.06
368.636	72.06
368.862	73.06
369.089	82.06
369.315	89.06
369.541	95.06
369.767	74.06
369.993	85.06
370.219	69.06
370.445	79.06
370.672	86.06
370.898	79.06
371.124	77.06
371.35	84.06
371.576	85.06
371.802	85.06
372.028	69.06
372.254	85.06
372.48	93.06
372.706	74.06
372.932	88.06
373.158	94.06
373.384	97.06
373.61	77.06
373.835	81.06
374.061	85.06
374.287	90.06
374.513	81.06
374.739	92.06
374.965	69.06
375.191	79.06
375.416	71.06
375.642	83.06
375.868	93.06
376.094	88.06
376.319	78.06
376.545	71.06
376.771	78.06
376.997	96.06
377.222	73.06
377.448	74.06
377.674	80.06
377.899	64.06
378.125	79.06
378.35	71.06
378.576	100.06
378.802	88.06
379.027	93.06
379.253	90.06
379.478	80.06
379.704	81.06
379.929	73.06
380.155	92.06
380.38	88.06
380.606	69.06
380.831	65.06
381.057	92.06
381.282	79.06
381.507	91.06
381.733	85.06
381.958	87.06
382.184	88.06
382.409	85.06
382.634	91.06
382.86	89.06
383.085	78.06
383.31	92.06
383.535	79.06
383.761	88.06
383.986	85.06
384.211	79.06
384.436	85.06
384.662	79.06
384.887	93.06
385.112	85.06
385.337	89.06
385.562	81.06
385.787	63.06
386.013	81.06
386.238	81.06
386.463	79.06
386.688	91.06
386.913	89.06
387.138	75.06
387.363	84.06
387.588	96.06
387.813	94.06
388.038	89.06
388.263	79.06
388.488	80.06
388.713	89.06
388.938	80.06
389.163	76.06
389.387	91.06
389.612	85.06
389.837	95.06
390.062	87.06
390.287	88.06
390.512	89.06
390.736	81.06
390.961	90.06
391.186	83.06
391.411	85.06
391.636	88.06
391.86	91.06
392.085	93.06
392.31	89.06
392.534	85.06
392.759	93.06
392.984	90.06
393.208	85.06
393.433	99.06
393.658	88.06
393.882	101.06
394.107	138.06
394.331	214.06
394.556	245.06
394.78	158.06
395.005	97.06
395.229	96.06
395.454	104.06
395.678	103.06
395.903	182.06
396.127	274.06
396.352	280.06
396.576	125.06
396.801	103.06
397.025	82.06
397.249	85.06
397.474	103.06
397.698	91.06
397.922	76.06
398.147	74.06
398.371	91.06
398.595	80.06
398.82	89.06
399.044	79.06
399.268	75.06
399.492	94.06
399.717	90.06
399.941	82.06
400.165	82.06
400.389	86.06
400.613	109.06
400.837	86.06
401.062	97.06
401.286	104.06
401.51	87.06
401.734	87.06
401.958	102.06
402.182	89.06
402.406	82.06
402.63	95.06
402.854	78.06
403.078	92.06
403.302	73.06
403.526	99.06
403.75	89.06
403.974	91.06
404.198	90.06
404.422	85.06
404.645	84.06
404.869	99.06
405.093	90.06
405.317	105.06
405.541	83.06
405.765	95.06
405.988	92.06
406.212	83.06
406.436	94.06
406.66	83.06
406.883	91.06
407.107	86.06
407.331	80.06
407.555	78.06
407.778	87.06
408.002	83.06
408.226	79.06
408.449	89.06
408.673	70.06
408.896	97.06
409.12	84.06
409.344	87.06
409.567	92.06
409.791	91.06
410.014	97.06
410.238	88.06
410.461	91.06
410.685	91.06
410.908	97.06
411.132	87.06
411.355	102.06
411.578	86.06
411.802	101.06
412.025	95.06
412.249	97.06
412.472	97.06
412.695	94.06
412.919	102.06
413.142	84.06
413.365	83.06
413.589	93.06
413.812	89.06
414.035	76.06
414.258	87.06
414.482	105.06
414.705	89.06
414.928	85.06
415.151	96.06
415.374	89.06
415.597	101.06
415.821	83.06
416.044	94.06
416.267	80.06
416.49	87.06
416.713	92.06
416.936	90.06
417.159	89.06
417.382	90.06
417.605	80.06
417.828	94.06
418.051	89.06
418.274	86.06
418.497	91.06
418.72	77.06
418.943	104.06
419.166	90.06
419.389	86.06
419.611	103.06
419.834	87.06
420.057	97.06
420.28	85.06
420.503	92.06
420.726	94.06
420.948	84.06
421.171	79.06
421.394	87.06
421.617	87.06
421.839	77.06
422.062	85.06
422.285	71.06
422.507	85.06
422.73	113.06
422.953	83.06
423.175	90.06
423.398	97.06
423.621	99.06
423.843	98.06
424.066	86.06
424.288	90.06
424.511	101.06
424.733	106.06
424.956	80.06
425.178	89.06
425.401	89.06
425.623	86.06
425.846	104.06
426.068	87.06
426.291	99.06
426.513	91.06
426.735	89.06
426.958	94.06
427.18	102.06
427.402	94.06
427.625	106.06
427.847	90.06
428.069	80.06
428.292	95.06
428.514	93.06
428.736	93.06
428.958	93.06
429.181	89.06
429.403	91.06
429.625	89.06
429.847	87.06
430.069	101.06
430.292	90.06
430.514	102.06
430.736	82.06
430.958	100.06
431.18	101.06
431.402	90.06
431.624	88.06
431.846	77.06
432.068	83.06
432.29	86.06
432.512	94.06
432.734	83.06
432.956	106.06
433.178	103.06
433.4	106.06
433.622	79.06
433.844	77.06
434.066	75.06
434.287	77.06
434.509	89.06
434.731	74.06
434.953	90.06
435.175	97.06
435.397	95.06
435.618	91.06
435.84	88.06
436.062	79.06
436.284	85.06
436.505	97.06
436.727	95.06
436.949	87.06
437.17	96.06
437.392	90.06
437.614	79.06
437.835	87.06
438.057	86.06
438.278	86.06
438.5	90.06
438.721	105.06
438.943	89.06
439.165	87.06
439.386	102.06
439.608	101.06
439.829	91.06
440.05	115.06
440.272	63.06
440.493	91.06
440.715	91.06
440.936	91.06
441.158	93.06
441.379	88.06
441.6	108.06
441.822	103.06
442.043	105.06
442.264	88.06
442.486	94.06
442.707	101.06
442.928	97.06
443.149	88.06
443.371	93.06
443.592	102.06
443.813	100.06
444.034	82.06
444.255	91.06
444.476	102.06
444.698	102.06
444.919	96.06
445.14	175.06
445.361	133.06
445.582	100.06
445.803	111.06
446.024	96.06
446.245	92.06
446.466	93.06
446.687	100.06
446.908	103.06
447.129	113.06
447.35	97.06
447.571	98.06
447.792	108.06
448.013	105.06
448.234	82.06
448.455	96.06
448.675	80.06
448.896	91.06
449.117	97.06
449.338	104.06
449.559	104.06
449.779	99.06
450	102.06
450.221	103.06
450.442	116.06
450.662	93.06
450.883	90.06
451.104	100.06
451.324	97.06
451.545	101.06
451.766	94.06
451.986	101.06
452.207	82.06
452.428	92.06
452.648	91.06
452.869	83.06
453.089	86.06
453.31	81.06
453.53	92.06
453.751	91.06
453.971	98.06
454.192	94.06
454.412	84.06
454.633	91.06
454.853	80.06
455.073	93.06
455.294	68.06
455.514	89.06
455.734	91.06
455.955	81.06
456.175	69.06
456.395	80.06
456.616	89.06
456.836	77.06
457.056	99.06
457.276	106.06
457.497	95.06
457.717	92.06
457.937	91.06
458.157	91.06
458.377	85.06
458.598	89.06
458.818	58.06
459.038	77.06
459.258	76.06
459.478	87.06
459.698	99.06
459.918	93.06
460.138	66.06
460.358	83.06
460.578	70.06
460.798	79.06
461.018	86.06
461.238	85.06
461.458	90.06
461.678	91.06
461.898	91.06
462.118	109.06
462.338	89.06
462.558	84.06
462.777	93.06
462.997	82.06
463.217	89.06
463.437	79.06
463.657	89.06
463.876	86.06
464.096	74.06
464.316	78.06
464.536	89.06
464.755	99.06
464.975	89.06
465.195	94.06
465.414	99.06
465.634	87.06
465.854	79.06
466.073	95.06
466.293	103.06
466.512	97.06
466.732	107.06
466.951	102.06
467.171	120.06
467.391	117.06
467.61	103.06
467.829	100.06
468.049	105.06
468.268	99.06
468.488	97.06
468.707	98.06
468.927	107.06
469.146	118.06
469.365	117.06
469.585	107.06
469.804	96.06
470.023	97.06
470.243	109.06
470.462	94.06
470.681	106.06
470.901	90.06
471.12	93.06
471.339	101.06
471.558	96.06
471.777	103.06
471.997	93.06
472.216	103.06
472.435	83.06
472.654	86.06
472.873	89.06
473.092	90.06
473.311	95.06
473.53	105.06
473.749	113.06
473.968	109.06
474.187	94.06
474.406	101.06
474.625	99.06
474.844	88.06
475.063	102.06
475.282	99.06
475.501	90.06
475.72	101.06
475.939	97.06
476.158	90.06
476.377	87.06
476.596	92.06
476.814	87.06
477.033	82.06
477.252	77.06
477.471	87.06
477.69	97.06
477.908	98.06
478.127	103.06
478.346	80.06
478.564	94.06
478.783	94.06
479.002	85.06
479.22	85.06
479.439	93.06
479.658	76.06
479.876	81.06
480.095	77.06
480.313	72.06
480.532	78.06
480.751	85.06
480.969	81.06
481.188	83.06
481.406	82.06
481.624	81.06
481.843	82.06
482.061	79.06
482.28	74.06
482.498	91.06
482.717	78.06
482.935	89.06
483.153	109.06
483.372	101.06
483.59	91.06
483.808	92.06
484.027	88.06
484.245	96.06
484.463	95.06
484.681	113.06
484.9	95.06
485.118	110.06
485.336	104.06
485.554	78.06
485.772	96.06
485.99	90.06
486.209	89.06
486.427	107.06
486.645	97.06
486.863	86.06
487.081	91.06
487.299	85.06
487.517	106.06
487.735	119.06
487.953	120.06
488.171	94.06
488.389	113.06
488.607	90.06
488.825	92.06
489.043	92.06
489.261	96.06
489.479	90.06
489.696	89.06
489.914	98.06
490.132	99.06
490.35	123.06
490.568	101.06
490.786	107.06
491.003	110.06
491.221	104.06
491.439	116.06
491.657	117.06
491.874	123.06
492.092	124.06
492.31	115.06
492.527	118.06
492.745	103.06
492.963	121.06
493.18	121.06
493.398	111.06
493.615	118.06
493.833	107.06
494.05	103.06
494.268	87.06
494.485	108.06
494.703	117.06
494.92	115.06
495.138	104.06
495.355	113.06
495.573	110.06
495.79	107.06
496.008	94.06
496.225	97.06
496.442	111.06
496.66	117.06
496.877	108.06
497.094	99.06
497.312	93.06
497.529	102.06
497.746	95.06
497.963	87.06
498.181	97.06
498.398	106.06
498.615	89.06
498.832	80.06
499.049	86.06
499.267	92.06
499.484	106.06
499.701	103.06
499.918	109.06
500.135	101.06
500.352	105.06
500.569	89.06
500.786	85.06
501.003	90.06
501.22	104.06
501.437	102.06
501.654	105.06
501.871	93.06
502.088	88.06
502.305	81.06
502.522	95.06
502.739	91.06
502.956	83.06
503.172	96.06
503.389	95.06
503.606	89.06
503.823	83.06
504.04	92.06
504.256	104.06
504.473	91.06
504.69	99.06
504.907	89.06
505.123	90.06
505.34	88.06
505.557	106.06
505.773	101.06
505.99	101.06
506.207	96.06
506.423	97.06
506.64	101.06
506.856	108.06
507.073	82.06
507.289	104.06
507.506	94.06
507.722	87.06
507.939	84.06
508.155	93.06
508.372	100.06
508.588	91.06
508.805	89.06
509.021	88.06
509.238	101.06
509.454	87.06
509.67	88.06
509.887	100.06
510.103	80.06
510.319	85.06
510.536	98.06
510.752	85.06
510.968	77.06
511.184	85.06
511.401	90.06
511.617	81.06
511.833	70.06
512.049	81.06
512.265	81.06
512.481	97.06
512.698	89.06
512.914	88.06
513.13	90.06
513.346	82.06
513.562	83.06
513.778	107.06
513.994	78.06
514.21	88.06
514.426	93.06
514.642	79.06
514.858	80.06
515.074	79.06
515.29	95.06
515.506	84.06
515.721	76.06
515.937	93.06
516.153	85.06
516.369	83.06
516.585	74.06
516.801	97.06
517.016	74.06
517.232	79.06
517.448	89.06
517.664	81.06
517.879	85.06
