Data from Foil_3_HRD10591_00017.txt Node
Date: Wed Nov 05 16:18:51 EST 2025
User: Yrep
Spectrometer: HR+D1059
Trigger mode: 1
Integration Time (sec): 1.000000E-1
Scans to average: 1
Electric dark correction enabled: true
Nonlinearity correction enabled: false
Boxcar width: 0
XAxis mode: Wavelengths
Number of Pixels in Spectrum: 2048
>>>>>Begin Spectral Data<<<<<
223.165	-8.94
223.4	-8.94
223.635	-8.94
223.869	-24.94
224.104	-18.94
224.338	-25.94
224.573	-23.94
224.808	-16.94
225.042	-1.94
225.277	-3.94
225.511	6.06
225.746	10.06
225.98	15.06
226.215	4.06
226.449	20.06
226.683	12.06
226.918	30.06
227.152	28.06
227.387	25.06
227.621	46.06
227.856	57.06
228.09	56.06
228.324	64.06
228.559	66.06
228.793	67.06
229.027	70.06
229.262	67.06
229.496	66.06
229.73	83.06
229.964	72.06
230.199	74.06
230.433	78.06
230.667	99.06
230.901	82.06
231.136	77.06
231.37	76.06
231.604	89.06
231.838	80.06
232.072	100.06
232.306	92.06
232.541	98.06
232.775	82.06
233.009	89.06
233.243	100.06
233.477	78.06
233.711	78.06
233.945	80.06
234.179	80.06
234.413	90.06
234.647	78.06
234.881	86.06
235.115	86.06
235.349	87.06
235.583	80.06
235.817	76.06
236.051	84.06
236.285	85.06
236.519	71.06
236.753	84.06
236.987	96.06
237.221	86.06
237.455	96.06
237.689	84.06
237.922	79.06
238.156	80.06
238.39	75.06
238.624	80.06
238.858	68.06
239.091	80.06
239.325	86.06
239.559	78.06
239.793	89.06
240.027	76.06
240.26	68.06
240.494	80.06
240.728	59.06
240.961	72.06
241.195	97.06
241.429	75.06
241.662	94.06
241.896	85.06
242.13	73.06
242.363	101.06
242.597	80.06
242.83	86.06
243.064	74.06
243.298	94.06
243.531	83.06
243.765	83.06
243.998	76.06
244.232	91.06
244.465	88.06
244.699	80.06
244.932	91.06
245.166	78.06
245.399	87.06
245.633	77.06
245.866	92.06
246.099	85.06
246.333	99.06
246.566	78.06
246.8	79.06
247.033	80.06
247.266	73.06
247.5	80.06
247.733	101.06
247.966	79.06
248.2	79.06
248.433	72.06
248.666	86.06
248.899	75.06
249.133	88.06
249.366	89.06
249.599	79.06
249.832	81.06
250.066	94.06
250.299	96.06
250.532	86.06
250.765	74.06
250.998	90.06
251.231	91.06
251.465	87.06
251.698	83.06
251.931	83.06
252.164	79.06
252.397	78.06
252.63	59.06
252.863	91.06
253.096	84.06
253.329	88.06
253.562	85.06
253.795	87.06
254.028	87.06
254.261	81.06
254.494	86.06
254.727	84.06
254.96	79.06
255.193	87.06
255.426	93.06
255.659	93.06
255.892	90.06
256.124	92.06
256.357	82.06
256.59	77.06
256.823	69.06
257.056	75.06
257.289	92.06
257.521	96.06
257.754	90.06
257.987	86.06
258.22	94.06
258.452	87.06
258.685	94.06
258.918	92.06
259.151	89.06
259.383	87.06
259.616	82.06
259.849	102.06
260.081	85.06
260.314	91.06
260.547	92.06
260.779	89.06
261.012	75.06
261.244	91.06
261.477	79.06
261.71	80.06
261.942	79.06
262.175	107.06
262.407	81.06
262.64	90.06
262.872	84.06
263.105	90.06
263.337	98.06
263.57	83.06
263.802	85.06
264.035	92.06
264.267	81.06
264.499	89.06
264.732	100.06
264.964	82.06
265.197	94.06
265.429	81.06
265.661	81.06
265.894	96.06
266.126	98.06
266.358	94.06
266.591	79.06
266.823	95.06
267.055	84.06
267.287	94.06
267.52	96.06
267.752	83.06
267.984	98.06
268.216	85.06
268.448	86.06
268.681	86.06
268.913	92.06
269.145	87.06
269.377	79.06
269.609	91.06
269.841	81.06
270.073	74.06
270.306	79.06
270.538	82.06
270.77	74.06
271.002	88.06
271.234	75.06
271.466	101.06
271.698	86.06
271.93	78.06
272.162	97.06
272.394	78.06
272.626	81.06
272.858	86.06
273.09	92.06
273.322	80.06
273.553	86.06
273.785	89.06
274.017	89.06
274.249	105.06
274.481	95.06
274.713	99.06
274.945	88.06
275.176	93.06
275.408	94.06
275.64	79.06
275.872	85.06
276.104	87.06
276.335	89.06
276.567	80.06
276.799	96.06
277.031	85.06
277.262	95.06
277.494	99.06
277.726	94.06
277.957	94.06
278.189	80.06
278.421	80.06
278.652	84.06
278.884	92.06
279.115	92.06
279.347	91.06
279.579	84.06
279.81	95.06
280.042	91.06
280.273	81.06
280.505	87.06
280.736	84.06
280.968	86.06
281.199	101.06
281.431	86.06
281.662	82.06
281.894	96.06
282.125	83.06
282.356	100.06
282.588	97.06
282.819	91.06
283.051	91.06
283.282	89.06
283.513	104.06
283.745	71.06
283.976	94.06
284.207	96.06
284.439	82.06
284.67	96.06
284.901	98.06
285.132	87.06
285.364	88.06
285.595	93.06
285.826	90.06
286.057	88.06
286.288	95.06
286.52	90.06
286.751	86.06
286.982	88.06
287.213	84.06
287.444	79.06
287.675	80.06
287.906	83.06
288.138	84.06
288.369	94.06
288.6	89.06
288.831	81.06
289.062	101.06
289.293	98.06
289.524	99.06
289.755	68.06
289.986	88.06
290.217	84.06
290.448	77.06
290.679	81.06
290.91	100.06
291.141	86.06
291.371	92.06
291.602	89.06
291.833	92.06
292.064	91.06
292.295	98.06
292.526	96.06
292.757	80.06
292.987	82.06
293.218	94.06
293.449	92.06
293.68	106.06
293.91	98.06
294.141	102.06
294.372	90.06
294.603	101.06
294.833	101.06
295.064	85.06
295.295	96.06
295.525	100.06
295.756	96.06
295.987	80.06
296.217	95.06
296.448	82.06
296.679	92.06
296.909	89.06
297.14	107.06
297.37	97.06
297.601	95.06
297.831	84.06
298.062	94.06
298.292	93.06
298.523	96.06
298.753	89.06
298.984	86.06
299.214	88.06
299.445	75.06
299.675	90.06
299.905	97.06
300.136	93.06
300.366	89.06
300.597	80.06
300.827	85.06
301.057	86.06
301.288	92.06
301.518	97.06
301.748	84.06
301.979	99.06
302.209	91.06
302.439	91.06
302.669	91.06
302.9	96.06
303.13	100.06
303.36	95.06
303.59	94.06
303.82	80.06
304.051	90.06
304.281	91.06
304.511	103.06
304.741	86.06
304.971	79.06
305.201	104.06
305.431	95.06
305.661	77.06
305.891	89.06
306.121	96.06
306.352	83.06
306.582	88.06
306.812	84.06
307.042	93.06
307.272	89.06
307.502	99.06
307.731	101.06
307.961	112.06
308.191	127.06
308.421	127.06
308.651	113.06
308.881	118.06
309.111	131.06
309.341	148.06
309.571	126.06
309.8	89.06
310.03	106.06
310.26	97.06
310.49	94.06
310.72	92.06
310.949	91.06
311.179	77.06
311.409	80.06
311.639	101.06
311.868	86.06
312.098	85.06
312.328	88.06
312.557	88.06
312.787	101.06
313.017	92.06
313.246	86.06
313.476	79.06
313.706	99.06
313.935	87.06
314.165	89.06
314.394	85.06
314.624	67.06
314.853	91.06
315.083	100.06
315.312	91.06
315.542	89.06
315.771	78.06
316.001	101.06
316.23	99.06
316.46	81.06
316.689	91.06
316.919	94.06
317.148	94.06
317.377	77.06
317.607	91.06
317.836	80.06
318.065	82.06
318.295	76.06
318.524	85.06
318.753	102.06
318.983	95.06
319.212	100.06
319.441	78.06
319.67	82.06
319.9	94.06
320.129	83.06
320.358	94.06
320.587	94.06
320.816	94.06
321.046	87.06
321.275	92.06
321.504	74.06
321.733	86.06
321.962	87.06
322.191	85.06
322.42	77.06
322.649	88.06
322.878	89.06
323.108	86.06
323.337	80.06
323.566	100.06
323.795	84.06
324.024	96.06
324.253	90.06
324.482	85.06
324.71	89.06
324.939	79.06
325.168	99.06
325.397	87.06
325.626	82.06
325.855	89.06
326.084	86.06
326.313	81.06
326.542	96.06
326.77	78.06
326.999	93.06
327.228	96.06
327.457	95.06
327.686	86.06
327.914	86.06
328.143	87.06
328.372	80.06
328.6	97.06
328.829	94.06
329.058	85.06
329.287	96.06
329.515	73.06
329.744	102.06
329.972	93.06
330.201	94.06
330.43	90.06
330.658	81.06
330.887	86.06
331.115	93.06
331.344	107.06
331.572	82.06
331.801	90.06
332.03	86.06
332.258	86.06
332.486	91.06
332.715	92.06
332.943	77.06
333.172	92.06
333.4	92.06
333.629	91.06
333.857	96.06
334.085	97.06
334.314	86.06
334.542	99.06
334.771	94.06
334.999	87.06
335.227	85.06
335.455	92.06
335.684	93.06
335.912	89.06
336.14	107.06
336.369	101.06
336.597	91.06
336.825	95.06
337.053	88.06
337.281	74.06
337.51	93.06
337.738	90.06
337.966	77.06
338.194	84.06
338.422	83.06
338.65	93.06
338.878	86.06
339.106	83.06
339.334	90.06
339.562	98.06
339.79	95.06
340.018	94.06
340.246	88.06
340.474	98.06
340.702	101.06
340.93	97.06
341.158	87.06
341.386	82.06
341.614	86.06
341.842	75.06
342.07	84.06
342.298	98.06
342.526	90.06
342.754	88.06
342.981	92.06
343.209	89.06
343.437	110.06
343.665	84.06
343.893	96.06
344.12	76.06
344.348	98.06
344.576	80.06
344.804	71.06
345.031	92.06
345.259	87.06
345.487	85.06
345.714	85.06
345.942	88.06
346.17	95.06
346.397	101.06
346.625	94.06
346.853	96.06
347.08	91.06
347.308	87.06
347.535	82.06
347.763	82.06
347.99	86.06
348.218	97.06
348.445	74.06
348.673	91.06
348.9	91.06
349.128	97.06
349.355	101.06
349.583	86.06
349.81	84.06
350.037	91.06
350.265	92.06
350.492	95.06
350.72	87.06
350.947	95.06
351.174	95.06
351.402	90.06
351.629	94.06
351.856	83.06
352.083	81.06
352.311	95.06
352.538	77.06
352.765	91.06
352.992	96.06
353.22	97.06
353.447	88.06
353.674	91.06
353.901	99.06
354.128	89.06
354.355	74.06
354.583	87.06
354.81	94.06
355.037	88.06
355.264	89.06
355.491	82.06
355.718	82.06
355.945	92.06
356.172	83.06
356.399	98.06
356.626	99.06
356.853	91.06
357.08	92.06
357.307	91.06
357.534	92.06
357.761	96.06
357.988	97.06
358.215	100.06
358.441	94.06
358.668	86.06
358.895	93.06
359.122	87.06
359.349	94.06
359.576	76.06
359.802	82.06
360.029	73.06
360.256	88.06
360.483	98.06
360.709	89.06
360.936	82.06
361.163	90.06
361.39	98.06
361.616	74.06
361.843	103.06
362.07	91.06
362.296	80.06
362.523	98.06
362.749	86.06
362.976	97.06
363.203	83.06
363.429	71.06
363.656	83.06
363.882	73.06
364.109	86.06
364.335	94.06
364.562	86.06
364.788	94.06
365.015	89.06
365.241	87.06
365.468	97.06
365.694	94.06
365.92	87.06
366.147	91.06
366.373	95.06
366.599	86.06
366.826	102.06
367.052	85.06
367.278	100.06
367.505	92.06
367.731	97.06
367.957	90.06
368.184	82.06
368.41	94.06
368.636	96.06
368.862	85.06
369.089	80.06
369.315	96.06
369.541	99.06
369.767	94.06
369.993	100.06
370.219	80.06
370.445	82.06
370.672	94.06
370.898	99.06
371.124	90.06
371.35	83.06
371.576	100.06
371.802	89.06
372.028	88.06
372.254	92.06
372.48	92.06
372.706	88.06
372.932	99.06
373.158	82.06
373.384	95.06
373.61	89.06
373.835	92.06
374.061	96.06
374.287	83.06
374.513	82.06
374.739	97.06
374.965	92.06
375.191	103.06
375.416	107.06
375.642	74.06
375.868	94.06
376.094	90.06
376.319	92.06
376.545	96.06
376.771	82.06
376.997	96.06
377.222	79.06
377.448	86.06
377.674	90.06
377.899	82.06
378.125	90.06
378.35	85.06
378.576	96.06
378.802	102.06
379.027	87.06
379.253	95.06
379.478	89.06
379.704	95.06
379.929	82.06
380.155	88.06
380.38	77.06
380.606	98.06
380.831	88.06
381.057	89.06
381.282	94.06
381.507	100.06
381.733	92.06
381.958	83.06
382.184	97.06
382.409	78.06
382.634	97.06
382.86	97.06
383.085	92.06
383.31	94.06
383.535	91.06
383.761	88.06
383.986	92.06
384.211	93.06
384.436	77.06
384.662	77.06
384.887	95.06
385.112	98.06
385.337	85.06
385.562	102.06
385.787	94.06
386.013	83.06
386.238	98.06
386.463	91.06
386.688	91.06
386.913	84.06
387.138	84.06
387.363	77.06
387.588	94.06
387.813	98.06
388.038	87.06
388.263	95.06
388.488	97.06
388.713	87.06
388.938	93.06
389.163	90.06
389.387	97.06
389.612	86.06
389.837	83.06
390.062	85.06
390.287	102.06
390.512	75.06
390.736	84.06
390.961	99.06
391.186	104.06
391.411	84.06
391.636	97.06
391.86	103.06
392.085	81.06
392.31	97.06
392.534	89.06
392.759	100.06
392.984	89.06
393.208	92.06
393.433	102.06
393.658	87.06
393.882	111.06
394.107	151.06
394.331	214.06
394.556	236.06
394.78	147.06
395.005	94.06
395.229	88.06
395.454	100.06
395.678	122.06
395.903	187.06
396.127	268.06
396.352	299.06
396.576	140.06
396.801	106.06
397.025	76.06
397.249	89.06
397.474	98.06
397.698	102.06
397.922	76.06
398.147	95.06
398.371	88.06
398.595	99.06
398.82	89.06
399.044	91.06
399.268	87.06
399.492	98.06
399.717	106.06
399.941	101.06
400.165	105.06
400.389	92.06
400.613	104.06
400.837	103.06
401.062	95.06
401.286	84.06
401.51	102.06
401.734	112.06
401.958	97.06
402.182	91.06
402.406	92.06
402.63	78.06
402.854	85.06
403.078	116.06
403.302	98.06
403.526	96.06
403.75	110.06
403.974	82.06
404.198	92.06
404.422	102.06
404.645	97.06
404.869	90.06
405.093	100.06
405.317	93.06
405.541	96.06
405.765	84.06
405.988	89.06
406.212	96.06
406.436	82.06
406.66	89.06
406.883	98.06
407.107	93.06
407.331	92.06
407.555	94.06
407.778	89.06
408.002	87.06
408.226	108.06
408.449	85.06
408.673	88.06
408.896	107.06
409.12	99.06
409.344	91.06
409.567	106.06
409.791	115.06
410.014	98.06
410.238	98.06
410.461	103.06
410.685	96.06
410.908	98.06
411.132	99.06
411.355	86.06
411.578	96.06
411.802	94.06
412.025	96.06
412.249	106.06
412.472	92.06
412.695	92.06
412.919	92.06
413.142	101.06
413.365	96.06
413.589	95.06
413.812	80.06
414.035	97.06
414.258	97.06
414.482	106.06
414.705	100.06
414.928	93.06
415.151	89.06
415.374	97.06
415.597	107.06
415.821	87.06
416.044	81.06
416.267	102.06
416.49	106.06
416.713	110.06
416.936	107.06
417.159	98.06
417.382	101.06
417.605	85.06
417.828	102.06
418.051	96.06
418.274	96.06
418.497	95.06
418.72	92.06
418.943	100.06
419.166	91.06
419.389	106.06
419.611	101.06
419.834	97.06
420.057	105.06
420.28	89.06
420.503	98.06
420.726	97.06
420.948	97.06
421.171	103.06
421.394	90.06
421.617	74.06
421.839	97.06
422.062	110.06
422.285	95.06
422.507	101.06
422.73	104.06
422.953	106.06
423.175	95.06
423.398	100.06
423.621	106.06
423.843	89.06
424.066	103.06
424.288	99.06
424.511	102.06
424.733	80.06
424.956	89.06
425.178	106.06
425.401	94.06
425.623	106.06
425.846	105.06
426.068	92.06
426.291	106.06
426.513	106.06
426.735	87.06
426.958	109.06
427.18	100.06
427.402	102.06
427.625	99.06
427.847	94.06
428.069	102.06
428.292	89.06
428.514	104.06
428.736	115.06
428.958	103.06
429.181	111.06
429.403	103.06
429.625	93.06
429.847	104.06
430.069	107.06
430.292	104.06
430.514	96.06
430.736	101.06
430.958	106.06
431.18	117.06
431.402	89.06
431.624	98.06
431.846	94.06
432.068	99.06
432.29	84.06
432.512	112.06
432.734	95.06
432.956	80.06
433.178	94.06
433.4	108.06
433.622	105.06
433.844	84.06
434.066	86.06
434.287	93.06
434.509	96.06
434.731	101.06
434.953	99.06
435.175	102.06
435.397	103.06
435.618	96.06
435.84	88.06
436.062	96.06
436.284	114.06
436.505	109.06
436.727	91.06
436.949	98.06
437.17	89.06
437.392	99.06
437.614	104.06
437.835	82.06
438.057	98.06
438.278	102.06
438.5	113.06
438.721	108.06
438.943	116.06
439.165	97.06
439.386	99.06
439.608	99.06
439.829	96.06
440.05	94.06
440.272	117.06
440.493	98.06
440.715	98.06
440.936	117.06
441.158	118.06
441.379	108.06
441.6	99.06
441.822	92.06
442.043	106.06
442.264	104.06
442.486	100.06
442.707	108.06
442.928	100.06
443.149	97.06
443.371	91.06
443.592	96.06
443.813	123.06
444.034	104.06
444.255	102.06
444.476	85.06
444.698	102.06
444.919	92.06
445.14	165.06
445.361	129.06
445.582	89.06
445.803	92.06
446.024	108.06
446.245	108.06
446.466	101.06
446.687	107.06
446.908	100.06
447.129	104.06
447.35	96.06
447.571	98.06
447.792	107.06
448.013	104.06
448.234	111.06
448.455	102.06
448.675	110.06
448.896	100.06
449.117	105.06
449.338	128.06
449.559	114.06
449.779	124.06
450	116.06
450.221	104.06
450.442	104.06
450.662	113.06
450.883	105.06
451.104	115.06
451.324	97.06
451.545	106.06
451.766	98.06
451.986	102.06
452.207	100.06
452.428	100.06
452.648	103.06
452.869	86.06
453.089	102.06
453.31	84.06
453.53	74.06
453.751	92.06
453.971	86.06
454.192	105.06
454.412	87.06
454.633	94.06
454.853	98.06
455.073	91.06
455.294	97.06
455.514	95.06
455.734	104.06
455.955	102.06
456.175	100.06
456.395	78.06
456.616	87.06
456.836	94.06
457.056	93.06
457.276	92.06
457.497	101.06
457.717	98.06
457.937	99.06
458.157	98.06
458.377	99.06
458.598	76.06
458.818	92.06
459.038	71.06
459.258	93.06
459.478	74.06
459.698	93.06
459.918	100.06
460.138	97.06
460.358	95.06
460.578	95.06
460.798	99.06
461.018	90.06
461.238	94.06
461.458	100.06
461.678	96.06
461.898	93.06
462.118	92.06
462.338	103.06
462.558	102.06
462.777	112.06
462.997	103.06
463.217	104.06
463.437	91.06
463.657	90.06
463.876	87.06
464.096	104.06
464.316	99.06
464.536	102.06
464.755	87.06
464.975	96.06
465.195	94.06
465.414	80.06
465.634	84.06
465.854	95.06
466.073	113.06
466.293	101.06
466.512	100.06
466.732	109.06
466.951	111.06
467.171	109.06
467.391	104.06
467.61	115.06
467.829	104.06
468.049	114.06
468.268	115.06
468.488	111.06
468.707	94.06
468.927	107.06
469.146	102.06
469.365	106.06
469.585	103.06
469.804	113.06
470.023	108.06
470.243	108.06
470.462	120.06
470.681	96.06
470.901	108.06
471.12	103.06
471.339	108.06
471.558	113.06
471.777	102.06
471.997	100.06
472.216	111.06
472.435	101.06
472.654	104.06
472.873	104.06
473.092	100.06
473.311	91.06
473.53	101.06
473.749	104.06
473.968	88.06
474.187	90.06
474.406	85.06
474.625	104.06
474.844	102.06
475.063	114.06
475.282	101.06
475.501	88.06
475.72	107.06
475.939	102.06
476.158	100.06
476.377	94.06
476.596	84.06
476.814	98.06
477.033	82.06
477.252	97.06
477.471	91.06
477.69	111.06
477.908	104.06
478.127	101.06
478.346	105.06
478.564	119.06
478.783	105.06
479.002	101.06
479.22	102.06
479.439	110.06
479.658	93.06
479.876	89.06
480.095	96.06
480.313	85.06
480.532	97.06
480.751	72.06
480.969	84.06
481.188	77.06
481.406	97.06
481.624	79.06
481.843	78.06
482.061	104.06
482.28	93.06
482.498	88.06
482.717	110.06
482.935	93.06
483.153	99.06
483.372	96.06
483.59	106.06
483.808	111.06
484.027	103.06
484.245	102.06
484.463	116.06
484.681	119.06
484.9	102.06
485.118	108.06
485.336	92.06
485.554	91.06
485.772	98.06
485.99	90.06
486.209	103.06
486.427	113.06
486.645	112.06
486.863	103.06
487.081	106.06
487.299	124.06
487.517	113.06
487.735	104.06
487.953	114.06
488.171	112.06
488.389	111.06
488.607	99.06
488.825	100.06
489.043	94.06
489.261	101.06
489.479	99.06
489.696	110.06
489.914	102.06
490.132	109.06
490.35	130.06
490.568	111.06
490.786	118.06
491.003	122.06
491.221	120.06
491.439	114.06
491.657	136.06
491.874	125.06
492.092	129.06
492.31	134.06
492.527	128.06
492.745	118.06
492.963	137.06
493.18	131.06
493.398	116.06
493.615	122.06
493.833	116.06
494.05	116.06
494.268	120.06
494.485	104.06
494.703	113.06
494.92	108.06
495.138	112.06
495.355	111.06
495.573	125.06
495.79	117.06
496.008	112.06
496.225	106.06
496.442	114.06
496.66	125.06
496.877	96.06
497.094	122.06
497.312	112.06
497.529	100.06
497.746	103.06
497.963	98.06
498.181	111.06
498.398	92.06
498.615	91.06
498.832	100.06
499.049	106.06
499.267	83.06
499.484	101.06
499.701	97.06
499.918	99.06
500.135	106.06
500.352	108.06
500.569	102.06
500.786	114.06
501.003	102.06
501.22	103.06
501.437	99.06
501.654	99.06
501.871	101.06
502.088	90.06
502.305	96.06
502.522	88.06
502.739	98.06
502.956	121.06
503.172	107.06
503.389	97.06
503.606	89.06
503.823	83.06
504.04	95.06
504.256	98.06
504.473	100.06
504.69	106.06
504.907	104.06
505.123	92.06
505.34	97.06
505.557	79.06
505.773	98.06
505.99	113.06
506.207	92.06
506.423	98.06
506.64	101.06
506.856	98.06
507.073	86.06
507.289	99.06
507.506	105.06
507.722	86.06
507.939	97.06
508.155	101.06
508.372	94.06
508.588	103.06
508.805	91.06
509.021	96.06
509.238	91.06
509.454	100.06
509.67	84.06
509.887	94.06
510.103	98.06
510.319	89.06
510.536	111.06
510.752	74.06
510.968	84.06
511.184	100.06
511.401	95.06
511.617	83.06
511.833	86.06
512.049	81.06
512.265	97.06
512.481	91.06
512.698	84.06
512.914	90.06
513.13	90.06
513.346	81.06
513.562	84.06
513.778	107.06
513.994	88.06
514.21	74.06
514.426	97.06
514.642	96.06
514.858	86.06
515.074	86.06
515.29	87.06
515.506	89.06
