Data from Dirtnoheat1_HRD10591_00015.txt Node
Date: Fri Dec 27 15:18:33 EST 2024
User: Yrep
Spectrometer: HR+D1059
Trigger mode: 1
Integration Time (sec): 1.000000E-1
Scans to average: 1
Electric dark correction enabled: true
Nonlinearity correction enabled: false
Boxcar width: 0
XAxis mode: Wavelengths
Number of Pixels in Spectrum: 2048
>>>>>Begin Spectral Data<<<<<
223.165	-7
223.4	-7
223.635	-7
223.869	-22
224.104	-14
224.338	-14
224.573	-17
224.808	-7
225.042	-3
225.277	-11
225.511	-5
225.746	-8
225.98	12
226.215	12
226.449	12
226.683	15
226.918	24
227.152	33
227.387	26
227.621	39
227.856	53
228.09	47
228.324	47
228.559	66
228.793	51
229.027	59
229.262	57
229.496	61
229.73	70
229.964	81
230.199	67
230.433	77
230.667	83
230.901	90
231.136	82
231.37	77
231.604	79
231.838	84
232.072	69
232.306	74
232.541	71
232.775	77
233.009	82
233.243	89
233.477	94
233.711	68
233.945	91
234.179	85
234.413	81
234.647	70
234.881	85
235.115	81
235.349	91
235.583	77
235.817	85
236.051	89
236.285	76
236.519	77
236.753	87
236.987	67
237.221	73
237.455	69
237.689	66
237.922	83
238.156	71
238.39	62
238.624	82
238.858	73
239.091	64
239.325	78
239.559	71
239.793	71
240.027	83
240.26	84
240.494	81
240.728	85
240.961	78
241.195	68
241.429	80
241.662	78
241.896	73
242.13	91
242.363	80
242.597	80
242.83	75
243.064	82
243.298	87
243.531	80
243.765	78
243.998	93
244.232	62
244.465	73
244.699	80
244.932	77
245.166	72
245.399	93
245.633	67
245.866	66
246.099	88
246.333	84
246.566	80
246.8	88
247.033	65
247.266	62
247.5	75
247.733	71
247.966	74
248.2	78
248.433	70
248.666	95
248.899	101
249.133	70
249.366	81
249.599	89
249.832	82
250.066	76
250.299	69
250.532	77
250.765	87
250.998	92
251.231	79
251.465	86
251.698	69
251.931	59
252.164	99
252.397	84
252.63	83
252.863	66
253.096	80
253.329	88
253.562	69
253.795	88
254.028	69
254.261	85
254.494	91
254.727	82
254.96	82
255.193	73
255.426	72
255.659	78
255.892	74
256.124	86
256.357	97
256.59	78
256.823	61
257.056	83
257.289	64
257.521	78
257.754	79
257.987	79
258.22	77
258.452	70
258.685	71
258.918	86
259.151	72
259.383	71
259.616	69
259.849	88
260.081	77
260.314	77
260.547	87
260.779	95
261.012	82
261.244	74
261.477	83
261.71	79
261.942	71
262.175	82
262.407	95
262.64	76
262.872	66
263.105	73
263.337	85
263.57	82
263.802	79
264.035	79
264.267	75
264.499	84
264.732	89
264.964	90
265.197	95
265.429	82
265.661	81
265.894	90
266.126	78
266.358	82
266.591	89
266.823	88
267.055	97
267.287	83
267.52	87
267.752	76
267.984	79
268.216	71
268.448	79
268.681	86
268.913	87
269.145	61
269.377	90
269.609	82
269.841	78
270.073	77
270.306	89
270.538	70
270.77	71
271.002	86
271.234	99
271.466	87
271.698	84
271.93	79
272.162	74
272.394	104
272.626	94
272.858	80
273.09	81
273.322	94
273.553	82
273.785	89
274.017	106
274.249	105
274.481	90
274.713	94
274.945	91
275.176	71
275.408	73
275.64	69
275.872	80
276.104	89
276.335	78
276.567	79
276.799	73
277.031	74
277.262	97
277.494	98
277.726	101
277.957	77
278.189	88
278.421	91
278.652	81
278.884	87
279.115	86
279.347	98
279.579	89
279.81	84
280.042	79
280.273	86
280.505	77
280.736	72
280.968	83
281.199	88
281.431	77
281.662	78
281.894	86
282.125	97
282.356	80
282.588	81
282.819	73
283.051	91
283.282	84
283.513	87
283.745	76
283.976	82
284.207	84
284.439	93
284.67	70
284.901	72
285.132	89
285.364	82
285.595	81
285.826	90
286.057	85
286.288	72
286.52	67
286.751	81
286.982	74
287.213	81
287.444	81
287.675	91
287.906	91
288.138	92
288.369	77
288.6	96
288.831	83
289.062	98
289.293	85
289.524	93
289.755	73
289.986	99
290.217	82
290.448	85
290.679	83
290.91	79
291.141	84
291.371	88
291.602	90
291.833	80
292.064	86
292.295	82
292.526	82
292.757	75
292.987	89
293.218	88
293.449	74
293.68	85
293.91	75
294.141	90
294.372	76
294.603	99
294.833	96
295.064	76
295.295	83
295.525	83
295.756	78
295.987	78
296.217	90
296.448	83
296.679	85
296.909	75
297.14	79
297.37	84
297.601	87
297.831	90
298.062	94
298.292	89
298.523	78
298.753	72
298.984	86
299.214	85
299.445	98
299.675	77
299.905	93
300.136	94
300.366	77
300.597	85
300.827	89
301.057	72
301.288	74
301.518	83
301.748	74
301.979	96
302.209	85
302.439	91
302.669	94
302.9	78
303.13	83
303.36	93
303.59	85
303.82	82
304.051	81
304.281	88
304.511	73
304.741	85
304.971	99
305.201	88
305.431	85
305.661	76
305.891	78
306.121	84
306.352	83
306.582	94
306.812	94
307.042	83
307.272	89
307.502	102
307.731	77
307.961	90
308.191	84
308.421	79
308.651	82
308.881	79
309.111	82
309.341	95
309.571	88
309.8	81
310.03	89
310.26	85
310.49	66
310.72	80
310.949	85
311.179	90
311.409	71
311.639	83
311.868	96
312.098	92
312.328	85
312.557	65
312.787	74
313.017	91
313.246	86
313.476	74
313.706	89
313.935	96
314.165	89
314.394	90
314.624	86
314.853	84
315.083	72
315.312	75
315.542	79
315.771	79
316.001	83
316.23	83
316.46	75
316.689	83
316.919	92
317.148	78
317.377	85
317.607	87
317.836	83
318.065	83
318.295	64
318.524	86
318.753	86
318.983	96
319.212	81
319.441	83
319.67	92
319.9	87
320.129	82
320.358	89
320.587	95
320.816	77
321.046	81
321.275	80
321.504	90
321.733	85
321.962	74
322.191	87
322.42	80
322.649	84
322.878	96
323.108	77
323.337	88
323.566	97
323.795	79
324.024	86
324.253	83
324.482	82
324.71	81
324.939	79
325.168	84
325.397	94
325.626	89
325.855	71
326.084	89
326.313	92
326.542	77
326.77	93
326.999	80
327.228	80
327.457	86
327.686	92
327.914	84
328.143	75
328.372	81
328.6	80
328.829	74
329.058	85
329.287	82
329.515	90
329.744	68
329.972	85
330.201	91
330.43	82
330.658	101
330.887	80
331.115	81
331.344	81
331.572	98
331.801	86
332.03	81
332.258	88
332.486	71
332.715	88
332.943	86
333.172	83
333.4	81
333.629	80
333.857	71
334.085	87
334.314	81
334.542	90
334.771	93
334.999	81
335.227	78
335.455	86
335.684	92
335.912	81
336.14	85
336.369	80
336.597	66
336.825	72
337.053	85
337.281	91
337.51	97
337.738	88
337.966	77
338.194	79
338.422	81
338.65	84
338.878	88
339.106	79
339.334	81
339.562	90
339.79	98
340.018	92
340.246	99
340.474	85
340.702	94
340.93	86
341.158	90
341.386	86
341.614	89
341.842	93
342.07	81
342.298	95
342.526	82
342.754	89
342.981	85
343.209	63
343.437	90
343.665	89
343.893	74
344.12	87
344.348	76
344.576	83
344.804	81
345.031	81
345.259	79
345.487	86
345.714	79
345.942	74
346.17	88
346.397	85
346.625	80
346.853	93
347.08	77
347.308	97
347.535	77
347.763	79
347.99	77
348.218	104
348.445	83
348.673	74
348.9	88
349.128	89
349.355	84
349.583	96
349.81	83
350.037	71
350.265	91
350.492	87
350.72	84
350.947	93
351.174	87
351.402	77
351.629	84
351.856	74
352.083	67
352.311	79
352.538	83
352.765	94
352.992	90
353.22	90
353.447	84
353.674	87
353.901	83
354.128	89
354.355	78
354.583	66
354.81	78
355.037	94
355.264	86
355.491	75
355.718	82
355.945	87
356.172	80
356.399	91
356.626	80
356.853	71
357.08	85
357.307	91
357.534	84
357.761	83
357.988	89
358.215	98
358.441	85
358.668	90
358.895	79
359.122	88
359.349	81
359.576	102
359.802	85
360.029	68
360.256	93
360.483	75
360.709	88
360.936	81
361.163	87
361.39	88
361.616	83
361.843	76
362.07	90
362.296	82
362.523	78
362.749	79
362.976	73
363.203	102
363.429	84
363.656	86
363.882	80
364.109	84
364.335	88
364.562	90
364.788	77
365.015	81
365.241	84
365.468	87
365.694	82
365.92	65
366.147	91
366.373	82
366.599	73
366.826	94
367.052	90
367.278	90
367.505	96
367.731	90
367.957	84
368.184	87
368.41	75
368.636	94
368.862	88
369.089	93
369.315	79
369.541	86
369.767	83
369.993	75
370.219	88
370.445	91
370.672	76
370.898	73
371.124	84
371.35	75
371.576	81
371.802	67
372.028	86
372.254	94
372.48	73
372.706	98
372.932	85
373.158	78
373.384	90
373.61	89
373.835	87
374.061	83
374.287	87
374.513	85
374.739	74
374.965	79
375.191	86
375.416	82
375.642	89
375.868	82
376.094	77
376.319	94
376.545	84
376.771	79
376.997	85
377.222	89
377.448	90
377.674	69
377.899	78
378.125	86
378.35	88
378.576	80
378.802	96
379.027	77
379.253	78
379.478	90
379.704	76
379.929	85
380.155	95
380.38	83
380.606	91
380.831	87
381.057	99
381.282	79
381.507	84
381.733	89
381.958	89
382.184	87
382.409	84
382.634	90
382.86	82
383.085	77
383.31	81
383.535	85
383.761	83
383.986	83
384.211	78
384.436	89
384.662	97
384.887	89
385.112	86
385.337	88
385.562	82
385.787	67
386.013	85
386.238	78
386.463	83
386.688	96
386.913	73
387.138	81
387.363	83
387.588	91
387.813	87
388.038	85
388.263	82
388.488	76
388.713	71
388.938	76
389.163	83
389.387	98
389.612	78
389.837	82
390.062	87
390.287	83
390.512	71
390.736	79
390.961	72
391.186	86
391.411	102
391.636	71
391.86	87
392.085	86
392.31	76
392.534	101
392.759	101
392.984	81
393.208	83
393.433	82
393.658	89
393.882	99
394.107	84
394.331	90
394.556	80
394.78	102
395.005	78
395.229	85
395.454	98
395.678	70
395.903	78
396.127	83
396.352	85
396.576	91
396.801	77
397.025	83
397.249	75
397.474	84
397.698	75
397.922	82
398.147	82
398.371	60
398.595	89
398.82	68
399.044	89
399.268	90
399.492	73
399.717	80
399.941	79
400.165	64
400.389	90
400.613	87
400.837	94
401.062	101
401.286	101
401.51	99
401.734	75
401.958	82
402.182	77
402.406	88
402.63	78
402.854	93
403.078	77
403.302	89
403.526	73
403.75	69
403.974	79
404.198	75
404.422	83
404.645	89
404.869	81
405.093	73
405.317	89
405.541	87
405.765	75
405.988	78
406.212	84
406.436	73
406.66	89
406.883	91
407.107	92
407.331	82
407.555	85
407.778	83
408.002	84
408.226	87
408.449	84
408.673	77
408.896	69
409.12	70
409.344	96
409.567	78
409.791	78
410.014	85
410.238	85
410.461	78
410.685	76
410.908	84
411.132	85
411.355	89
411.578	78
411.802	78
412.025	77
412.249	68
412.472	81
412.695	86
412.919	79
413.142	86
413.365	71
413.589	86
413.812	89
414.035	91
414.258	73
414.482	77
414.705	81
414.928	93
415.151	80
415.374	82
415.597	90
415.821	83
416.044	79
416.267	74
416.49	85
416.713	77
416.936	87
417.159	74
417.382	80
417.605	80
417.828	89
418.051	80
418.274	95
418.497	80
418.72	78
418.943	82
419.166	99
419.389	76
419.611	87
419.834	82
420.057	80
420.28	88
420.503	78
420.726	67
420.948	78
421.171	81
421.394	83
421.617	82
421.839	89
422.062	85
422.285	87
422.507	89
422.73	85
422.953	86
423.175	98
423.398	85
423.621	92
423.843	89
424.066	83
424.288	85
424.511	74
424.733	87
424.956	93
425.178	81
425.401	74
425.623	73
425.846	83
426.068	97
426.291	91
426.513	77
426.735	84
426.958	72
427.18	74
427.402	71
427.625	72
427.847	91
428.069	79
428.292	83
428.514	77
428.736	83
428.958	65
429.181	73
429.403	79
429.625	77
429.847	85
430.069	70
430.292	89
430.514	75
430.736	66
430.958	87
431.18	75
431.402	73
431.624	70
431.846	78
432.068	69
432.29	85
432.512	85
432.734	71
432.956	78
433.178	79
433.4	95
433.622	77
433.844	82
434.066	75
434.287	82
434.509	101
434.731	88
434.953	78
435.175	73
435.397	86
435.618	77
435.84	83
436.062	90
436.284	77
436.505	92
436.727	93
436.949	83
437.17	83
437.392	86
437.614	89
437.835	90
438.057	89
438.278	91
438.5	85
438.721	96
438.943	85
439.165	78
439.386	80
439.608	84
439.829	69
440.05	75
440.272	88
440.493	82
440.715	81
440.936	79
441.158	83
441.379	76
441.6	78
441.822	78
442.043	85
442.264	82
442.486	97
442.707	94
442.928	98
443.149	75
443.371	101
443.592	90
443.813	68
444.034	77
444.255	78
444.476	87
444.698	89
444.919	82
445.14	134
445.361	113
445.582	91
445.803	75
446.024	79
446.245	81
446.466	92
446.687	78
446.908	88
447.129	64
447.35	82
447.571	73
447.792	84
448.013	85
448.234	81
448.455	73
448.675	86
448.896	74
449.117	78
449.338	81
449.559	75
449.779	81
450	78
450.221	82
450.442	81
450.662	79
450.883	79
451.104	82
451.324	65
451.545	77
451.766	81
451.986	89
452.207	92
452.428	80
452.648	73
452.869	76
453.089	75
453.31	90
453.53	78
453.751	94
453.971	81
454.192	75
454.412	84
454.633	76
454.853	81
455.073	78
455.294	79
455.514	91
455.734	80
455.955	78
456.175	67
456.395	81
456.616	79
456.836	78
457.056	87
457.276	80
457.497	81
457.717	79
457.937	90
458.157	77
458.377	90
458.598	68
458.818	72
459.038	81
459.258	75
459.478	74
459.698	85
459.918	75
460.138	81
460.358	79
460.578	83
460.798	89
461.018	84
461.238	71
461.458	91
461.678	78
461.898	79
462.118	75
462.338	87
462.558	80
462.777	77
462.997	73
463.217	87
463.437	90
463.657	97
463.876	81
464.096	94
464.316	82
464.536	75
464.755	77
464.975	76
465.195	79
465.414	76
465.634	87
465.854	71
466.073	75
466.293	84
466.512	89
466.732	77
466.951	78
467.171	87
467.391	81
467.61	80
467.829	77
468.049	67
468.268	73
468.488	82
468.707	97
468.927	77
469.146	80
469.365	74
469.585	78
469.804	72
470.023	66
470.243	87
470.462	88
470.681	91
470.901	92
471.12	78
471.339	83
471.558	73
471.777	69
471.997	86
472.216	82
472.435	74
472.654	79
472.873	92
473.092	76
473.311	78
473.53	74
473.749	73
473.968	79
474.187	90
474.406	81
474.625	96
474.844	90
475.063	74
475.282	91
475.501	86
475.72	94
475.939	78
476.158	81
476.377	83
476.596	83
476.814	89
477.033	95
477.252	75
477.471	84
477.69	91
477.908	91
478.127	88
478.346	72
478.564	89
478.783	80
479.002	84
479.22	80
479.439	83
479.658	75
479.876	67
480.095	82
480.313	87
480.532	91
480.751	81
480.969	91
481.188	89
481.406	82
481.624	74
481.843	81
482.061	76
482.28	68
482.498	82
482.717	94
482.935	86
483.153	87
483.372	101
483.59	87
483.808	87
484.027	62
484.245	93
484.463	83
484.681	97
484.9	82
485.118	81
485.336	78
485.554	72
485.772	77
485.99	90
486.209	78
486.427	82
486.645	104
486.863	75
487.081	71
487.299	70
487.517	91
487.735	78
487.953	77
488.171	94
488.389	83
488.607	78
488.825	77
489.043	81
489.261	84
489.479	86
489.696	90
489.914	82
490.132	82
490.35	80
490.568	79
490.786	86
491.003	88
491.221	88
491.439	79
491.657	86
491.874	80
492.092	101
492.31	88
492.527	79
492.745	91
492.963	78
493.18	63
493.398	86
493.615	86
493.833	88
494.05	93
494.268	85
494.485	92
494.703	81
494.92	78
495.138	89
495.355	85
495.573	93
495.79	103
496.008	91
496.225	86
496.442	82
496.66	83
496.877	79
497.094	95
497.312	88
497.529	89
497.746	95
497.963	76
498.181	93
498.398	83
498.615	83
498.832	80
499.049	85
499.267	83
499.484	91
499.701	78
499.918	99
500.135	97
500.352	81
500.569	91
500.786	83
501.003	89
501.22	85
501.437	82
501.654	80
501.871	77
502.088	72
502.305	78
502.522	73
502.739	79
502.956	87
503.172	92
503.389	95
503.606	81
503.823	88
504.04	75
504.256	89
504.473	80
504.69	98
504.907	103
505.123	89
505.34	75
505.557	87
505.773	85
505.99	83
506.207	92
506.423	82
506.64	90
506.856	88
507.073	81
507.289	83
507.506	93
507.722	94
507.939	93
508.155	87
508.372	74
508.588	85
508.805	89
509.021	74
509.238	84
509.454	81
509.67	93
509.887	67
510.103	86
510.319	86
510.536	77
510.752	76
510.968	85
511.184	86
511.401	81
511.617	79
511.833	86
512.049	87
512.265	88
512.481	85
512.698	90
512.914	85
513.13	82
513.346	84
513.562	94
513.778	81
513.994	84
514.21	82
514.426	82
514.642	73
514.858	90
515.074	82
515.29	91
515.506	87
515.721	79
515.937	82
516.153	85
516.369	96
516.585	88
516.801	84
517.016	90
517.232	77
517.448	85
517.664	102
517.879	83
518.095	83
518.311	93
518.527	77
518.742	81
518.958	74
519.173	90
519.389	72
519.605	89
519.82	81
520.036	91
520.251	85
520.467	81
520.682	94
520.898	84
521.113	81
521.329	76
521.544	75
521.76	83
521.975	91
522.19	90
522.406	88
522.621	84
522.836	92
523.052	79
523.267	97
523.482	73
523.698	90
523.913	86
524.128	79
524.343	83
524.559	95
524.774	87
524.989	81
525.204	85
525.419	66
525.634	75
525.849	84
526.064	71
526.28	83
526.495	80
526.71	78
526.925	81
527.14	89
527.355	81
527.57	86
527.785	77
527.999	76
528.214	82
528.429	80
528.644	71
528.859	96
529.074	83
529.289	79
529.503	89
529.718	89
529.933	71
530.148	80
530.363	85
530.577	88
530.792	82
531.007	89
531.221	89
531.436	90
531.651	86
531.865	82
532.08	77
532.295	84
532.509	80
532.724	98
532.938	87
533.153	86
533.367	93
533.582	75
533.796	79
534.011	85
534.225	92
534.44	80
534.654	77
534.868	89
535.083	98
535.297	92
535.511	99
535.726	77
535.94	87
536.154	78
536.369	88
536.583	68
536.797	91
537.011	84
537.225	81
537.44	83
537.654	90
537.868	84
538.082	81
538.296	88
538.51	99
538.724	104
538.938	89
539.153	88
539.367	78
539.581	90
539.795	77
540.009	82
540.222	86
540.436	93
540.65	85
540.864	94
541.078	95
541.292	84
541.506	82
541.72	80
541.934	84
542.147	72
542.361	80
542.575	86
542.789	86
543.002	88
543.216	65
543.43	77
543.644	72
543.857	77
544.071	79
544.285	89
544.498	93
544.712	81
544.925	79
545.139	77
545.352	80
545.566	85
545.779	82
545.993	92
546.206	97
546.42	84
546.633	73
546.847	93
547.06	83
547.274	99
547.487	102
547.7	95
547.914	85
548.127	87
548.34	89
548.554	99
548.767	91
548.98	96
549.193	76
549.407	103
549.62	99
549.833	105
550.046	91
550.259	104
550.473	114
550.686	89
550.899	109
551.112	111
551.325	95
551.538	80
551.751	91
551.964	91
552.177	108
552.39	113
552.603	91
552.816	98
553.029	103
553.242	101
553.455	116
553.667	113
553.88	119
554.093	97
554.306	100
554.519	101
554.732	117
554.944	112
555.157	96
555.37	111
555.583	116
555.795	112
556.008	106
556.221	98
556.433	95
556.646	87
556.859	103
557.071	112
557.284	84
557.496	105
557.709	89
557.921	94
558.134	93
558.346	95
558.559	91
558.771	90
558.984	87
559.196	91
559.409	82
559.621	80
559.833	90
560.046	102
560.258	91
560.47	85
560.683	107
560.895	95
561.107	88
561.32	86
561.532	85
561.744	107
561.956	82
562.168	105
562.381	93
562.593	79
562.805	97
563.017	94
563.229	86
563.441	89
563.653	87
563.865	98
564.077	67
564.289	84
564.501	87
564.713	87
564.925	85
565.137	94
565.349	95
565.561	88
565.773	89
565.985	83
566.197	86
566.408	89
566.62	87
566.832	94
567.044	94
567.255	77
567.467	86
567.679	73
567.891	91
568.102	97
568.314	84
568.526	89
568.737	76
568.949	103
569.161	82
569.372	76
569.584	86
569.795	84
570.007	81
570.218	93
570.43	81
570.641	82
570.853	75
571.064	72
571.276	95
571.487	82
571.698	108
571.91	82
572.121	80
572.333	86
572.544	82
572.755	88
572.966	74
573.178	88
573.389	97
573.6	90
573.811	95
574.023	94
574.234	82
574.445	82
574.656	93
574.867	87
575.078	82
575.289	85
575.501	85
575.712	81
575.923	75
576.134	69
576.345	66
576.556	81
576.767	85
576.978	67
577.188	83
577.399	89
577.61	81
577.821	96
578.032	78
578.243	87
578.454	83
578.665	81
578.875	106
579.086	87
579.297	97
579.508	79
579.718	95
579.929	89
580.14	71
580.35	84
580.561	79
580.772	81
580.982	98
581.193	86
581.403	81
581.614	96
581.825	103
582.035	81
582.246	84
582.456	71
582.667	82
582.877	86
583.087	102
583.298	87
583.508	84
583.719	78
583.929	85
584.139	85
584.35	77
584.56	95
584.77	72
584.981	85
585.191	81
585.401	86
585.611	79
585.821	97
586.032	82
586.242	85
586.452	93
586.662	95
586.872	88
587.082	71
587.292	66
587.502	80
587.713	98
587.923	81
588.133	102
588.343	89
588.553	82
588.762	94
588.972	88
589.182	111
589.392	95
589.602	103
589.812	90
