Data from Dirtnoheat1_HRD10591_00012.txt Node
Date: Fri Dec 27 15:18:30 EST 2024
User: Yrep
Spectrometer: HR+D1059
Trigger mode: 1
Integration Time (sec): 1.000000E-1
Scans to average: 1
Electric dark correction enabled: true
Nonlinearity correction enabled: false
Boxcar width: 0
XAxis mode: Wavelengths
Number of Pixels in Spectrum: 2048
>>>>>Begin Spectral Data<<<<<
223.165	-12.94
223.4	-12.94
223.635	-12.94
223.869	-15.94
224.104	-8.94
224.338	-12.94
224.573	-19.94
224.808	-7.94
225.042	-4.94
225.277	-12.94
225.511	-3.94
225.746	6.06
225.98	5.06
226.215	17.06
226.449	12.06
226.683	24.06
226.918	20.06
227.152	16.06
227.387	21.06
227.621	36.06
227.856	52.06
228.09	50.06
228.324	45.06
228.559	59.06
228.793	55.06
229.027	48.06
229.262	63.06
229.496	62.06
229.73	72.06
229.964	79.06
230.199	77.06
230.433	91.06
230.667	78.06
230.901	67.06
231.136	81.06
231.37	79.06
231.604	95.06
231.838	79.06
232.072	86.06
232.306	95.06
232.541	77.06
232.775	77.06
233.009	69.06
233.243	83.06
233.477	74.06
233.711	89.06
233.945	88.06
234.179	87.06
234.413	87.06
234.647	90.06
234.881	84.06
235.115	89.06
235.349	75.06
235.583	65.06
235.817	81.06
236.051	79.06
236.285	88.06
236.519	81.06
236.753	84.06
236.987	82.06
237.221	86.06
237.455	83.06
237.689	79.06
237.922	86.06
238.156	74.06
238.39	76.06
238.624	85.06
238.858	84.06
239.091	80.06
239.325	82.06
239.559	63.06
239.793	68.06
240.027	66.06
240.26	80.06
240.494	83.06
240.728	71.06
240.961	80.06
241.195	79.06
241.429	76.06
241.662	73.06
241.896	77.06
242.13	76.06
242.363	60.06
242.597	75.06
242.83	86.06
243.064	73.06
243.298	88.06
243.531	97.06
243.765	85.06
243.998	73.06
244.232	79.06
244.465	91.06
244.699	84.06
244.932	86.06
245.166	87.06
245.399	97.06
245.633	64.06
245.866	79.06
246.099	87.06
246.333	84.06
246.566	84.06
246.8	77.06
247.033	64.06
247.266	82.06
247.5	80.06
247.733	66.06
247.966	68.06
248.2	76.06
248.433	91.06
248.666	89.06
248.899	73.06
249.133	68.06
249.366	81.06
249.599	78.06
249.832	72.06
250.066	87.06
250.299	77.06
250.532	78.06
250.765	83.06
250.998	97.06
251.231	64.06
251.465	84.06
251.698	84.06
251.931	79.06
252.164	91.06
252.397	87.06
252.63	87.06
252.863	75.06
253.096	72.06
253.329	78.06
253.562	93.06
253.795	72.06
254.028	77.06
254.261	65.06
254.494	93.06
254.727	85.06
254.96	74.06
255.193	81.06
255.426	80.06
255.659	79.06
255.892	89.06
256.124	92.06
256.357	76.06
256.59	72.06
256.823	82.06
257.056	74.06
257.289	79.06
257.521	81.06
257.754	80.06
257.987	83.06
258.22	86.06
258.452	76.06
258.685	87.06
258.918	80.06
259.151	81.06
259.383	89.06
259.616	77.06
259.849	61.06
260.081	75.06
260.314	88.06
260.547	73.06
260.779	77.06
261.012	81.06
261.244	86.06
261.477	107.06
261.71	77.06
261.942	95.06
262.175	62.06
262.407	81.06
262.64	82.06
262.872	82.06
263.105	78.06
263.337	76.06
263.57	77.06
263.802	93.06
264.035	92.06
264.267	72.06
264.499	78.06
264.732	81.06
264.964	78.06
265.197	83.06
265.429	71.06
265.661	83.06
265.894	85.06
266.126	84.06
266.358	83.06
266.591	88.06
266.823	52.06
267.055	72.06
267.287	82.06
267.52	75.06
267.752	84.06
267.984	81.06
268.216	71.06
268.448	88.06
268.681	90.06
268.913	89.06
269.145	92.06
269.377	80.06
269.609	71.06
269.841	83.06
270.073	85.06
270.306	75.06
270.538	84.06
270.77	85.06
271.002	89.06
271.234	88.06
271.466	89.06
271.698	101.06
271.93	72.06
272.162	82.06
272.394	89.06
272.626	81.06
272.858	77.06
273.09	83.06
273.322	73.06
273.553	79.06
273.785	75.06
274.017	87.06
274.249	86.06
274.481	78.06
274.713	75.06
274.945	97.06
275.176	88.06
275.408	82.06
275.64	83.06
275.872	85.06
276.104	85.06
276.335	88.06
276.567	85.06
276.799	84.06
277.031	94.06
277.262	84.06
277.494	83.06
277.726	90.06
277.957	86.06
278.189	76.06
278.421	82.06
278.652	92.06
278.884	83.06
279.115	91.06
279.347	68.06
279.579	71.06
279.81	65.06
280.042	89.06
280.273	81.06
280.505	101.06
280.736	75.06
280.968	77.06
281.199	81.06
281.431	90.06
281.662	100.06
281.894	105.06
282.125	86.06
282.356	75.06
282.588	83.06
282.819	69.06
283.051	83.06
283.282	86.06
283.513	68.06
283.745	78.06
283.976	87.06
284.207	82.06
284.439	82.06
284.67	87.06
284.901	80.06
285.132	87.06
285.364	82.06
285.595	75.06
285.826	65.06
286.057	87.06
286.288	73.06
286.52	76.06
286.751	88.06
286.982	69.06
287.213	80.06
287.444	85.06
287.675	84.06
287.906	66.06
288.138	72.06
288.369	82.06
288.6	94.06
288.831	76.06
289.062	89.06
289.293	87.06
289.524	91.06
289.755	84.06
289.986	78.06
290.217	88.06
290.448	83.06
290.679	96.06
290.91	100.06
291.141	78.06
291.371	91.06
291.602	89.06
291.833	80.06
292.064	82.06
292.295	79.06
292.526	69.06
292.757	86.06
292.987	73.06
293.218	91.06
293.449	83.06
293.68	73.06
293.91	79.06
294.141	77.06
294.372	71.06
294.603	84.06
294.833	83.06
295.064	70.06
295.295	69.06
295.525	91.06
295.756	77.06
295.987	80.06
296.217	91.06
296.448	83.06
296.679	79.06
296.909	84.06
297.14	89.06
297.37	80.06
297.601	85.06
297.831	79.06
298.062	86.06
298.292	88.06
298.523	93.06
298.753	89.06
298.984	95.06
299.214	79.06
299.445	77.06
299.675	91.06
299.905	79.06
300.136	84.06
300.366	85.06
300.597	88.06
300.827	72.06
301.057	84.06
301.288	77.06
301.518	85.06
301.748	81.06
301.979	92.06
302.209	83.06
302.439	67.06
302.669	91.06
302.9	93.06
303.13	86.06
303.36	75.06
303.59	82.06
303.82	94.06
304.051	101.06
304.281	75.06
304.511	85.06
304.741	83.06
304.971	102.06
305.201	96.06
305.431	84.06
305.661	87.06
305.891	79.06
306.121	84.06
306.352	89.06
306.582	91.06
306.812	89.06
307.042	84.06
307.272	79.06
307.502	90.06
307.731	89.06
307.961	97.06
308.191	88.06
308.421	101.06
308.651	86.06
308.881	79.06
309.111	93.06
309.341	74.06
309.571	85.06
309.8	83.06
310.03	71.06
310.26	88.06
310.49	85.06
310.72	86.06
310.949	86.06
311.179	92.06
311.409	77.06
311.639	88.06
311.868	91.06
312.098	92.06
312.328	100.06
312.557	85.06
312.787	85.06
313.017	96.06
313.246	71.06
313.476	81.06
313.706	85.06
313.935	89.06
314.165	88.06
314.394	80.06
314.624	87.06
314.853	85.06
315.083	92.06
315.312	79.06
315.542	75.06
315.771	76.06
316.001	91.06
316.23	85.06
316.46	102.06
316.689	81.06
316.919	84.06
317.148	90.06
317.377	92.06
317.607	88.06
317.836	81.06
318.065	78.06
318.295	64.06
318.524	90.06
318.753	85.06
318.983	91.06
319.212	73.06
319.441	76.06
319.67	84.06
319.9	76.06
320.129	92.06
320.358	81.06
320.587	75.06
320.816	69.06
321.046	80.06
321.275	87.06
321.504	75.06
321.733	83.06
321.962	87.06
322.191	87.06
322.42	86.06
322.649	65.06
322.878	81.06
323.108	84.06
323.337	81.06
323.566	84.06
323.795	90.06
324.024	83.06
324.253	81.06
324.482	77.06
324.71	84.06
324.939	85.06
325.168	88.06
325.397	76.06
325.626	83.06
325.855	90.06
326.084	91.06
326.313	87.06
326.542	77.06
326.77	86.06
326.999	87.06
327.228	80.06
327.457	86.06
327.686	107.06
327.914	90.06
328.143	101.06
328.372	78.06
328.6	84.06
328.829	83.06
329.058	77.06
329.287	84.06
329.515	87.06
329.744	76.06
329.972	99.06
330.201	89.06
330.43	85.06
330.658	87.06
330.887	92.06
331.115	78.06
331.344	79.06
331.572	99.06
331.801	78.06
332.03	85.06
332.258	83.06
332.486	76.06
332.715	87.06
332.943	94.06
333.172	85.06
333.4	82.06
333.629	77.06
333.857	73.06
334.085	81.06
334.314	81.06
334.542	85.06
334.771	87.06
334.999	84.06
335.227	83.06
335.455	76.06
335.684	85.06
335.912	85.06
336.14	75.06
336.369	94.06
336.597	85.06
336.825	91.06
337.053	77.06
337.281	99.06
337.51	93.06
337.738	80.06
337.966	87.06
338.194	75.06
338.422	68.06
338.65	99.06
338.878	101.06
339.106	88.06
339.334	71.06
339.562	80.06
339.79	84.06
340.018	96.06
340.246	89.06
340.474	87.06
340.702	89.06
340.93	81.06
341.158	86.06
341.386	78.06
341.614	79.06
341.842	91.06
342.07	93.06
342.298	78.06
342.526	81.06
342.754	93.06
342.981	87.06
343.209	90.06
343.437	97.06
343.665	87.06
343.893	88.06
344.12	97.06
344.348	91.06
344.576	76.06
344.804	89.06
345.031	88.06
345.259	81.06
345.487	91.06
345.714	88.06
345.942	60.06
346.17	86.06
346.397	83.06
346.625	78.06
346.853	81.06
347.08	90.06
347.308	72.06
347.535	80.06
347.763	73.06
347.99	77.06
348.218	86.06
348.445	89.06
348.673	110.06
348.9	67.06
349.128	92.06
349.355	85.06
349.583	89.06
349.81	85.06
350.037	88.06
350.265	94.06
350.492	82.06
350.72	78.06
350.947	92.06
351.174	99.06
351.402	83.06
351.629	82.06
351.856	84.06
352.083	79.06
352.311	103.06
352.538	77.06
352.765	82.06
352.992	86.06
353.22	83.06
353.447	73.06
353.674	83.06
353.901	82.06
354.128	94.06
354.355	92.06
354.583	77.06
354.81	83.06
355.037	85.06
355.264	83.06
355.491	88.06
355.718	82.06
355.945	91.06
356.172	99.06
356.399	84.06
356.626	84.06
356.853	79.06
357.08	87.06
357.307	76.06
357.534	82.06
357.761	82.06
357.988	90.06
358.215	90.06
358.441	85.06
358.668	88.06
358.895	99.06
359.122	79.06
359.349	86.06
359.576	71.06
359.802	92.06
360.029	93.06
360.256	95.06
360.483	87.06
360.709	81.06
360.936	91.06
361.163	84.06
361.39	77.06
361.616	81.06
361.843	73.06
362.07	76.06
362.296	91.06
362.523	73.06
362.749	87.06
362.976	80.06
363.203	77.06
363.429	92.06
363.656	90.06
363.882	65.06
364.109	84.06
364.335	82.06
364.562	70.06
364.788	87.06
365.015	82.06
365.241	72.06
365.468	87.06
365.694	72.06
365.92	86.06
366.147	80.06
366.373	67.06
366.599	82.06
366.826	80.06
367.052	74.06
367.278	87.06
367.505	87.06
367.731	73.06
367.957	92.06
368.184	95.06
368.41	83.06
368.636	85.06
368.862	79.06
369.089	75.06
369.315	80.06
369.541	81.06
369.767	67.06
369.993	87.06
370.219	81.06
370.445	75.06
370.672	59.06
370.898	72.06
371.124	83.06
371.35	82.06
371.576	85.06
371.802	73.06
372.028	79.06
372.254	84.06
372.48	89.06
372.706	69.06
372.932	87.06
373.158	67.06
373.384	87.06
373.61	75.06
373.835	80.06
374.061	76.06
374.287	86.06
374.513	83.06
374.739	86.06
374.965	70.06
375.191	80.06
375.416	82.06
375.642	89.06
375.868	83.06
376.094	77.06
376.319	83.06
376.545	73.06
376.771	83.06
376.997	79.06
377.222	80.06
377.448	75.06
377.674	68.06
377.899	79.06
378.125	79.06
378.35	80.06
378.576	61.06
378.802	83.06
379.027	81.06
379.253	68.06
379.478	77.06
379.704	67.06
379.929	80.06
380.155	78.06
380.38	79.06
380.606	80.06
380.831	71.06
381.057	87.06
381.282	83.06
381.507	80.06
381.733	79.06
381.958	83.06
382.184	79.06
382.409	85.06
382.634	101.06
382.86	72.06
383.085	69.06
383.31	75.06
383.535	78.06
383.761	73.06
383.986	85.06
384.211	77.06
384.436	78.06
384.662	82.06
384.887	80.06
385.112	84.06
385.337	76.06
385.562	79.06
385.787	92.06
386.013	93.06
386.238	91.06
386.463	88.06
386.688	97.06
386.913	65.06
387.138	72.06
387.363	82.06
387.588	74.06
387.813	75.06
388.038	92.06
388.263	65.06
388.488	69.06
388.713	85.06
388.938	79.06
389.163	76.06
389.387	82.06
389.612	73.06
389.837	68.06
390.062	87.06
390.287	82.06
390.512	87.06
390.736	72.06
390.961	100.06
391.186	71.06
391.411	83.06
391.636	81.06
391.86	73.06
392.085	63.06
392.31	87.06
392.534	86.06
392.759	84.06
392.984	72.06
393.208	80.06
393.433	79.06
393.658	88.06
393.882	77.06
394.107	79.06
394.331	74.06
394.556	71.06
394.78	86.06
395.005	83.06
395.229	78.06
395.454	70.06
395.678	79.06
395.903	83.06
396.127	93.06
396.352	77.06
396.576	85.06
396.801	72.06
397.025	77.06
397.249	90.06
397.474	79.06
397.698	91.06
397.922	85.06
398.147	83.06
398.371	85.06
398.595	80.06
398.82	84.06
399.044	84.06
399.268	89.06
399.492	76.06
399.717	80.06
399.941	79.06
400.165	79.06
400.389	82.06
400.613	88.06
400.837	92.06
401.062	80.06
401.286	86.06
401.51	79.06
401.734	88.06
401.958	85.06
402.182	81.06
402.406	85.06
402.63	61.06
402.854	99.06
403.078	67.06
403.302	92.06
403.526	81.06
403.75	81.06
403.974	81.06
404.198	78.06
404.422	83.06
404.645	72.06
404.869	86.06
405.093	77.06
405.317	82.06
405.541	74.06
405.765	87.06
405.988	79.06
406.212	104.06
406.436	62.06
406.66	57.06
406.883	76.06
407.107	79.06
407.331	76.06
407.555	80.06
407.778	81.06
408.002	77.06
408.226	75.06
408.449	81.06
408.673	91.06
408.896	75.06
409.12	81.06
409.344	89.06
409.567	59.06
409.791	91.06
410.014	90.06
410.238	79.06
410.461	79.06
410.685	79.06
410.908	65.06
411.132	84.06
411.355	78.06
411.578	75.06
411.802	79.06
412.025	73.06
412.249	72.06
412.472	85.06
412.695	69.06
412.919	74.06
413.142	80.06
413.365	84.06
413.589	80.06
413.812	73.06
414.035	92.06
414.258	80.06
414.482	80.06
414.705	80.06
414.928	70.06
415.151	81.06
415.374	91.06
415.597	82.06
415.821	73.06
416.044	72.06
416.267	88.06
416.49	81.06
416.713	85.06
416.936	92.06
417.159	67.06
417.382	67.06
417.605	74.06
417.828	88.06
418.051	77.06
418.274	84.06
418.497	86.06
418.72	74.06
418.943	80.06
419.166	79.06
419.389	80.06
419.611	64.06
419.834	71.06
420.057	78.06
420.28	83.06
420.503	76.06
420.726	77.06
420.948	62.06
421.171	78.06
421.394	80.06
421.617	75.06
421.839	80.06
422.062	77.06
422.285	90.06
422.507	75.06
422.73	79.06
422.953	83.06
423.175	78.06
423.398	84.06
423.621	88.06
423.843	81.06
424.066	67.06
424.288	83.06
424.511	90.06
424.733	79.06
424.956	77.06
425.178	96.06
425.401	88.06
425.623	75.06
425.846	84.06
426.068	73.06
426.291	78.06
426.513	79.06
426.735	78.06
426.958	87.06
427.18	90.06
427.402	79.06
427.625	95.06
427.847	68.06
428.069	87.06
428.292	85.06
428.514	76.06
428.736	81.06
428.958	88.06
429.181	75.06
429.403	80.06
429.625	72.06
429.847	61.06
430.069	100.06
430.292	75.06
430.514	81.06
430.736	92.06
430.958	79.06
431.18	82.06
431.402	81.06
431.624	70.06
431.846	77.06
432.068	92.06
432.29	77.06
432.512	73.06
432.734	67.06
432.956	82.06
433.178	84.06
433.4	77.06
433.622	86.06
433.844	84.06
434.066	66.06
434.287	79.06
434.509	85.06
434.731	94.06
434.953	75.06
435.175	77.06
435.397	78.06
435.618	69.06
435.84	87.06
436.062	90.06
436.284	79.06
436.505	84.06
436.727	82.06
436.949	80.06
437.17	82.06
437.392	86.06
437.614	81.06
437.835	80.06
438.057	93.06
438.278	71.06
438.5	84.06
438.721	63.06
438.943	80.06
439.165	86.06
439.386	89.06
439.608	80.06
439.829	84.06
440.05	78.06
440.272	80.06
440.493	77.06
440.715	76.06
440.936	83.06
441.158	81.06
441.379	83.06
441.6	86.06
441.822	100.06
442.043	99.06
442.264	77.06
442.486	82.06
442.707	75.06
442.928	77.06
443.149	85.06
443.371	73.06
443.592	87.06
443.813	81.06
444.034	91.06
444.255	75.06
444.476	101.06
444.698	71.06
444.919	67.06
445.14	139.06
445.361	110.06
445.582	92.06
445.803	75.06
446.024	82.06
446.245	88.06
446.466	85.06
446.687	84.06
446.908	72.06
447.129	75.06
447.35	84.06
447.571	76.06
447.792	75.06
448.013	80.06
448.234	74.06
448.455	85.06
448.675	86.06
448.896	67.06
449.117	89.06
449.338	74.06
449.559	87.06
449.779	77.06
450	78.06
450.221	88.06
450.442	65.06
450.662	79.06
450.883	85.06
451.104	79.06
451.324	82.06
451.545	85.06
451.766	72.06
451.986	75.06
452.207	96.06
452.428	76.06
452.648	84.06
452.869	92.06
453.089	85.06
453.31	83.06
453.53	74.06
453.751	75.06
453.971	97.06
454.192	69.06
454.412	75.06
454.633	83.06
454.853	89.06
455.073	78.06
455.294	85.06
455.514	81.06
455.734	77.06
455.955	87.06
456.175	75.06
456.395	68.06
456.616	95.06
456.836	81.06
457.056	79.06
457.276	71.06
457.497	79.06
457.717	86.06
457.937	90.06
458.157	87.06
458.377	78.06
458.598	87.06
458.818	76.06
459.038	81.06
459.258	86.06
459.478	63.06
459.698	74.06
459.918	82.06
460.138	77.06
460.358	82.06
460.578	82.06
460.798	91.06
461.018	86.06
461.238	92.06
461.458	79.06
461.678	71.06
461.898	78.06
462.118	78.06
462.338	81.06
462.558	93.06
462.777	84.06
462.997	76.06
463.217	71.06
463.437	87.06
463.657	77.06
463.876	85.06
464.096	79.06
464.316	70.06
464.536	87.06
464.755	85.06
464.975	101.06
465.195	96.06
465.414	71.06
465.634	80.06
465.854	58.06
466.073	73.06
466.293	81.06
466.512	81.06
466.732	72.06
466.951	90.06
467.171	78.06
467.391	93.06
467.61	79.06
467.829	84.06
468.049	85.06
468.268	86.06
468.488	85.06
468.707	84.06
468.927	74.06
469.146	81.06
469.365	89.06
469.585	88.06
469.804	76.06
470.023	87.06
470.243	86.06
470.462	95.06
470.681	81.06
470.901	84.06
471.12	80.06
471.339	88.06
471.558	79.06
471.777	85.06
471.997	82.06
472.216	85.06
472.435	82.06
472.654	73.06
472.873	85.06
473.092	75.06
473.311	77.06
473.53	82.06
473.749	85.06
473.968	86.06
474.187	95.06
474.406	66.06
474.625	72.06
474.844	86.06
475.063	79.06
475.282	80.06
475.501	82.06
475.72	82.06
475.939	73.06
476.158	68.06
476.377	73.06
476.596	88.06
476.814	95.06
477.033	84.06
477.252	81.06
477.471	91.06
477.69	88.06
477.908	77.06
478.127	102.06
478.346	81.06
478.564	87.06
478.783	80.06
479.002	65.06
479.22	82.06
479.439	94.06
479.658	80.06
479.876	80.06
480.095	79.06
480.313	61.06
480.532	76.06
480.751	101.06
480.969	99.06
481.188	86.06
481.406	79.06
481.624	86.06
481.843	83.06
482.061	71.06
482.28	88.06
482.498	83.06
482.717	70.06
482.935	75.06
483.153	80.06
483.372	83.06
483.59	80.06
483.808	72.06
484.027	100.06
484.245	97.06
484.463	83.06
484.681	97.06
484.9	86.06
485.118	76.06
485.336	89.06
485.554	84.06
485.772	97.06
485.99	89.06
486.209	75.06
486.427	73.06
486.645	85.06
486.863	87.06
487.081	80.06
487.299	101.06
487.517	91.06
487.735	79.06
487.953	87.06
488.171	96.06
488.389	86.06
488.607	84.06
488.825	84.06
489.043	87.06
489.261	85.06
489.479	86.06
489.696	83.06
489.914	82.06
490.132	105.06
490.35	83.06
490.568	94.06
490.786	83.06
491.003	78.06
491.221	79.06
491.439	85.06
491.657	86.06
491.874	95.06
492.092	88.06
492.31	85.06
492.527	84.06
492.745	74.06
492.963	95.06
493.18	92.06
493.398	85.06
493.615	85.06
493.833	88.06
494.05	76.06
494.268	67.06
494.485	80.06
494.703	91.06
494.92	75.06
495.138	79.06
495.355	84.06
495.573	88.06
495.79	77.06
496.008	85.06
496.225	76.06
496.442	80.06
496.66	87.06
496.877	87.06
497.094	74.06
497.312	87.06
497.529	85.06
497.746	93.06
497.963	69.06
498.181	87.06
498.398	79.06
498.615	72.06
498.832	86.06
499.049	94.06
499.267	89.06
499.484	83.06
499.701	87.06
499.918	86.06
500.135	86.06
500.352	95.06
500.569	73.06
500.786	78.06
501.003	87.06
501.22	91.06
501.437	83.06
501.654	79.06
501.871	90.06
502.088	84.06
502.305	94.06
502.522	86.06
502.739	85.06
502.956	92.06
503.172	77.06
503.389	85.06
503.606	85.06
503.823	88.06
504.04	82.06
504.256	91.06
504.473	78.06
504.69	80.06
504.907	70.06
505.123	78.06
505.34	86.06
505.557	86.06
505.773	71.06
505.99	80.06
506.207	81.06
506.423	76.06
506.64	91.06
506.856	82.06
507.073	84.06
507.289	78.06
507.506	88.06
507.722	83.06
507.939	81.06
508.155	91.06
508.372	91.06
508.588	88.06
508.805	84.06
509.021	87.06
509.238	65.06
509.454	84.06
509.67	76.06
509.887	81.06
510.103	92.06
510.319	81.06
510.536	87.06
510.752	77.06
510.968	85.06
511.184	88.06
511.401	77.06
511.617	91.06
511.833	79.06
512.049	83.06
512.265	76.06
512.481	73.06
512.698	86.06
512.914	87.06
513.13	96.06
513.346	70.06
513.562	72.06
513.778	86.06
513.994	88.06
514.21	88.06
514.426	66.06
514.642	77.06
514.858	90.06
515.074	82.06
515.29	80.06
515.506	75.06
515.721	64.06
515.937	86.06
516.153	95.06
516.369	92.06
516.585	78.06
516.801	76.06
517.016	79.06
517.232	90.06
517.448	83.06
517.664	93.06
517.879	74.06
518.095	103.06
518.311	81.06
518.527	76.06
518.742	88.06
518.958	78.06
519.173	92.06
519.389	103.06
519.605	81.06
519.82	76.06
