Data from Dirtnoheat1_HRD10591_00003.txt Node
Date: Fri Dec 27 15:18:21 EST 2024
User: Yrep
Spectrometer: HR+D1059
Trigger mode: 1
Integration Time (sec): 1.000000E-1
Scans to average: 1
Electric dark correction enabled: true
Nonlinearity correction enabled: false
Boxcar width: 0
XAxis mode: Wavelengths
Number of Pixels in Spectrum: 2048
>>>>>Begin Spectral Data<<<<<
223.165	-20.94
223.4	-20.94
223.635	-20.94
223.869	-6.94
224.104	-30.94
224.338	-6.94
224.573	-6.94
224.808	-18.94
225.042	2.06
225.277	-16.94
225.511	1.06
225.746	0.06
225.98	4.06
226.215	19.06
226.449	9.06
226.683	18.06
226.918	24.06
227.152	31.06
227.387	35.06
227.621	20.06
227.856	28.06
228.09	53.06
228.324	48.06
228.559	56.06
228.793	48.06
229.027	66.06
229.262	66.06
229.496	72.06
229.73	74.06
229.964	63.06
230.199	58.06
230.433	74.06
230.667	77.06
230.901	70.06
231.136	71.06
231.37	72.06
231.604	83.06
231.838	69.06
232.072	75.06
232.306	84.06
232.541	80.06
232.775	75.06
233.009	88.06
233.243	83.06
233.477	69.06
233.711	83.06
233.945	86.06
234.179	82.06
234.413	81.06
234.647	79.06
234.881	70.06
235.115	64.06
235.349	66.06
235.583	78.06
235.817	81.06
236.051	77.06
236.285	80.06
236.519	87.06
236.753	77.06
236.987	79.06
237.221	64.06
237.455	80.06
237.689	71.06
237.922	87.06
238.156	67.06
238.39	78.06
238.624	87.06
238.858	75.06
239.091	65.06
239.325	88.06
239.559	83.06
239.793	85.06
240.027	83.06
240.26	72.06
240.494	81.06
240.728	59.06
240.961	68.06
241.195	66.06
241.429	69.06
241.662	76.06
241.896	93.06
242.13	79.06
242.363	80.06
242.597	73.06
242.83	87.06
243.064	80.06
243.298	80.06
243.531	73.06
243.765	78.06
243.998	85.06
244.232	100.06
244.465	86.06
244.699	73.06
244.932	83.06
245.166	83.06
245.399	75.06
245.633	74.06
245.866	87.06
246.099	79.06
246.333	78.06
246.566	68.06
246.8	67.06
247.033	78.06
247.266	82.06
247.5	75.06
247.733	76.06
247.966	98.06
248.2	78.06
248.433	87.06
248.666	81.06
248.899	76.06
249.133	87.06
249.366	83.06
249.599	76.06
249.832	68.06
250.066	77.06
250.299	77.06
250.532	77.06
250.765	72.06
250.998	75.06
251.231	77.06
251.465	75.06
251.698	91.06
251.931	83.06
252.164	78.06
252.397	69.06
252.63	86.06
252.863	84.06
253.096	91.06
253.329	77.06
253.562	69.06
253.795	87.06
254.028	84.06
254.261	93.06
254.494	78.06
254.727	79.06
254.96	71.06
255.193	68.06
255.426	77.06
255.659	82.06
255.892	95.06
256.124	87.06
256.357	92.06
256.59	80.06
256.823	86.06
257.056	89.06
257.289	83.06
257.521	61.06
257.754	83.06
257.987	79.06
258.22	74.06
258.452	86.06
258.685	74.06
258.918	73.06
259.151	75.06
259.383	75.06
259.616	78.06
259.849	94.06
260.081	84.06
260.314	80.06
260.547	82.06
260.779	90.06
261.012	94.06
261.244	74.06
261.477	88.06
261.71	67.06
261.942	81.06
262.175	80.06
262.407	79.06
262.64	75.06
262.872	87.06
263.105	87.06
263.337	80.06
263.57	84.06
263.802	64.06
264.035	76.06
264.267	66.06
264.499	82.06
264.732	88.06
264.964	95.06
265.197	94.06
265.429	90.06
265.661	91.06
265.894	74.06
266.126	93.06
266.358	82.06
266.591	87.06
266.823	84.06
267.055	91.06
267.287	81.06
267.52	73.06
267.752	86.06
267.984	90.06
268.216	92.06
268.448	72.06
268.681	71.06
268.913	79.06
269.145	90.06
269.377	85.06
269.609	77.06
269.841	85.06
270.073	80.06
270.306	82.06
270.538	76.06
270.77	78.06
271.002	79.06
271.234	78.06
271.466	93.06
271.698	90.06
271.93	81.06
272.162	80.06
272.394	73.06
272.626	85.06
272.858	80.06
273.09	81.06
273.322	88.06
273.553	68.06
273.785	88.06
274.017	85.06
274.249	91.06
274.481	78.06
274.713	77.06
274.945	94.06
275.176	73.06
275.408	74.06
275.64	78.06
275.872	78.06
276.104	83.06
276.335	88.06
276.567	93.06
276.799	78.06
277.031	91.06
277.262	78.06
277.494	90.06
277.726	93.06
277.957	88.06
278.189	78.06
278.421	83.06
278.652	88.06
278.884	80.06
279.115	79.06
279.347	76.06
279.579	78.06
279.81	81.06
280.042	86.06
280.273	84.06
280.505	91.06
280.736	94.06
280.968	79.06
281.199	80.06
281.431	87.06
281.662	79.06
281.894	91.06
282.125	80.06
282.356	79.06
282.588	103.06
282.819	86.06
283.051	78.06
283.282	91.06
283.513	85.06
283.745	81.06
283.976	79.06
284.207	75.06
284.439	92.06
284.67	99.06
284.901	92.06
285.132	76.06
285.364	85.06
285.595	94.06
285.826	83.06
286.057	90.06
286.288	63.06
286.52	91.06
286.751	80.06
286.982	90.06
287.213	83.06
287.444	88.06
287.675	84.06
287.906	76.06
288.138	102.06
288.369	88.06
288.6	94.06
288.831	74.06
289.062	80.06
289.293	81.06
289.524	78.06
289.755	71.06
289.986	94.06
290.217	83.06
290.448	90.06
290.679	90.06
290.91	87.06
291.141	79.06
291.371	106.06
291.602	65.06
291.833	89.06
292.064	77.06
292.295	98.06
292.526	83.06
292.757	80.06
292.987	79.06
293.218	82.06
293.449	88.06
293.68	85.06
293.91	70.06
294.141	80.06
294.372	85.06
294.603	82.06
294.833	78.06
295.064	88.06
295.295	80.06
295.525	81.06
295.756	90.06
295.987	91.06
296.217	95.06
296.448	77.06
296.679	75.06
296.909	92.06
297.14	96.06
297.37	86.06
297.601	78.06
297.831	82.06
298.062	84.06
298.292	80.06
298.523	78.06
298.753	74.06
298.984	102.06
299.214	98.06
299.445	88.06
299.675	79.06
299.905	82.06
300.136	86.06
300.366	77.06
300.597	96.06
300.827	88.06
301.057	74.06
301.288	79.06
301.518	84.06
301.748	83.06
301.979	102.06
302.209	88.06
302.439	77.06
302.669	81.06
302.9	83.06
303.13	87.06
303.36	90.06
303.59	82.06
303.82	90.06
304.051	69.06
304.281	93.06
304.511	93.06
304.741	84.06
304.971	95.06
305.201	90.06
305.431	88.06
305.661	86.06
305.891	81.06
306.121	83.06
306.352	87.06
306.582	93.06
306.812	93.06
307.042	80.06
307.272	90.06
307.502	88.06
307.731	66.06
307.961	94.06
308.191	78.06
308.421	90.06
308.651	95.06
308.881	98.06
309.111	81.06
309.341	76.06
309.571	84.06
309.8	94.06
310.03	94.06
310.26	73.06
310.49	70.06
310.72	75.06
310.949	89.06
311.179	104.06
311.409	98.06
311.639	94.06
311.868	88.06
312.098	90.06
312.328	88.06
312.557	74.06
312.787	84.06
313.017	83.06
313.246	85.06
313.476	82.06
313.706	84.06
313.935	80.06
314.165	89.06
314.394	80.06
314.624	86.06
314.853	71.06
315.083	87.06
315.312	92.06
315.542	74.06
315.771	78.06
316.001	92.06
316.23	86.06
316.46	91.06
316.689	84.06
316.919	91.06
317.148	77.06
317.377	87.06
317.607	82.06
317.836	87.06
318.065	92.06
318.295	82.06
318.524	75.06
318.753	92.06
318.983	75.06
319.212	81.06
319.441	83.06
319.67	75.06
319.9	78.06
320.129	81.06
320.358	89.06
320.587	90.06
320.816	77.06
321.046	79.06
321.275	78.06
321.504	95.06
321.733	83.06
321.962	91.06
322.191	99.06
322.42	83.06
322.649	96.06
322.878	86.06
323.108	90.06
323.337	97.06
323.566	81.06
323.795	89.06
324.024	84.06
324.253	80.06
324.482	82.06
324.71	89.06
324.939	87.06
325.168	78.06
325.397	88.06
325.626	87.06
325.855	86.06
326.084	94.06
326.313	94.06
326.542	87.06
326.77	84.06
326.999	95.06
327.228	84.06
327.457	81.06
327.686	83.06
327.914	85.06
328.143	95.06
328.372	80.06
328.6	73.06
328.829	91.06
329.058	85.06
329.287	89.06
329.515	82.06
329.744	81.06
329.972	80.06
330.201	99.06
330.43	86.06
330.658	90.06
330.887	88.06
331.115	94.06
331.344	75.06
331.572	91.06
331.801	79.06
332.03	73.06
332.258	80.06
332.486	86.06
332.715	79.06
332.943	77.06
333.172	83.06
333.4	77.06
333.629	81.06
333.857	69.06
334.085	75.06
334.314	72.06
334.542	90.06
334.771	79.06
334.999	83.06
335.227	75.06
335.455	92.06
335.684	81.06
335.912	79.06
336.14	85.06
336.369	76.06
336.597	81.06
336.825	88.06
337.053	91.06
337.281	76.06
337.51	81.06
337.738	99.06
337.966	68.06
338.194	84.06
338.422	73.06
338.65	81.06
338.878	77.06
339.106	89.06
339.334	91.06
339.562	85.06
339.79	78.06
340.018	77.06
340.246	95.06
340.474	82.06
340.702	89.06
340.93	86.06
341.158	73.06
341.386	86.06
341.614	94.06
341.842	94.06
342.07	74.06
342.298	82.06
342.526	86.06
342.754	93.06
342.981	78.06
343.209	90.06
343.437	100.06
343.665	85.06
343.893	79.06
344.12	83.06
344.348	89.06
344.576	83.06
344.804	75.06
345.031	89.06
345.259	89.06
345.487	73.06
345.714	89.06
345.942	90.06
346.17	87.06
346.397	78.06
346.625	78.06
346.853	89.06
347.08	83.06
347.308	92.06
347.535	99.06
347.763	94.06
347.99	84.06
348.218	83.06
348.445	92.06
348.673	84.06
348.9	83.06
349.128	75.06
349.355	82.06
349.583	73.06
349.81	74.06
350.037	82.06
350.265	82.06
350.492	79.06
350.72	75.06
350.947	81.06
351.174	93.06
351.402	92.06
351.629	80.06
351.856	82.06
352.083	78.06
352.311	73.06
352.538	87.06
352.765	94.06
352.992	95.06
353.22	84.06
353.447	84.06
353.674	80.06
353.901	114.06
354.128	77.06
354.355	86.06
354.583	80.06
354.81	89.06
355.037	92.06
355.264	100.06
355.491	81.06
355.718	75.06
355.945	79.06
356.172	75.06
356.399	86.06
356.626	80.06
356.853	84.06
357.08	84.06
357.307	81.06
357.534	80.06
357.761	79.06
357.988	91.06
358.215	79.06
358.441	82.06
358.668	77.06
358.895	97.06
359.122	81.06
359.349	102.06
359.576	82.06
359.802	86.06
360.029	88.06
360.256	67.06
360.483	92.06
360.709	97.06
360.936	91.06
361.163	88.06
361.39	82.06
361.616	76.06
361.843	77.06
362.07	87.06
362.296	81.06
362.523	95.06
362.749	94.06
362.976	77.06
363.203	94.06
363.429	80.06
363.656	92.06
363.882	96.06
364.109	94.06
364.335	77.06
364.562	80.06
364.788	81.06
365.015	90.06
365.241	90.06
365.468	73.06
365.694	89.06
365.92	90.06
366.147	79.06
366.373	82.06
366.599	80.06
366.826	86.06
367.052	96.06
367.278	92.06
367.505	96.06
367.731	84.06
367.957	94.06
368.184	81.06
368.41	78.06
368.636	73.06
368.862	76.06
369.089	81.06
369.315	79.06
369.541	72.06
369.767	81.06
369.993	85.06
370.219	89.06
370.445	85.06
370.672	83.06
370.898	88.06
371.124	85.06
371.35	83.06
371.576	91.06
371.802	75.06
372.028	64.06
372.254	92.06
372.48	74.06
372.706	85.06
372.932	82.06
373.158	91.06
373.384	77.06
373.61	81.06
373.835	80.06
374.061	83.06
374.287	77.06
374.513	75.06
374.739	76.06
374.965	91.06
375.191	92.06
375.416	91.06
375.642	105.06
375.868	78.06
376.094	90.06
376.319	95.06
376.545	87.06
376.771	79.06
376.997	85.06
377.222	80.06
377.448	62.06
377.674	90.06
377.899	85.06
378.125	87.06
378.35	98.06
378.576	79.06
378.802	95.06
379.027	92.06
379.253	102.06
379.478	79.06
379.704	90.06
379.929	80.06
380.155	79.06
380.38	83.06
380.606	88.06
380.831	89.06
381.057	91.06
381.282	75.06
381.507	82.06
381.733	101.06
381.958	99.06
382.184	74.06
382.409	72.06
382.634	74.06
382.86	66.06
383.085	98.06
383.31	91.06
383.535	91.06
383.761	76.06
383.986	81.06
384.211	69.06
384.436	73.06
384.662	79.06
384.887	80.06
385.112	90.06
385.337	79.06
385.562	85.06
385.787	84.06
386.013	82.06
386.238	78.06
386.463	77.06
386.688	103.06
386.913	83.06
387.138	81.06
387.363	86.06
387.588	91.06
387.813	98.06
388.038	88.06
388.263	74.06
388.488	92.06
388.713	66.06
388.938	84.06
389.163	87.06
389.387	73.06
389.612	75.06
389.837	69.06
390.062	80.06
390.287	95.06
390.512	88.06
390.736	91.06
390.961	75.06
391.186	89.06
391.411	80.06
391.636	79.06
391.86	91.06
392.085	84.06
392.31	82.06
392.534	76.06
392.759	89.06
392.984	97.06
393.208	93.06
393.433	87.06
393.658	73.06
393.882	82.06
394.107	99.06
394.331	84.06
394.556	86.06
394.78	87.06
395.005	85.06
395.229	64.06
395.454	92.06
395.678	92.06
395.903	95.06
396.127	87.06
396.352	80.06
396.576	75.06
396.801	93.06
397.025	84.06
397.249	90.06
397.474	74.06
397.698	82.06
397.922	88.06
398.147	90.06
398.371	85.06
398.595	94.06
398.82	87.06
399.044	66.06
399.268	82.06
399.492	76.06
399.717	86.06
399.941	76.06
400.165	97.06
400.389	78.06
400.613	81.06
400.837	59.06
401.062	86.06
401.286	98.06
401.51	96.06
401.734	92.06
401.958	83.06
402.182	68.06
402.406	82.06
402.63	77.06
402.854	91.06
403.078	83.06
403.302	88.06
403.526	70.06
403.75	87.06
403.974	73.06
404.198	71.06
404.422	83.06
404.645	89.06
404.869	101.06
405.093	90.06
405.317	76.06
405.541	94.06
405.765	92.06
405.988	88.06
406.212	74.06
406.436	80.06
406.66	76.06
406.883	73.06
407.107	78.06
407.331	82.06
407.555	67.06
407.778	77.06
408.002	92.06
408.226	82.06
408.449	81.06
408.673	74.06
408.896	66.06
409.12	83.06
409.344	82.06
409.567	81.06
409.791	82.06
410.014	93.06
410.238	80.06
410.461	83.06
410.685	61.06
410.908	68.06
411.132	78.06
411.355	90.06
411.578	88.06
411.802	75.06
412.025	74.06
412.249	79.06
412.472	74.06
412.695	91.06
412.919	87.06
413.142	87.06
413.365	85.06
413.589	89.06
413.812	63.06
414.035	67.06
414.258	81.06
414.482	77.06
414.705	68.06
414.928	87.06
415.151	96.06
415.374	68.06
415.597	90.06
415.821	77.06
416.044	76.06
416.267	82.06
416.49	86.06
416.713	83.06
416.936	92.06
417.159	81.06
417.382	75.06
417.605	80.06
417.828	88.06
418.051	80.06
418.274	97.06
418.497	86.06
418.72	76.06
418.943	84.06
419.166	77.06
419.389	59.06
419.611	89.06
419.834	84.06
420.057	80.06
420.28	80.06
420.503	83.06
420.726	92.06
420.948	91.06
421.171	91.06
421.394	88.06
421.617	85.06
421.839	93.06
422.062	84.06
422.285	88.06
422.507	93.06
422.73	107.06
422.953	102.06
423.175	91.06
423.398	79.06
423.621	82.06
423.843	67.06
424.066	76.06
424.288	75.06
424.511	85.06
424.733	86.06
424.956	83.06
425.178	82.06
425.401	78.06
425.623	82.06
425.846	76.06
426.068	86.06
426.291	90.06
426.513	75.06
426.735	76.06
426.958	90.06
427.18	79.06
427.402	90.06
427.625	81.06
427.847	73.06
428.069	90.06
428.292	86.06
428.514	84.06
428.736	83.06
428.958	103.06
429.181	80.06
429.403	72.06
429.625	80.06
429.847	95.06
430.069	79.06
430.292	87.06
430.514	80.06
430.736	97.06
430.958	87.06
431.18	90.06
431.402	84.06
431.624	81.06
431.846	88.06
432.068	105.06
432.29	75.06
432.512	91.06
432.734	88.06
432.956	88.06
433.178	89.06
433.4	82.06
433.622	75.06
433.844	87.06
434.066	77.06
434.287	73.06
434.509	91.06
434.731	76.06
434.953	75.06
435.175	78.06
435.397	80.06
435.618	76.06
435.84	85.06
436.062	88.06
436.284	76.06
436.505	87.06
436.727	88.06
436.949	83.06
437.17	89.06
437.392	85.06
437.614	88.06
437.835	93.06
438.057	70.06
438.278	73.06
438.5	78.06
438.721	74.06
438.943	98.06
439.165	80.06
439.386	80.06
439.608	84.06
439.829	74.06
440.05	74.06
440.272	68.06
440.493	82.06
440.715	84.06
440.936	67.06
441.158	86.06
441.379	79.06
441.6	70.06
441.822	78.06
442.043	75.06
442.264	84.06
442.486	81.06
442.707	90.06
442.928	86.06
443.149	85.06
443.371	105.06
443.592	85.06
443.813	90.06
444.034	83.06
444.255	85.06
444.476	96.06
444.698	77.06
444.919	83.06
445.14	152.06
445.361	124.06
445.582	109.06
445.803	96.06
446.024	98.06
446.245	88.06
446.466	97.06
446.687	94.06
446.908	87.06
447.129	83.06
447.35	79.06
447.571	85.06
447.792	78.06
448.013	87.06
448.234	85.06
448.455	84.06
448.675	87.06
448.896	77.06
449.117	90.06
449.338	72.06
449.559	79.06
449.779	81.06
450	86.06
450.221	73.06
450.442	95.06
450.662	73.06
450.883	74.06
451.104	86.06
451.324	84.06
451.545	96.06
451.766	82.06
451.986	93.06
452.207	73.06
452.428	74.06
452.648	106.06
452.869	88.06
453.089	78.06
453.31	79.06
453.53	97.06
453.751	80.06
453.971	74.06
454.192	81.06
454.412	83.06
454.633	93.06
454.853	93.06
455.073	94.06
455.294	78.06
455.514	96.06
455.734	81.06
455.955	96.06
456.175	90.06
456.395	72.06
456.616	75.06
456.836	77.06
457.056	90.06
457.276	83.06
457.497	77.06
457.717	90.06
457.937	90.06
458.157	89.06
458.377	88.06
458.598	78.06
458.818	95.06
459.038	80.06
459.258	89.06
459.478	86.06
459.698	79.06
459.918	73.06
460.138	92.06
460.358	87.06
460.578	81.06
460.798	94.06
461.018	72.06
461.238	81.06
461.458	83.06
461.678	87.06
461.898	90.06
462.118	79.06
462.338	89.06
462.558	76.06
462.777	96.06
462.997	66.06
463.217	82.06
463.437	82.06
463.657	71.06
463.876	93.06
464.096	82.06
464.316	74.06
464.536	80.06
464.755	77.06
464.975	83.06
465.195	78.06
465.414	83.06
465.634	102.06
465.854	86.06
466.073	90.06
466.293	74.06
466.512	81.06
466.732	95.06
466.951	82.06
467.171	83.06
467.391	75.06
467.61	86.06
467.829	78.06
468.049	74.06
468.268	89.06
468.488	80.06
468.707	93.06
468.927	75.06
469.146	93.06
469.365	89.06
469.585	85.06
469.804	98.06
470.023	76.06
470.243	87.06
470.462	106.06
470.681	74.06
470.901	75.06
471.12	78.06
471.339	95.06
471.558	82.06
471.777	77.06
471.997	75.06
472.216	89.06
472.435	94.06
472.654	75.06
472.873	74.06
473.092	84.06
473.311	87.06
473.53	76.06
473.749	86.06
473.968	90.06
474.187	91.06
474.406	83.06
474.625	98.06
474.844	74.06
475.063	88.06
475.282	79.06
475.501	86.06
475.72	88.06
475.939	78.06
476.158	86.06
476.377	83.06
476.596	72.06
476.814	93.06
477.033	91.06
477.252	87.06
477.471	89.06
477.69	77.06
477.908	88.06
478.127	92.06
478.346	79.06
478.564	84.06
478.783	95.06
479.002	83.06
479.22	89.06
479.439	102.06
479.658	85.06
479.876	99.06
480.095	87.06
480.313	75.06
480.532	83.06
480.751	92.06
480.969	85.06
481.188	89.06
481.406	93.06
481.624	80.06
481.843	86.06
482.061	94.06
482.28	83.06
482.498	84.06
482.717	97.06
482.935	83.06
483.153	96.06
483.372	96.06
483.59	87.06
483.808	90.06
484.027	90.06
484.245	101.06
484.463	84.06
484.681	88.06
484.9	93.06
485.118	90.06
485.336	88.06
485.554	87.06
485.772	89.06
485.99	80.06
486.209	79.06
486.427	71.06
486.645	75.06
486.863	80.06
487.081	78.06
487.299	90.06
487.517	67.06
487.735	95.06
487.953	92.06
488.171	82.06
488.389	102.06
488.607	100.06
488.825	98.06
489.043	84.06
489.261	91.06
489.479	85.06
489.696	87.06
489.914	85.06
490.132	75.06
490.35	86.06
490.568	77.06
490.786	79.06
491.003	84.06
491.221	82.06
491.439	86.06
491.657	78.06
491.874	76.06
492.092	83.06
492.31	83.06
492.527	79.06
492.745	103.06
492.963	100.06
493.18	83.06
493.398	91.06
493.615	83.06
493.833	74.06
494.05	77.06
494.268	84.06
494.485	90.06
494.703	94.06
494.92	99.06
495.138	76.06
495.355	80.06
495.573	79.06
495.79	72.06
496.008	97.06
496.225	95.06
496.442	92.06
496.66	102.06
496.877	94.06
497.094	76.06
497.312	82.06
497.529	89.06
497.746	93.06
497.963	101.06
498.181	94.06
498.398	86.06
498.615	83.06
498.832	94.06
499.049	99.06
499.267	89.06
499.484	81.06
499.701	96.06
499.918	90.06
500.135	89.06
500.352	92.06
500.569	86.06
500.786	83.06
501.003	75.06
501.22	77.06
501.437	98.06
501.654	97.06
501.871	93.06
502.088	83.06
502.305	81.06
502.522	89.06
502.739	88.06
502.956	98.06
503.172	90.06
503.389	85.06
503.606	89.06
503.823	89.06
504.04	86.06
504.256	89.06
504.473	88.06
504.69	79.06
504.907	97.06
505.123	67.06
505.34	78.06
505.557	90.06
505.773	89.06
505.99	83.06
506.207	93.06
506.423	95.06
506.64	82.06
506.856	76.06
507.073	86.06
507.289	89.06
507.506	101.06
507.722	95.06
507.939	90.06
508.155	86.06
508.372	74.06
508.588	86.06
508.805	83.06
509.021	93.06
509.238	83.06
509.454	80.06
509.67	67.06
509.887	94.06
510.103	68.06
510.319	80.06
510.536	83.06
510.752	77.06
510.968	101.06
511.184	79.06
511.401	84.06
511.617	84.06
511.833	74.06
512.049	67.06
512.265	93.06
512.481	83.06
512.698	86.06
512.914	97.06
513.13	89.06
513.346	90.06
513.562	108.06
513.778	82.06
513.994	82.06
514.21	89.06
514.426	86.06
514.642	88.06
514.858	95.06
515.074	81.06
515.29	94.06
515.506	78.06
515.721	91.06
515.937	82.06
516.153	75.06
516.369	88.06
516.585	88.06
516.801	78.06
517.016	83.06
517.232	88.06
517.448	81.06
517.664	83.06
517.879	77.06
518.095	89.06
518.311	76.06
518.527	88.06
518.742	96.06
518.958	87.06
519.173	73.06
519.389	82.06
519.605	89.06
519.82	71.06
