Data from Dirtnoheat1_HRD10591_00002.txt Node
Date: Fri Dec 27 15:18:20 EST 2024
User: Yrep
Spectrometer: HR+D1059
Trigger mode: 1
Integration Time (sec): 1.000000E-1
Scans to average: 1
Electric dark correction enabled: true
Nonlinearity correction enabled: false
Boxcar width: 0
XAxis mode: Wavelengths
Number of Pixels in Spectrum: 2048
>>>>>Begin Spectral Data<<<<<
223.165	-3.56
223.4	-3.56
223.635	-3.56
223.869	-20.56
224.104	-9.56
224.338	-25.56
224.573	-15.56
224.808	-11.56
225.042	-5.56
225.277	-2.56
225.511	0.44
225.746	-0.56
225.98	9.44
226.215	2.44
226.449	24.44
226.683	16.44
226.918	24.44
227.152	17.44
227.387	34.44
227.621	36.44
227.856	42.44
228.09	47.44
228.324	48.44
228.559	56.44
228.793	55.44
229.027	70.44
229.262	69.44
229.496	67.44
229.73	62.44
229.964	71.44
230.199	72.44
230.433	70.44
230.667	89.44
230.901	81.44
231.136	73.44
231.37	100.44
231.604	91.44
231.838	77.44
232.072	61.44
232.306	78.44
232.541	78.44
232.775	84.44
233.009	83.44
233.243	70.44
233.477	80.44
233.711	93.44
233.945	69.44
234.179	91.44
234.413	80.44
234.647	73.44
234.881	84.44
235.115	80.44
235.349	74.44
235.583	80.44
235.817	73.44
236.051	77.44
236.285	71.44
236.519	75.44
236.753	85.44
236.987	77.44
237.221	81.44
237.455	78.44
237.689	88.44
237.922	78.44
238.156	86.44
238.39	74.44
238.624	72.44
238.858	68.44
239.091	80.44
239.325	71.44
239.559	76.44
239.793	65.44
240.027	76.44
240.26	84.44
240.494	79.44
240.728	68.44
240.961	73.44
241.195	78.44
241.429	77.44
241.662	77.44
241.896	74.44
242.13	69.44
242.363	66.44
242.597	79.44
242.83	82.44
243.064	71.44
243.298	91.44
243.531	73.44
243.765	77.44
243.998	72.44
244.232	51.44
244.465	69.44
244.699	76.44
244.932	78.44
245.166	73.44
245.399	78.44
245.633	76.44
245.866	85.44
246.099	71.44
246.333	68.44
246.566	82.44
246.8	77.44
247.033	82.44
247.266	71.44
247.5	79.44
247.733	74.44
247.966	91.44
248.2	83.44
248.433	75.44
248.666	67.44
248.899	74.44
249.133	94.44
249.366	76.44
249.599	75.44
249.832	78.44
250.066	92.44
250.299	87.44
250.532	83.44
250.765	73.44
250.998	62.44
251.231	64.44
251.465	76.44
251.698	79.44
251.931	75.44
252.164	73.44
252.397	73.44
252.63	95.44
252.863	72.44
253.096	76.44
253.329	78.44
253.562	75.44
253.795	75.44
254.028	80.44
254.261	59.44
254.494	75.44
254.727	88.44
254.96	77.44
255.193	83.44
255.426	73.44
255.659	77.44
255.892	83.44
256.124	79.44
256.357	72.44
256.59	88.44
256.823	59.44
257.056	84.44
257.289	95.44
257.521	88.44
257.754	68.44
257.987	69.44
258.22	86.44
258.452	74.44
258.685	70.44
258.918	81.44
259.151	82.44
259.383	79.44
259.616	89.44
259.849	90.44
260.081	82.44
260.314	66.44
260.547	80.44
260.779	74.44
261.012	75.44
261.244	78.44
261.477	100.44
261.71	74.44
261.942	74.44
262.175	67.44
262.407	82.44
262.64	88.44
262.872	76.44
263.105	83.44
263.337	92.44
263.57	88.44
263.802	87.44
264.035	82.44
264.267	80.44
264.499	58.44
264.732	83.44
264.964	76.44
265.197	76.44
265.429	82.44
265.661	69.44
265.894	80.44
266.126	98.44
266.358	93.44
266.591	82.44
266.823	102.44
267.055	90.44
267.287	82.44
267.52	86.44
267.752	73.44
267.984	82.44
268.216	85.44
268.448	99.44
268.681	91.44
268.913	82.44
269.145	83.44
269.377	88.44
269.609	80.44
269.841	82.44
270.073	90.44
270.306	76.44
270.538	71.44
270.77	66.44
271.002	78.44
271.234	76.44
271.466	83.44
271.698	97.44
271.93	91.44
272.162	82.44
272.394	84.44
272.626	78.44
272.858	75.44
273.09	82.44
273.322	82.44
273.553	94.44
273.785	78.44
274.017	75.44
274.249	80.44
274.481	85.44
274.713	71.44
274.945	78.44
275.176	94.44
275.408	75.44
275.64	88.44
275.872	84.44
276.104	91.44
276.335	77.44
276.567	81.44
276.799	84.44
277.031	72.44
277.262	89.44
277.494	75.44
277.726	81.44
277.957	80.44
278.189	90.44
278.421	82.44
278.652	77.44
278.884	94.44
279.115	88.44
279.347	90.44
279.579	79.44
279.81	77.44
280.042	85.44
280.273	85.44
280.505	90.44
280.736	80.44
280.968	80.44
281.199	90.44
281.431	82.44
281.662	82.44
281.894	67.44
282.125	76.44
282.356	77.44
282.588	94.44
282.819	99.44
283.051	74.44
283.282	72.44
283.513	84.44
283.745	100.44
283.976	83.44
284.207	75.44
284.439	77.44
284.67	83.44
284.901	86.44
285.132	91.44
285.364	74.44
285.595	90.44
285.826	77.44
286.057	92.44
286.288	97.44
286.52	94.44
286.751	91.44
286.982	82.44
287.213	83.44
287.444	88.44
287.675	74.44
287.906	84.44
288.138	85.44
288.369	92.44
288.6	76.44
288.831	82.44
289.062	91.44
289.293	93.44
289.524	76.44
289.755	75.44
289.986	76.44
290.217	80.44
290.448	87.44
290.679	87.44
290.91	102.44
291.141	80.44
291.371	83.44
291.602	81.44
291.833	76.44
292.064	85.44
292.295	80.44
292.526	78.44
292.757	71.44
292.987	90.44
293.218	80.44
293.449	81.44
293.68	88.44
293.91	75.44
294.141	85.44
294.372	73.44
294.603	76.44
294.833	84.44
295.064	88.44
295.295	81.44
295.525	97.44
295.756	92.44
295.987	75.44
296.217	76.44
296.448	82.44
296.679	74.44
296.909	90.44
297.14	85.44
297.37	76.44
297.601	80.44
297.831	76.44
298.062	103.44
298.292	80.44
298.523	90.44
298.753	74.44
298.984	83.44
299.214	85.44
299.445	85.44
299.675	92.44
299.905	95.44
300.136	88.44
300.366	88.44
300.597	82.44
300.827	81.44
301.057	82.44
301.288	77.44
301.518	74.44
301.748	82.44
301.979	98.44
302.209	90.44
302.439	84.44
302.669	83.44
302.9	81.44
303.13	90.44
303.36	71.44
303.59	89.44
303.82	90.44
304.051	79.44
304.281	88.44
304.511	100.44
304.741	89.44
304.971	89.44
305.201	84.44
305.431	84.44
305.661	73.44
305.891	75.44
306.121	90.44
306.352	83.44
306.582	86.44
306.812	79.44
307.042	72.44
307.272	87.44
307.502	78.44
307.731	75.44
307.961	89.44
308.191	71.44
308.421	84.44
308.651	82.44
308.881	96.44
309.111	78.44
309.341	83.44
309.571	72.44
309.8	85.44
310.03	91.44
310.26	90.44
310.49	79.44
310.72	96.44
310.949	88.44
311.179	84.44
311.409	92.44
311.639	95.44
311.868	84.44
312.098	81.44
312.328	76.44
312.557	95.44
312.787	80.44
313.017	88.44
313.246	92.44
313.476	93.44
313.706	77.44
313.935	90.44
314.165	77.44
314.394	100.44
314.624	86.44
314.853	72.44
315.083	92.44
315.312	84.44
315.542	94.44
315.771	86.44
316.001	94.44
316.23	80.44
316.46	84.44
316.689	78.44
316.919	89.44
317.148	86.44
317.377	86.44
317.607	100.44
317.836	100.44
318.065	93.44
318.295	97.44
318.524	82.44
318.753	77.44
318.983	82.44
319.212	89.44
319.441	83.44
319.67	87.44
319.9	95.44
320.129	91.44
320.358	85.44
320.587	91.44
320.816	98.44
321.046	96.44
321.275	97.44
321.504	92.44
321.733	90.44
321.962	104.44
322.191	67.44
322.42	87.44
322.649	76.44
322.878	99.44
323.108	83.44
323.337	81.44
323.566	83.44
323.795	87.44
324.024	83.44
324.253	87.44
324.482	83.44
324.71	86.44
324.939	80.44
325.168	81.44
325.397	89.44
325.626	83.44
325.855	81.44
326.084	86.44
326.313	88.44
326.542	88.44
326.77	92.44
326.999	91.44
327.228	67.44
327.457	89.44
327.686	90.44
327.914	92.44
328.143	93.44
328.372	82.44
328.6	82.44
328.829	80.44
329.058	92.44
329.287	80.44
329.515	87.44
329.744	91.44
329.972	85.44
330.201	91.44
330.43	75.44
330.658	86.44
330.887	84.44
331.115	93.44
331.344	86.44
331.572	81.44
331.801	91.44
332.03	93.44
332.258	90.44
332.486	83.44
332.715	89.44
332.943	88.44
333.172	91.44
333.4	97.44
333.629	86.44
333.857	88.44
334.085	81.44
334.314	78.44
334.542	86.44
334.771	80.44
334.999	85.44
335.227	83.44
335.455	80.44
335.684	102.44
335.912	90.44
336.14	78.44
336.369	90.44
336.597	93.44
336.825	89.44
337.053	96.44
337.281	102.44
337.51	84.44
337.738	93.44
337.966	98.44
338.194	75.44
338.422	68.44
338.65	88.44
338.878	94.44
339.106	96.44
339.334	82.44
339.562	94.44
339.79	92.44
340.018	90.44
340.246	73.44
340.474	86.44
340.702	79.44
340.93	80.44
341.158	88.44
341.386	78.44
341.614	77.44
341.842	104.44
342.07	76.44
342.298	78.44
342.526	76.44
342.754	90.44
342.981	88.44
343.209	72.44
343.437	88.44
343.665	76.44
343.893	89.44
344.12	91.44
344.348	94.44
344.576	84.44
344.804	71.44
345.031	86.44
345.259	95.44
345.487	82.44
345.714	82.44
345.942	107.44
346.17	86.44
346.397	88.44
346.625	91.44
346.853	67.44
347.08	92.44
347.308	90.44
347.535	84.44
347.763	87.44
347.99	88.44
348.218	65.44
348.445	82.44
348.673	83.44
348.9	84.44
349.128	87.44
349.355	81.44
349.583	77.44
349.81	82.44
350.037	86.44
350.265	86.44
350.492	85.44
350.72	72.44
350.947	91.44
351.174	76.44
351.402	82.44
351.629	94.44
351.856	91.44
352.083	87.44
352.311	82.44
352.538	85.44
352.765	80.44
352.992	82.44
353.22	86.44
353.447	83.44
353.674	90.44
353.901	86.44
354.128	82.44
354.355	90.44
354.583	73.44
354.81	77.44
355.037	96.44
355.264	78.44
355.491	94.44
355.718	85.44
355.945	83.44
356.172	87.44
356.399	87.44
356.626	86.44
356.853	80.44
357.08	90.44
357.307	106.44
357.534	80.44
357.761	85.44
357.988	88.44
358.215	81.44
358.441	82.44
358.668	86.44
358.895	86.44
359.122	91.44
359.349	80.44
359.576	89.44
359.802	88.44
360.029	86.44
360.256	92.44
360.483	79.44
360.709	88.44
360.936	82.44
361.163	90.44
361.39	85.44
361.616	74.44
361.843	79.44
362.07	81.44
362.296	90.44
362.523	89.44
362.749	86.44
362.976	84.44
363.203	101.44
363.429	75.44
363.656	99.44
363.882	92.44
364.109	86.44
364.335	89.44
364.562	90.44
364.788	102.44
365.015	93.44
365.241	97.44
365.468	96.44
365.694	76.44
365.92	80.44
366.147	67.44
366.373	72.44
366.599	80.44
366.826	83.44
367.052	83.44
367.278	89.44
367.505	91.44
367.731	100.44
367.957	90.44
368.184	92.44
368.41	94.44
368.636	82.44
368.862	82.44
369.089	82.44
369.315	84.44
369.541	91.44
369.767	80.44
369.993	80.44
370.219	86.44
370.445	87.44
370.672	89.44
370.898	81.44
371.124	74.44
371.35	75.44
371.576	84.44
371.802	70.44
372.028	77.44
372.254	70.44
372.48	82.44
372.706	59.44
372.932	74.44
373.158	90.44
373.384	92.44
373.61	78.44
373.835	76.44
374.061	87.44
374.287	94.44
374.513	104.44
374.739	72.44
374.965	94.44
375.191	98.44
375.416	83.44
375.642	80.44
375.868	96.44
376.094	93.44
376.319	92.44
376.545	84.44
376.771	91.44
376.997	85.44
377.222	84.44
377.448	84.44
377.674	97.44
377.899	82.44
378.125	88.44
378.35	85.44
378.576	95.44
378.802	85.44
379.027	79.44
379.253	79.44
379.478	87.44
379.704	91.44
379.929	79.44
380.155	75.44
380.38	87.44
380.606	91.44
380.831	88.44
381.057	86.44
381.282	97.44
381.507	94.44
381.733	76.44
381.958	86.44
382.184	84.44
382.409	88.44
382.634	74.44
382.86	78.44
383.085	87.44
383.31	89.44
383.535	99.44
383.761	76.44
383.986	78.44
384.211	84.44
384.436	85.44
384.662	71.44
384.887	89.44
385.112	89.44
385.337	75.44
385.562	79.44
385.787	90.44
386.013	74.44
386.238	87.44
386.463	82.44
386.688	99.44
386.913	83.44
387.138	76.44
387.363	85.44
387.588	93.44
387.813	82.44
388.038	85.44
388.263	87.44
388.488	81.44
388.713	69.44
388.938	77.44
389.163	75.44
389.387	79.44
389.612	78.44
389.837	78.44
390.062	76.44
390.287	81.44
390.512	76.44
390.736	87.44
390.961	91.44
391.186	72.44
391.411	97.44
391.636	94.44
391.86	74.44
392.085	88.44
392.31	65.44
392.534	96.44
392.759	81.44
392.984	81.44
393.208	76.44
393.433	83.44
393.658	85.44
393.882	89.44
394.107	83.44
394.331	88.44
394.556	74.44
394.78	96.44
395.005	75.44
395.229	72.44
395.454	90.44
395.678	86.44
395.903	83.44
396.127	70.44
396.352	75.44
396.576	91.44
396.801	75.44
397.025	79.44
397.249	89.44
397.474	95.44
397.698	83.44
397.922	94.44
398.147	85.44
398.371	75.44
398.595	84.44
398.82	74.44
399.044	70.44
399.268	92.44
399.492	85.44
399.717	102.44
399.941	79.44
400.165	78.44
400.389	78.44
400.613	74.44
400.837	91.44
401.062	78.44
401.286	91.44
401.51	78.44
401.734	84.44
401.958	90.44
402.182	86.44
402.406	82.44
402.63	74.44
402.854	81.44
403.078	84.44
403.302	75.44
403.526	73.44
403.75	74.44
403.974	77.44
404.198	80.44
404.422	80.44
404.645	95.44
404.869	94.44
405.093	98.44
405.317	79.44
405.541	66.44
405.765	65.44
405.988	92.44
406.212	79.44
406.436	80.44
406.66	93.44
406.883	77.44
407.107	80.44
407.331	62.44
407.555	79.44
407.778	79.44
408.002	85.44
408.226	84.44
408.449	85.44
408.673	90.44
408.896	84.44
409.12	81.44
409.344	72.44
409.567	71.44
409.791	87.44
410.014	85.44
410.238	94.44
410.461	82.44
410.685	74.44
410.908	89.44
411.132	80.44
411.355	87.44
411.578	90.44
411.802	81.44
412.025	76.44
412.249	80.44
412.472	80.44
412.695	82.44
412.919	94.44
413.142	77.44
413.365	88.44
413.589	87.44
413.812	72.44
414.035	83.44
414.258	85.44
414.482	81.44
414.705	77.44
414.928	73.44
415.151	94.44
415.374	73.44
415.597	77.44
415.821	75.44
416.044	84.44
416.267	85.44
416.49	78.44
416.713	88.44
416.936	68.44
417.159	82.44
417.382	69.44
417.605	88.44
417.828	76.44
418.051	77.44
418.274	83.44
418.497	90.44
418.72	91.44
418.943	92.44
419.166	82.44
419.389	82.44
419.611	90.44
419.834	76.44
420.057	97.44
420.28	86.44
420.503	92.44
420.726	87.44
420.948	85.44
421.171	76.44
421.394	74.44
421.617	70.44
421.839	75.44
422.062	81.44
422.285	87.44
422.507	96.44
422.73	93.44
422.953	103.44
423.175	99.44
423.398	94.44
423.621	88.44
423.843	84.44
424.066	85.44
424.288	87.44
424.511	96.44
424.733	89.44
424.956	83.44
425.178	89.44
425.401	75.44
425.623	83.44
425.846	84.44
426.068	83.44
426.291	71.44
426.513	74.44
426.735	93.44
426.958	85.44
427.18	75.44
427.402	80.44
427.625	75.44
427.847	93.44
428.069	102.44
428.292	94.44
428.514	89.44
428.736	89.44
428.958	86.44
429.181	81.44
429.403	100.44
429.625	85.44
429.847	86.44
430.069	83.44
430.292	96.44
430.514	100.44
430.736	73.44
430.958	89.44
431.18	98.44
431.402	72.44
431.624	81.44
431.846	95.44
432.068	91.44
432.29	77.44
432.512	80.44
432.734	82.44
432.956	95.44
433.178	76.44
433.4	90.44
433.622	83.44
433.844	75.44
434.066	89.44
434.287	76.44
434.509	73.44
434.731	80.44
434.953	81.44
435.175	81.44
435.397	80.44
435.618	66.44
435.84	87.44
436.062	87.44
436.284	75.44
436.505	74.44
436.727	81.44
436.949	76.44
437.17	66.44
437.392	91.44
437.614	80.44
437.835	93.44
438.057	80.44
438.278	88.44
438.5	83.44
438.721	83.44
438.943	90.44
439.165	74.44
439.386	80.44
439.608	79.44
439.829	76.44
440.05	69.44
440.272	84.44
440.493	81.44
440.715	85.44
440.936	102.44
441.158	80.44
441.379	80.44
441.6	75.44
441.822	100.44
442.043	86.44
442.264	81.44
442.486	80.44
442.707	87.44
442.928	83.44
443.149	84.44
443.371	84.44
443.592	87.44
443.813	69.44
444.034	87.44
444.255	72.44
444.476	79.44
444.698	83.44
444.919	82.44
445.14	148.44
445.361	118.44
445.582	80.44
445.803	84.44
446.024	80.44
446.245	94.44
446.466	78.44
446.687	94.44
446.908	87.44
447.129	80.44
447.35	74.44
447.571	97.44
447.792	78.44
448.013	82.44
448.234	60.44
448.455	88.44
448.675	89.44
448.896	83.44
449.117	85.44
449.338	86.44
449.559	68.44
449.779	83.44
450	82.44
450.221	83.44
450.442	94.44
450.662	70.44
450.883	76.44
451.104	79.44
451.324	101.44
451.545	91.44
451.766	98.44
451.986	76.44
452.207	87.44
452.428	89.44
452.648	82.44
452.869	58.44
453.089	78.44
453.31	76.44
453.53	89.44
453.751	76.44
453.971	96.44
454.192	77.44
454.412	86.44
454.633	87.44
454.853	88.44
455.073	82.44
455.294	84.44
455.514	86.44
455.734	72.44
455.955	72.44
456.175	78.44
456.395	75.44
456.616	99.44
456.836	83.44
457.056	91.44
457.276	83.44
457.497	72.44
457.717	92.44
457.937	82.44
458.157	69.44
458.377	77.44
458.598	86.44
458.818	77.44
459.038	92.44
459.258	86.44
459.478	92.44
459.698	86.44
459.918	82.44
460.138	92.44
460.358	89.44
460.578	81.44
460.798	81.44
461.018	74.44
461.238	80.44
461.458	87.44
461.678	99.44
461.898	80.44
462.118	86.44
462.338	76.44
462.558	87.44
462.777	88.44
462.997	80.44
463.217	71.44
463.437	93.44
463.657	77.44
463.876	88.44
464.096	78.44
464.316	84.44
464.536	81.44
464.755	75.44
464.975	77.44
465.195	78.44
465.414	87.44
465.634	82.44
465.854	92.44
466.073	81.44
466.293	76.44
466.512	74.44
466.732	75.44
466.951	79.44
467.171	84.44
467.391	77.44
467.61	78.44
467.829	86.44
468.049	87.44
468.268	75.44
468.488	86.44
468.707	85.44
468.927	92.44
469.146	94.44
469.365	75.44
469.585	76.44
469.804	75.44
470.023	70.44
470.243	81.44
470.462	74.44
470.681	89.44
470.901	77.44
471.12	90.44
471.339	74.44
471.558	82.44
471.777	76.44
471.997	89.44
472.216	94.44
472.435	87.44
472.654	88.44
472.873	89.44
473.092	72.44
473.311	106.44
473.53	68.44
473.749	88.44
473.968	82.44
474.187	103.44
474.406	89.44
474.625	85.44
474.844	76.44
475.063	80.44
475.282	80.44
475.501	75.44
475.72	79.44
475.939	80.44
476.158	77.44
476.377	82.44
476.596	78.44
476.814	79.44
477.033	69.44
477.252	81.44
477.471	84.44
477.69	75.44
477.908	76.44
478.127	90.44
478.346	78.44
478.564	89.44
478.783	90.44
479.002	76.44
479.22	85.44
479.439	89.44
479.658	79.44
479.876	84.44
480.095	88.44
480.313	78.44
480.532	84.44
480.751	84.44
480.969	72.44
481.188	75.44
481.406	76.44
481.624	82.44
481.843	83.44
482.061	97.44
482.28	83.44
482.498	85.44
482.717	78.44
482.935	79.44
483.153	90.44
483.372	84.44
483.59	89.44
483.808	88.44
484.027	80.44
484.245	86.44
484.463	84.44
484.681	89.44
484.9	82.44
485.118	83.44
485.336	78.44
485.554	86.44
485.772	72.44
485.99	82.44
486.209	93.44
486.427	82.44
486.645	74.44
486.863	82.44
487.081	94.44
487.299	72.44
487.517	80.44
487.735	78.44
487.953	96.44
488.171	88.44
488.389	87.44
488.607	82.44
488.825	88.44
489.043	77.44
489.261	87.44
489.479	88.44
489.696	81.44
489.914	79.44
490.132	87.44
490.35	72.44
490.568	75.44
490.786	84.44
491.003	68.44
491.221	73.44
491.439	58.44
491.657	73.44
491.874	85.44
492.092	84.44
492.31	95.44
492.527	85.44
492.745	88.44
492.963	94.44
493.18	91.44
493.398	100.44
493.615	72.44
493.833	74.44
494.05	76.44
494.268	86.44
494.485	95.44
494.703	82.44
494.92	68.44
495.138	84.44
495.355	72.44
495.573	84.44
495.79	84.44
496.008	88.44
496.225	79.44
496.442	90.44
496.66	84.44
496.877	90.44
497.094	91.44
497.312	86.44
497.529	83.44
497.746	83.44
497.963	66.44
498.181	94.44
498.398	79.44
498.615	75.44
498.832	63.44
499.049	89.44
499.267	93.44
499.484	96.44
499.701	82.44
499.918	74.44
500.135	82.44
500.352	93.44
500.569	81.44
500.786	86.44
501.003	86.44
501.22	74.44
501.437	92.44
501.654	89.44
501.871	82.44
502.088	86.44
502.305	72.44
502.522	81.44
502.739	94.44
502.956	90.44
503.172	68.44
503.389	78.44
503.606	84.44
503.823	86.44
504.04	70.44
504.256	84.44
504.473	92.44
504.69	94.44
504.907	98.44
505.123	78.44
505.34	79.44
505.557	76.44
505.773	93.44
505.99	83.44
506.207	91.44
506.423	85.44
506.64	63.44
506.856	88.44
507.073	87.44
507.289	74.44
507.506	90.44
507.722	81.44
507.939	80.44
508.155	77.44
508.372	76.44
508.588	82.44
508.805	78.44
509.021	74.44
509.238	81.44
509.454	88.44
509.67	72.44
509.887	88.44
510.103	88.44
510.319	83.44
510.536	86.44
510.752	71.44
510.968	90.44
511.184	76.44
511.401	85.44
511.617	90.44
511.833	84.44
512.049	81.44
512.265	77.44
512.481	82.44
512.698	91.44
512.914	86.44
513.13	76.44
513.346	86.44
513.562	79.44
513.778	88.44
513.994	82.44
514.21	78.44
514.426	81.44
514.642	86.44
514.858	75.44
515.074	95.44
515.29	87.44
515.506	92.44
515.721	91.44
515.937	77.44
516.153	103.44
516.369	79.44
516.585	79.44
516.801	95.44
517.016	79.44
517.232	101.44
517.448	86.44
517.664	87.44
517.879	87.44
518.095	97.44
518.311	83.44
518.527	86.44
518.742	90.44
518.958	80.44
519.173	85.44
519.389	82.44
519.605	88.44
519.82	90.44
