Data from Dirtnoheat1_HRD10591_00014.txt Node
Date: Fri Dec 27 15:18:32 EST 2024
User: Yrep
Spectrometer: HR+D1059
Trigger mode: 1
Integration Time (sec): 1.000000E-1
Scans to average: 1
Electric dark correction enabled: true
Nonlinearity correction enabled: false
Boxcar width: 0
XAxis mode: Wavelengths
Number of Pixels in Spectrum: 2048
>>>>>Begin Spectral Data<<<<<
223.165	-14.31
223.4	-14.31
223.635	-14.31
223.869	-30.31
224.104	-23.31
224.338	-19.31
224.573	-30.31
224.808	-10.31
225.042	-14.31
225.277	9.69
225.511	8.69
225.746	-2.31
225.98	8.69
226.215	3.69
226.449	4.69
226.683	38.69
226.918	34.69
227.152	35.69
227.387	38.69
227.621	36.69
227.856	49.69
228.09	40.69
228.324	51.69
228.559	54.69
228.793	66.69
229.027	71.69
229.262	66.69
229.496	57.69
229.73	70.69
229.964	71.69
230.199	79.69
230.433	77.69
230.667	76.69
230.901	71.69
231.136	77.69
231.37	61.69
231.604	68.69
231.838	93.69
232.072	91.69
232.306	94.69
232.541	92.69
232.775	75.69
233.009	70.69
233.243	89.69
233.477	87.69
233.711	79.69
233.945	81.69
234.179	79.69
234.413	86.69
234.647	84.69
234.881	74.69
235.115	79.69
235.349	77.69
235.583	75.69
235.817	76.69
236.051	86.69
236.285	78.69
236.519	80.69
236.753	73.69
236.987	77.69
237.221	74.69
237.455	76.69
237.689	85.69
237.922	81.69
238.156	69.69
238.39	70.69
238.624	76.69
238.858	70.69
239.091	83.69
239.325	76.69
239.559	86.69
239.793	86.69
240.027	77.69
240.26	78.69
240.494	69.69
240.728	73.69
240.961	78.69
241.195	89.69
241.429	60.69
241.662	75.69
241.896	75.69
242.13	86.69
242.363	69.69
242.597	86.69
242.83	86.69
243.064	60.69
243.298	80.69
243.531	63.69
243.765	74.69
243.998	88.69
244.232	68.69
244.465	90.69
244.699	70.69
244.932	72.69
245.166	89.69
245.399	88.69
245.633	79.69
245.866	69.69
246.099	74.69
246.333	77.69
246.566	68.69
246.8	78.69
247.033	89.69
247.266	80.69
247.5	76.69
247.733	68.69
247.966	90.69
248.2	76.69
248.433	74.69
248.666	72.69
248.899	71.69
249.133	79.69
249.366	88.69
249.599	89.69
249.832	78.69
250.066	90.69
250.299	80.69
250.532	74.69
250.765	66.69
250.998	84.69
251.231	77.69
251.465	78.69
251.698	74.69
251.931	77.69
252.164	81.69
252.397	89.69
252.63	98.69
252.863	77.69
253.096	76.69
253.329	84.69
253.562	79.69
253.795	77.69
254.028	95.69
254.261	81.69
254.494	75.69
254.727	75.69
254.96	65.69
255.193	75.69
255.426	80.69
255.659	83.69
255.892	75.69
256.124	79.69
256.357	78.69
256.59	67.69
256.823	75.69
257.056	70.69
257.289	80.69
257.521	72.69
257.754	74.69
257.987	93.69
258.22	79.69
258.452	81.69
258.685	78.69
258.918	67.69
259.151	79.69
259.383	101.69
259.616	81.69
259.849	79.69
260.081	80.69
260.314	85.69
260.547	96.69
260.779	83.69
261.012	71.69
261.244	78.69
261.477	95.69
261.71	86.69
261.942	81.69
262.175	86.69
262.407	80.69
262.64	85.69
262.872	83.69
263.105	83.69
263.337	79.69
263.57	75.69
263.802	70.69
264.035	88.69
264.267	72.69
264.499	84.69
264.732	69.69
264.964	67.69
265.197	87.69
265.429	70.69
265.661	73.69
265.894	80.69
266.126	81.69
266.358	74.69
266.591	71.69
266.823	77.69
267.055	83.69
267.287	85.69
267.52	81.69
267.752	86.69
267.984	68.69
268.216	65.69
268.448	69.69
268.681	79.69
268.913	89.69
269.145	93.69
269.377	88.69
269.609	70.69
269.841	77.69
270.073	93.69
270.306	76.69
270.538	73.69
270.77	81.69
271.002	87.69
271.234	76.69
271.466	76.69
271.698	86.69
271.93	72.69
272.162	89.69
272.394	76.69
272.626	69.69
272.858	94.69
273.09	84.69
273.322	74.69
273.553	92.69
273.785	84.69
274.017	95.69
274.249	83.69
274.481	88.69
274.713	95.69
274.945	78.69
275.176	84.69
275.408	84.69
275.64	80.69
275.872	76.69
276.104	70.69
276.335	87.69
276.567	86.69
276.799	78.69
277.031	89.69
277.262	72.69
277.494	77.69
277.726	87.69
277.957	78.69
278.189	87.69
278.421	75.69
278.652	83.69
278.884	98.69
279.115	76.69
279.347	75.69
279.579	71.69
279.81	89.69
280.042	87.69
280.273	61.69
280.505	82.69
280.736	81.69
280.968	79.69
281.199	69.69
281.431	87.69
281.662	89.69
281.894	82.69
282.125	86.69
282.356	88.69
282.588	92.69
282.819	73.69
283.051	91.69
283.282	79.69
283.513	84.69
283.745	80.69
283.976	88.69
284.207	73.69
284.439	80.69
284.67	91.69
284.901	74.69
285.132	76.69
285.364	94.69
285.595	78.69
285.826	71.69
286.057	80.69
286.288	86.69
286.52	80.69
286.751	76.69
286.982	80.69
287.213	83.69
287.444	76.69
287.675	70.69
287.906	84.69
288.138	90.69
288.369	87.69
288.6	91.69
288.831	92.69
289.062	88.69
289.293	89.69
289.524	78.69
289.755	74.69
289.986	79.69
290.217	72.69
290.448	73.69
290.679	74.69
290.91	78.69
291.141	79.69
291.371	85.69
291.602	81.69
291.833	77.69
292.064	72.69
292.295	71.69
292.526	79.69
292.757	79.69
292.987	96.69
293.218	84.69
293.449	77.69
293.68	81.69
293.91	95.69
294.141	84.69
294.372	78.69
294.603	73.69
294.833	77.69
295.064	90.69
295.295	80.69
295.525	85.69
295.756	82.69
295.987	84.69
296.217	79.69
296.448	81.69
296.679	76.69
296.909	77.69
297.14	84.69
297.37	82.69
297.601	74.69
297.831	77.69
298.062	88.69
298.292	73.69
298.523	84.69
298.753	90.69
298.984	81.69
299.214	82.69
299.445	78.69
299.675	79.69
299.905	75.69
300.136	86.69
300.366	88.69
300.597	85.69
300.827	84.69
301.057	90.69
301.288	79.69
301.518	67.69
301.748	85.69
301.979	112.69
302.209	79.69
302.439	81.69
302.669	86.69
302.9	86.69
303.13	85.69
303.36	80.69
303.59	82.69
303.82	73.69
304.051	92.69
304.281	94.69
304.511	79.69
304.741	62.69
304.971	85.69
305.201	75.69
305.431	82.69
305.661	86.69
305.891	86.69
306.121	90.69
306.352	78.69
306.582	84.69
306.812	80.69
307.042	82.69
307.272	88.69
307.502	77.69
307.731	79.69
307.961	75.69
308.191	69.69
308.421	70.69
308.651	77.69
308.881	75.69
309.111	86.69
309.341	86.69
309.571	72.69
309.8	81.69
310.03	71.69
310.26	81.69
310.49	80.69
310.72	82.69
310.949	77.69
311.179	89.69
311.409	94.69
311.639	100.69
311.868	84.69
312.098	80.69
312.328	82.69
312.557	93.69
312.787	85.69
313.017	74.69
313.246	70.69
313.476	88.69
313.706	82.69
313.935	80.69
314.165	88.69
314.394	83.69
314.624	69.69
314.853	78.69
315.083	73.69
315.312	84.69
315.542	80.69
315.771	78.69
316.001	92.69
316.23	78.69
316.46	64.69
316.689	79.69
316.919	84.69
317.148	82.69
317.377	80.69
317.607	86.69
317.836	83.69
318.065	73.69
318.295	79.69
318.524	85.69
318.753	81.69
318.983	67.69
319.212	87.69
319.441	80.69
319.67	79.69
319.9	78.69
320.129	87.69
320.358	76.69
320.587	86.69
320.816	79.69
321.046	86.69
321.275	85.69
321.504	87.69
321.733	73.69
321.962	72.69
322.191	74.69
322.42	77.69
322.649	100.69
322.878	84.69
323.108	66.69
323.337	100.69
323.566	91.69
323.795	87.69
324.024	87.69
324.253	93.69
324.482	84.69
324.71	94.69
324.939	92.69
325.168	74.69
325.397	80.69
325.626	90.69
325.855	90.69
326.084	75.69
326.313	73.69
326.542	89.69
326.77	82.69
326.999	77.69
327.228	79.69
327.457	78.69
327.686	93.69
327.914	84.69
328.143	102.69
328.372	93.69
328.6	88.69
328.829	80.69
329.058	70.69
329.287	91.69
329.515	86.69
329.744	72.69
329.972	89.69
330.201	79.69
330.43	79.69
330.658	78.69
330.887	81.69
331.115	70.69
331.344	81.69
331.572	81.69
331.801	79.69
332.03	80.69
332.258	90.69
332.486	84.69
332.715	86.69
332.943	79.69
333.172	88.69
333.4	77.69
333.629	82.69
333.857	84.69
334.085	68.69
334.314	83.69
334.542	74.69
334.771	85.69
334.999	75.69
335.227	85.69
335.455	86.69
335.684	92.69
335.912	84.69
336.14	79.69
336.369	82.69
336.597	88.69
336.825	81.69
337.053	93.69
337.281	69.69
337.51	84.69
337.738	85.69
337.966	74.69
338.194	84.69
338.422	83.69
338.65	69.69
338.878	79.69
339.106	94.69
339.334	80.69
339.562	89.69
339.79	72.69
340.018	89.69
340.246	87.69
340.474	82.69
340.702	80.69
340.93	76.69
341.158	88.69
341.386	76.69
341.614	66.69
341.842	76.69
342.07	81.69
342.298	83.69
342.526	85.69
342.754	77.69
342.981	88.69
343.209	92.69
343.437	90.69
343.665	83.69
343.893	82.69
344.12	85.69
344.348	72.69
344.576	63.69
344.804	59.69
345.031	85.69
345.259	81.69
345.487	80.69
345.714	82.69
345.942	87.69
346.17	93.69
346.397	81.69
346.625	78.69
346.853	90.69
347.08	80.69
347.308	76.69
347.535	90.69
347.763	96.69
347.99	79.69
348.218	87.69
348.445	81.69
348.673	69.69
348.9	91.69
349.128	79.69
349.355	73.69
349.583	82.69
349.81	65.69
350.037	86.69
350.265	80.69
350.492	79.69
350.72	77.69
350.947	71.69
351.174	83.69
351.402	65.69
351.629	71.69
351.856	89.69
352.083	95.69
352.311	87.69
352.538	91.69
352.765	85.69
352.992	81.69
353.22	79.69
353.447	73.69
353.674	83.69
353.901	79.69
354.128	84.69
354.355	81.69
354.583	84.69
354.81	64.69
355.037	87.69
355.264	87.69
355.491	83.69
355.718	101.69
355.945	84.69
356.172	78.69
356.399	73.69
356.626	89.69
356.853	90.69
357.08	80.69
357.307	73.69
357.534	81.69
357.761	80.69
357.988	81.69
358.215	76.69
358.441	79.69
358.668	83.69
358.895	84.69
359.122	73.69
359.349	83.69
359.576	84.69
359.802	84.69
360.029	91.69
360.256	81.69
360.483	80.69
360.709	63.69
360.936	97.69
361.163	76.69
361.39	79.69
361.616	78.69
361.843	94.69
362.07	81.69
362.296	80.69
362.523	82.69
362.749	75.69
362.976	77.69
363.203	87.69
363.429	71.69
363.656	85.69
363.882	82.69
364.109	84.69
364.335	79.69
364.562	84.69
364.788	87.69
365.015	84.69
365.241	77.69
365.468	100.69
365.694	74.69
365.92	74.69
366.147	89.69
366.373	64.69
366.599	76.69
366.826	73.69
367.052	79.69
367.278	85.69
367.505	84.69
367.731	86.69
367.957	72.69
368.184	66.69
368.41	85.69
368.636	83.69
368.862	79.69
369.089	77.69
369.315	75.69
369.541	92.69
369.767	79.69
369.993	82.69
370.219	70.69
370.445	87.69
370.672	85.69
370.898	71.69
371.124	84.69
371.35	81.69
371.576	84.69
371.802	92.69
372.028	87.69
372.254	90.69
372.48	78.69
372.706	88.69
372.932	93.69
373.158	81.69
373.384	90.69
373.61	96.69
373.835	77.69
374.061	80.69
374.287	66.69
374.513	94.69
374.739	86.69
374.965	66.69
375.191	92.69
375.416	92.69
375.642	81.69
375.868	92.69
376.094	92.69
376.319	75.69
376.545	84.69
376.771	82.69
376.997	90.69
377.222	82.69
377.448	79.69
377.674	88.69
377.899	74.69
378.125	73.69
378.35	85.69
378.576	73.69
378.802	76.69
379.027	90.69
379.253	80.69
379.478	77.69
379.704	78.69
379.929	86.69
380.155	84.69
380.38	78.69
380.606	70.69
380.831	83.69
381.057	88.69
381.282	77.69
381.507	101.69
381.733	86.69
381.958	70.69
382.184	81.69
382.409	78.69
382.634	72.69
382.86	68.69
383.085	78.69
383.31	70.69
383.535	80.69
383.761	84.69
383.986	81.69
384.211	69.69
384.436	84.69
384.662	75.69
384.887	81.69
385.112	89.69
385.337	74.69
385.562	71.69
385.787	73.69
386.013	71.69
386.238	80.69
386.463	90.69
386.688	100.69
386.913	85.69
387.138	76.69
387.363	86.69
387.588	80.69
387.813	79.69
388.038	81.69
388.263	95.69
388.488	80.69
388.713	85.69
388.938	68.69
389.163	86.69
389.387	78.69
389.612	82.69
389.837	75.69
390.062	84.69
390.287	82.69
390.512	63.69
390.736	91.69
390.961	96.69
391.186	67.69
391.411	84.69
391.636	91.69
391.86	75.69
392.085	77.69
392.31	81.69
392.534	84.69
392.759	86.69
392.984	73.69
393.208	81.69
393.433	82.69
393.658	72.69
393.882	77.69
394.107	83.69
394.331	70.69
394.556	84.69
394.78	90.69
395.005	76.69
395.229	85.69
395.454	70.69
395.678	68.69
395.903	76.69
396.127	82.69
396.352	86.69
396.576	74.69
396.801	78.69
397.025	75.69
397.249	81.69
397.474	89.69
397.698	83.69
397.922	88.69
398.147	91.69
398.371	74.69
398.595	74.69
398.82	95.69
399.044	82.69
399.268	62.69
399.492	70.69
399.717	80.69
399.941	71.69
400.165	87.69
400.389	82.69
400.613	85.69
400.837	90.69
401.062	60.69
401.286	74.69
401.51	78.69
401.734	91.69
401.958	81.69
402.182	81.69
402.406	81.69
402.63	81.69
402.854	74.69
403.078	67.69
403.302	82.69
403.526	76.69
403.75	66.69
403.974	94.69
404.198	87.69
404.422	77.69
404.645	91.69
404.869	81.69
405.093	94.69
405.317	75.69
405.541	73.69
405.765	76.69
405.988	73.69
406.212	70.69
406.436	80.69
406.66	77.69
406.883	87.69
407.107	68.69
407.331	84.69
407.555	78.69
407.778	65.69
408.002	85.69
408.226	93.69
408.449	95.69
408.673	95.69
408.896	81.69
409.12	84.69
409.344	83.69
409.567	81.69
409.791	73.69
410.014	95.69
410.238	80.69
410.461	93.69
410.685	72.69
410.908	83.69
411.132	86.69
411.355	76.69
411.578	75.69
411.802	82.69
412.025	84.69
412.249	83.69
412.472	81.69
412.695	72.69
412.919	80.69
413.142	81.69
413.365	87.69
413.589	84.69
413.812	60.69
414.035	85.69
414.258	75.69
414.482	76.69
414.705	78.69
414.928	101.69
415.151	86.69
415.374	82.69
415.597	67.69
415.821	78.69
416.044	75.69
416.267	81.69
416.49	80.69
416.713	72.69
416.936	81.69
417.159	92.69
417.382	102.69
417.605	80.69
417.828	73.69
418.051	81.69
418.274	80.69
418.497	72.69
418.72	81.69
418.943	70.69
419.166	73.69
419.389	79.69
419.611	68.69
419.834	74.69
420.057	82.69
420.28	73.69
420.503	71.69
420.726	74.69
420.948	93.69
421.171	82.69
421.394	80.69
421.617	88.69
421.839	72.69
422.062	73.69
422.285	93.69
422.507	95.69
422.73	82.69
422.953	89.69
423.175	89.69
423.398	85.69
423.621	97.69
423.843	82.69
424.066	86.69
424.288	72.69
424.511	60.69
424.733	75.69
424.956	81.69
425.178	77.69
425.401	79.69
425.623	85.69
425.846	69.69
426.068	84.69
426.291	72.69
426.513	86.69
426.735	76.69
426.958	70.69
427.18	70.69
427.402	79.69
427.625	84.69
427.847	68.69
428.069	91.69
428.292	87.69
428.514	82.69
428.736	79.69
428.958	70.69
429.181	73.69
429.403	84.69
429.625	72.69
429.847	78.69
430.069	92.69
430.292	79.69
430.514	74.69
430.736	92.69
430.958	90.69
431.18	89.69
431.402	90.69
431.624	79.69
431.846	82.69
432.068	80.69
432.29	72.69
432.512	77.69
432.734	71.69
432.956	61.69
433.178	88.69
433.4	85.69
433.622	70.69
433.844	78.69
434.066	83.69
434.287	86.69
434.509	69.69
434.731	86.69
434.953	66.69
435.175	88.69
435.397	81.69
435.618	82.69
435.84	77.69
436.062	78.69
436.284	80.69
436.505	90.69
436.727	69.69
436.949	84.69
437.17	74.69
437.392	83.69
437.614	87.69
437.835	81.69
438.057	79.69
438.278	81.69
438.5	80.69
438.721	85.69
438.943	88.69
439.165	91.69
439.386	87.69
439.608	92.69
439.829	98.69
440.05	75.69
440.272	97.69
440.493	81.69
440.715	75.69
440.936	87.69
441.158	75.69
441.379	71.69
441.6	69.69
441.822	86.69
442.043	82.69
442.264	89.69
442.486	97.69
442.707	83.69
442.928	80.69
443.149	82.69
443.371	89.69
443.592	77.69
443.813	70.69
444.034	84.69
444.255	90.69
444.476	87.69
444.698	89.69
444.919	78.69
445.14	158.69
445.361	107.69
445.582	89.69
445.803	74.69
446.024	77.69
446.245	79.69
446.466	77.69
446.687	82.69
446.908	90.69
447.129	77.69
447.35	86.69
447.571	85.69
447.792	76.69
448.013	72.69
448.234	81.69
448.455	77.69
448.675	87.69
448.896	87.69
449.117	68.69
449.338	80.69
449.559	100.69
449.779	80.69
450	77.69
450.221	84.69
450.442	91.69
450.662	78.69
450.883	90.69
451.104	89.69
451.324	69.69
451.545	81.69
451.766	79.69
451.986	81.69
452.207	69.69
452.428	75.69
452.648	90.69
452.869	83.69
453.089	86.69
453.31	86.69
453.53	78.69
453.751	80.69
453.971	73.69
454.192	75.69
454.412	65.69
454.633	75.69
454.853	80.69
455.073	94.69
455.294	91.69
455.514	82.69
455.734	81.69
455.955	70.69
456.175	79.69
456.395	78.69
456.616	69.69
456.836	86.69
457.056	77.69
457.276	73.69
457.497	85.69
457.717	76.69
457.937	84.69
458.157	64.69
458.377	79.69
458.598	74.69
458.818	71.69
459.038	86.69
459.258	71.69
459.478	79.69
459.698	79.69
459.918	73.69
460.138	82.69
460.358	90.69
460.578	79.69
460.798	96.69
461.018	78.69
461.238	83.69
461.458	80.69
461.678	89.69
461.898	78.69
462.118	80.69
462.338	88.69
462.558	89.69
462.777	75.69
462.997	74.69
463.217	66.69
463.437	77.69
463.657	71.69
463.876	86.69
464.096	80.69
464.316	66.69
464.536	90.69
464.755	77.69
464.975	87.69
465.195	87.69
465.414	62.69
465.634	84.69
465.854	84.69
466.073	79.69
466.293	62.69
466.512	72.69
466.732	68.69
466.951	71.69
467.171	69.69
467.391	70.69
467.61	84.69
467.829	71.69
468.049	88.69
468.268	87.69
468.488	76.69
468.707	73.69
468.927	93.69
469.146	88.69
469.365	88.69
469.585	85.69
469.804	91.69
470.023	83.69
470.243	80.69
470.462	89.69
470.681	68.69
470.901	72.69
471.12	67.69
471.339	77.69
471.558	95.69
471.777	87.69
471.997	70.69
472.216	80.69
472.435	81.69
472.654	86.69
472.873	81.69
473.092	89.69
473.311	69.69
473.53	80.69
473.749	79.69
473.968	93.69
474.187	97.69
474.406	72.69
474.625	94.69
474.844	80.69
475.063	92.69
475.282	88.69
475.501	80.69
475.72	92.69
475.939	84.69
476.158	77.69
476.377	69.69
476.596	74.69
476.814	85.69
477.033	90.69
477.252	76.69
477.471	81.69
477.69	93.69
477.908	89.69
478.127	87.69
478.346	83.69
478.564	82.69
478.783	77.69
479.002	74.69
479.22	89.69
479.439	77.69
479.658	83.69
479.876	63.69
480.095	71.69
480.313	81.69
480.532	84.69
480.751	84.69
480.969	74.69
481.188	88.69
481.406	78.69
481.624	81.69
481.843	85.69
482.061	81.69
482.28	87.69
482.498	76.69
482.717	87.69
482.935	78.69
483.153	91.69
483.372	79.69
483.59	78.69
483.808	78.69
484.027	88.69
484.245	84.69
484.463	85.69
484.681	86.69
484.9	78.69
485.118	80.69
485.336	74.69
485.554	70.69
485.772	85.69
485.99	89.69
486.209	88.69
486.427	74.69
486.645	80.69
486.863	74.69
487.081	95.69
487.299	88.69
487.517	90.69
487.735	77.69
487.953	84.69
488.171	87.69
488.389	102.69
488.607	67.69
488.825	87.69
489.043	84.69
489.261	76.69
489.479	81.69
489.696	77.69
489.914	81.69
490.132	87.69
490.35	87.69
490.568	76.69
490.786	90.69
491.003	86.69
491.221	82.69
491.439	84.69
491.657	77.69
491.874	81.69
492.092	86.69
492.31	75.69
492.527	82.69
492.745	77.69
492.963	72.69
493.18	87.69
493.398	77.69
493.615	80.69
493.833	65.69
494.05	83.69
494.268	75.69
494.485	81.69
494.703	80.69
494.92	85.69
495.138	88.69
495.355	79.69
495.573	91.69
495.79	85.69
496.008	87.69
496.225	71.69
496.442	79.69
496.66	85.69
496.877	90.69
497.094	87.69
497.312	94.69
497.529	94.69
497.746	91.69
497.963	85.69
498.181	65.69
498.398	79.69
498.615	81.69
498.832	69.69
499.049	82.69
499.267	78.69
499.484	83.69
499.701	90.69
499.918	72.69
500.135	64.69
500.352	82.69
500.569	85.69
500.786	72.69
501.003	74.69
501.22	84.69
501.437	78.69
501.654	86.69
501.871	84.69
502.088	75.69
502.305	72.69
502.522	75.69
502.739	82.69
502.956	83.69
503.172	87.69
503.389	82.69
503.606	75.69
503.823	82.69
504.04	93.69
504.256	78.69
504.473	88.69
504.69	79.69
504.907	89.69
505.123	77.69
505.34	71.69
505.557	74.69
505.773	86.69
505.99	67.69
506.207	82.69
506.423	79.69
506.64	81.69
506.856	87.69
507.073	95.69
507.289	81.69
507.506	82.69
507.722	77.69
507.939	98.69
508.155	91.69
508.372	85.69
508.588	96.69
508.805	81.69
509.021	77.69
509.238	90.69
509.454	84.69
509.67	73.69
509.887	67.69
510.103	78.69
510.319	95.69
510.536	76.69
510.752	69.69
510.968	80.69
511.184	82.69
511.401	77.69
511.617	86.69
511.833	87.69
512.049	73.69
512.265	77.69
512.481	82.69
512.698	73.69
512.914	77.69
513.13	80.69
513.346	75.69
513.562	71.69
513.778	85.69
513.994	79.69
514.21	80.69
514.426	79.69
514.642	94.69
514.858	85.69
515.074	70.69
515.29	86.69
515.506	83.69
515.721	85.69
515.937	93.69
516.153	84.69
516.369	75.69
516.585	85.69
516.801	79.69
517.016	101.69
517.232	88.69
517.448	83.69
517.664	72.69
517.879	83.69
518.095	79.69
518.311	88.69
518.527	79.69
518.742	88.69
518.958	84.69
519.173	96.69
519.389	86.69
519.605	79.69
519.82	97.69
520.036	88.69
