Data from Dirtnoheat1_HRD10591_00001.txt Node
Date: Fri Dec 27 15:18:19 EST 2024
User: Yrep
Spectrometer: HR+D1059
Trigger mode: 1
Integration Time (sec): 1.000000E-1
Scans to average: 1
Electric dark correction enabled: true
Nonlinearity correction enabled: false
Boxcar width: 0
XAxis mode: Wavelengths
Number of Pixels in Spectrum: 2048
>>>>>Begin Spectral Data<<<<<
223.165	-19.19
223.4	-19.19
223.635	-19.19
223.869	-16.19
224.104	-23.19
224.338	-10.19
224.573	-4.19
224.808	2.81
225.042	-7.19
225.277	-8.19
225.511	-6.19
225.746	7.81
225.98	-0.19
226.215	12.81
226.449	19.81
226.683	0.81
226.918	21.81
227.152	28.81
227.387	33.81
227.621	52.81
227.856	44.81
228.09	44.81
228.324	47.81
228.559	47.81
228.793	64.81
229.027	69.81
229.262	75.81
229.496	64.81
229.73	76.81
229.964	68.81
230.199	69.81
230.433	87.81
230.667	73.81
230.901	79.81
231.136	80.81
231.37	66.81
231.604	91.81
231.838	74.81
232.072	86.81
232.306	77.81
232.541	77.81
232.775	75.81
233.009	80.81
233.243	82.81
233.477	95.81
233.711	83.81
233.945	83.81
234.179	99.81
234.413	89.81
234.647	71.81
234.881	78.81
235.115	80.81
235.349	80.81
235.583	75.81
235.817	76.81
236.051	79.81
236.285	71.81
236.519	83.81
236.753	79.81
236.987	80.81
237.221	74.81
237.455	72.81
237.689	85.81
237.922	83.81
238.156	77.81
238.39	74.81
238.624	80.81
238.858	79.81
239.091	71.81
239.325	84.81
239.559	77.81
239.793	93.81
240.027	75.81
240.26	70.81
240.494	67.81
240.728	101.81
240.961	68.81
241.195	83.81
241.429	90.81
241.662	70.81
241.896	79.81
242.13	71.81
242.363	65.81
242.597	73.81
242.83	88.81
243.064	79.81
243.298	88.81
243.531	69.81
243.765	76.81
243.998	83.81
244.232	75.81
244.465	71.81
244.699	78.81
244.932	69.81
245.166	68.81
245.399	72.81
245.633	79.81
245.866	67.81
246.099	90.81
246.333	74.81
246.566	73.81
246.8	70.81
247.033	77.81
247.266	69.81
247.5	80.81
247.733	78.81
247.966	84.81
248.2	75.81
248.433	79.81
248.666	69.81
248.899	69.81
249.133	79.81
249.366	75.81
249.599	77.81
249.832	64.81
250.066	93.81
250.299	84.81
250.532	84.81
250.765	69.81
250.998	65.81
251.231	87.81
251.465	63.81
251.698	69.81
251.931	62.81
252.164	77.81
252.397	70.81
252.63	71.81
252.863	69.81
253.096	76.81
253.329	77.81
253.562	66.81
253.795	75.81
254.028	84.81
254.261	65.81
254.494	93.81
254.727	84.81
254.96	79.81
255.193	69.81
255.426	84.81
255.659	86.81
255.892	73.81
256.124	88.81
256.357	69.81
256.59	81.81
256.823	78.81
257.056	79.81
257.289	71.81
257.521	90.81
257.754	78.81
257.987	78.81
258.22	77.81
258.452	78.81
258.685	74.81
258.918	69.81
259.151	81.81
259.383	76.81
259.616	80.81
259.849	86.81
260.081	80.81
260.314	81.81
260.547	72.81
260.779	65.81
261.012	72.81
261.244	85.81
261.477	80.81
261.71	76.81
261.942	94.81
262.175	77.81
262.407	88.81
262.64	84.81
262.872	80.81
263.105	75.81
263.337	92.81
263.57	80.81
263.802	85.81
264.035	78.81
264.267	83.81
264.499	78.81
264.732	86.81
264.964	71.81
265.197	76.81
265.429	73.81
265.661	88.81
265.894	76.81
266.126	81.81
266.358	82.81
266.591	90.81
266.823	96.81
267.055	64.81
267.287	81.81
267.52	82.81
267.752	85.81
267.984	89.81
268.216	63.81
268.448	75.81
268.681	73.81
268.913	90.81
269.145	77.81
269.377	80.81
269.609	87.81
269.841	80.81
270.073	79.81
270.306	77.81
270.538	79.81
270.77	91.81
271.002	85.81
271.234	78.81
271.466	87.81
271.698	84.81
271.93	92.81
272.162	85.81
272.394	89.81
272.626	79.81
272.858	80.81
273.09	67.81
273.322	69.81
273.553	80.81
273.785	81.81
274.017	84.81
274.249	77.81
274.481	77.81
274.713	92.81
274.945	92.81
275.176	74.81
275.408	68.81
275.64	90.81
275.872	81.81
276.104	72.81
276.335	72.81
276.567	79.81
276.799	67.81
277.031	82.81
277.262	85.81
277.494	77.81
277.726	85.81
277.957	83.81
278.189	77.81
278.421	89.81
278.652	85.81
278.884	79.81
279.115	89.81
279.347	71.81
279.579	84.81
279.81	81.81
280.042	85.81
280.273	68.81
280.505	92.81
280.736	73.81
280.968	68.81
281.199	80.81
281.431	77.81
281.662	73.81
281.894	77.81
282.125	87.81
282.356	85.81
282.588	82.81
282.819	83.81
283.051	75.81
283.282	74.81
283.513	94.81
283.745	79.81
283.976	83.81
284.207	62.81
284.439	79.81
284.67	85.81
284.901	87.81
285.132	87.81
285.364	87.81
285.595	81.81
285.826	78.81
286.057	69.81
286.288	77.81
286.52	80.81
286.751	75.81
286.982	79.81
287.213	76.81
287.444	73.81
287.675	85.81
287.906	84.81
288.138	81.81
288.369	70.81
288.6	79.81
288.831	81.81
289.062	89.81
289.293	78.81
289.524	80.81
289.755	97.81
289.986	85.81
290.217	84.81
290.448	84.81
290.679	73.81
290.91	83.81
291.141	89.81
291.371	82.81
291.602	83.81
291.833	76.81
292.064	84.81
292.295	73.81
292.526	83.81
292.757	84.81
292.987	79.81
293.218	72.81
293.449	81.81
293.68	78.81
293.91	78.81
294.141	81.81
294.372	96.81
294.603	83.81
294.833	78.81
295.064	82.81
295.295	84.81
295.525	64.81
295.756	79.81
295.987	84.81
296.217	84.81
296.448	87.81
296.679	85.81
296.909	88.81
297.14	80.81
297.37	81.81
297.601	79.81
297.831	81.81
298.062	88.81
298.292	96.81
298.523	74.81
298.753	87.81
298.984	86.81
299.214	81.81
299.445	63.81
299.675	80.81
299.905	97.81
300.136	92.81
300.366	77.81
300.597	74.81
300.827	76.81
301.057	69.81
301.288	76.81
301.518	89.81
301.748	54.81
301.979	87.81
302.209	74.81
302.439	99.81
302.669	75.81
302.9	79.81
303.13	65.81
303.36	73.81
303.59	86.81
303.82	68.81
304.051	88.81
304.281	78.81
304.511	95.81
304.741	75.81
304.971	85.81
305.201	85.81
305.431	86.81
305.661	78.81
305.891	78.81
306.121	84.81
306.352	67.81
306.582	78.81
306.812	73.81
307.042	83.81
307.272	81.81
307.502	78.81
307.731	65.81
307.961	80.81
308.191	74.81
308.421	78.81
308.651	80.81
308.881	78.81
309.111	93.81
309.341	78.81
309.571	74.81
309.8	78.81
310.03	81.81
310.26	91.81
310.49	77.81
310.72	76.81
310.949	91.81
311.179	84.81
311.409	78.81
311.639	92.81
311.868	84.81
312.098	81.81
312.328	87.81
312.557	89.81
312.787	86.81
313.017	86.81
313.246	84.81
313.476	88.81
313.706	78.81
313.935	73.81
314.165	91.81
314.394	88.81
314.624	87.81
314.853	70.81
315.083	71.81
315.312	89.81
315.542	94.81
315.771	93.81
316.001	81.81
316.23	84.81
316.46	81.81
316.689	83.81
316.919	85.81
317.148	69.81
317.377	95.81
317.607	84.81
317.836	78.81
318.065	74.81
318.295	67.81
318.524	106.81
318.753	82.81
318.983	87.81
319.212	81.81
319.441	83.81
319.67	84.81
319.9	81.81
320.129	77.81
320.358	86.81
320.587	86.81
320.816	78.81
321.046	70.81
321.275	85.81
321.504	84.81
321.733	93.81
321.962	77.81
322.191	74.81
322.42	75.81
322.649	78.81
322.878	99.81
323.108	75.81
323.337	88.81
323.566	84.81
323.795	89.81
324.024	83.81
324.253	83.81
324.482	81.81
324.71	75.81
324.939	81.81
325.168	75.81
325.397	84.81
325.626	82.81
325.855	82.81
326.084	101.81
326.313	96.81
326.542	82.81
326.77	87.81
326.999	87.81
327.228	87.81
327.457	84.81
327.686	87.81
327.914	89.81
328.143	76.81
328.372	79.81
328.6	94.81
328.829	73.81
329.058	82.81
329.287	84.81
329.515	70.81
329.744	86.81
329.972	77.81
330.201	84.81
330.43	78.81
330.658	93.81
330.887	76.81
331.115	86.81
331.344	93.81
331.572	86.81
331.801	88.81
332.03	76.81
332.258	81.81
332.486	77.81
332.715	85.81
332.943	65.81
333.172	81.81
333.4	86.81
333.629	73.81
333.857	77.81
334.085	79.81
334.314	80.81
334.542	91.81
334.771	86.81
334.999	94.81
335.227	68.81
335.455	92.81
335.684	98.81
335.912	90.81
336.14	88.81
336.369	82.81
336.597	77.81
336.825	88.81
337.053	77.81
337.281	88.81
337.51	81.81
337.738	76.81
337.966	83.81
338.194	89.81
338.422	87.81
338.65	78.81
338.878	78.81
339.106	79.81
339.334	97.81
339.562	85.81
339.79	76.81
340.018	90.81
340.246	74.81
340.474	83.81
340.702	76.81
340.93	74.81
341.158	81.81
341.386	77.81
341.614	94.81
341.842	93.81
342.07	99.81
342.298	84.81
342.526	85.81
342.754	96.81
342.981	75.81
343.209	99.81
343.437	95.81
343.665	87.81
343.893	82.81
344.12	83.81
344.348	89.81
344.576	81.81
344.804	89.81
345.031	91.81
345.259	80.81
345.487	79.81
345.714	84.81
345.942	69.81
346.17	84.81
346.397	83.81
346.625	88.81
346.853	92.81
347.08	80.81
347.308	78.81
347.535	79.81
347.763	70.81
347.99	94.81
348.218	84.81
348.445	80.81
348.673	71.81
348.9	87.81
349.128	84.81
349.355	96.81
349.583	101.81
349.81	76.81
350.037	73.81
350.265	86.81
350.492	81.81
350.72	86.81
350.947	76.81
351.174	100.81
351.402	76.81
351.629	91.81
351.856	86.81
352.083	78.81
352.311	76.81
352.538	81.81
352.765	79.81
352.992	78.81
353.22	80.81
353.447	90.81
353.674	72.81
353.901	78.81
354.128	83.81
354.355	84.81
354.583	89.81
354.81	102.81
355.037	76.81
355.264	86.81
355.491	75.81
355.718	86.81
355.945	74.81
356.172	96.81
356.399	72.81
356.626	89.81
356.853	81.81
357.08	92.81
357.307	96.81
357.534	94.81
357.761	78.81
357.988	83.81
358.215	80.81
358.441	88.81
358.668	77.81
358.895	87.81
359.122	90.81
359.349	84.81
359.576	80.81
359.802	91.81
360.029	96.81
360.256	80.81
360.483	88.81
360.709	83.81
360.936	92.81
361.163	87.81
361.39	90.81
361.616	83.81
361.843	73.81
362.07	93.81
362.296	82.81
362.523	89.81
362.749	85.81
362.976	77.81
363.203	93.81
363.429	79.81
363.656	88.81
363.882	91.81
364.109	93.81
364.335	81.81
364.562	84.81
364.788	89.81
365.015	78.81
365.241	95.81
365.468	88.81
365.694	78.81
365.92	89.81
366.147	71.81
366.373	94.81
366.599	86.81
366.826	85.81
367.052	85.81
367.278	91.81
367.505	76.81
367.731	83.81
367.957	66.81
368.184	76.81
368.41	73.81
368.636	80.81
368.862	84.81
369.089	78.81
369.315	72.81
369.541	83.81
369.767	74.81
369.993	75.81
370.219	76.81
370.445	80.81
370.672	81.81
370.898	87.81
371.124	87.81
371.35	90.81
371.576	73.81
371.802	74.81
372.028	81.81
372.254	71.81
372.48	91.81
372.706	93.81
372.932	84.81
373.158	78.81
373.384	95.81
373.61	84.81
373.835	89.81
374.061	89.81
374.287	81.81
374.513	72.81
374.739	76.81
374.965	86.81
375.191	90.81
375.416	85.81
375.642	83.81
375.868	85.81
376.094	79.81
376.319	77.81
376.545	84.81
376.771	81.81
376.997	84.81
377.222	86.81
377.448	86.81
377.674	77.81
377.899	78.81
378.125	90.81
378.35	81.81
378.576	74.81
378.802	87.81
379.027	79.81
379.253	90.81
379.478	91.81
379.704	79.81
379.929	62.81
380.155	75.81
380.38	82.81
380.606	87.81
380.831	79.81
381.057	81.81
381.282	83.81
381.507	77.81
381.733	84.81
381.958	84.81
382.184	83.81
382.409	69.81
382.634	82.81
382.86	73.81
383.085	85.81
383.31	76.81
383.535	95.81
383.761	80.81
383.986	81.81
384.211	74.81
384.436	85.81
384.662	88.81
384.887	90.81
385.112	95.81
385.337	80.81
385.562	71.81
385.787	95.81
386.013	80.81
386.238	71.81
386.463	87.81
386.688	92.81
386.913	81.81
387.138	80.81
387.363	77.81
387.588	83.81
387.813	89.81
388.038	86.81
388.263	106.81
388.488	84.81
388.713	73.81
388.938	81.81
389.163	75.81
389.387	92.81
389.612	90.81
389.837	70.81
390.062	80.81
390.287	77.81
390.512	87.81
390.736	72.81
390.961	75.81
391.186	79.81
391.411	80.81
391.636	89.81
391.86	81.81
392.085	93.81
392.31	82.81
392.534	96.81
392.759	85.81
392.984	88.81
393.208	88.81
393.433	72.81
393.658	92.81
393.882	81.81
394.107	84.81
394.331	82.81
394.556	79.81
394.78	84.81
395.005	77.81
395.229	68.81
395.454	95.81
395.678	87.81
395.903	79.81
396.127	80.81
396.352	75.81
396.576	79.81
396.801	78.81
397.025	80.81
397.249	87.81
397.474	80.81
397.698	85.81
397.922	87.81
398.147	88.81
398.371	92.81
398.595	82.81
398.82	86.81
399.044	80.81
399.268	73.81
399.492	71.81
399.717	75.81
399.941	81.81
400.165	84.81
400.389	81.81
400.613	69.81
400.837	85.81
401.062	83.81
401.286	77.81
401.51	79.81
401.734	85.81
401.958	87.81
402.182	83.81
402.406	84.81
402.63	81.81
402.854	78.81
403.078	89.81
403.302	87.81
403.526	93.81
403.75	90.81
403.974	83.81
404.198	66.81
404.422	82.81
404.645	87.81
404.869	69.81
405.093	92.81
405.317	89.81
405.541	75.81
405.765	73.81
405.988	89.81
406.212	84.81
406.436	76.81
406.66	87.81
406.883	83.81
407.107	69.81
407.331	82.81
407.555	86.81
407.778	103.81
408.002	81.81
408.226	77.81
408.449	71.81
408.673	95.81
408.896	73.81
409.12	85.81
409.344	86.81
409.567	86.81
409.791	81.81
410.014	94.81
410.238	72.81
410.461	73.81
410.685	70.81
410.908	78.81
411.132	88.81
411.355	71.81
411.578	90.81
411.802	83.81
412.025	90.81
412.249	77.81
412.472	95.81
412.695	73.81
412.919	81.81
413.142	91.81
413.365	79.81
413.589	89.81
413.812	86.81
414.035	64.81
414.258	86.81
414.482	83.81
414.705	91.81
414.928	90.81
415.151	85.81
415.374	84.81
415.597	96.81
415.821	87.81
416.044	82.81
416.267	71.81
416.49	71.81
416.713	67.81
416.936	93.81
417.159	78.81
417.382	83.81
417.605	84.81
417.828	80.81
418.051	72.81
418.274	84.81
418.497	83.81
418.72	87.81
418.943	76.81
419.166	86.81
419.389	76.81
419.611	76.81
419.834	88.81
420.057	76.81
420.28	86.81
420.503	76.81
420.726	91.81
420.948	69.81
421.171	85.81
421.394	72.81
421.617	78.81
421.839	92.81
422.062	75.81
422.285	92.81
422.507	100.81
422.73	83.81
422.953	84.81
423.175	87.81
423.398	76.81
423.621	78.81
423.843	83.81
424.066	79.81
424.288	89.81
424.511	78.81
424.733	79.81
424.956	80.81
425.178	80.81
425.401	72.81
425.623	73.81
425.846	85.81
426.068	86.81
426.291	86.81
426.513	81.81
426.735	87.81
426.958	84.81
427.18	79.81
427.402	93.81
427.625	78.81
427.847	84.81
428.069	83.81
428.292	76.81
428.514	76.81
428.736	77.81
428.958	87.81
429.181	75.81
429.403	82.81
429.625	79.81
429.847	88.81
430.069	78.81
430.292	72.81
430.514	76.81
430.736	83.81
430.958	81.81
431.18	80.81
431.402	79.81
431.624	72.81
431.846	80.81
432.068	90.81
432.29	76.81
432.512	82.81
432.734	94.81
432.956	87.81
433.178	87.81
433.4	83.81
433.622	77.81
433.844	86.81
434.066	85.81
434.287	70.81
434.509	72.81
434.731	77.81
434.953	83.81
435.175	82.81
435.397	89.81
435.618	77.81
435.84	83.81
436.062	84.81
436.284	65.81
436.505	81.81
436.727	91.81
436.949	86.81
437.17	80.81
437.392	76.81
437.614	86.81
437.835	85.81
438.057	84.81
438.278	89.81
438.5	84.81
438.721	82.81
438.943	88.81
439.165	82.81
439.386	77.81
439.608	73.81
439.829	81.81
440.05	83.81
440.272	87.81
440.493	80.81
440.715	84.81
440.936	79.81
441.158	78.81
441.379	93.81
441.6	84.81
441.822	95.81
442.043	83.81
442.264	79.81
442.486	87.81
442.707	83.81
442.928	73.81
443.149	80.81
443.371	91.81
443.592	89.81
443.813	87.81
444.034	85.81
444.255	88.81
444.476	77.81
444.698	76.81
444.919	65.81
445.14	157.81
445.361	124.81
445.582	86.81
445.803	87.81
446.024	76.81
446.245	95.81
446.466	95.81
446.687	83.81
446.908	78.81
447.129	87.81
447.35	88.81
447.571	100.81
447.792	71.81
448.013	99.81
448.234	80.81
448.455	87.81
448.675	75.81
448.896	92.81
449.117	73.81
449.338	85.81
449.559	82.81
449.779	81.81
450	81.81
450.221	77.81
450.442	92.81
450.662	65.81
450.883	90.81
451.104	87.81
451.324	83.81
451.545	84.81
451.766	76.81
451.986	81.81
452.207	79.81
452.428	77.81
452.648	85.81
452.869	86.81
453.089	72.81
453.31	95.81
453.53	95.81
453.751	83.81
453.971	66.81
454.192	86.81
454.412	82.81
454.633	92.81
454.853	78.81
455.073	86.81
455.294	71.81
455.514	86.81
455.734	66.81
455.955	83.81
456.175	86.81
456.395	76.81
456.616	86.81
456.836	92.81
457.056	80.81
457.276	82.81
457.497	83.81
457.717	77.81
457.937	72.81
458.157	65.81
458.377	87.81
458.598	81.81
458.818	67.81
459.038	89.81
459.258	85.81
459.478	65.81
459.698	80.81
459.918	81.81
460.138	77.81
460.358	84.81
460.578	85.81
460.798	66.81
461.018	83.81
461.238	81.81
461.458	87.81
461.678	86.81
461.898	79.81
462.118	79.81
462.338	91.81
462.558	84.81
462.777	89.81
462.997	101.81
463.217	68.81
463.437	81.81
463.657	83.81
463.876	72.81
464.096	89.81
464.316	91.81
464.536	80.81
464.755	83.81
464.975	102.81
465.195	81.81
465.414	85.81
465.634	74.81
465.854	71.81
466.073	85.81
466.293	80.81
466.512	76.81
466.732	94.81
466.951	87.81
467.171	79.81
467.391	91.81
467.61	71.81
467.829	84.81
468.049	79.81
468.268	81.81
468.488	77.81
468.707	71.81
468.927	87.81
469.146	89.81
469.365	80.81
469.585	71.81
469.804	89.81
470.023	88.81
470.243	85.81
470.462	76.81
470.681	81.81
470.901	82.81
471.12	74.81
471.339	91.81
471.558	89.81
471.777	78.81
471.997	89.81
472.216	93.81
472.435	75.81
472.654	85.81
472.873	66.81
473.092	75.81
473.311	75.81
473.53	73.81
473.749	92.81
473.968	94.81
474.187	91.81
474.406	92.81
474.625	78.81
474.844	81.81
475.063	78.81
475.282	97.81
475.501	82.81
475.72	72.81
475.939	80.81
476.158	99.81
476.377	87.81
476.596	77.81
476.814	76.81
477.033	89.81
477.252	85.81
477.471	86.81
477.69	79.81
477.908	77.81
478.127	88.81
478.346	83.81
478.564	77.81
478.783	77.81
479.002	80.81
479.22	71.81
479.439	71.81
479.658	73.81
479.876	80.81
480.095	75.81
480.313	65.81
480.532	85.81
480.751	91.81
480.969	79.81
481.188	82.81
481.406	92.81
481.624	73.81
481.843	78.81
482.061	84.81
482.28	88.81
482.498	78.81
482.717	76.81
482.935	84.81
483.153	84.81
483.372	75.81
483.59	72.81
483.808	75.81
484.027	77.81
484.245	85.81
484.463	85.81
484.681	89.81
484.9	87.81
485.118	76.81
485.336	65.81
485.554	72.81
485.772	77.81
485.99	76.81
486.209	84.81
486.427	87.81
486.645	76.81
486.863	87.81
487.081	84.81
487.299	86.81
487.517	79.81
487.735	69.81
487.953	69.81
488.171	84.81
488.389	83.81
488.607	90.81
488.825	75.81
489.043	73.81
489.261	83.81
489.479	96.81
489.696	101.81
489.914	90.81
490.132	91.81
490.35	81.81
490.568	83.81
490.786	90.81
491.003	90.81
491.221	77.81
491.439	71.81
491.657	87.81
491.874	88.81
492.092	91.81
492.31	81.81
492.527	70.81
492.745	83.81
492.963	83.81
493.18	88.81
493.398	83.81
493.615	86.81
493.833	95.81
494.05	75.81
494.268	79.81
494.485	68.81
494.703	86.81
494.92	87.81
495.138	87.81
495.355	86.81
495.573	87.81
495.79	85.81
496.008	91.81
496.225	77.81
496.442	90.81
496.66	78.81
496.877	76.81
497.094	81.81
497.312	95.81
497.529	90.81
497.746	86.81
497.963	84.81
498.181	91.81
498.398	85.81
498.615	90.81
498.832	83.81
499.049	81.81
499.267	82.81
499.484	93.81
499.701	94.81
499.918	83.81
500.135	83.81
500.352	70.81
500.569	77.81
500.786	83.81
501.003	81.81
501.22	84.81
501.437	85.81
501.654	85.81
501.871	78.81
502.088	85.81
502.305	77.81
502.522	96.81
502.739	105.81
502.956	83.81
503.172	71.81
503.389	80.81
503.606	91.81
503.823	86.81
504.04	84.81
504.256	85.81
504.473	79.81
504.69	71.81
504.907	79.81
505.123	86.81
505.34	84.81
505.557	75.81
505.773	99.81
505.99	86.81
506.207	93.81
506.423	91.81
506.64	91.81
506.856	79.81
507.073	80.81
507.289	83.81
507.506	64.81
507.722	78.81
507.939	84.81
508.155	85.81
508.372	80.81
508.588	70.81
508.805	84.81
509.021	83.81
509.238	91.81
509.454	89.81
509.67	77.81
509.887	76.81
510.103	86.81
510.319	77.81
510.536	72.81
510.752	92.81
510.968	92.81
511.184	70.81
511.401	78.81
511.617	81.81
511.833	90.81
512.049	83.81
512.265	81.81
512.481	84.81
512.698	80.81
512.914	84.81
513.13	85.81
513.346	78.81
513.562	75.81
513.778	80.81
513.994	78.81
514.21	83.81
514.426	80.81
514.642	80.81
514.858	100.81
515.074	75.81
515.29	77.81
515.506	85.81
515.721	75.81
515.937	80.81
516.153	75.81
516.369	90.81
516.585	81.81
516.801	94.81
517.016	88.81
517.232	103.81
517.448	86.81
517.664	95.81
517.879	94.81
518.095	88.81
518.311	79.81
518.527	89.81
518.742	87.81
518.958	92.81
519.173	85.81
519.389	92.81
519.605	78.81
519.82	87.81
520.036	83.81
