Data from Dirtnoheat1_HRD10591_00017.txt Node
Date: Fri Dec 27 15:18:35 EST 2024
User: Yrep
Spectrometer: HR+D1059
Trigger mode: 1
Integration Time (sec): 1.000000E-1
Scans to average: 1
Electric dark correction enabled: true
Nonlinearity correction enabled: false
Boxcar width: 0
XAxis mode: Wavelengths
Number of Pixels in Spectrum: 2048
>>>>>Begin Spectral Data<<<<<
223.165	-11.62
223.4	-11.62
223.635	-11.62
223.869	-6.62
224.104	-23.62
224.338	-22.62
224.573	-11.62
224.808	-0.62
225.042	-5.62
225.277	-9.62
225.511	-10.62
225.746	20.38
225.98	-10.62
226.215	13.38
226.449	16.38
226.683	24.38
226.918	14.38
227.152	24.38
227.387	28.38
227.621	29.38
227.856	46.38
228.09	54.38
228.324	46.38
228.559	44.38
228.793	58.38
229.027	69.38
229.262	66.38
229.496	67.38
229.73	71.38
229.964	63.38
230.199	81.38
230.433	61.38
230.667	78.38
230.901	71.38
231.136	60.38
231.37	75.38
231.604	79.38
231.838	78.38
232.072	72.38
232.306	68.38
232.541	69.38
232.775	67.38
233.009	85.38
233.243	71.38
233.477	68.38
233.711	58.38
233.945	79.38
234.179	79.38
234.413	88.38
234.647	71.38
234.881	75.38
235.115	79.38
235.349	73.38
235.583	66.38
235.817	72.38
236.051	63.38
236.285	57.38
236.519	69.38
236.753	78.38
236.987	73.38
237.221	61.38
237.455	55.38
237.689	68.38
237.922	69.38
238.156	77.38
238.39	65.38
238.624	69.38
238.858	79.38
239.091	84.38
239.325	69.38
239.559	59.38
239.793	71.38
240.027	82.38
240.26	68.38
240.494	64.38
240.728	64.38
240.961	63.38
241.195	72.38
241.429	69.38
241.662	82.38
241.896	64.38
242.13	84.38
242.363	61.38
242.597	70.38
242.83	69.38
243.064	63.38
243.298	81.38
243.531	90.38
243.765	66.38
243.998	69.38
244.232	70.38
244.465	89.38
244.699	76.38
244.932	67.38
245.166	72.38
245.399	91.38
245.633	75.38
245.866	60.38
246.099	80.38
246.333	60.38
246.566	64.38
246.8	66.38
247.033	69.38
247.266	63.38
247.5	72.38
247.733	81.38
247.966	62.38
248.2	69.38
248.433	66.38
248.666	73.38
248.899	69.38
249.133	80.38
249.366	91.38
249.599	86.38
249.832	75.38
250.066	91.38
250.299	86.38
250.532	77.38
250.765	70.38
250.998	73.38
251.231	69.38
251.465	69.38
251.698	82.38
251.931	72.38
252.164	71.38
252.397	70.38
252.63	75.38
252.863	73.38
253.096	83.38
253.329	71.38
253.562	75.38
253.795	57.38
254.028	76.38
254.261	66.38
254.494	97.38
254.727	82.38
254.96	77.38
255.193	72.38
255.426	66.38
255.659	64.38
255.892	85.38
256.124	68.38
256.357	57.38
256.59	69.38
256.823	83.38
257.056	59.38
257.289	74.38
257.521	78.38
257.754	78.38
257.987	67.38
258.22	67.38
258.452	75.38
258.685	77.38
258.918	68.38
259.151	63.38
259.383	72.38
259.616	71.38
259.849	76.38
260.081	69.38
260.314	84.38
260.547	77.38
260.779	65.38
261.012	77.38
261.244	93.38
261.477	81.38
261.71	64.38
261.942	68.38
262.175	66.38
262.407	60.38
262.64	85.38
262.872	88.38
263.105	73.38
263.337	70.38
263.57	66.38
263.802	75.38
264.035	72.38
264.267	65.38
264.499	74.38
264.732	78.38
264.964	68.38
265.197	74.38
265.429	84.38
265.661	76.38
265.894	76.38
266.126	83.38
266.358	76.38
266.591	74.38
266.823	78.38
267.055	72.38
267.287	82.38
267.52	85.38
267.752	86.38
267.984	82.38
268.216	65.38
268.448	68.38
268.681	75.38
268.913	81.38
269.145	80.38
269.377	80.38
269.609	74.38
269.841	76.38
270.073	68.38
270.306	57.38
270.538	77.38
270.77	80.38
271.002	81.38
271.234	76.38
271.466	82.38
271.698	84.38
271.93	86.38
272.162	74.38
272.394	87.38
272.626	56.38
272.858	70.38
273.09	76.38
273.322	73.38
273.553	81.38
273.785	88.38
274.017	61.38
274.249	76.38
274.481	74.38
274.713	73.38
274.945	93.38
275.176	77.38
275.408	69.38
275.64	81.38
275.872	79.38
276.104	77.38
276.335	74.38
276.567	93.38
276.799	83.38
277.031	75.38
277.262	73.38
277.494	84.38
277.726	84.38
277.957	76.38
278.189	69.38
278.421	89.38
278.652	81.38
278.884	77.38
279.115	94.38
279.347	60.38
279.579	64.38
279.81	89.38
280.042	86.38
280.273	78.38
280.505	84.38
280.736	73.38
280.968	76.38
281.199	76.38
281.431	69.38
281.662	80.38
281.894	79.38
282.125	80.38
282.356	88.38
282.588	77.38
282.819	80.38
283.051	87.38
283.282	62.38
283.513	72.38
283.745	89.38
283.976	77.38
284.207	59.38
284.439	71.38
284.67	89.38
284.901	72.38
285.132	81.38
285.364	76.38
285.595	80.38
285.826	81.38
286.057	77.38
286.288	78.38
286.52	82.38
286.751	75.38
286.982	96.38
287.213	83.38
287.444	81.38
287.675	89.38
287.906	78.38
288.138	78.38
288.369	77.38
288.6	85.38
288.831	73.38
289.062	83.38
289.293	70.38
289.524	65.38
289.755	70.38
289.986	77.38
290.217	60.38
290.448	71.38
290.679	84.38
290.91	86.38
291.141	85.38
291.371	76.38
291.602	73.38
291.833	79.38
292.064	76.38
292.295	86.38
292.526	72.38
292.757	77.38
292.987	74.38
293.218	75.38
293.449	65.38
293.68	86.38
293.91	80.38
294.141	96.38
294.372	75.38
294.603	85.38
294.833	63.38
295.064	71.38
295.295	94.38
295.525	69.38
295.756	70.38
295.987	77.38
296.217	83.38
296.448	77.38
296.679	85.38
296.909	81.38
297.14	72.38
297.37	87.38
297.601	67.38
297.831	75.38
298.062	88.38
298.292	80.38
298.523	73.38
298.753	79.38
298.984	88.38
299.214	90.38
299.445	74.38
299.675	69.38
299.905	84.38
300.136	85.38
300.366	92.38
300.597	72.38
300.827	80.38
301.057	80.38
301.288	91.38
301.518	84.38
301.748	85.38
301.979	105.38
302.209	76.38
302.439	90.38
302.669	73.38
302.9	75.38
303.13	90.38
303.36	80.38
303.59	73.38
303.82	79.38
304.051	90.38
304.281	80.38
304.511	80.38
304.741	78.38
304.971	92.38
305.201	76.38
305.431	90.38
305.661	93.38
305.891	75.38
306.121	86.38
306.352	77.38
306.582	67.38
306.812	83.38
307.042	67.38
307.272	80.38
307.502	84.38
307.731	76.38
307.961	80.38
308.191	79.38
308.421	64.38
308.651	68.38
308.881	74.38
309.111	74.38
309.341	83.38
309.571	83.38
309.8	74.38
310.03	78.38
310.26	76.38
310.49	83.38
310.72	76.38
310.949	90.38
311.179	76.38
311.409	80.38
311.639	100.38
311.868	78.38
312.098	75.38
312.328	85.38
312.557	90.38
312.787	77.38
313.017	80.38
313.246	77.38
313.476	80.38
313.706	80.38
313.935	75.38
314.165	75.38
314.394	87.38
314.624	90.38
314.853	82.38
315.083	77.38
315.312	81.38
315.542	69.38
315.771	89.38
316.001	99.38
316.23	82.38
316.46	83.38
316.689	82.38
316.919	69.38
317.148	73.38
317.377	80.38
317.607	75.38
317.836	74.38
318.065	84.38
318.295	80.38
318.524	78.38
318.753	85.38
318.983	81.38
319.212	68.38
319.441	70.38
319.67	71.38
319.9	73.38
320.129	86.38
320.358	79.38
320.587	90.38
320.816	80.38
321.046	67.38
321.275	68.38
321.504	77.38
321.733	96.38
321.962	80.38
322.191	85.38
322.42	81.38
322.649	81.38
322.878	70.38
323.108	86.38
323.337	73.38
323.566	75.38
323.795	70.38
324.024	81.38
324.253	72.38
324.482	66.38
324.71	71.38
324.939	85.38
325.168	85.38
325.397	85.38
325.626	58.38
325.855	67.38
326.084	81.38
326.313	80.38
326.542	72.38
326.77	70.38
326.999	77.38
327.228	76.38
327.457	78.38
327.686	74.38
327.914	68.38
328.143	86.38
328.372	67.38
328.6	81.38
328.829	72.38
329.058	79.38
329.287	76.38
329.515	76.38
329.744	81.38
329.972	75.38
330.201	69.38
330.43	68.38
330.658	79.38
330.887	75.38
331.115	78.38
331.344	77.38
331.572	90.38
331.801	77.38
332.03	82.38
332.258	84.38
332.486	66.38
332.715	71.38
332.943	67.38
333.172	83.38
333.4	81.38
333.629	80.38
333.857	90.38
334.085	78.38
334.314	70.38
334.542	77.38
334.771	79.38
334.999	78.38
335.227	79.38
335.455	76.38
335.684	78.38
335.912	69.38
336.14	83.38
336.369	95.38
336.597	71.38
336.825	90.38
337.053	86.38
337.281	79.38
337.51	88.38
337.738	71.38
337.966	72.38
338.194	75.38
338.422	91.38
338.65	94.38
338.878	83.38
339.106	82.38
339.334	78.38
339.562	72.38
339.79	76.38
340.018	67.38
340.246	82.38
340.474	82.38
340.702	75.38
340.93	64.38
341.158	64.38
341.386	83.38
341.614	61.38
341.842	65.38
342.07	83.38
342.298	84.38
342.526	81.38
342.754	84.38
342.981	82.38
343.209	81.38
343.437	94.38
343.665	89.38
343.893	79.38
344.12	76.38
344.348	83.38
344.576	93.38
344.804	90.38
345.031	88.38
345.259	80.38
345.487	84.38
345.714	63.38
345.942	75.38
346.17	67.38
346.397	79.38
346.625	62.38
346.853	89.38
347.08	72.38
347.308	85.38
347.535	92.38
347.763	86.38
347.99	75.38
348.218	79.38
348.445	78.38
348.673	86.38
348.9	88.38
349.128	82.38
349.355	74.38
349.583	70.38
349.81	74.38
350.037	82.38
350.265	80.38
350.492	82.38
350.72	73.38
350.947	81.38
351.174	78.38
351.402	79.38
351.629	72.38
351.856	74.38
352.083	84.38
352.311	80.38
352.538	71.38
352.765	79.38
352.992	100.38
353.22	72.38
353.447	71.38
353.674	82.38
353.901	68.38
354.128	79.38
354.355	76.38
354.583	70.38
354.81	79.38
355.037	72.38
355.264	76.38
355.491	71.38
355.718	60.38
355.945	86.38
356.172	84.38
356.399	74.38
356.626	86.38
356.853	78.38
357.08	75.38
357.307	68.38
357.534	84.38
357.761	79.38
357.988	64.38
358.215	76.38
358.441	74.38
358.668	78.38
358.895	60.38
359.122	89.38
359.349	83.38
359.576	78.38
359.802	81.38
360.029	76.38
360.256	81.38
360.483	92.38
360.709	85.38
360.936	85.38
361.163	78.38
361.39	76.38
361.616	89.38
361.843	88.38
362.07	87.38
362.296	78.38
362.523	84.38
362.749	93.38
362.976	78.38
363.203	86.38
363.429	84.38
363.656	72.38
363.882	88.38
364.109	98.38
364.335	70.38
364.562	83.38
364.788	76.38
365.015	73.38
365.241	80.38
365.468	79.38
365.694	79.38
365.92	85.38
366.147	82.38
366.373	69.38
366.599	76.38
366.826	85.38
367.052	76.38
367.278	90.38
367.505	80.38
367.731	87.38
367.957	72.38
368.184	74.38
368.41	80.38
368.636	71.38
368.862	66.38
369.089	90.38
369.315	87.38
369.541	92.38
369.767	78.38
369.993	62.38
370.219	76.38
370.445	84.38
370.672	82.38
370.898	88.38
371.124	67.38
371.35	67.38
371.576	61.38
371.802	70.38
372.028	78.38
372.254	89.38
372.48	79.38
372.706	72.38
372.932	74.38
373.158	78.38
373.384	83.38
373.61	86.38
373.835	81.38
374.061	80.38
374.287	80.38
374.513	78.38
374.739	86.38
374.965	82.38
375.191	82.38
375.416	90.38
375.642	84.38
375.868	72.38
376.094	67.38
376.319	82.38
376.545	88.38
376.771	69.38
376.997	76.38
377.222	72.38
377.448	99.38
377.674	84.38
377.899	86.38
378.125	76.38
378.35	86.38
378.576	72.38
378.802	69.38
379.027	88.38
379.253	84.38
379.478	74.38
379.704	80.38
379.929	86.38
380.155	86.38
380.38	67.38
380.606	83.38
380.831	73.38
381.057	97.38
381.282	84.38
381.507	89.38
381.733	80.38
381.958	70.38
382.184	76.38
382.409	77.38
382.634	70.38
382.86	77.38
383.085	86.38
383.31	75.38
383.535	71.38
383.761	66.38
383.986	89.38
384.211	75.38
384.436	61.38
384.662	69.38
384.887	73.38
385.112	85.38
385.337	81.38
385.562	66.38
385.787	76.38
386.013	68.38
386.238	83.38
386.463	79.38
386.688	81.38
386.913	84.38
387.138	84.38
387.363	82.38
387.588	92.38
387.813	72.38
388.038	76.38
388.263	86.38
388.488	68.38
388.713	79.38
388.938	83.38
389.163	82.38
389.387	81.38
389.612	62.38
389.837	54.38
390.062	72.38
390.287	83.38
390.512	72.38
390.736	85.38
390.961	75.38
391.186	69.38
391.411	74.38
391.636	76.38
391.86	73.38
392.085	69.38
392.31	78.38
392.534	74.38
392.759	79.38
392.984	67.38
393.208	82.38
393.433	75.38
393.658	74.38
393.882	64.38
394.107	82.38
394.331	86.38
394.556	97.38
394.78	89.38
395.005	73.38
395.229	70.38
395.454	77.38
395.678	78.38
395.903	65.38
396.127	65.38
396.352	80.38
396.576	70.38
396.801	77.38
397.025	79.38
397.249	84.38
397.474	76.38
397.698	75.38
397.922	70.38
398.147	68.38
398.371	89.38
398.595	91.38
398.82	77.38
399.044	93.38
399.268	81.38
399.492	76.38
399.717	66.38
399.941	70.38
400.165	80.38
400.389	79.38
400.613	75.38
400.837	62.38
401.062	82.38
401.286	81.38
401.51	77.38
401.734	74.38
401.958	77.38
402.182	75.38
402.406	68.38
402.63	82.38
402.854	86.38
403.078	75.38
403.302	68.38
403.526	74.38
403.75	73.38
403.974	83.38
404.198	64.38
404.422	70.38
404.645	76.38
404.869	74.38
405.093	82.38
405.317	79.38
405.541	88.38
405.765	90.38
405.988	69.38
406.212	73.38
406.436	69.38
406.66	64.38
406.883	69.38
407.107	84.38
407.331	74.38
407.555	79.38
407.778	81.38
408.002	88.38
408.226	81.38
408.449	75.38
408.673	68.38
408.896	66.38
409.12	65.38
409.344	88.38
409.567	68.38
409.791	80.38
410.014	77.38
410.238	72.38
410.461	73.38
410.685	89.38
410.908	73.38
411.132	82.38
411.355	79.38
411.578	87.38
411.802	79.38
412.025	82.38
412.249	63.38
412.472	68.38
412.695	60.38
412.919	82.38
413.142	90.38
413.365	77.38
413.589	64.38
413.812	75.38
414.035	79.38
414.258	80.38
414.482	74.38
414.705	62.38
414.928	67.38
415.151	86.38
415.374	75.38
415.597	80.38
415.821	68.38
416.044	94.38
416.267	78.38
416.49	83.38
416.713	81.38
416.936	81.38
417.159	70.38
417.382	77.38
417.605	77.38
417.828	90.38
418.051	75.38
418.274	85.38
418.497	77.38
418.72	80.38
418.943	82.38
419.166	69.38
419.389	73.38
419.611	87.38
419.834	74.38
420.057	78.38
420.28	82.38
420.503	81.38
420.726	83.38
420.948	80.38
421.171	63.38
421.394	80.38
421.617	76.38
421.839	63.38
422.062	62.38
422.285	65.38
422.507	73.38
422.73	76.38
422.953	78.38
423.175	69.38
423.398	82.38
423.621	87.38
423.843	66.38
424.066	74.38
424.288	63.38
424.511	70.38
424.733	79.38
424.956	90.38
425.178	71.38
425.401	73.38
425.623	68.38
425.846	78.38
426.068	71.38
426.291	86.38
426.513	73.38
426.735	70.38
426.958	81.38
427.18	72.38
427.402	76.38
427.625	81.38
427.847	58.38
428.069	71.38
428.292	74.38
428.514	69.38
428.736	71.38
428.958	82.38
429.181	72.38
429.403	70.38
429.625	69.38
429.847	65.38
430.069	81.38
430.292	87.38
430.514	68.38
430.736	87.38
430.958	68.38
431.18	79.38
431.402	89.38
431.624	69.38
431.846	76.38
432.068	82.38
432.29	90.38
432.512	92.38
432.734	73.38
432.956	66.38
433.178	77.38
433.4	68.38
433.622	95.38
433.844	84.38
434.066	69.38
434.287	82.38
434.509	68.38
434.731	75.38
434.953	72.38
435.175	90.38
435.397	73.38
435.618	73.38
435.84	82.38
436.062	65.38
436.284	77.38
436.505	72.38
436.727	60.38
436.949	79.38
437.17	79.38
437.392	59.38
437.614	64.38
437.835	78.38
438.057	68.38
438.278	61.38
438.5	70.38
438.721	68.38
438.943	76.38
439.165	77.38
439.386	63.38
439.608	70.38
439.829	80.38
440.05	72.38
440.272	82.38
440.493	65.38
440.715	65.38
440.936	75.38
441.158	87.38
441.379	74.38
441.6	81.38
441.822	79.38
442.043	71.38
442.264	88.38
442.486	86.38
442.707	79.38
442.928	71.38
443.149	85.38
443.371	65.38
443.592	87.38
443.813	57.38
444.034	86.38
444.255	77.38
444.476	74.38
444.698	80.38
444.919	76.38
445.14	133.38
445.361	110.38
445.582	86.38
445.803	79.38
446.024	86.38
446.245	93.38
446.466	82.38
446.687	62.38
446.908	78.38
447.129	77.38
447.35	83.38
447.571	77.38
447.792	76.38
448.013	72.38
448.234	76.38
448.455	75.38
448.675	65.38
448.896	76.38
449.117	80.38
449.338	60.38
449.559	81.38
449.779	71.38
450	83.38
450.221	75.38
450.442	79.38
450.662	75.38
450.883	66.38
451.104	69.38
451.324	77.38
451.545	81.38
451.766	86.38
451.986	73.38
452.207	81.38
452.428	73.38
452.648	75.38
452.869	69.38
453.089	70.38
453.31	73.38
453.53	68.38
453.751	76.38
453.971	93.38
454.192	78.38
454.412	75.38
454.633	84.38
454.853	86.38
455.073	58.38
455.294	64.38
455.514	87.38
455.734	86.38
455.955	76.38
456.175	81.38
456.395	81.38
456.616	74.38
456.836	74.38
457.056	81.38
457.276	78.38
457.497	89.38
457.717	67.38
457.937	78.38
458.157	82.38
458.377	88.38
458.598	77.38
458.818	72.38
459.038	70.38
459.258	71.38
459.478	87.38
459.698	66.38
459.918	70.38
460.138	73.38
460.358	78.38
460.578	81.38
460.798	94.38
461.018	68.38
461.238	76.38
461.458	73.38
461.678	91.38
461.898	78.38
462.118	74.38
462.338	79.38
462.558	87.38
462.777	74.38
462.997	72.38
463.217	76.38
463.437	82.38
463.657	78.38
463.876	78.38
464.096	71.38
464.316	78.38
464.536	84.38
464.755	79.38
464.975	72.38
465.195	65.38
465.414	78.38
465.634	74.38
465.854	70.38
466.073	72.38
466.293	70.38
466.512	73.38
466.732	73.38
466.951	77.38
467.171	78.38
467.391	72.38
467.61	74.38
467.829	86.38
468.049	80.38
468.268	76.38
468.488	72.38
468.707	75.38
468.927	70.38
469.146	69.38
469.365	69.38
469.585	57.38
469.804	81.38
470.023	84.38
470.243	70.38
470.462	82.38
470.681	76.38
470.901	68.38
471.12	69.38
471.339	69.38
471.558	80.38
471.777	84.38
471.997	84.38
472.216	71.38
472.435	67.38
472.654	78.38
472.873	76.38
473.092	77.38
473.311	92.38
473.53	81.38
473.749	84.38
473.968	83.38
474.187	89.38
474.406	84.38
474.625	65.38
474.844	68.38
475.063	89.38
475.282	70.38
475.501	66.38
475.72	93.38
475.939	71.38
476.158	79.38
476.377	93.38
476.596	78.38
476.814	65.38
477.033	80.38
477.252	82.38
477.471	79.38
477.69	85.38
477.908	85.38
478.127	68.38
478.346	73.38
478.564	80.38
478.783	100.38
479.002	80.38
479.22	77.38
479.439	80.38
479.658	85.38
479.876	73.38
480.095	70.38
480.313	92.38
480.532	74.38
480.751	76.38
480.969	72.38
481.188	61.38
481.406	78.38
481.624	93.38
481.843	73.38
482.061	84.38
482.28	78.38
482.498	75.38
482.717	82.38
482.935	75.38
483.153	72.38
483.372	68.38
483.59	84.38
483.808	78.38
484.027	85.38
484.245	74.38
484.463	60.38
484.681	85.38
484.9	79.38
485.118	87.38
485.336	68.38
485.554	75.38
485.772	73.38
485.99	70.38
486.209	74.38
486.427	83.38
486.645	73.38
486.863	64.38
487.081	85.38
487.299	86.38
487.517	81.38
487.735	99.38
487.953	85.38
488.171	83.38
488.389	74.38
488.607	72.38
488.825	66.38
489.043	69.38
489.261	79.38
489.479	77.38
489.696	78.38
489.914	74.38
490.132	79.38
490.35	72.38
490.568	64.38
490.786	77.38
491.003	82.38
491.221	72.38
491.439	63.38
491.657	61.38
491.874	67.38
492.092	72.38
492.31	89.38
492.527	74.38
492.745	72.38
492.963	76.38
493.18	73.38
493.398	69.38
493.615	93.38
493.833	75.38
494.05	83.38
494.268	80.38
494.485	86.38
494.703	69.38
494.92	92.38
495.138	89.38
495.355	89.38
495.573	97.38
495.79	70.38
496.008	83.38
496.225	82.38
496.442	81.38
496.66	71.38
496.877	76.38
497.094	84.38
497.312	74.38
497.529	68.38
497.746	64.38
497.963	79.38
498.181	72.38
498.398	82.38
498.615	77.38
498.832	85.38
499.049	77.38
499.267	73.38
499.484	75.38
499.701	84.38
499.918	79.38
500.135	74.38
500.352	79.38
500.569	82.38
500.786	77.38
501.003	89.38
501.22	83.38
501.437	83.38
501.654	80.38
501.871	69.38
502.088	77.38
502.305	68.38
502.522	68.38
502.739	89.38
502.956	91.38
503.172	81.38
503.389	85.38
503.606	69.38
503.823	86.38
504.04	76.38
504.256	78.38
504.473	72.38
504.69	85.38
504.907	83.38
505.123	79.38
505.34	74.38
505.557	74.38
505.773	89.38
505.99	79.38
506.207	64.38
506.423	87.38
506.64	78.38
506.856	72.38
507.073	87.38
507.289	74.38
507.506	83.38
507.722	67.38
507.939	84.38
508.155	86.38
508.372	77.38
508.588	74.38
508.805	83.38
509.021	76.38
509.238	83.38
509.454	89.38
509.67	83.38
509.887	74.38
510.103	78.38
510.319	80.38
510.536	91.38
510.752	69.38
510.968	80.38
511.184	85.38
511.401	70.38
511.617	80.38
511.833	71.38
512.049	79.38
512.265	80.38
512.481	75.38
512.698	89.38
512.914	82.38
513.13	73.38
513.346	65.38
513.562	76.38
513.778	81.38
513.994	77.38
514.21	77.38
514.426	96.38
514.642	77.38
514.858	83.38
515.074	87.38
515.29	84.38
515.506	77.38
515.721	81.38
515.937	76.38
516.153	69.38
516.369	90.38
516.585	60.38
516.801	88.38
517.016	80.38
517.232	78.38
517.448	90.38
517.664	67.38
517.879	70.38
518.095	60.38
518.311	77.38
518.527	78.38
518.742	81.38
518.958	73.38
519.173	73.38
519.389	79.38
519.605	66.38
519.82	84.38
520.036	69.38
