Data from Dirtnoheat1_HRD10591_00011.txt Node
Date: Fri Dec 27 15:18:29 EST 2024
User: Yrep
Spectrometer: HR+D1059
Trigger mode: 1
Integration Time (sec): 1.000000E-1
Scans to average: 1
Electric dark correction enabled: true
Nonlinearity correction enabled: false
Boxcar width: 0
XAxis mode: Wavelengths
Number of Pixels in Spectrum: 2048
>>>>>Begin Spectral Data<<<<<
223.165	-12.38
223.4	-12.38
223.635	-12.38
223.869	-20.38
224.104	-18.38
224.338	-5.38
224.573	-19.38
224.808	-13.38
225.042	-3.38
225.277	-6.38
225.511	-3.38
225.746	0.62
225.98	8.62
226.215	-1.38
226.449	23.62
226.683	13.62
226.918	20.62
227.152	36.62
227.387	31.62
227.621	36.62
227.856	61.62
228.09	56.62
228.324	50.62
228.559	49.62
228.793	59.62
229.027	67.62
229.262	61.62
229.496	67.62
229.73	66.62
229.964	71.62
230.199	81.62
230.433	78.62
230.667	71.62
230.901	75.62
231.136	76.62
231.37	78.62
231.604	73.62
231.838	82.62
232.072	77.62
232.306	82.62
232.541	74.62
232.775	84.62
233.009	79.62
233.243	80.62
233.477	74.62
233.711	89.62
233.945	94.62
234.179	81.62
234.413	75.62
234.647	62.62
234.881	79.62
235.115	88.62
235.349	79.62
235.583	69.62
235.817	75.62
236.051	70.62
236.285	80.62
236.519	73.62
236.753	80.62
236.987	81.62
237.221	64.62
237.455	82.62
237.689	66.62
237.922	80.62
238.156	64.62
238.39	63.62
238.624	80.62
238.858	87.62
239.091	69.62
239.325	70.62
239.559	79.62
239.793	83.62
240.027	75.62
240.26	72.62
240.494	61.62
240.728	78.62
240.961	82.62
241.195	67.62
241.429	77.62
241.662	66.62
241.896	60.62
242.13	71.62
242.363	70.62
242.597	70.62
242.83	66.62
243.064	85.62
243.298	84.62
243.531	78.62
243.765	78.62
243.998	61.62
244.232	80.62
244.465	78.62
244.699	83.62
244.932	79.62
245.166	80.62
245.399	65.62
245.633	79.62
245.866	67.62
246.099	63.62
246.333	72.62
246.566	78.62
246.8	85.62
247.033	90.62
247.266	82.62
247.5	63.62
247.733	85.62
247.966	72.62
248.2	66.62
248.433	78.62
248.666	86.62
248.899	82.62
249.133	83.62
249.366	70.62
249.599	88.62
249.832	83.62
250.066	71.62
250.299	66.62
250.532	76.62
250.765	81.62
250.998	77.62
251.231	84.62
251.465	76.62
251.698	76.62
251.931	82.62
252.164	75.62
252.397	89.62
252.63	81.62
252.863	78.62
253.096	64.62
253.329	66.62
253.562	74.62
253.795	87.62
254.028	90.62
254.261	79.62
254.494	73.62
254.727	88.62
254.96	71.62
255.193	81.62
255.426	77.62
255.659	82.62
255.892	76.62
256.124	85.62
256.357	78.62
256.59	74.62
256.823	73.62
257.056	85.62
257.289	86.62
257.521	74.62
257.754	76.62
257.987	82.62
258.22	82.62
258.452	81.62
258.685	87.62
258.918	64.62
259.151	80.62
259.383	86.62
259.616	91.62
259.849	65.62
260.081	74.62
260.314	78.62
260.547	89.62
260.779	78.62
261.012	91.62
261.244	76.62
261.477	91.62
261.71	79.62
261.942	81.62
262.175	69.62
262.407	79.62
262.64	95.62
262.872	89.62
263.105	80.62
263.337	78.62
263.57	89.62
263.802	85.62
264.035	95.62
264.267	72.62
264.499	77.62
264.732	81.62
264.964	77.62
265.197	88.62
265.429	87.62
265.661	88.62
265.894	78.62
266.126	82.62
266.358	72.62
266.591	65.62
266.823	87.62
267.055	86.62
267.287	90.62
267.52	94.62
267.752	80.62
267.984	82.62
268.216	67.62
268.448	86.62
268.681	78.62
268.913	95.62
269.145	80.62
269.377	88.62
269.609	83.62
269.841	89.62
270.073	74.62
270.306	78.62
270.538	81.62
270.77	77.62
271.002	88.62
271.234	79.62
271.466	84.62
271.698	83.62
271.93	82.62
272.162	75.62
272.394	89.62
272.626	71.62
272.858	79.62
273.09	80.62
273.322	73.62
273.553	69.62
273.785	81.62
274.017	88.62
274.249	81.62
274.481	73.62
274.713	86.62
274.945	77.62
275.176	81.62
275.408	77.62
275.64	74.62
275.872	75.62
276.104	75.62
276.335	86.62
276.567	87.62
276.799	75.62
277.031	77.62
277.262	78.62
277.494	87.62
277.726	77.62
277.957	85.62
278.189	81.62
278.421	80.62
278.652	79.62
278.884	89.62
279.115	80.62
279.347	87.62
279.579	92.62
279.81	91.62
280.042	69.62
280.273	88.62
280.505	80.62
280.736	83.62
280.968	80.62
281.199	81.62
281.431	81.62
281.662	88.62
281.894	89.62
282.125	75.62
282.356	88.62
282.588	74.62
282.819	66.62
283.051	92.62
283.282	88.62
283.513	86.62
283.745	91.62
283.976	87.62
284.207	86.62
284.439	77.62
284.67	75.62
284.901	88.62
285.132	94.62
285.364	88.62
285.595	86.62
285.826	87.62
286.057	75.62
286.288	70.62
286.52	83.62
286.751	84.62
286.982	85.62
287.213	71.62
287.444	83.62
287.675	84.62
287.906	74.62
288.138	78.62
288.369	85.62
288.6	79.62
288.831	70.62
289.062	87.62
289.293	77.62
289.524	77.62
289.755	75.62
289.986	89.62
290.217	80.62
290.448	81.62
290.679	71.62
290.91	73.62
291.141	85.62
291.371	86.62
291.602	90.62
291.833	88.62
292.064	66.62
292.295	85.62
292.526	90.62
292.757	91.62
292.987	80.62
293.218	94.62
293.449	75.62
293.68	86.62
293.91	80.62
294.141	82.62
294.372	89.62
294.603	97.62
294.833	88.62
295.064	79.62
295.295	81.62
295.525	70.62
295.756	86.62
295.987	81.62
296.217	78.62
296.448	81.62
296.679	85.62
296.909	81.62
297.14	95.62
297.37	88.62
297.601	90.62
297.831	78.62
298.062	98.62
298.292	93.62
298.523	96.62
298.753	74.62
298.984	87.62
299.214	79.62
299.445	87.62
299.675	77.62
299.905	81.62
300.136	73.62
300.366	67.62
300.597	78.62
300.827	91.62
301.057	102.62
301.288	82.62
301.518	84.62
301.748	82.62
301.979	109.62
302.209	76.62
302.439	80.62
302.669	80.62
302.9	80.62
303.13	82.62
303.36	88.62
303.59	89.62
303.82	87.62
304.051	84.62
304.281	72.62
304.511	85.62
304.741	91.62
304.971	86.62
305.201	82.62
305.431	84.62
305.661	89.62
305.891	71.62
306.121	81.62
306.352	81.62
306.582	81.62
306.812	97.62
307.042	83.62
307.272	78.62
307.502	79.62
307.731	86.62
307.961	73.62
308.191	85.62
308.421	90.62
308.651	75.62
308.881	78.62
309.111	71.62
309.341	75.62
309.571	71.62
309.8	81.62
310.03	81.62
310.26	80.62
310.49	81.62
310.72	82.62
310.949	90.62
311.179	83.62
311.409	84.62
311.639	98.62
311.868	88.62
312.098	85.62
312.328	89.62
312.557	80.62
312.787	86.62
313.017	78.62
313.246	89.62
313.476	75.62
313.706	91.62
313.935	80.62
314.165	92.62
314.394	71.62
314.624	83.62
314.853	86.62
315.083	80.62
315.312	96.62
315.542	77.62
315.771	87.62
316.001	70.62
316.23	85.62
316.46	76.62
316.689	89.62
316.919	86.62
317.148	91.62
317.377	88.62
317.607	79.62
317.836	85.62
318.065	92.62
318.295	92.62
318.524	88.62
318.753	81.62
318.983	90.62
319.212	82.62
319.441	90.62
319.67	100.62
319.9	89.62
320.129	95.62
320.358	78.62
320.587	88.62
320.816	83.62
321.046	77.62
321.275	76.62
321.504	94.62
321.733	70.62
321.962	90.62
322.191	88.62
322.42	92.62
322.649	81.62
322.878	78.62
323.108	89.62
323.337	89.62
323.566	79.62
323.795	91.62
324.024	87.62
324.253	91.62
324.482	75.62
324.71	72.62
324.939	86.62
325.168	84.62
325.397	92.62
325.626	90.62
325.855	72.62
326.084	82.62
326.313	70.62
326.542	78.62
326.77	72.62
326.999	73.62
327.228	83.62
327.457	81.62
327.686	80.62
327.914	66.62
328.143	79.62
328.372	80.62
328.6	86.62
328.829	67.62
329.058	74.62
329.287	83.62
329.515	66.62
329.744	89.62
329.972	80.62
330.201	83.62
330.43	83.62
330.658	82.62
330.887	68.62
331.115	86.62
331.344	74.62
331.572	99.62
331.801	90.62
332.03	72.62
332.258	74.62
332.486	73.62
332.715	87.62
332.943	78.62
333.172	79.62
333.4	85.62
333.629	85.62
333.857	76.62
334.085	82.62
334.314	80.62
334.542	81.62
334.771	81.62
334.999	80.62
335.227	69.62
335.455	94.62
335.684	78.62
335.912	75.62
336.14	88.62
336.369	88.62
336.597	91.62
336.825	88.62
337.053	85.62
337.281	79.62
337.51	87.62
337.738	97.62
337.966	105.62
338.194	81.62
338.422	84.62
338.65	84.62
338.878	76.62
339.106	80.62
339.334	84.62
339.562	80.62
339.79	97.62
340.018	73.62
340.246	70.62
340.474	98.62
340.702	80.62
340.93	77.62
341.158	85.62
341.386	89.62
341.614	90.62
341.842	86.62
342.07	73.62
342.298	85.62
342.526	81.62
342.754	93.62
342.981	81.62
343.209	89.62
343.437	92.62
343.665	74.62
343.893	91.62
344.12	81.62
344.348	84.62
344.576	95.62
344.804	83.62
345.031	71.62
345.259	87.62
345.487	83.62
345.714	87.62
345.942	83.62
346.17	90.62
346.397	70.62
346.625	89.62
346.853	87.62
347.08	71.62
347.308	86.62
347.535	81.62
347.763	91.62
347.99	80.62
348.218	92.62
348.445	81.62
348.673	92.62
348.9	85.62
349.128	92.62
349.355	79.62
349.583	86.62
349.81	79.62
350.037	67.62
350.265	94.62
350.492	79.62
350.72	67.62
350.947	85.62
351.174	76.62
351.402	93.62
351.629	75.62
351.856	90.62
352.083	81.62
352.311	97.62
352.538	69.62
352.765	85.62
352.992	87.62
353.22	79.62
353.447	82.62
353.674	80.62
353.901	88.62
354.128	72.62
354.355	86.62
354.583	79.62
354.81	75.62
355.037	89.62
355.264	78.62
355.491	86.62
355.718	75.62
355.945	88.62
356.172	79.62
356.399	75.62
356.626	77.62
356.853	79.62
357.08	74.62
357.307	86.62
357.534	80.62
357.761	87.62
357.988	85.62
358.215	89.62
358.441	76.62
358.668	73.62
358.895	81.62
359.122	92.62
359.349	56.62
359.576	69.62
359.802	79.62
360.029	74.62
360.256	77.62
360.483	79.62
360.709	87.62
360.936	81.62
361.163	91.62
361.39	82.62
361.616	80.62
361.843	87.62
362.07	78.62
362.296	81.62
362.523	75.62
362.749	85.62
362.976	83.62
363.203	87.62
363.429	85.62
363.656	83.62
363.882	84.62
364.109	92.62
364.335	92.62
364.562	75.62
364.788	102.62
365.015	87.62
365.241	81.62
365.468	81.62
365.694	72.62
365.92	70.62
366.147	78.62
366.373	77.62
366.599	72.62
366.826	78.62
367.052	86.62
367.278	83.62
367.505	75.62
367.731	85.62
367.957	85.62
368.184	87.62
368.41	85.62
368.636	78.62
368.862	87.62
369.089	89.62
369.315	101.62
369.541	87.62
369.767	76.62
369.993	95.62
370.219	97.62
370.445	76.62
370.672	75.62
370.898	85.62
371.124	76.62
371.35	70.62
371.576	77.62
371.802	69.62
372.028	97.62
372.254	82.62
372.48	72.62
372.706	74.62
372.932	77.62
373.158	71.62
373.384	89.62
373.61	95.62
373.835	76.62
374.061	80.62
374.287	84.62
374.513	80.62
374.739	87.62
374.965	77.62
375.191	95.62
375.416	88.62
375.642	99.62
375.868	88.62
376.094	83.62
376.319	67.62
376.545	81.62
376.771	82.62
376.997	85.62
377.222	82.62
377.448	84.62
377.674	76.62
377.899	89.62
378.125	75.62
378.35	81.62
378.576	85.62
378.802	82.62
379.027	79.62
379.253	86.62
379.478	80.62
379.704	82.62
379.929	81.62
380.155	77.62
380.38	72.62
380.606	78.62
380.831	90.62
381.057	78.62
381.282	87.62
381.507	89.62
381.733	76.62
381.958	91.62
382.184	81.62
382.409	70.62
382.634	90.62
382.86	82.62
383.085	86.62
383.31	73.62
383.535	85.62
383.761	84.62
383.986	74.62
384.211	93.62
384.436	96.62
384.662	71.62
384.887	74.62
385.112	86.62
385.337	73.62
385.562	74.62
385.787	69.62
386.013	81.62
386.238	73.62
386.463	86.62
386.688	101.62
386.913	84.62
387.138	71.62
387.363	102.62
387.588	87.62
387.813	78.62
388.038	85.62
388.263	91.62
388.488	82.62
388.713	101.62
388.938	79.62
389.163	79.62
389.387	92.62
389.612	89.62
389.837	87.62
390.062	77.62
390.287	87.62
390.512	88.62
390.736	84.62
390.961	80.62
391.186	89.62
391.411	82.62
391.636	72.62
391.86	95.62
392.085	86.62
392.31	66.62
392.534	73.62
392.759	91.62
392.984	96.62
393.208	86.62
393.433	74.62
393.658	81.62
393.882	78.62
394.107	68.62
394.331	86.62
394.556	79.62
394.78	96.62
395.005	87.62
395.229	74.62
395.454	81.62
395.678	83.62
395.903	76.62
396.127	77.62
396.352	85.62
396.576	77.62
396.801	87.62
397.025	77.62
397.249	73.62
397.474	97.62
397.698	79.62
397.922	69.62
398.147	90.62
398.371	97.62
398.595	74.62
398.82	67.62
399.044	89.62
399.268	87.62
399.492	81.62
399.717	84.62
399.941	78.62
400.165	84.62
400.389	86.62
400.613	80.62
400.837	77.62
401.062	86.62
401.286	87.62
401.51	75.62
401.734	80.62
401.958	77.62
402.182	82.62
402.406	73.62
402.63	78.62
402.854	81.62
403.078	64.62
403.302	81.62
403.526	83.62
403.75	70.62
403.974	75.62
404.198	77.62
404.422	71.62
404.645	94.62
404.869	86.62
405.093	87.62
405.317	74.62
405.541	88.62
405.765	76.62
405.988	66.62
406.212	80.62
406.436	84.62
406.66	94.62
406.883	75.62
407.107	81.62
407.331	77.62
407.555	90.62
407.778	69.62
408.002	83.62
408.226	75.62
408.449	86.62
408.673	72.62
408.896	83.62
409.12	93.62
409.344	79.62
409.567	79.62
409.791	72.62
410.014	107.62
410.238	81.62
410.461	75.62
410.685	74.62
410.908	69.62
411.132	89.62
411.355	89.62
411.578	86.62
411.802	78.62
412.025	69.62
412.249	83.62
412.472	88.62
412.695	89.62
412.919	75.62
413.142	91.62
413.365	71.62
413.589	94.62
413.812	82.62
414.035	79.62
414.258	80.62
414.482	89.62
414.705	91.62
414.928	62.62
415.151	76.62
415.374	71.62
415.597	90.62
415.821	79.62
416.044	78.62
416.267	87.62
416.49	86.62
416.713	90.62
416.936	81.62
417.159	79.62
417.382	77.62
417.605	76.62
417.828	85.62
418.051	77.62
418.274	80.62
418.497	86.62
418.72	77.62
418.943	87.62
419.166	82.62
419.389	85.62
419.611	86.62
419.834	93.62
420.057	81.62
420.28	83.62
420.503	82.62
420.726	83.62
420.948	84.62
421.171	87.62
421.394	78.62
421.617	63.62
421.839	74.62
422.062	77.62
422.285	85.62
422.507	80.62
422.73	85.62
422.953	79.62
423.175	95.62
423.398	81.62
423.621	82.62
423.843	78.62
424.066	78.62
424.288	82.62
424.511	78.62
424.733	82.62
424.956	84.62
425.178	81.62
425.401	82.62
425.623	83.62
425.846	89.62
426.068	77.62
426.291	84.62
426.513	81.62
426.735	91.62
426.958	91.62
427.18	96.62
427.402	79.62
427.625	90.62
427.847	88.62
428.069	80.62
428.292	79.62
428.514	80.62
428.736	80.62
428.958	78.62
429.181	86.62
429.403	69.62
429.625	78.62
429.847	85.62
430.069	84.62
430.292	82.62
430.514	80.62
430.736	67.62
430.958	76.62
431.18	84.62
431.402	77.62
431.624	92.62
431.846	78.62
432.068	97.62
432.29	87.62
432.512	90.62
432.734	82.62
432.956	80.62
433.178	80.62
433.4	95.62
433.622	85.62
433.844	75.62
434.066	76.62
434.287	77.62
434.509	79.62
434.731	92.62
434.953	85.62
435.175	74.62
435.397	90.62
435.618	64.62
435.84	91.62
436.062	75.62
436.284	83.62
436.505	86.62
436.727	78.62
436.949	76.62
437.17	81.62
437.392	82.62
437.614	82.62
437.835	71.62
438.057	73.62
438.278	73.62
438.5	82.62
438.721	71.62
438.943	71.62
439.165	80.62
439.386	85.62
439.608	87.62
439.829	71.62
440.05	79.62
440.272	65.62
440.493	87.62
440.715	89.62
440.936	77.62
441.158	81.62
441.379	74.62
441.6	77.62
441.822	94.62
442.043	72.62
442.264	67.62
442.486	88.62
442.707	87.62
442.928	84.62
443.149	78.62
443.371	98.62
443.592	68.62
443.813	82.62
444.034	77.62
444.255	76.62
444.476	78.62
444.698	94.62
444.919	79.62
445.14	130.62
445.361	95.62
445.582	81.62
445.803	97.62
446.024	84.62
446.245	91.62
446.466	88.62
446.687	80.62
446.908	82.62
447.129	80.62
447.35	75.62
447.571	71.62
447.792	93.62
448.013	85.62
448.234	86.62
448.455	86.62
448.675	81.62
448.896	84.62
449.117	81.62
449.338	90.62
449.559	92.62
449.779	81.62
450	83.62
450.221	88.62
450.442	76.62
450.662	64.62
450.883	67.62
451.104	102.62
451.324	75.62
451.545	93.62
451.766	93.62
451.986	83.62
452.207	83.62
452.428	73.62
452.648	71.62
452.869	82.62
453.089	79.62
453.31	90.62
453.53	95.62
453.751	75.62
453.971	77.62
454.192	77.62
454.412	87.62
454.633	80.62
454.853	84.62
455.073	82.62
455.294	77.62
455.514	73.62
455.734	73.62
455.955	86.62
456.175	73.62
456.395	66.62
456.616	79.62
456.836	79.62
457.056	78.62
457.276	80.62
457.497	75.62
457.717	90.62
457.937	72.62
458.157	78.62
458.377	82.62
458.598	75.62
458.818	92.62
459.038	69.62
459.258	86.62
459.478	87.62
459.698	83.62
459.918	80.62
460.138	78.62
460.358	67.62
460.578	84.62
460.798	89.62
461.018	68.62
461.238	79.62
461.458	82.62
461.678	87.62
461.898	79.62
462.118	95.62
462.338	70.62
462.558	83.62
462.777	89.62
462.997	82.62
463.217	71.62
463.437	77.62
463.657	85.62
463.876	95.62
464.096	82.62
464.316	83.62
464.536	80.62
464.755	76.62
464.975	82.62
465.195	93.62
465.414	71.62
465.634	87.62
465.854	92.62
466.073	72.62
466.293	73.62
466.512	82.62
466.732	91.62
466.951	78.62
467.171	82.62
467.391	92.62
467.61	86.62
467.829	74.62
468.049	83.62
468.268	83.62
468.488	71.62
468.707	77.62
468.927	79.62
469.146	73.62
469.365	83.62
469.585	86.62
469.804	71.62
470.023	75.62
470.243	67.62
470.462	75.62
470.681	81.62
470.901	74.62
471.12	94.62
471.339	90.62
471.558	78.62
471.777	77.62
471.997	85.62
472.216	85.62
472.435	70.62
472.654	85.62
472.873	79.62
473.092	79.62
473.311	97.62
473.53	83.62
473.749	76.62
473.968	93.62
474.187	76.62
474.406	90.62
474.625	88.62
474.844	88.62
475.063	89.62
475.282	90.62
475.501	80.62
475.72	88.62
475.939	81.62
476.158	77.62
476.377	69.62
476.596	84.62
476.814	91.62
477.033	88.62
477.252	85.62
477.471	85.62
477.69	89.62
477.908	90.62
478.127	76.62
478.346	69.62
478.564	81.62
478.783	74.62
479.002	78.62
479.22	88.62
479.439	90.62
479.658	80.62
479.876	79.62
480.095	81.62
480.313	83.62
480.532	87.62
480.751	78.62
480.969	85.62
481.188	86.62
481.406	78.62
481.624	78.62
481.843	88.62
482.061	80.62
482.28	81.62
482.498	93.62
482.717	79.62
482.935	75.62
483.153	91.62
483.372	80.62
483.59	90.62
483.808	79.62
484.027	73.62
484.245	80.62
484.463	80.62
484.681	96.62
484.9	79.62
485.118	84.62
485.336	75.62
485.554	81.62
485.772	71.62
485.99	78.62
486.209	74.62
486.427	81.62
486.645	85.62
486.863	85.62
487.081	76.62
487.299	72.62
487.517	83.62
487.735	75.62
487.953	83.62
488.171	91.62
488.389	77.62
488.607	87.62
488.825	78.62
489.043	75.62
489.261	91.62
489.479	90.62
489.696	85.62
489.914	95.62
490.132	85.62
490.35	85.62
490.568	88.62
490.786	89.62
491.003	88.62
491.221	85.62
491.439	75.62
491.657	95.62
491.874	75.62
492.092	74.62
492.31	89.62
492.527	86.62
492.745	77.62
492.963	90.62
493.18	79.62
493.398	88.62
493.615	85.62
493.833	71.62
494.05	80.62
494.268	83.62
494.485	93.62
494.703	87.62
494.92	98.62
495.138	86.62
495.355	81.62
495.573	87.62
495.79	76.62
496.008	87.62
496.225	87.62
496.442	83.62
496.66	88.62
496.877	70.62
497.094	73.62
497.312	76.62
497.529	77.62
497.746	85.62
497.963	86.62
498.181	91.62
498.398	92.62
498.615	81.62
498.832	71.62
499.049	73.62
499.267	86.62
499.484	95.62
499.701	86.62
499.918	88.62
500.135	85.62
500.352	89.62
500.569	71.62
500.786	82.62
501.003	63.62
501.22	84.62
501.437	83.62
501.654	88.62
501.871	83.62
502.088	78.62
502.305	91.62
502.522	94.62
502.739	68.62
502.956	80.62
503.172	95.62
503.389	83.62
503.606	86.62
503.823	94.62
504.04	85.62
504.256	97.62
504.473	92.62
504.69	81.62
504.907	87.62
505.123	69.62
505.34	80.62
505.557	80.62
505.773	87.62
505.99	85.62
506.207	77.62
506.423	78.62
506.64	88.62
506.856	73.62
507.073	72.62
507.289	78.62
507.506	69.62
507.722	76.62
507.939	81.62
508.155	83.62
508.372	82.62
508.588	70.62
508.805	88.62
509.021	83.62
509.238	89.62
509.454	80.62
509.67	85.62
509.887	67.62
510.103	89.62
510.319	89.62
510.536	98.62
510.752	79.62
510.968	80.62
511.184	90.62
511.401	75.62
511.617	67.62
511.833	64.62
512.049	79.62
512.265	90.62
512.481	83.62
512.698	85.62
512.914	82.62
513.13	81.62
513.346	91.62
513.562	75.62
513.778	73.62
513.994	85.62
514.21	82.62
514.426	103.62
514.642	82.62
514.858	65.62
515.074	90.62
515.29	83.62
515.506	91.62
515.721	77.62
515.937	88.62
516.153	79.62
516.369	79.62
516.585	95.62
516.801	92.62
517.016	85.62
517.232	92.62
517.448	76.62
517.664	81.62
517.879	85.62
518.095	63.62
518.311	75.62
518.527	87.62
518.742	71.62
518.958	87.62
519.173	82.62
519.389	72.62
519.605	82.62
519.82	88.62
520.036	90.62
