Data from Dirtnoheat1_HRD10591_00004.txt Node
Date: Fri Dec 27 15:18:22 EST 2024
User: Yrep
Spectrometer: HR+D1059
Trigger mode: 1
Integration Time (sec): 1.000000E-1
Scans to average: 1
Electric dark correction enabled: true
Nonlinearity correction enabled: false
Boxcar width: 0
XAxis mode: Wavelengths
Number of Pixels in Spectrum: 2048
>>>>>Begin Spectral Data<<<<<
223.165	-34.88
223.4	-34.88
223.635	-34.88
223.869	-5.88
224.104	-20.88
224.338	0.12
224.573	-9.88
224.808	-9.88
225.042	13.12
225.277	-23.88
225.511	-4.88
225.746	8.12
225.98	6.12
226.215	15.12
226.449	17.12
226.683	12.12
226.918	13.12
227.152	25.12
227.387	30.12
227.621	48.12
227.856	54.12
228.09	56.12
228.324	52.12
228.559	52.12
228.793	61.12
229.027	60.12
229.262	72.12
229.496	68.12
229.73	56.12
229.964	70.12
230.199	70.12
230.433	59.12
230.667	62.12
230.901	90.12
231.136	92.12
231.37	90.12
231.604	76.12
231.838	85.12
232.072	83.12
232.306	86.12
232.541	77.12
232.775	76.12
233.009	66.12
233.243	91.12
233.477	90.12
233.711	94.12
233.945	81.12
234.179	76.12
234.413	80.12
234.647	72.12
234.881	74.12
235.115	88.12
235.349	78.12
235.583	76.12
235.817	82.12
236.051	67.12
236.285	73.12
236.519	101.12
236.753	77.12
236.987	87.12
237.221	90.12
237.455	72.12
237.689	73.12
237.922	75.12
238.156	61.12
238.39	74.12
238.624	83.12
238.858	77.12
239.091	74.12
239.325	71.12
239.559	62.12
239.793	70.12
240.027	80.12
240.26	92.12
240.494	67.12
240.728	61.12
240.961	65.12
241.195	76.12
241.429	72.12
241.662	72.12
241.896	75.12
242.13	76.12
242.363	69.12
242.597	75.12
242.83	84.12
243.064	77.12
243.298	77.12
243.531	66.12
243.765	78.12
243.998	78.12
244.232	62.12
244.465	88.12
244.699	69.12
244.932	66.12
245.166	85.12
245.399	78.12
245.633	79.12
245.866	80.12
246.099	71.12
246.333	73.12
246.566	75.12
246.8	80.12
247.033	72.12
247.266	89.12
247.5	82.12
247.733	67.12
247.966	73.12
248.2	70.12
248.433	72.12
248.666	75.12
248.899	76.12
249.133	96.12
249.366	85.12
249.599	89.12
249.832	77.12
250.066	85.12
250.299	76.12
250.532	82.12
250.765	84.12
250.998	76.12
251.231	74.12
251.465	92.12
251.698	86.12
251.931	87.12
252.164	87.12
252.397	65.12
252.63	75.12
252.863	84.12
253.096	75.12
253.329	85.12
253.562	74.12
253.795	87.12
254.028	89.12
254.261	87.12
254.494	84.12
254.727	74.12
254.96	86.12
255.193	87.12
255.426	67.12
255.659	81.12
255.892	85.12
256.124	87.12
256.357	75.12
256.59	86.12
256.823	81.12
257.056	85.12
257.289	84.12
257.521	81.12
257.754	87.12
257.987	77.12
258.22	87.12
258.452	73.12
258.685	88.12
258.918	90.12
259.151	79.12
259.383	77.12
259.616	81.12
259.849	82.12
260.081	86.12
260.314	78.12
260.547	85.12
260.779	70.12
261.012	78.12
261.244	63.12
261.477	88.12
261.71	73.12
261.942	82.12
262.175	77.12
262.407	81.12
262.64	71.12
262.872	78.12
263.105	92.12
263.337	69.12
263.57	91.12
263.802	79.12
264.035	80.12
264.267	81.12
264.499	96.12
264.732	72.12
264.964	81.12
265.197	84.12
265.429	78.12
265.661	83.12
265.894	70.12
266.126	86.12
266.358	81.12
266.591	80.12
266.823	86.12
267.055	74.12
267.287	75.12
267.52	73.12
267.752	84.12
267.984	70.12
268.216	68.12
268.448	79.12
268.681	97.12
268.913	86.12
269.145	86.12
269.377	78.12
269.609	91.12
269.841	90.12
270.073	72.12
270.306	74.12
270.538	85.12
270.77	85.12
271.002	103.12
271.234	87.12
271.466	95.12
271.698	101.12
271.93	73.12
272.162	83.12
272.394	82.12
272.626	73.12
272.858	70.12
273.09	85.12
273.322	87.12
273.553	95.12
273.785	86.12
274.017	100.12
274.249	84.12
274.481	92.12
274.713	84.12
274.945	83.12
275.176	88.12
275.408	87.12
275.64	81.12
275.872	87.12
276.104	87.12
276.335	80.12
276.567	85.12
276.799	91.12
277.031	88.12
277.262	83.12
277.494	96.12
277.726	90.12
277.957	80.12
278.189	77.12
278.421	89.12
278.652	83.12
278.884	86.12
279.115	87.12
279.347	95.12
279.579	86.12
279.81	89.12
280.042	91.12
280.273	78.12
280.505	88.12
280.736	83.12
280.968	75.12
281.199	82.12
281.431	82.12
281.662	83.12
281.894	86.12
282.125	82.12
282.356	91.12
282.588	88.12
282.819	78.12
283.051	72.12
283.282	91.12
283.513	93.12
283.745	75.12
283.976	90.12
284.207	78.12
284.439	78.12
284.67	81.12
284.901	90.12
285.132	78.12
285.364	83.12
285.595	85.12
285.826	83.12
286.057	80.12
286.288	81.12
286.52	89.12
286.751	83.12
286.982	84.12
287.213	76.12
287.444	87.12
287.675	83.12
287.906	88.12
288.138	78.12
288.369	68.12
288.6	83.12
288.831	79.12
289.062	81.12
289.293	89.12
289.524	75.12
289.755	81.12
289.986	87.12
290.217	83.12
290.448	82.12
290.679	96.12
290.91	79.12
291.141	84.12
291.371	87.12
291.602	95.12
291.833	93.12
292.064	98.12
292.295	69.12
292.526	88.12
292.757	75.12
292.987	87.12
293.218	80.12
293.449	77.12
293.68	91.12
293.91	88.12
294.141	82.12
294.372	80.12
294.603	88.12
294.833	86.12
295.064	89.12
295.295	83.12
295.525	76.12
295.756	85.12
295.987	73.12
296.217	93.12
296.448	76.12
296.679	96.12
296.909	76.12
297.14	86.12
297.37	93.12
297.601	93.12
297.831	72.12
298.062	84.12
298.292	88.12
298.523	84.12
298.753	77.12
298.984	77.12
299.214	83.12
299.445	69.12
299.675	85.12
299.905	87.12
300.136	92.12
300.366	80.12
300.597	77.12
300.827	88.12
301.057	91.12
301.288	92.12
301.518	96.12
301.748	72.12
301.979	97.12
302.209	86.12
302.439	92.12
302.669	87.12
302.9	80.12
303.13	69.12
303.36	87.12
303.59	70.12
303.82	67.12
304.051	84.12
304.281	79.12
304.511	85.12
304.741	85.12
304.971	79.12
305.201	84.12
305.431	73.12
305.661	71.12
305.891	83.12
306.121	85.12
306.352	81.12
306.582	89.12
306.812	90.12
307.042	82.12
307.272	60.12
307.502	78.12
307.731	82.12
307.961	98.12
308.191	85.12
308.421	100.12
308.651	88.12
308.881	95.12
309.111	86.12
309.341	68.12
309.571	70.12
309.8	85.12
310.03	93.12
310.26	70.12
310.49	94.12
310.72	86.12
310.949	89.12
311.179	90.12
311.409	90.12
311.639	89.12
311.868	83.12
312.098	92.12
312.328	81.12
312.557	86.12
312.787	76.12
313.017	85.12
313.246	95.12
313.476	82.12
313.706	94.12
313.935	89.12
314.165	99.12
314.394	88.12
314.624	76.12
314.853	90.12
315.083	86.12
315.312	87.12
315.542	87.12
315.771	90.12
316.001	98.12
316.23	81.12
316.46	65.12
316.689	78.12
316.919	85.12
317.148	82.12
317.377	87.12
317.607	90.12
317.836	97.12
318.065	92.12
318.295	92.12
318.524	82.12
318.753	92.12
318.983	93.12
319.212	86.12
319.441	86.12
319.67	88.12
319.9	69.12
320.129	96.12
320.358	88.12
320.587	79.12
320.816	73.12
321.046	86.12
321.275	88.12
321.504	82.12
321.733	75.12
321.962	87.12
322.191	85.12
322.42	79.12
322.649	82.12
322.878	72.12
323.108	90.12
323.337	85.12
323.566	87.12
323.795	92.12
324.024	84.12
324.253	69.12
324.482	83.12
324.71	100.12
324.939	85.12
325.168	81.12
325.397	80.12
325.626	97.12
325.855	92.12
326.084	94.12
326.313	76.12
326.542	79.12
326.77	85.12
326.999	87.12
327.228	74.12
327.457	68.12
327.686	80.12
327.914	78.12
328.143	89.12
328.372	89.12
328.6	94.12
328.829	87.12
329.058	97.12
329.287	79.12
329.515	72.12
329.744	80.12
329.972	88.12
330.201	82.12
330.43	76.12
330.658	77.12
330.887	75.12
331.115	89.12
331.344	79.12
331.572	90.12
331.801	78.12
332.03	92.12
332.258	101.12
332.486	74.12
332.715	78.12
332.943	88.12
333.172	81.12
333.4	85.12
333.629	90.12
333.857	84.12
334.085	64.12
334.314	88.12
334.542	80.12
334.771	78.12
334.999	95.12
335.227	73.12
335.455	83.12
335.684	84.12
335.912	79.12
336.14	96.12
336.369	76.12
336.597	91.12
336.825	89.12
337.053	96.12
337.281	91.12
337.51	95.12
337.738	82.12
337.966	88.12
338.194	91.12
338.422	75.12
338.65	84.12
338.878	85.12
339.106	93.12
339.334	75.12
339.562	85.12
339.79	90.12
340.018	95.12
340.246	78.12
340.474	72.12
340.702	91.12
340.93	82.12
341.158	83.12
341.386	97.12
341.614	82.12
341.842	76.12
342.07	84.12
342.298	77.12
342.526	93.12
342.754	90.12
342.981	79.12
343.209	91.12
343.437	109.12
343.665	89.12
343.893	76.12
344.12	72.12
344.348	84.12
344.576	104.12
344.804	83.12
345.031	78.12
345.259	97.12
345.487	77.12
345.714	80.12
345.942	85.12
346.17	89.12
346.397	76.12
346.625	87.12
346.853	79.12
347.08	67.12
347.308	90.12
347.535	86.12
347.763	72.12
347.99	92.12
348.218	89.12
348.445	86.12
348.673	76.12
348.9	96.12
349.128	78.12
349.355	77.12
349.583	87.12
349.81	81.12
350.037	91.12
350.265	85.12
350.492	75.12
350.72	88.12
350.947	78.12
351.174	100.12
351.402	73.12
351.629	65.12
351.856	93.12
352.083	92.12
352.311	91.12
352.538	78.12
352.765	75.12
352.992	102.12
353.22	90.12
353.447	89.12
353.674	87.12
353.901	85.12
354.128	96.12
354.355	88.12
354.583	81.12
354.81	70.12
355.037	100.12
355.264	81.12
355.491	86.12
355.718	92.12
355.945	98.12
356.172	93.12
356.399	76.12
356.626	81.12
356.853	90.12
357.08	88.12
357.307	90.12
357.534	96.12
357.761	88.12
357.988	73.12
358.215	86.12
358.441	91.12
358.668	87.12
358.895	85.12
359.122	76.12
359.349	95.12
359.576	81.12
359.802	92.12
360.029	86.12
360.256	77.12
360.483	88.12
360.709	80.12
360.936	88.12
361.163	91.12
361.39	81.12
361.616	84.12
361.843	84.12
362.07	79.12
362.296	85.12
362.523	89.12
362.749	80.12
362.976	80.12
363.203	76.12
363.429	84.12
363.656	89.12
363.882	100.12
364.109	78.12
364.335	82.12
364.562	89.12
364.788	80.12
365.015	94.12
365.241	97.12
365.468	96.12
365.694	83.12
365.92	81.12
366.147	79.12
366.373	88.12
366.599	90.12
366.826	81.12
367.052	68.12
367.278	86.12
367.505	92.12
367.731	93.12
367.957	91.12
368.184	89.12
368.41	91.12
368.636	97.12
368.862	93.12
369.089	87.12
369.315	82.12
369.541	81.12
369.767	84.12
369.993	90.12
370.219	75.12
370.445	82.12
370.672	86.12
370.898	73.12
371.124	74.12
371.35	74.12
371.576	78.12
371.802	87.12
372.028	84.12
372.254	84.12
372.48	82.12
372.706	91.12
372.932	90.12
373.158	90.12
373.384	97.12
373.61	87.12
373.835	77.12
374.061	90.12
374.287	82.12
374.513	80.12
374.739	87.12
374.965	88.12
375.191	87.12
375.416	89.12
375.642	86.12
375.868	85.12
376.094	93.12
376.319	69.12
376.545	79.12
376.771	97.12
376.997	89.12
377.222	88.12
377.448	78.12
377.674	81.12
377.899	85.12
378.125	77.12
378.35	82.12
378.576	80.12
378.802	78.12
379.027	83.12
379.253	94.12
379.478	92.12
379.704	77.12
379.929	93.12
380.155	84.12
380.38	86.12
380.606	82.12
380.831	87.12
381.057	96.12
381.282	85.12
381.507	92.12
381.733	89.12
381.958	69.12
382.184	82.12
382.409	75.12
382.634	90.12
382.86	82.12
383.085	83.12
383.31	68.12
383.535	81.12
383.761	78.12
383.986	85.12
384.211	74.12
384.436	97.12
384.662	85.12
384.887	80.12
385.112	80.12
385.337	78.12
385.562	79.12
385.787	75.12
386.013	86.12
386.238	81.12
386.463	79.12
386.688	92.12
386.913	89.12
387.138	91.12
387.363	83.12
387.588	94.12
387.813	71.12
388.038	97.12
388.263	90.12
388.488	89.12
388.713	83.12
388.938	70.12
389.163	80.12
389.387	73.12
389.612	93.12
389.837	86.12
390.062	80.12
390.287	77.12
390.512	83.12
390.736	92.12
390.961	74.12
391.186	95.12
391.411	86.12
391.636	86.12
391.86	90.12
392.085	77.12
392.31	89.12
392.534	86.12
392.759	85.12
392.984	82.12
393.208	87.12
393.433	102.12
393.658	97.12
393.882	93.12
394.107	88.12
394.331	89.12
394.556	87.12
394.78	85.12
395.005	73.12
395.229	86.12
395.454	84.12
395.678	77.12
395.903	94.12
396.127	94.12
396.352	85.12
396.576	88.12
396.801	95.12
397.025	72.12
397.249	85.12
397.474	90.12
397.698	78.12
397.922	75.12
398.147	91.12
398.371	65.12
398.595	98.12
398.82	87.12
399.044	80.12
399.268	95.12
399.492	88.12
399.717	84.12
399.941	99.12
400.165	77.12
400.389	78.12
400.613	71.12
400.837	89.12
401.062	78.12
401.286	86.12
401.51	88.12
401.734	72.12
401.958	78.12
402.182	78.12
402.406	92.12
402.63	87.12
402.854	80.12
403.078	77.12
403.302	86.12
403.526	85.12
403.75	85.12
403.974	82.12
404.198	75.12
404.422	80.12
404.645	79.12
404.869	82.12
405.093	78.12
405.317	106.12
405.541	86.12
405.765	92.12
405.988	91.12
406.212	96.12
406.436	80.12
406.66	87.12
406.883	88.12
407.107	84.12
407.331	72.12
407.555	80.12
407.778	79.12
408.002	100.12
408.226	82.12
408.449	83.12
408.673	83.12
408.896	87.12
409.12	85.12
409.344	77.12
409.567	92.12
409.791	70.12
410.014	101.12
410.238	76.12
410.461	78.12
410.685	98.12
410.908	89.12
411.132	84.12
411.355	70.12
411.578	78.12
411.802	92.12
412.025	76.12
412.249	81.12
412.472	84.12
412.695	82.12
412.919	72.12
413.142	78.12
413.365	72.12
413.589	83.12
413.812	69.12
414.035	87.12
414.258	83.12
414.482	87.12
414.705	91.12
414.928	88.12
415.151	81.12
415.374	79.12
415.597	77.12
415.821	77.12
416.044	85.12
416.267	77.12
416.49	75.12
416.713	91.12
416.936	88.12
417.159	80.12
417.382	93.12
417.605	80.12
417.828	91.12
418.051	74.12
418.274	92.12
418.497	76.12
418.72	75.12
418.943	98.12
419.166	84.12
419.389	81.12
419.611	88.12
419.834	84.12
420.057	77.12
420.28	92.12
420.503	96.12
420.726	85.12
420.948	88.12
421.171	84.12
421.394	94.12
421.617	65.12
421.839	73.12
422.062	89.12
422.285	101.12
422.507	107.12
422.73	102.12
422.953	113.12
423.175	100.12
423.398	84.12
423.621	87.12
423.843	83.12
424.066	82.12
424.288	75.12
424.511	90.12
424.733	86.12
424.956	78.12
425.178	87.12
425.401	87.12
425.623	81.12
425.846	61.12
426.068	93.12
426.291	73.12
426.513	77.12
426.735	78.12
426.958	94.12
427.18	78.12
427.402	82.12
427.625	95.12
427.847	93.12
428.069	94.12
428.292	69.12
428.514	91.12
428.736	73.12
428.958	85.12
429.181	84.12
429.403	83.12
429.625	88.12
429.847	81.12
430.069	98.12
430.292	85.12
430.514	81.12
430.736	75.12
430.958	93.12
431.18	87.12
431.402	84.12
431.624	80.12
431.846	88.12
432.068	84.12
432.29	79.12
432.512	83.12
432.734	91.12
432.956	100.12
433.178	81.12
433.4	81.12
433.622	79.12
433.844	72.12
434.066	77.12
434.287	80.12
434.509	82.12
434.731	76.12
434.953	87.12
435.175	89.12
435.397	74.12
435.618	74.12
435.84	76.12
436.062	76.12
436.284	82.12
436.505	79.12
436.727	79.12
436.949	74.12
437.17	74.12
437.392	73.12
437.614	86.12
437.835	87.12
438.057	77.12
438.278	96.12
438.5	84.12
438.721	76.12
438.943	81.12
439.165	73.12
439.386	88.12
439.608	91.12
439.829	75.12
440.05	92.12
440.272	101.12
440.493	91.12
440.715	84.12
440.936	72.12
441.158	92.12
441.379	64.12
441.6	71.12
441.822	89.12
442.043	72.12
442.264	76.12
442.486	95.12
442.707	65.12
442.928	79.12
443.149	70.12
443.371	76.12
443.592	111.12
443.813	90.12
444.034	88.12
444.255	85.12
444.476	70.12
444.698	70.12
444.919	80.12
445.14	156.12
445.361	132.12
445.582	104.12
445.803	92.12
446.024	85.12
446.245	101.12
446.466	84.12
446.687	84.12
446.908	83.12
447.129	91.12
447.35	89.12
447.571	86.12
447.792	70.12
448.013	82.12
448.234	75.12
448.455	88.12
448.675	81.12
448.896	94.12
449.117	73.12
449.338	87.12
449.559	94.12
449.779	86.12
450	91.12
450.221	86.12
450.442	80.12
450.662	70.12
450.883	89.12
451.104	91.12
451.324	81.12
451.545	91.12
451.766	79.12
451.986	74.12
452.207	78.12
452.428	82.12
452.648	76.12
452.869	99.12
453.089	80.12
453.31	78.12
453.53	84.12
453.751	89.12
453.971	84.12
454.192	66.12
454.412	70.12
454.633	86.12
454.853	88.12
455.073	73.12
455.294	80.12
455.514	74.12
455.734	89.12
455.955	85.12
456.175	81.12
456.395	62.12
456.616	77.12
456.836	81.12
457.056	87.12
457.276	66.12
457.497	76.12
457.717	71.12
457.937	90.12
458.157	86.12
458.377	85.12
458.598	82.12
458.818	86.12
459.038	73.12
459.258	71.12
459.478	89.12
459.698	67.12
459.918	84.12
460.138	69.12
460.358	85.12
460.578	68.12
460.798	97.12
461.018	85.12
461.238	88.12
461.458	98.12
461.678	84.12
461.898	81.12
462.118	90.12
462.338	81.12
462.558	79.12
462.777	89.12
462.997	84.12
463.217	71.12
463.437	86.12
463.657	88.12
463.876	95.12
464.096	94.12
464.316	73.12
464.536	81.12
464.755	81.12
464.975	79.12
465.195	86.12
465.414	80.12
465.634	73.12
465.854	84.12
466.073	84.12
466.293	84.12
466.512	80.12
466.732	76.12
466.951	79.12
467.171	83.12
467.391	86.12
467.61	81.12
467.829	78.12
468.049	92.12
468.268	80.12
468.488	97.12
468.707	91.12
468.927	69.12
469.146	88.12
469.365	97.12
469.585	92.12
469.804	77.12
470.023	84.12
470.243	92.12
470.462	91.12
470.681	72.12
470.901	80.12
471.12	86.12
471.339	76.12
471.558	77.12
471.777	85.12
471.997	86.12
472.216	74.12
472.435	86.12
472.654	82.12
472.873	97.12
473.092	86.12
473.311	76.12
473.53	82.12
473.749	65.12
473.968	78.12
474.187	74.12
474.406	94.12
474.625	85.12
474.844	72.12
475.063	91.12
475.282	83.12
475.501	97.12
475.72	100.12
475.939	88.12
476.158	82.12
476.377	72.12
476.596	89.12
476.814	91.12
477.033	90.12
477.252	73.12
477.471	90.12
477.69	88.12
477.908	98.12
478.127	89.12
478.346	71.12
478.564	78.12
478.783	95.12
479.002	69.12
479.22	72.12
479.439	87.12
479.658	81.12
479.876	76.12
480.095	85.12
480.313	87.12
480.532	85.12
480.751	85.12
480.969	82.12
481.188	76.12
481.406	83.12
481.624	88.12
481.843	89.12
482.061	90.12
482.28	82.12
482.498	83.12
482.717	98.12
482.935	83.12
483.153	80.12
483.372	88.12
483.59	69.12
483.808	69.12
484.027	81.12
484.245	87.12
484.463	89.12
484.681	94.12
484.9	93.12
485.118	93.12
485.336	83.12
485.554	91.12
485.772	85.12
485.99	80.12
486.209	86.12
486.427	88.12
486.645	96.12
486.863	72.12
487.081	90.12
487.299	71.12
487.517	88.12
487.735	86.12
487.953	100.12
488.171	102.12
488.389	84.12
488.607	74.12
488.825	86.12
489.043	73.12
489.261	86.12
489.479	86.12
489.696	83.12
489.914	85.12
490.132	76.12
490.35	85.12
490.568	97.12
490.786	98.12
491.003	94.12
491.221	94.12
491.439	79.12
491.657	89.12
491.874	89.12
492.092	89.12
492.31	88.12
492.527	79.12
492.745	78.12
492.963	80.12
493.18	78.12
493.398	91.12
493.615	73.12
493.833	88.12
494.05	82.12
494.268	92.12
494.485	78.12
494.703	88.12
494.92	96.12
495.138	78.12
495.355	95.12
495.573	84.12
495.79	84.12
496.008	92.12
496.225	75.12
496.442	92.12
496.66	87.12
496.877	95.12
497.094	82.12
497.312	76.12
497.529	88.12
497.746	71.12
497.963	115.12
498.181	75.12
498.398	82.12
498.615	86.12
498.832	78.12
499.049	85.12
499.267	94.12
499.484	88.12
499.701	84.12
499.918	89.12
500.135	85.12
500.352	86.12
500.569	89.12
500.786	93.12
501.003	86.12
501.22	80.12
501.437	85.12
501.654	91.12
501.871	90.12
502.088	87.12
502.305	81.12
502.522	80.12
502.739	80.12
502.956	79.12
503.172	87.12
503.389	80.12
503.606	87.12
503.823	84.12
504.04	88.12
504.256	83.12
504.473	93.12
504.69	86.12
504.907	86.12
505.123	81.12
505.34	88.12
505.557	96.12
505.773	90.12
505.99	77.12
506.207	78.12
506.423	75.12
506.64	95.12
506.856	83.12
507.073	80.12
507.289	85.12
507.506	78.12
507.722	74.12
507.939	74.12
508.155	86.12
508.372	69.12
508.588	78.12
508.805	93.12
509.021	84.12
509.238	76.12
509.454	85.12
509.67	78.12
509.887	72.12
510.103	79.12
510.319	94.12
510.536	89.12
510.752	84.12
510.968	70.12
511.184	91.12
511.401	91.12
511.617	85.12
511.833	89.12
512.049	87.12
512.265	72.12
512.481	82.12
512.698	81.12
512.914	78.12
513.13	75.12
513.346	78.12
513.562	96.12
513.778	72.12
513.994	80.12
514.21	100.12
514.426	85.12
514.642	96.12
514.858	79.12
515.074	70.12
515.29	98.12
515.506	88.12
515.721	76.12
515.937	96.12
516.153	87.12
516.369	86.12
516.585	82.12
516.801	80.12
517.016	80.12
517.232	82.12
517.448	91.12
517.664	90.12
517.879	87.12
518.095	75.12
518.311	88.12
518.527	83.12
518.742	85.12
518.958	100.12
519.173	93.12
519.389	77.12
519.605	76.12
519.82	90.12
