Data from Dirtnoheat1_HRD10591_00009.txt Node
Date: Fri Dec 27 15:18:27 EST 2024
User: Yrep
Spectrometer: HR+D1059
Trigger mode: 1
Integration Time (sec): 1.000000E-1
Scans to average: 1
Electric dark correction enabled: true
Nonlinearity correction enabled: false
Boxcar width: 0
XAxis mode: Wavelengths
Number of Pixels in Spectrum: 2048
>>>>>Begin Spectral Data<<<<<
223.165	-20.25
223.4	-20.25
223.635	-20.25
223.869	-20.25
224.104	-17.25
224.338	-21.25
224.573	-4.25
224.808	-14.25
225.042	-4.25
225.277	-3.25
225.511	-14.25
225.746	-0.25
225.98	-4.25
226.215	13.75
226.449	14.75
226.683	20.75
226.918	26.75
227.152	47.75
227.387	42.75
227.621	41.75
227.856	50.75
228.09	43.75
228.324	49.75
228.559	67.75
228.793	66.75
229.027	56.75
229.262	67.75
229.496	63.75
229.73	71.75
229.964	82.75
230.199	68.75
230.433	58.75
230.667	90.75
230.901	74.75
231.136	73.75
231.37	81.75
231.604	66.75
231.838	74.75
232.072	70.75
232.306	76.75
232.541	70.75
232.775	63.75
233.009	85.75
233.243	83.75
233.477	83.75
233.711	97.75
233.945	80.75
234.179	79.75
234.413	82.75
234.647	91.75
234.881	89.75
235.115	78.75
235.349	84.75
235.583	69.75
235.817	66.75
236.051	71.75
236.285	71.75
236.519	74.75
236.753	70.75
236.987	67.75
237.221	80.75
237.455	67.75
237.689	76.75
237.922	74.75
238.156	72.75
238.39	62.75
238.624	90.75
238.858	80.75
239.091	67.75
239.325	71.75
239.559	69.75
239.793	77.75
240.027	87.75
240.26	85.75
240.494	79.75
240.728	67.75
240.961	78.75
241.195	55.75
241.429	72.75
241.662	60.75
241.896	63.75
242.13	76.75
242.363	76.75
242.597	73.75
242.83	99.75
243.064	85.75
243.298	76.75
243.531	60.75
243.765	65.75
243.998	69.75
244.232	62.75
244.465	70.75
244.699	66.75
244.932	73.75
245.166	70.75
245.399	79.75
245.633	69.75
245.866	62.75
246.099	79.75
246.333	69.75
246.566	70.75
246.8	79.75
247.033	76.75
247.266	75.75
247.5	89.75
247.733	81.75
247.966	64.75
248.2	67.75
248.433	63.75
248.666	79.75
248.899	71.75
249.133	61.75
249.366	83.75
249.599	81.75
249.832	73.75
250.066	83.75
250.299	73.75
250.532	73.75
250.765	65.75
250.998	84.75
251.231	61.75
251.465	75.75
251.698	80.75
251.931	66.75
252.164	73.75
252.397	69.75
252.63	85.75
252.863	77.75
253.096	78.75
253.329	65.75
253.562	73.75
253.795	82.75
254.028	83.75
254.261	85.75
254.494	70.75
254.727	90.75
254.96	79.75
255.193	78.75
255.426	74.75
255.659	77.75
255.892	85.75
256.124	82.75
256.357	70.75
256.59	87.75
256.823	69.75
257.056	67.75
257.289	77.75
257.521	76.75
257.754	79.75
257.987	90.75
258.22	83.75
258.452	65.75
258.685	75.75
258.918	80.75
259.151	79.75
259.383	72.75
259.616	74.75
259.849	74.75
260.081	90.75
260.314	79.75
260.547	78.75
260.779	74.75
261.012	82.75
261.244	74.75
261.477	81.75
261.71	69.75
261.942	80.75
262.175	74.75
262.407	78.75
262.64	77.75
262.872	81.75
263.105	67.75
263.337	76.75
263.57	73.75
263.802	87.75
264.035	78.75
264.267	68.75
264.499	76.75
264.732	87.75
264.964	65.75
265.197	75.75
265.429	75.75
265.661	72.75
265.894	79.75
266.126	78.75
266.358	72.75
266.591	76.75
266.823	75.75
267.055	75.75
267.287	78.75
267.52	63.75
267.752	88.75
267.984	79.75
268.216	77.75
268.448	69.75
268.681	79.75
268.913	80.75
269.145	85.75
269.377	77.75
269.609	79.75
269.841	88.75
270.073	79.75
270.306	77.75
270.538	76.75
270.77	90.75
271.002	80.75
271.234	82.75
271.466	95.75
271.698	68.75
271.93	81.75
272.162	88.75
272.394	61.75
272.626	84.75
272.858	75.75
273.09	81.75
273.322	71.75
273.553	83.75
273.785	82.75
274.017	86.75
274.249	72.75
274.481	80.75
274.713	82.75
274.945	81.75
275.176	69.75
275.408	75.75
275.64	77.75
275.872	86.75
276.104	65.75
276.335	68.75
276.567	84.75
276.799	78.75
277.031	72.75
277.262	84.75
277.494	84.75
277.726	88.75
277.957	83.75
278.189	87.75
278.421	78.75
278.652	66.75
278.884	81.75
279.115	76.75
279.347	76.75
279.579	78.75
279.81	79.75
280.042	76.75
280.273	86.75
280.505	68.75
280.736	79.75
280.968	81.75
281.199	86.75
281.431	77.75
281.662	82.75
281.894	76.75
282.125	85.75
282.356	78.75
282.588	84.75
282.819	95.75
283.051	79.75
283.282	82.75
283.513	100.75
283.745	70.75
283.976	75.75
284.207	85.75
284.439	88.75
284.67	74.75
284.901	80.75
285.132	83.75
285.364	77.75
285.595	88.75
285.826	85.75
286.057	92.75
286.288	83.75
286.52	90.75
286.751	81.75
286.982	79.75
287.213	71.75
287.444	86.75
287.675	76.75
287.906	79.75
288.138	74.75
288.369	90.75
288.6	83.75
288.831	85.75
289.062	98.75
289.293	69.75
289.524	69.75
289.755	77.75
289.986	70.75
290.217	82.75
290.448	69.75
290.679	73.75
290.91	71.75
291.141	84.75
291.371	71.75
291.602	87.75
291.833	92.75
292.064	88.75
292.295	85.75
292.526	79.75
292.757	91.75
292.987	86.75
293.218	69.75
293.449	73.75
293.68	80.75
293.91	83.75
294.141	73.75
294.372	85.75
294.603	86.75
294.833	87.75
295.064	81.75
295.295	67.75
295.525	83.75
295.756	101.75
295.987	76.75
296.217	70.75
296.448	81.75
296.679	66.75
296.909	84.75
297.14	85.75
297.37	88.75
297.601	81.75
297.831	75.75
298.062	90.75
298.292	81.75
298.523	98.75
298.753	75.75
298.984	94.75
299.214	68.75
299.445	78.75
299.675	85.75
299.905	90.75
300.136	87.75
300.366	69.75
300.597	92.75
300.827	78.75
301.057	86.75
301.288	79.75
301.518	88.75
301.748	81.75
301.979	94.75
302.209	91.75
302.439	84.75
302.669	83.75
302.9	92.75
303.13	78.75
303.36	85.75
303.59	77.75
303.82	82.75
304.051	98.75
304.281	81.75
304.511	85.75
304.741	75.75
304.971	94.75
305.201	82.75
305.431	69.75
305.661	76.75
305.891	104.75
306.121	87.75
306.352	93.75
306.582	81.75
306.812	82.75
307.042	79.75
307.272	86.75
307.502	79.75
307.731	80.75
307.961	78.75
308.191	80.75
308.421	76.75
308.651	93.75
308.881	89.75
309.111	72.75
309.341	73.75
309.571	69.75
309.8	72.75
310.03	74.75
310.26	84.75
310.49	90.75
310.72	66.75
310.949	79.75
311.179	92.75
311.409	78.75
311.639	78.75
311.868	77.75
312.098	83.75
312.328	93.75
312.557	78.75
312.787	73.75
313.017	79.75
313.246	65.75
313.476	77.75
313.706	72.75
313.935	90.75
314.165	88.75
314.394	79.75
314.624	81.75
314.853	87.75
315.083	71.75
315.312	85.75
315.542	73.75
315.771	92.75
316.001	78.75
316.23	87.75
316.46	84.75
316.689	97.75
316.919	90.75
317.148	78.75
317.377	77.75
317.607	96.75
317.836	77.75
318.065	94.75
318.295	80.75
318.524	73.75
318.753	75.75
318.983	71.75
319.212	92.75
319.441	77.75
319.67	101.75
319.9	75.75
320.129	98.75
320.358	82.75
320.587	87.75
320.816	73.75
321.046	89.75
321.275	82.75
321.504	98.75
321.733	82.75
321.962	78.75
322.191	85.75
322.42	82.75
322.649	87.75
322.878	69.75
323.108	78.75
323.337	91.75
323.566	71.75
323.795	77.75
324.024	90.75
324.253	81.75
324.482	85.75
324.71	94.75
324.939	100.75
325.168	89.75
325.397	81.75
325.626	89.75
325.855	90.75
326.084	82.75
326.313	77.75
326.542	80.75
326.77	92.75
326.999	91.75
327.228	83.75
327.457	71.75
327.686	92.75
327.914	75.75
328.143	88.75
328.372	79.75
328.6	85.75
328.829	87.75
329.058	84.75
329.287	72.75
329.515	65.75
329.744	94.75
329.972	81.75
330.201	65.75
330.43	68.75
330.658	77.75
330.887	77.75
331.115	76.75
331.344	77.75
331.572	88.75
331.801	83.75
332.03	76.75
332.258	79.75
332.486	77.75
332.715	75.75
332.943	85.75
333.172	83.75
333.4	75.75
333.629	84.75
333.857	71.75
334.085	85.75
334.314	82.75
334.542	69.75
334.771	75.75
334.999	79.75
335.227	89.75
335.455	78.75
335.684	90.75
335.912	82.75
336.14	76.75
336.369	81.75
336.597	79.75
336.825	79.75
337.053	80.75
337.281	86.75
337.51	68.75
337.738	83.75
337.966	90.75
338.194	83.75
338.422	78.75
338.65	72.75
338.878	93.75
339.106	83.75
339.334	96.75
339.562	85.75
339.79	77.75
340.018	73.75
340.246	78.75
340.474	81.75
340.702	76.75
340.93	68.75
341.158	87.75
341.386	81.75
341.614	91.75
341.842	74.75
342.07	73.75
342.298	75.75
342.526	89.75
342.754	86.75
342.981	83.75
343.209	83.75
343.437	107.75
343.665	65.75
343.893	80.75
344.12	81.75
344.348	74.75
344.576	86.75
344.804	74.75
345.031	78.75
345.259	83.75
345.487	100.75
345.714	75.75
345.942	85.75
346.17	64.75
346.397	89.75
346.625	80.75
346.853	76.75
347.08	77.75
347.308	76.75
347.535	84.75
347.763	80.75
347.99	85.75
348.218	85.75
348.445	75.75
348.673	86.75
348.9	73.75
349.128	73.75
349.355	88.75
349.583	87.75
349.81	79.75
350.037	87.75
350.265	89.75
350.492	69.75
350.72	64.75
350.947	84.75
351.174	88.75
351.402	65.75
351.629	62.75
351.856	84.75
352.083	72.75
352.311	88.75
352.538	79.75
352.765	60.75
352.992	89.75
353.22	81.75
353.447	73.75
353.674	86.75
353.901	90.75
354.128	78.75
354.355	78.75
354.583	74.75
354.81	90.75
355.037	99.75
355.264	90.75
355.491	79.75
355.718	75.75
355.945	75.75
356.172	78.75
356.399	79.75
356.626	87.75
356.853	65.75
357.08	97.75
357.307	90.75
357.534	75.75
357.761	84.75
357.988	78.75
358.215	86.75
358.441	72.75
358.668	74.75
358.895	87.75
359.122	87.75
359.349	85.75
359.576	69.75
359.802	77.75
360.029	87.75
360.256	82.75
360.483	77.75
360.709	71.75
360.936	88.75
361.163	90.75
361.39	78.75
361.616	92.75
361.843	89.75
362.07	73.75
362.296	79.75
362.523	95.75
362.749	78.75
362.976	79.75
363.203	83.75
363.429	69.75
363.656	83.75
363.882	88.75
364.109	80.75
364.335	87.75
364.562	84.75
364.788	85.75
365.015	79.75
365.241	97.75
365.468	74.75
365.694	80.75
365.92	71.75
366.147	99.75
366.373	75.75
366.599	79.75
366.826	86.75
367.052	75.75
367.278	70.75
367.505	76.75
367.731	95.75
367.957	75.75
368.184	80.75
368.41	82.75
368.636	73.75
368.862	73.75
369.089	78.75
369.315	74.75
369.541	79.75
369.767	83.75
369.993	102.75
370.219	69.75
370.445	83.75
370.672	89.75
370.898	78.75
371.124	83.75
371.35	83.75
371.576	74.75
371.802	70.75
372.028	79.75
372.254	81.75
372.48	84.75
372.706	77.75
372.932	71.75
373.158	69.75
373.384	92.75
373.61	91.75
373.835	86.75
374.061	86.75
374.287	82.75
374.513	89.75
374.739	86.75
374.965	77.75
375.191	70.75
375.416	84.75
375.642	92.75
375.868	84.75
376.094	88.75
376.319	88.75
376.545	88.75
376.771	76.75
376.997	87.75
377.222	82.75
377.448	78.75
377.674	77.75
377.899	72.75
378.125	81.75
378.35	85.75
378.576	83.75
378.802	80.75
379.027	70.75
379.253	81.75
379.478	89.75
379.704	72.75
379.929	53.75
380.155	85.75
380.38	80.75
380.606	77.75
380.831	79.75
381.057	100.75
381.282	89.75
381.507	74.75
381.733	81.75
381.958	83.75
382.184	69.75
382.409	71.75
382.634	96.75
382.86	92.75
383.085	84.75
383.31	75.75
383.535	69.75
383.761	79.75
383.986	85.75
384.211	90.75
384.436	98.75
384.662	76.75
384.887	81.75
385.112	81.75
385.337	85.75
385.562	87.75
385.787	92.75
386.013	77.75
386.238	89.75
386.463	88.75
386.688	92.75
386.913	81.75
387.138	82.75
387.363	81.75
387.588	81.75
387.813	87.75
388.038	105.75
388.263	83.75
388.488	75.75
388.713	86.75
388.938	74.75
389.163	86.75
389.387	85.75
389.612	62.75
389.837	71.75
390.062	78.75
390.287	78.75
390.512	87.75
390.736	66.75
390.961	70.75
391.186	77.75
391.411	82.75
391.636	88.75
391.86	93.75
392.085	82.75
392.31	77.75
392.534	65.75
392.759	88.75
392.984	78.75
393.208	86.75
393.433	82.75
393.658	90.75
393.882	78.75
394.107	85.75
394.331	79.75
394.556	79.75
394.78	86.75
395.005	73.75
395.229	71.75
395.454	92.75
395.678	71.75
395.903	80.75
396.127	87.75
396.352	82.75
396.576	74.75
396.801	91.75
397.025	79.75
397.249	73.75
397.474	79.75
397.698	86.75
397.922	79.75
398.147	71.75
398.371	72.75
398.595	83.75
398.82	82.75
399.044	82.75
399.268	79.75
399.492	79.75
399.717	88.75
399.941	83.75
400.165	78.75
400.389	77.75
400.613	92.75
400.837	92.75
401.062	80.75
401.286	89.75
401.51	81.75
401.734	74.75
401.958	85.75
402.182	89.75
402.406	87.75
402.63	74.75
402.854	64.75
403.078	70.75
403.302	85.75
403.526	90.75
403.75	78.75
403.974	74.75
404.198	70.75
404.422	86.75
404.645	84.75
404.869	84.75
405.093	69.75
405.317	70.75
405.541	86.75
405.765	101.75
405.988	67.75
406.212	70.75
406.436	81.75
406.66	89.75
406.883	75.75
407.107	74.75
407.331	71.75
407.555	75.75
407.778	88.75
408.002	81.75
408.226	86.75
408.449	86.75
408.673	80.75
408.896	74.75
409.12	79.75
409.344	84.75
409.567	85.75
409.791	103.75
410.014	86.75
410.238	88.75
410.461	78.75
410.685	83.75
410.908	75.75
411.132	71.75
411.355	81.75
411.578	91.75
411.802	85.75
412.025	77.75
412.249	85.75
412.472	88.75
412.695	78.75
412.919	82.75
413.142	86.75
413.365	81.75
413.589	93.75
413.812	78.75
414.035	77.75
414.258	68.75
414.482	67.75
414.705	87.75
414.928	86.75
415.151	91.75
415.374	82.75
415.597	78.75
415.821	68.75
416.044	88.75
416.267	91.75
416.49	73.75
416.713	79.75
416.936	70.75
417.159	72.75
417.382	79.75
417.605	75.75
417.828	85.75
418.051	88.75
418.274	73.75
418.497	73.75
418.72	85.75
418.943	84.75
419.166	75.75
419.389	79.75
419.611	71.75
419.834	77.75
420.057	78.75
420.28	65.75
420.503	73.75
420.726	72.75
420.948	76.75
421.171	77.75
421.394	83.75
421.617	69.75
421.839	89.75
422.062	78.75
422.285	67.75
422.507	68.75
422.73	85.75
422.953	91.75
423.175	68.75
423.398	75.75
423.621	67.75
423.843	61.75
424.066	79.75
424.288	91.75
424.511	87.75
424.733	72.75
424.956	75.75
425.178	80.75
425.401	76.75
425.623	85.75
425.846	86.75
426.068	79.75
426.291	75.75
426.513	93.75
426.735	79.75
426.958	81.75
427.18	91.75
427.402	85.75
427.625	63.75
427.847	86.75
428.069	77.75
428.292	70.75
428.514	85.75
428.736	72.75
428.958	73.75
429.181	90.75
429.403	81.75
429.625	73.75
429.847	76.75
430.069	78.75
430.292	81.75
430.514	73.75
430.736	81.75
430.958	88.75
431.18	75.75
431.402	82.75
431.624	71.75
431.846	69.75
432.068	86.75
432.29	103.75
432.512	83.75
432.734	76.75
432.956	76.75
433.178	77.75
433.4	85.75
433.622	73.75
433.844	88.75
434.066	81.75
434.287	83.75
434.509	62.75
434.731	86.75
434.953	79.75
435.175	63.75
435.397	80.75
435.618	87.75
435.84	78.75
436.062	79.75
436.284	84.75
436.505	75.75
436.727	87.75
436.949	77.75
437.17	73.75
437.392	82.75
437.614	78.75
437.835	78.75
438.057	73.75
438.278	83.75
438.5	85.75
438.721	81.75
438.943	96.75
439.165	83.75
439.386	79.75
439.608	85.75
439.829	75.75
440.05	78.75
440.272	77.75
440.493	74.75
440.715	76.75
440.936	64.75
441.158	84.75
441.379	79.75
441.6	84.75
441.822	77.75
442.043	76.75
442.264	81.75
442.486	96.75
442.707	85.75
442.928	76.75
443.149	73.75
443.371	85.75
443.592	80.75
443.813	91.75
444.034	95.75
444.255	63.75
444.476	80.75
444.698	86.75
444.919	79.75
445.14	141.75
445.361	107.75
445.582	88.75
445.803	84.75
446.024	84.75
446.245	86.75
446.466	88.75
446.687	76.75
446.908	82.75
447.129	78.75
447.35	89.75
447.571	71.75
447.792	68.75
448.013	82.75
448.234	77.75
448.455	74.75
448.675	80.75
448.896	68.75
449.117	77.75
449.338	77.75
449.559	92.75
449.779	81.75
450	75.75
450.221	77.75
450.442	79.75
450.662	77.75
450.883	83.75
451.104	82.75
451.324	95.75
451.545	79.75
451.766	69.75
451.986	69.75
452.207	81.75
452.428	84.75
452.648	73.75
452.869	90.75
453.089	89.75
453.31	82.75
453.53	86.75
453.751	67.75
453.971	76.75
454.192	84.75
454.412	72.75
454.633	84.75
454.853	82.75
455.073	82.75
455.294	74.75
455.514	90.75
455.734	75.75
455.955	86.75
456.175	81.75
456.395	80.75
456.616	68.75
456.836	74.75
457.056	75.75
457.276	82.75
457.497	94.75
457.717	83.75
457.937	74.75
458.157	66.75
458.377	77.75
458.598	76.75
458.818	79.75
459.038	64.75
459.258	82.75
459.478	76.75
459.698	71.75
459.918	90.75
460.138	88.75
460.358	80.75
460.578	86.75
460.798	89.75
461.018	98.75
461.238	86.75
461.458	87.75
461.678	77.75
461.898	82.75
462.118	75.75
462.338	57.75
462.558	73.75
462.777	73.75
462.997	75.75
463.217	80.75
463.437	73.75
463.657	84.75
463.876	77.75
464.096	88.75
464.316	87.75
464.536	77.75
464.755	77.75
464.975	64.75
465.195	89.75
465.414	74.75
465.634	73.75
465.854	74.75
466.073	80.75
466.293	93.75
466.512	76.75
466.732	79.75
466.951	93.75
467.171	90.75
467.391	83.75
467.61	87.75
467.829	67.75
468.049	67.75
468.268	82.75
468.488	78.75
468.707	86.75
468.927	73.75
469.146	74.75
469.365	85.75
469.585	86.75
469.804	71.75
470.023	84.75
470.243	85.75
470.462	90.75
470.681	92.75
470.901	94.75
471.12	82.75
471.339	80.75
471.558	83.75
471.777	95.75
471.997	91.75
472.216	73.75
472.435	79.75
472.654	75.75
472.873	88.75
473.092	72.75
473.311	79.75
473.53	86.75
473.749	79.75
473.968	93.75
474.187	72.75
474.406	85.75
474.625	81.75
474.844	88.75
475.063	67.75
475.282	77.75
475.501	81.75
475.72	83.75
475.939	79.75
476.158	81.75
476.377	93.75
476.596	95.75
476.814	92.75
477.033	88.75
477.252	94.75
477.471	70.75
477.69	86.75
477.908	78.75
478.127	95.75
478.346	85.75
478.564	72.75
478.783	82.75
479.002	80.75
479.22	85.75
479.439	64.75
479.658	70.75
479.876	83.75
480.095	85.75
480.313	69.75
480.532	78.75
480.751	94.75
480.969	97.75
481.188	67.75
481.406	76.75
481.624	87.75
481.843	81.75
482.061	79.75
482.28	82.75
482.498	84.75
482.717	67.75
482.935	74.75
483.153	76.75
483.372	83.75
483.59	97.75
483.808	89.75
484.027	79.75
484.245	71.75
484.463	94.75
484.681	87.75
484.9	80.75
485.118	83.75
485.336	82.75
485.554	85.75
485.772	74.75
485.99	73.75
486.209	96.75
486.427	74.75
486.645	82.75
486.863	91.75
487.081	82.75
487.299	74.75
487.517	84.75
487.735	83.75
487.953	101.75
488.171	81.75
488.389	70.75
488.607	89.75
488.825	73.75
489.043	76.75
489.261	78.75
489.479	88.75
489.696	75.75
489.914	81.75
490.132	74.75
490.35	82.75
490.568	97.75
490.786	93.75
491.003	83.75
491.221	98.75
491.439	82.75
491.657	85.75
491.874	91.75
492.092	83.75
492.31	88.75
492.527	83.75
492.745	70.75
492.963	77.75
493.18	79.75
493.398	70.75
493.615	82.75
493.833	84.75
494.05	83.75
494.268	74.75
494.485	90.75
494.703	67.75
494.92	75.75
495.138	72.75
495.355	74.75
495.573	78.75
495.79	73.75
496.008	74.75
496.225	84.75
496.442	91.75
496.66	85.75
496.877	89.75
497.094	89.75
497.312	81.75
497.529	97.75
497.746	91.75
497.963	83.75
498.181	90.75
498.398	84.75
498.615	73.75
498.832	85.75
499.049	88.75
499.267	78.75
499.484	93.75
499.701	81.75
499.918	84.75
500.135	72.75
500.352	82.75
500.569	99.75
500.786	64.75
501.003	84.75
501.22	73.75
501.437	80.75
501.654	70.75
501.871	60.75
502.088	75.75
502.305	88.75
502.522	75.75
502.739	88.75
502.956	68.75
503.172	77.75
503.389	76.75
503.606	84.75
503.823	94.75
504.04	79.75
504.256	80.75
504.473	76.75
504.69	67.75
504.907	82.75
505.123	93.75
505.34	82.75
505.557	79.75
505.773	81.75
505.99	69.75
506.207	82.75
506.423	79.75
506.64	73.75
506.856	96.75
507.073	84.75
507.289	84.75
507.506	87.75
507.722	76.75
507.939	89.75
508.155	71.75
508.372	73.75
508.588	73.75
508.805	85.75
509.021	76.75
509.238	80.75
509.454	83.75
509.67	82.75
509.887	70.75
510.103	83.75
510.319	63.75
510.536	77.75
510.752	84.75
510.968	77.75
511.184	93.75
511.401	80.75
511.617	82.75
511.833	84.75
512.049	86.75
512.265	77.75
512.481	61.75
512.698	74.75
512.914	82.75
513.13	78.75
513.346	79.75
513.562	85.75
513.778	72.75
513.994	66.75
514.21	89.75
514.426	75.75
514.642	71.75
514.858	73.75
515.074	87.75
515.29	93.75
515.506	79.75
515.721	66.75
515.937	81.75
516.153	89.75
516.369	66.75
516.585	72.75
516.801	88.75
517.016	82.75
517.232	81.75
517.448	71.75
517.664	81.75
517.879	82.75
518.095	68.75
518.311	73.75
518.527	65.75
518.742	88.75
518.958	89.75
519.173	77.75
519.389	86.75
519.605	84.75
519.82	84.75
520.036	78.75
