Data from Dirtnoheat1_HRD10591_00010.txt Node
Date: Fri Dec 27 15:18:28 EST 2024
User: Yrep
Spectrometer: HR+D1059
Trigger mode: 1
Integration Time (sec): 1.000000E-1
Scans to average: 1
Electric dark correction enabled: true
Nonlinearity correction enabled: false
Boxcar width: 0
XAxis mode: Wavelengths
Number of Pixels in Spectrum: 2048
>>>>>Begin Spectral Data<<<<<
223.165	-20.12
223.4	-20.12
223.635	-20.12
223.869	-12.12
224.104	-15.12
224.338	-19.12
224.573	-12.12
224.808	-22.12
225.042	-5.12
225.277	-4.12
225.511	-2.12
225.746	4.88
225.98	7.88
226.215	16.88
226.449	17.88
226.683	21.88
226.918	11.88
227.152	30.88
227.387	25.88
227.621	49.88
227.856	47.88
228.09	31.88
228.324	52.88
228.559	51.88
228.793	47.88
229.027	60.88
229.262	60.88
229.496	60.88
229.73	67.88
229.964	74.88
230.199	78.88
230.433	82.88
230.667	74.88
230.901	81.88
231.136	77.88
231.37	77.88
231.604	57.88
231.838	74.88
232.072	73.88
232.306	77.88
232.541	80.88
232.775	86.88
233.009	62.88
233.243	85.88
233.477	82.88
233.711	78.88
233.945	79.88
234.179	82.88
234.413	60.88
234.647	85.88
234.881	90.88
235.115	77.88
235.349	79.88
235.583	72.88
235.817	82.88
236.051	65.88
236.285	75.88
236.519	80.88
236.753	82.88
236.987	75.88
237.221	80.88
237.455	73.88
237.689	80.88
237.922	85.88
238.156	79.88
238.39	73.88
238.624	67.88
238.858	68.88
239.091	67.88
239.325	69.88
239.559	81.88
239.793	75.88
240.027	70.88
240.26	73.88
240.494	71.88
240.728	77.88
240.961	60.88
241.195	64.88
241.429	102.88
241.662	75.88
241.896	69.88
242.13	63.88
242.363	74.88
242.597	72.88
242.83	74.88
243.064	72.88
243.298	75.88
243.531	81.88
243.765	82.88
243.998	78.88
244.232	84.88
244.465	83.88
244.699	62.88
244.932	80.88
245.166	79.88
245.399	79.88
245.633	69.88
245.866	76.88
246.099	74.88
246.333	70.88
246.566	69.88
246.8	82.88
247.033	85.88
247.266	65.88
247.5	75.88
247.733	67.88
247.966	67.88
248.2	75.88
248.433	91.88
248.666	74.88
248.899	76.88
249.133	74.88
249.366	84.88
249.599	67.88
249.832	74.88
250.066	78.88
250.299	87.88
250.532	80.88
250.765	64.88
250.998	84.88
251.231	65.88
251.465	89.88
251.698	69.88
251.931	72.88
252.164	66.88
252.397	74.88
252.63	78.88
252.863	61.88
253.096	76.88
253.329	85.88
253.562	72.88
253.795	84.88
254.028	70.88
254.261	63.88
254.494	86.88
254.727	80.88
254.96	79.88
255.193	80.88
255.426	70.88
255.659	74.88
255.892	58.88
256.124	59.88
256.357	66.88
256.59	82.88
256.823	71.88
257.056	76.88
257.289	79.88
257.521	78.88
257.754	77.88
257.987	70.88
258.22	74.88
258.452	79.88
258.685	71.88
258.918	71.88
259.151	83.88
259.383	81.88
259.616	80.88
259.849	78.88
260.081	72.88
260.314	75.88
260.547	83.88
260.779	70.88
261.012	71.88
261.244	67.88
261.477	62.88
261.71	75.88
261.942	64.88
262.175	77.88
262.407	63.88
262.64	78.88
262.872	79.88
263.105	76.88
263.337	82.88
263.57	78.88
263.802	76.88
264.035	77.88
264.267	96.88
264.499	98.88
264.732	82.88
264.964	80.88
265.197	86.88
265.429	82.88
265.661	75.88
265.894	86.88
266.126	79.88
266.358	60.88
266.591	67.88
266.823	67.88
267.055	82.88
267.287	67.88
267.52	72.88
267.752	94.88
267.984	80.88
268.216	75.88
268.448	76.88
268.681	62.88
268.913	86.88
269.145	74.88
269.377	71.88
269.609	70.88
269.841	88.88
270.073	86.88
270.306	81.88
270.538	74.88
270.77	88.88
271.002	80.88
271.234	87.88
271.466	70.88
271.698	82.88
271.93	83.88
272.162	85.88
272.394	71.88
272.626	74.88
272.858	84.88
273.09	93.88
273.322	86.88
273.553	77.88
273.785	76.88
274.017	74.88
274.249	67.88
274.481	83.88
274.713	90.88
274.945	70.88
275.176	81.88
275.408	59.88
275.64	82.88
275.872	81.88
276.104	79.88
276.335	83.88
276.567	80.88
276.799	78.88
277.031	82.88
277.262	76.88
277.494	83.88
277.726	80.88
277.957	78.88
278.189	85.88
278.421	80.88
278.652	82.88
278.884	71.88
279.115	75.88
279.347	88.88
279.579	79.88
279.81	84.88
280.042	80.88
280.273	78.88
280.505	68.88
280.736	80.88
280.968	82.88
281.199	77.88
281.431	66.88
281.662	85.88
281.894	75.88
282.125	78.88
282.356	83.88
282.588	71.88
282.819	79.88
283.051	80.88
283.282	67.88
283.513	86.88
283.745	86.88
283.976	87.88
284.207	84.88
284.439	75.88
284.67	97.88
284.901	82.88
285.132	82.88
285.364	75.88
285.595	82.88
285.826	77.88
286.057	71.88
286.288	67.88
286.52	81.88
286.751	85.88
286.982	83.88
287.213	74.88
287.444	78.88
287.675	83.88
287.906	75.88
288.138	68.88
288.369	80.88
288.6	81.88
288.831	76.88
289.062	87.88
289.293	90.88
289.524	76.88
289.755	72.88
289.986	72.88
290.217	78.88
290.448	89.88
290.679	89.88
290.91	83.88
291.141	80.88
291.371	79.88
291.602	68.88
291.833	63.88
292.064	84.88
292.295	88.88
292.526	85.88
292.757	77.88
292.987	86.88
293.218	69.88
293.449	74.88
293.68	84.88
293.91	62.88
294.141	88.88
294.372	79.88
294.603	80.88
294.833	75.88
295.064	72.88
295.295	79.88
295.525	87.88
295.756	90.88
295.987	82.88
296.217	81.88
296.448	74.88
296.679	83.88
296.909	87.88
297.14	76.88
297.37	72.88
297.601	87.88
297.831	92.88
298.062	78.88
298.292	77.88
298.523	81.88
298.753	90.88
298.984	81.88
299.214	77.88
299.445	75.88
299.675	72.88
299.905	78.88
300.136	93.88
300.366	80.88
300.597	78.88
300.827	76.88
301.057	73.88
301.288	82.88
301.518	74.88
301.748	86.88
301.979	93.88
302.209	93.88
302.439	86.88
302.669	74.88
302.9	73.88
303.13	85.88
303.36	84.88
303.59	86.88
303.82	83.88
304.051	70.88
304.281	78.88
304.511	82.88
304.741	88.88
304.971	78.88
305.201	88.88
305.431	66.88
305.661	73.88
305.891	87.88
306.121	84.88
306.352	70.88
306.582	76.88
306.812	67.88
307.042	84.88
307.272	81.88
307.502	74.88
307.731	84.88
307.961	87.88
308.191	85.88
308.421	102.88
308.651	69.88
308.881	75.88
309.111	85.88
309.341	73.88
309.571	70.88
309.8	79.88
310.03	69.88
310.26	86.88
310.49	85.88
310.72	74.88
310.949	74.88
311.179	83.88
311.409	74.88
311.639	82.88
311.868	84.88
312.098	64.88
312.328	87.88
312.557	86.88
312.787	84.88
313.017	72.88
313.246	80.88
313.476	86.88
313.706	76.88
313.935	83.88
314.165	72.88
314.394	81.88
314.624	92.88
314.853	87.88
315.083	90.88
315.312	92.88
315.542	61.88
315.771	90.88
316.001	78.88
316.23	87.88
316.46	79.88
316.689	78.88
316.919	68.88
317.148	76.88
317.377	99.88
317.607	82.88
317.836	76.88
318.065	64.88
318.295	74.88
318.524	84.88
318.753	67.88
318.983	82.88
319.212	69.88
319.441	75.88
319.67	68.88
319.9	71.88
320.129	72.88
320.358	81.88
320.587	78.88
320.816	71.88
321.046	89.88
321.275	68.88
321.504	94.88
321.733	77.88
321.962	70.88
322.191	74.88
322.42	68.88
322.649	82.88
322.878	91.88
323.108	72.88
323.337	87.88
323.566	68.88
323.795	78.88
324.024	85.88
324.253	99.88
324.482	68.88
324.71	85.88
324.939	73.88
325.168	79.88
325.397	94.88
325.626	83.88
325.855	70.88
326.084	79.88
326.313	72.88
326.542	82.88
326.77	83.88
326.999	81.88
327.228	81.88
327.457	74.88
327.686	88.88
327.914	92.88
328.143	83.88
328.372	73.88
328.6	90.88
328.829	79.88
329.058	74.88
329.287	83.88
329.515	84.88
329.744	88.88
329.972	78.88
330.201	65.88
330.43	85.88
330.658	85.88
330.887	83.88
331.115	75.88
331.344	80.88
331.572	73.88
331.801	75.88
332.03	60.88
332.258	77.88
332.486	80.88
332.715	76.88
332.943	73.88
333.172	78.88
333.4	77.88
333.629	80.88
333.857	71.88
334.085	75.88
334.314	79.88
334.542	67.88
334.771	70.88
334.999	84.88
335.227	67.88
335.455	75.88
335.684	84.88
335.912	73.88
336.14	79.88
336.369	84.88
336.597	73.88
336.825	80.88
337.053	77.88
337.281	82.88
337.51	71.88
337.738	87.88
337.966	86.88
338.194	73.88
338.422	74.88
338.65	85.88
338.878	82.88
339.106	90.88
339.334	80.88
339.562	75.88
339.79	82.88
340.018	76.88
340.246	69.88
340.474	76.88
340.702	72.88
340.93	72.88
341.158	89.88
341.386	70.88
341.614	87.88
341.842	69.88
342.07	76.88
342.298	84.88
342.526	75.88
342.754	87.88
342.981	78.88
343.209	77.88
343.437	95.88
343.665	85.88
343.893	61.88
344.12	79.88
344.348	83.88
344.576	86.88
344.804	78.88
345.031	92.88
345.259	80.88
345.487	79.88
345.714	90.88
345.942	72.88
346.17	92.88
346.397	84.88
346.625	87.88
346.853	71.88
347.08	85.88
347.308	81.88
347.535	82.88
347.763	82.88
347.99	73.88
348.218	83.88
348.445	85.88
348.673	80.88
348.9	70.88
349.128	83.88
349.355	85.88
349.583	79.88
349.81	79.88
350.037	78.88
350.265	72.88
350.492	78.88
350.72	69.88
350.947	80.88
351.174	69.88
351.402	59.88
351.629	82.88
351.856	86.88
352.083	73.88
352.311	82.88
352.538	72.88
352.765	80.88
352.992	81.88
353.22	76.88
353.447	74.88
353.674	73.88
353.901	78.88
354.128	78.88
354.355	67.88
354.583	82.88
354.81	80.88
355.037	87.88
355.264	85.88
355.491	87.88
355.718	71.88
355.945	83.88
356.172	75.88
356.399	85.88
356.626	77.88
356.853	60.88
357.08	77.88
357.307	68.88
357.534	63.88
357.761	90.88
357.988	72.88
358.215	83.88
358.441	74.88
358.668	83.88
358.895	70.88
359.122	84.88
359.349	68.88
359.576	76.88
359.802	71.88
360.029	78.88
360.256	80.88
360.483	77.88
360.709	69.88
360.936	90.88
361.163	83.88
361.39	82.88
361.616	89.88
361.843	78.88
362.07	83.88
362.296	71.88
362.523	90.88
362.749	70.88
362.976	67.88
363.203	90.88
363.429	73.88
363.656	83.88
363.882	85.88
364.109	95.88
364.335	78.88
364.562	75.88
364.788	84.88
365.015	73.88
365.241	83.88
365.468	84.88
365.694	70.88
365.92	70.88
366.147	83.88
366.373	82.88
366.599	75.88
366.826	78.88
367.052	85.88
367.278	56.88
367.505	82.88
367.731	73.88
367.957	81.88
368.184	84.88
368.41	78.88
368.636	81.88
368.862	77.88
369.089	88.88
369.315	73.88
369.541	86.88
369.767	89.88
369.993	88.88
370.219	70.88
370.445	86.88
370.672	85.88
370.898	86.88
371.124	64.88
371.35	83.88
371.576	75.88
371.802	86.88
372.028	90.88
372.254	92.88
372.48	68.88
372.706	80.88
372.932	78.88
373.158	81.88
373.384	86.88
373.61	79.88
373.835	87.88
374.061	84.88
374.287	84.88
374.513	70.88
374.739	84.88
374.965	68.88
375.191	71.88
375.416	82.88
375.642	69.88
375.868	77.88
376.094	73.88
376.319	75.88
376.545	66.88
376.771	80.88
376.997	93.88
377.222	76.88
377.448	79.88
377.674	94.88
377.899	86.88
378.125	80.88
378.35	80.88
378.576	76.88
378.802	85.88
379.027	69.88
379.253	81.88
379.478	66.88
379.704	68.88
379.929	59.88
380.155	78.88
380.38	79.88
380.606	74.88
380.831	91.88
381.057	103.88
381.282	91.88
381.507	76.88
381.733	94.88
381.958	84.88
382.184	76.88
382.409	74.88
382.634	91.88
382.86	79.88
383.085	75.88
383.31	79.88
383.535	76.88
383.761	73.88
383.986	69.88
384.211	85.88
384.436	64.88
384.662	85.88
384.887	92.88
385.112	80.88
385.337	80.88
385.562	77.88
385.787	66.88
386.013	74.88
386.238	76.88
386.463	85.88
386.688	96.88
386.913	85.88
387.138	73.88
387.363	69.88
387.588	74.88
387.813	75.88
388.038	85.88
388.263	89.88
388.488	90.88
388.713	87.88
388.938	66.88
389.163	88.88
389.387	71.88
389.612	73.88
389.837	79.88
390.062	73.88
390.287	87.88
390.512	72.88
390.736	81.88
390.961	67.88
391.186	72.88
391.411	96.88
391.636	72.88
391.86	75.88
392.085	56.88
392.31	77.88
392.534	64.88
392.759	85.88
392.984	93.88
393.208	96.88
393.433	83.88
393.658	81.88
393.882	62.88
394.107	65.88
394.331	64.88
394.556	87.88
394.78	82.88
395.005	93.88
395.229	90.88
395.454	91.88
395.678	75.88
395.903	78.88
396.127	82.88
396.352	80.88
396.576	70.88
396.801	79.88
397.025	75.88
397.249	74.88
397.474	76.88
397.698	84.88
397.922	73.88
398.147	75.88
398.371	67.88
398.595	80.88
398.82	82.88
399.044	85.88
399.268	89.88
399.492	67.88
399.717	86.88
399.941	56.88
400.165	85.88
400.389	84.88
400.613	62.88
400.837	82.88
401.062	76.88
401.286	82.88
401.51	63.88
401.734	98.88
401.958	87.88
402.182	72.88
402.406	78.88
402.63	76.88
402.854	74.88
403.078	85.88
403.302	93.88
403.526	70.88
403.75	82.88
403.974	88.88
404.198	102.88
404.422	97.88
404.645	81.88
404.869	75.88
405.093	83.88
405.317	86.88
405.541	74.88
405.765	85.88
405.988	74.88
406.212	84.88
406.436	87.88
406.66	81.88
406.883	70.88
407.107	71.88
407.331	99.88
407.555	75.88
407.778	79.88
408.002	72.88
408.226	78.88
408.449	85.88
408.673	76.88
408.896	71.88
409.12	69.88
409.344	76.88
409.567	70.88
409.791	75.88
410.014	88.88
410.238	64.88
410.461	79.88
410.685	84.88
410.908	85.88
411.132	77.88
411.355	84.88
411.578	79.88
411.802	74.88
412.025	74.88
412.249	63.88
412.472	71.88
412.695	93.88
412.919	72.88
413.142	77.88
413.365	89.88
413.589	79.88
413.812	77.88
414.035	81.88
414.258	74.88
414.482	75.88
414.705	72.88
414.928	77.88
415.151	85.88
415.374	74.88
415.597	70.88
415.821	91.88
416.044	71.88
416.267	74.88
416.49	78.88
416.713	80.88
416.936	73.88
417.159	84.88
417.382	88.88
417.605	58.88
417.828	89.88
418.051	79.88
418.274	68.88
418.497	85.88
418.72	90.88
418.943	84.88
419.166	90.88
419.389	89.88
419.611	70.88
419.834	78.88
420.057	65.88
420.28	74.88
420.503	83.88
420.726	80.88
420.948	69.88
421.171	74.88
421.394	62.88
421.617	79.88
421.839	74.88
422.062	78.88
422.285	73.88
422.507	81.88
422.73	88.88
422.953	78.88
423.175	74.88
423.398	87.88
423.621	84.88
423.843	84.88
424.066	79.88
424.288	76.88
424.511	86.88
424.733	74.88
424.956	80.88
425.178	83.88
425.401	71.88
425.623	85.88
425.846	69.88
426.068	65.88
426.291	74.88
426.513	78.88
426.735	85.88
426.958	68.88
427.18	81.88
427.402	67.88
427.625	87.88
427.847	74.88
428.069	74.88
428.292	77.88
428.514	71.88
428.736	74.88
428.958	76.88
429.181	86.88
429.403	84.88
429.625	76.88
429.847	75.88
430.069	88.88
430.292	87.88
430.514	78.88
430.736	79.88
430.958	88.88
431.18	87.88
431.402	83.88
431.624	83.88
431.846	74.88
432.068	84.88
432.29	79.88
432.512	74.88
432.734	74.88
432.956	84.88
433.178	82.88
433.4	87.88
433.622	81.88
433.844	76.88
434.066	75.88
434.287	86.88
434.509	69.88
434.731	76.88
434.953	77.88
435.175	73.88
435.397	79.88
435.618	82.88
435.84	81.88
436.062	81.88
436.284	85.88
436.505	90.88
436.727	84.88
436.949	85.88
437.17	79.88
437.392	82.88
437.614	70.88
437.835	87.88
438.057	79.88
438.278	87.88
438.5	74.88
438.721	85.88
438.943	74.88
439.165	98.88
439.386	78.88
439.608	78.88
439.829	82.88
440.05	82.88
440.272	73.88
440.493	84.88
440.715	75.88
440.936	68.88
441.158	87.88
441.379	86.88
441.6	67.88
441.822	79.88
442.043	90.88
442.264	85.88
442.486	69.88
442.707	82.88
442.928	76.88
443.149	76.88
443.371	68.88
443.592	83.88
443.813	82.88
444.034	77.88
444.255	70.88
444.476	92.88
444.698	85.88
444.919	61.88
445.14	126.88
445.361	116.88
445.582	93.88
445.803	87.88
446.024	82.88
446.245	98.88
446.466	67.88
446.687	81.88
446.908	82.88
447.129	85.88
447.35	71.88
447.571	89.88
447.792	88.88
448.013	70.88
448.234	91.88
448.455	79.88
448.675	84.88
448.896	71.88
449.117	80.88
449.338	82.88
449.559	79.88
449.779	73.88
450	76.88
450.221	76.88
450.442	77.88
450.662	79.88
450.883	82.88
451.104	88.88
451.324	83.88
451.545	87.88
451.766	75.88
451.986	84.88
452.207	73.88
452.428	89.88
452.648	83.88
452.869	90.88
453.089	81.88
453.31	75.88
453.53	76.88
453.751	106.88
453.971	71.88
454.192	81.88
454.412	72.88
454.633	87.88
454.853	83.88
455.073	76.88
455.294	82.88
455.514	78.88
455.734	56.88
455.955	72.88
456.175	76.88
456.395	78.88
456.616	64.88
456.836	80.88
457.056	77.88
457.276	60.88
457.497	88.88
457.717	76.88
457.937	76.88
458.157	64.88
458.377	79.88
458.598	78.88
458.818	80.88
459.038	70.88
459.258	74.88
459.478	77.88
459.698	79.88
459.918	73.88
460.138	78.88
460.358	83.88
460.578	72.88
460.798	71.88
461.018	86.88
461.238	74.88
461.458	82.88
461.678	69.88
461.898	87.88
462.118	64.88
462.338	72.88
462.558	77.88
462.777	76.88
462.997	77.88
463.217	85.88
463.437	76.88
463.657	91.88
463.876	68.88
464.096	74.88
464.316	79.88
464.536	81.88
464.755	70.88
464.975	88.88
465.195	75.88
465.414	82.88
465.634	88.88
465.854	79.88
466.073	75.88
466.293	82.88
466.512	81.88
466.732	88.88
466.951	88.88
467.171	76.88
467.391	80.88
467.61	85.88
467.829	80.88
468.049	90.88
468.268	76.88
468.488	59.88
468.707	77.88
468.927	84.88
469.146	87.88
469.365	82.88
469.585	82.88
469.804	75.88
470.023	71.88
470.243	89.88
470.462	84.88
470.681	85.88
470.901	89.88
471.12	87.88
471.339	81.88
471.558	93.88
471.777	75.88
471.997	78.88
472.216	72.88
472.435	81.88
472.654	69.88
472.873	85.88
473.092	82.88
473.311	73.88
473.53	86.88
473.749	67.88
473.968	86.88
474.187	95.88
474.406	84.88
474.625	70.88
474.844	65.88
475.063	69.88
475.282	70.88
475.501	68.88
475.72	85.88
475.939	100.88
476.158	82.88
476.377	81.88
476.596	62.88
476.814	73.88
477.033	84.88
477.252	89.88
477.471	86.88
477.69	82.88
477.908	86.88
478.127	84.88
478.346	86.88
478.564	69.88
478.783	74.88
479.002	84.88
479.22	72.88
479.439	68.88
479.658	84.88
479.876	72.88
480.095	58.88
480.313	77.88
480.532	74.88
480.751	58.88
480.969	75.88
481.188	94.88
481.406	78.88
481.624	72.88
481.843	72.88
482.061	90.88
482.28	80.88
482.498	84.88
482.717	82.88
482.935	83.88
483.153	88.88
483.372	77.88
483.59	88.88
483.808	85.88
484.027	93.88
484.245	78.88
484.463	78.88
484.681	79.88
484.9	79.88
485.118	89.88
485.336	81.88
485.554	83.88
485.772	82.88
485.99	82.88
486.209	78.88
486.427	79.88
486.645	76.88
486.863	73.88
487.081	77.88
487.299	83.88
487.517	70.88
487.735	73.88
487.953	74.88
488.171	76.88
488.389	85.88
488.607	82.88
488.825	90.88
489.043	78.88
489.261	90.88
489.479	93.88
489.696	87.88
489.914	72.88
490.132	76.88
490.35	76.88
490.568	68.88
490.786	70.88
491.003	75.88
491.221	74.88
491.439	70.88
491.657	78.88
491.874	89.88
492.092	88.88
492.31	85.88
492.527	73.88
492.745	71.88
492.963	76.88
493.18	91.88
493.398	94.88
493.615	79.88
493.833	83.88
494.05	73.88
494.268	69.88
494.485	87.88
494.703	84.88
494.92	78.88
495.138	65.88
495.355	83.88
495.573	69.88
495.79	60.88
496.008	85.88
496.225	77.88
496.442	76.88
496.66	69.88
496.877	76.88
497.094	70.88
497.312	73.88
497.529	86.88
497.746	84.88
497.963	79.88
498.181	75.88
498.398	85.88
498.615	91.88
498.832	82.88
499.049	50.88
499.267	79.88
499.484	84.88
499.701	66.88
499.918	76.88
500.135	80.88
500.352	76.88
500.569	80.88
500.786	79.88
501.003	78.88
501.22	73.88
501.437	74.88
501.654	62.88
501.871	80.88
502.088	76.88
502.305	79.88
502.522	80.88
502.739	92.88
502.956	79.88
503.172	91.88
503.389	71.88
503.606	79.88
503.823	82.88
504.04	92.88
504.256	72.88
504.473	79.88
504.69	89.88
504.907	92.88
505.123	90.88
505.34	84.88
505.557	88.88
505.773	84.88
505.99	75.88
506.207	69.88
506.423	78.88
506.64	69.88
506.856	81.88
507.073	75.88
507.289	79.88
507.506	88.88
507.722	84.88
507.939	63.88
508.155	77.88
508.372	83.88
508.588	93.88
508.805	96.88
509.021	76.88
509.238	74.88
509.454	83.88
509.67	94.88
509.887	92.88
510.103	76.88
510.319	73.88
510.536	82.88
510.752	73.88
510.968	70.88
511.184	78.88
511.401	61.88
511.617	67.88
511.833	78.88
512.049	83.88
512.265	84.88
512.481	92.88
512.698	63.88
512.914	82.88
513.13	96.88
513.346	86.88
513.562	84.88
513.778	82.88
513.994	76.88
514.21	72.88
514.426	88.88
514.642	86.88
514.858	85.88
515.074	76.88
515.29	89.88
515.506	73.88
515.721	70.88
515.937	75.88
516.153	70.88
516.369	89.88
516.585	73.88
516.801	81.88
517.016	74.88
517.232	77.88
517.448	76.88
517.664	70.88
517.879	72.88
518.095	100.88
518.311	71.88
518.527	79.88
518.742	83.88
518.958	67.88
519.173	76.88
519.389	73.88
519.605	88.88
519.82	77.88
520.036	76.88
