Data from Dirtnoheat1_HRD10591_00007.txt Node
Date: Fri Dec 27 15:18:25 EST 2024
User: Yrep
Spectrometer: HR+D1059
Trigger mode: 1
Integration Time (sec): 1.000000E-1
Scans to average: 1
Electric dark correction enabled: true
Nonlinearity correction enabled: false
Boxcar width: 0
XAxis mode: Wavelengths
Number of Pixels in Spectrum: 2048
>>>>>Begin Spectral Data<<<<<
223.165	-30.06
223.4	-30.06
223.635	-30.06
223.869	-30.06
224.104	-26.06
224.338	-18.06
224.573	-14.06
224.808	-5.06
225.042	-7.06
225.277	-12.06
225.511	-4.06
225.746	19.94
225.98	15.94
226.215	16.94
226.449	17.94
226.683	16.94
226.918	34.94
227.152	23.94
227.387	31.94
227.621	45.94
227.856	55.94
228.09	50.94
228.324	41.94
228.559	57.94
228.793	63.94
229.027	78.94
229.262	69.94
229.496	66.94
229.73	64.94
229.964	69.94
230.199	79.94
230.433	87.94
230.667	73.94
230.901	85.94
231.136	78.94
231.37	67.94
231.604	69.94
231.838	105.94
232.072	89.94
232.306	85.94
232.541	73.94
232.775	79.94
233.009	87.94
233.243	85.94
233.477	82.94
233.711	78.94
233.945	87.94
234.179	87.94
234.413	74.94
234.647	80.94
234.881	79.94
235.115	91.94
235.349	79.94
235.583	95.94
235.817	80.94
236.051	86.94
236.285	78.94
236.519	82.94
236.753	89.94
236.987	75.94
237.221	85.94
237.455	75.94
237.689	69.94
237.922	74.94
238.156	72.94
238.39	72.94
238.624	83.94
238.858	77.94
239.091	76.94
239.325	72.94
239.559	71.94
239.793	77.94
240.027	79.94
240.26	70.94
240.494	81.94
240.728	86.94
240.961	77.94
241.195	81.94
241.429	81.94
241.662	73.94
241.896	83.94
242.13	67.94
242.363	73.94
242.597	71.94
242.83	74.94
243.064	72.94
243.298	66.94
243.531	74.94
243.765	82.94
243.998	79.94
244.232	75.94
244.465	76.94
244.699	91.94
244.932	69.94
245.166	82.94
245.399	84.94
245.633	85.94
245.866	91.94
246.099	73.94
246.333	79.94
246.566	86.94
246.8	79.94
247.033	86.94
247.266	91.94
247.5	91.94
247.733	79.94
247.966	83.94
248.2	82.94
248.433	72.94
248.666	83.94
248.899	79.94
249.133	83.94
249.366	70.94
249.599	69.94
249.832	97.94
250.066	89.94
250.299	100.94
250.532	86.94
250.765	80.94
250.998	69.94
251.231	81.94
251.465	86.94
251.698	77.94
251.931	76.94
252.164	80.94
252.397	79.94
252.63	78.94
252.863	86.94
253.096	84.94
253.329	80.94
253.562	64.94
253.795	92.94
254.028	83.94
254.261	69.94
254.494	103.94
254.727	75.94
254.96	92.94
255.193	69.94
255.426	88.94
255.659	85.94
255.892	81.94
256.124	76.94
256.357	84.94
256.59	71.94
256.823	73.94
257.056	87.94
257.289	74.94
257.521	90.94
257.754	83.94
257.987	96.94
258.22	96.94
258.452	72.94
258.685	81.94
258.918	84.94
259.151	67.94
259.383	68.94
259.616	87.94
259.849	89.94
260.081	83.94
260.314	96.94
260.547	89.94
260.779	79.94
261.012	82.94
261.244	88.94
261.477	85.94
261.71	75.94
261.942	97.94
262.175	86.94
262.407	78.94
262.64	80.94
262.872	83.94
263.105	81.94
263.337	73.94
263.57	89.94
263.802	83.94
264.035	83.94
264.267	68.94
264.499	96.94
264.732	75.94
264.964	89.94
265.197	93.94
265.429	76.94
265.661	83.94
265.894	80.94
266.126	90.94
266.358	88.94
266.591	89.94
266.823	77.94
267.055	76.94
267.287	83.94
267.52	89.94
267.752	86.94
267.984	80.94
268.216	88.94
268.448	79.94
268.681	92.94
268.913	90.94
269.145	87.94
269.377	92.94
269.609	90.94
269.841	87.94
270.073	79.94
270.306	84.94
270.538	82.94
270.77	94.94
271.002	95.94
271.234	82.94
271.466	83.94
271.698	77.94
271.93	97.94
272.162	79.94
272.394	74.94
272.626	65.94
272.858	83.94
273.09	75.94
273.322	86.94
273.553	93.94
273.785	82.94
274.017	97.94
274.249	86.94
274.481	88.94
274.713	98.94
274.945	87.94
275.176	87.94
275.408	87.94
275.64	96.94
275.872	86.94
276.104	90.94
276.335	81.94
276.567	82.94
276.799	87.94
277.031	83.94
277.262	92.94
277.494	98.94
277.726	90.94
277.957	75.94
278.189	94.94
278.421	99.94
278.652	83.94
278.884	83.94
279.115	66.94
279.347	94.94
279.579	82.94
279.81	89.94
280.042	79.94
280.273	87.94
280.505	83.94
280.736	90.94
280.968	82.94
281.199	89.94
281.431	83.94
281.662	88.94
281.894	83.94
282.125	110.94
282.356	91.94
282.588	77.94
282.819	85.94
283.051	75.94
283.282	70.94
283.513	79.94
283.745	82.94
283.976	89.94
284.207	92.94
284.439	87.94
284.67	90.94
284.901	81.94
285.132	72.94
285.364	100.94
285.595	83.94
285.826	84.94
286.057	84.94
286.288	95.94
286.52	87.94
286.751	89.94
286.982	91.94
287.213	102.94
287.444	85.94
287.675	96.94
287.906	82.94
288.138	84.94
288.369	92.94
288.6	86.94
288.831	87.94
289.062	86.94
289.293	96.94
289.524	99.94
289.755	94.94
289.986	75.94
290.217	73.94
290.448	80.94
290.679	90.94
290.91	93.94
291.141	92.94
291.371	79.94
291.602	91.94
291.833	83.94
292.064	90.94
292.295	96.94
292.526	94.94
292.757	84.94
292.987	85.94
293.218	78.94
293.449	86.94
293.68	87.94
293.91	86.94
294.141	81.94
294.372	73.94
294.603	83.94
294.833	77.94
295.064	90.94
295.295	73.94
295.525	76.94
295.756	85.94
295.987	99.94
296.217	100.94
296.448	86.94
296.679	82.94
296.909	86.94
297.14	79.94
297.37	99.94
297.601	104.94
297.831	91.94
298.062	84.94
298.292	93.94
298.523	90.94
298.753	81.94
298.984	89.94
299.214	91.94
299.445	75.94
299.675	89.94
299.905	90.94
300.136	71.94
300.366	87.94
300.597	93.94
300.827	86.94
301.057	92.94
301.288	84.94
301.518	87.94
301.748	75.94
301.979	95.94
302.209	83.94
302.439	101.94
302.669	74.94
302.9	79.94
303.13	75.94
303.36	75.94
303.59	90.94
303.82	86.94
304.051	94.94
304.281	90.94
304.511	85.94
304.741	92.94
304.971	88.94
305.201	75.94
305.431	84.94
305.661	79.94
305.891	89.94
306.121	90.94
306.352	79.94
306.582	82.94
306.812	101.94
307.042	87.94
307.272	76.94
307.502	86.94
307.731	97.94
307.961	89.94
308.191	85.94
308.421	91.94
308.651	84.94
308.881	62.94
309.111	89.94
309.341	91.94
309.571	89.94
309.8	86.94
310.03	66.94
310.26	72.94
310.49	89.94
310.72	95.94
310.949	87.94
311.179	81.94
311.409	88.94
311.639	80.94
311.868	92.94
312.098	81.94
312.328	92.94
312.557	100.94
312.787	77.94
313.017	82.94
313.246	92.94
313.476	78.94
313.706	90.94
313.935	95.94
314.165	83.94
314.394	93.94
314.624	82.94
314.853	77.94
315.083	97.94
315.312	95.94
315.542	77.94
315.771	84.94
316.001	91.94
316.23	88.94
316.46	84.94
316.689	85.94
316.919	89.94
317.148	93.94
317.377	101.94
317.607	97.94
317.836	94.94
318.065	83.94
318.295	87.94
318.524	103.94
318.753	87.94
318.983	76.94
319.212	66.94
319.441	72.94
319.67	92.94
319.9	92.94
320.129	90.94
320.358	93.94
320.587	80.94
320.816	80.94
321.046	101.94
321.275	93.94
321.504	90.94
321.733	91.94
321.962	93.94
322.191	86.94
322.42	99.94
322.649	94.94
322.878	85.94
323.108	85.94
323.337	73.94
323.566	91.94
323.795	85.94
324.024	85.94
324.253	82.94
324.482	90.94
324.71	96.94
324.939	87.94
325.168	92.94
325.397	91.94
325.626	75.94
325.855	86.94
326.084	100.94
326.313	89.94
326.542	79.94
326.77	89.94
326.999	87.94
327.228	92.94
327.457	91.94
327.686	82.94
327.914	91.94
328.143	97.94
328.372	81.94
328.6	84.94
328.829	74.94
329.058	85.94
329.287	78.94
329.515	85.94
329.744	85.94
329.972	95.94
330.201	90.94
330.43	82.94
330.658	79.94
330.887	94.94
331.115	82.94
331.344	82.94
331.572	92.94
331.801	92.94
332.03	93.94
332.258	91.94
332.486	88.94
332.715	79.94
332.943	77.94
333.172	89.94
333.4	83.94
333.629	88.94
333.857	79.94
334.085	75.94
334.314	77.94
334.542	84.94
334.771	88.94
334.999	80.94
335.227	90.94
335.455	93.94
335.684	88.94
335.912	86.94
336.14	81.94
336.369	64.94
336.597	81.94
336.825	86.94
337.053	81.94
337.281	91.94
337.51	87.94
337.738	93.94
337.966	82.94
338.194	82.94
338.422	99.94
338.65	85.94
338.878	77.94
339.106	73.94
339.334	81.94
339.562	93.94
339.79	80.94
340.018	94.94
340.246	82.94
340.474	92.94
340.702	81.94
340.93	88.94
341.158	88.94
341.386	100.94
341.614	80.94
341.842	79.94
342.07	91.94
342.298	84.94
342.526	80.94
342.754	80.94
342.981	78.94
343.209	73.94
343.437	103.94
343.665	88.94
343.893	85.94
344.12	95.94
344.348	89.94
344.576	85.94
344.804	92.94
345.031	93.94
345.259	81.94
345.487	100.94
345.714	96.94
345.942	80.94
346.17	90.94
346.397	92.94
346.625	89.94
346.853	97.94
347.08	82.94
347.308	85.94
347.535	94.94
347.763	78.94
347.99	83.94
348.218	87.94
348.445	82.94
348.673	84.94
348.9	89.94
349.128	88.94
349.355	93.94
349.583	83.94
349.81	92.94
350.037	87.94
350.265	92.94
350.492	86.94
350.72	68.94
350.947	83.94
351.174	95.94
351.402	81.94
351.629	85.94
351.856	86.94
352.083	87.94
352.311	96.94
352.538	103.94
352.765	94.94
352.992	91.94
353.22	91.94
353.447	87.94
353.674	98.94
353.901	84.94
354.128	79.94
354.355	71.94
354.583	86.94
354.81	80.94
355.037	94.94
355.264	93.94
355.491	92.94
355.718	78.94
355.945	97.94
356.172	85.94
356.399	77.94
356.626	95.94
356.853	81.94
357.08	104.94
357.307	92.94
357.534	70.94
357.761	95.94
357.988	107.94
358.215	89.94
358.441	87.94
358.668	84.94
358.895	93.94
359.122	79.94
359.349	87.94
359.576	99.94
359.802	74.94
360.029	78.94
360.256	81.94
360.483	87.94
360.709	81.94
360.936	99.94
361.163	97.94
361.39	90.94
361.616	83.94
361.843	80.94
362.07	77.94
362.296	91.94
362.523	96.94
362.749	97.94
362.976	93.94
363.203	89.94
363.429	91.94
363.656	92.94
363.882	79.94
364.109	78.94
364.335	93.94
364.562	90.94
364.788	95.94
365.015	74.94
365.241	91.94
365.468	85.94
365.694	87.94
365.92	91.94
366.147	86.94
366.373	84.94
366.599	98.94
366.826	92.94
367.052	77.94
367.278	92.94
367.505	103.94
367.731	109.94
367.957	85.94
368.184	97.94
368.41	87.94
368.636	82.94
368.862	83.94
369.089	92.94
369.315	85.94
369.541	87.94
369.767	69.94
369.993	91.94
370.219	78.94
370.445	78.94
370.672	78.94
370.898	89.94
371.124	87.94
371.35	78.94
371.576	77.94
371.802	74.94
372.028	93.94
372.254	95.94
372.48	73.94
372.706	77.94
372.932	78.94
373.158	80.94
373.384	95.94
373.61	82.94
373.835	86.94
374.061	77.94
374.287	85.94
374.513	85.94
374.739	82.94
374.965	81.94
375.191	81.94
375.416	89.94
375.642	88.94
375.868	84.94
376.094	89.94
376.319	73.94
376.545	77.94
376.771	88.94
376.997	79.94
377.222	77.94
377.448	77.94
377.674	70.94
377.899	76.94
378.125	69.94
378.35	85.94
378.576	82.94
378.802	93.94
379.027	84.94
379.253	86.94
379.478	80.94
379.704	74.94
379.929	81.94
380.155	79.94
380.38	77.94
380.606	87.94
380.831	89.94
381.057	101.94
381.282	86.94
381.507	80.94
381.733	77.94
381.958	88.94
382.184	82.94
382.409	87.94
382.634	93.94
382.86	95.94
383.085	92.94
383.31	95.94
383.535	83.94
383.761	90.94
383.986	78.94
384.211	86.94
384.436	98.94
384.662	87.94
384.887	77.94
385.112	75.94
385.337	76.94
385.562	90.94
385.787	81.94
386.013	86.94
386.238	79.94
386.463	95.94
386.688	97.94
386.913	93.94
387.138	79.94
387.363	99.94
387.588	89.94
387.813	92.94
388.038	89.94
388.263	81.94
388.488	76.94
388.713	89.94
388.938	81.94
389.163	76.94
389.387	82.94
389.612	88.94
389.837	86.94
390.062	80.94
390.287	79.94
390.512	85.94
390.736	73.94
390.961	81.94
391.186	89.94
391.411	83.94
391.636	87.94
391.86	83.94
392.085	83.94
392.31	83.94
392.534	96.94
392.759	71.94
392.984	84.94
393.208	82.94
393.433	72.94
393.658	74.94
393.882	90.94
394.107	82.94
394.331	87.94
394.556	86.94
394.78	84.94
395.005	90.94
395.229	85.94
395.454	100.94
395.678	77.94
395.903	87.94
396.127	92.94
396.352	95.94
396.576	78.94
396.801	84.94
397.025	92.94
397.249	75.94
397.474	99.94
397.698	93.94
397.922	85.94
398.147	83.94
398.371	83.94
398.595	80.94
398.82	77.94
399.044	82.94
399.268	78.94
399.492	86.94
399.717	80.94
399.941	72.94
400.165	83.94
400.389	80.94
400.613	83.94
400.837	83.94
401.062	82.94
401.286	77.94
401.51	84.94
401.734	75.94
401.958	93.94
402.182	85.94
402.406	97.94
402.63	80.94
402.854	95.94
403.078	91.94
403.302	80.94
403.526	87.94
403.75	68.94
403.974	85.94
404.198	72.94
404.422	85.94
404.645	79.94
404.869	95.94
405.093	87.94
405.317	76.94
405.541	78.94
405.765	87.94
405.988	77.94
406.212	77.94
406.436	89.94
406.66	84.94
406.883	86.94
407.107	72.94
407.331	76.94
407.555	80.94
407.778	87.94
408.002	87.94
408.226	97.94
408.449	87.94
408.673	80.94
408.896	96.94
409.12	98.94
409.344	86.94
409.567	80.94
409.791	76.94
410.014	77.94
410.238	90.94
410.461	75.94
410.685	79.94
410.908	88.94
411.132	83.94
411.355	70.94
411.578	91.94
411.802	70.94
412.025	81.94
412.249	79.94
412.472	82.94
412.695	83.94
412.919	88.94
413.142	79.94
413.365	76.94
413.589	86.94
413.812	83.94
414.035	104.94
414.258	81.94
414.482	81.94
414.705	77.94
414.928	92.94
415.151	89.94
415.374	83.94
415.597	89.94
415.821	70.94
416.044	72.94
416.267	75.94
416.49	77.94
416.713	84.94
416.936	87.94
417.159	79.94
417.382	93.94
417.605	92.94
417.828	92.94
418.051	81.94
418.274	71.94
418.497	85.94
418.72	86.94
418.943	76.94
419.166	66.94
419.389	74.94
419.611	83.94
419.834	82.94
420.057	97.94
420.28	76.94
420.503	78.94
420.726	85.94
420.948	87.94
421.171	89.94
421.394	92.94
421.617	85.94
421.839	82.94
422.062	82.94
422.285	68.94
422.507	92.94
422.73	115.94
422.953	96.94
423.175	79.94
423.398	79.94
423.621	80.94
423.843	87.94
424.066	85.94
424.288	91.94
424.511	94.94
424.733	85.94
424.956	87.94
425.178	81.94
425.401	77.94
425.623	83.94
425.846	87.94
426.068	66.94
426.291	80.94
426.513	77.94
426.735	71.94
426.958	81.94
427.18	82.94
427.402	77.94
427.625	79.94
427.847	83.94
428.069	94.94
428.292	93.94
428.514	100.94
428.736	75.94
428.958	97.94
429.181	91.94
429.403	85.94
429.625	94.94
429.847	77.94
430.069	83.94
430.292	88.94
430.514	91.94
430.736	85.94
430.958	76.94
431.18	83.94
431.402	83.94
431.624	88.94
431.846	88.94
432.068	93.94
432.29	78.94
432.512	79.94
432.734	71.94
432.956	96.94
433.178	97.94
433.4	76.94
433.622	80.94
433.844	66.94
434.066	87.94
434.287	72.94
434.509	93.94
434.731	92.94
434.953	73.94
435.175	73.94
435.397	79.94
435.618	82.94
435.84	78.94
436.062	78.94
436.284	92.94
436.505	81.94
436.727	82.94
436.949	86.94
437.17	71.94
437.392	90.94
437.614	79.94
437.835	75.94
438.057	70.94
438.278	78.94
438.5	68.94
438.721	78.94
438.943	82.94
439.165	88.94
439.386	72.94
439.608	87.94
439.829	91.94
440.05	93.94
440.272	83.94
440.493	83.94
440.715	96.94
440.936	84.94
441.158	72.94
441.379	73.94
441.6	84.94
441.822	76.94
442.043	97.94
442.264	86.94
442.486	95.94
442.707	88.94
442.928	90.94
443.149	82.94
443.371	79.94
443.592	81.94
443.813	92.94
444.034	77.94
444.255	90.94
444.476	79.94
444.698	83.94
444.919	72.94
445.14	143.94
445.361	96.94
445.582	88.94
445.803	73.94
446.024	67.94
446.245	75.94
446.466	78.94
446.687	76.94
446.908	96.94
447.129	76.94
447.35	89.94
447.571	89.94
447.792	84.94
448.013	73.94
448.234	83.94
448.455	76.94
448.675	89.94
448.896	85.94
449.117	94.94
449.338	91.94
449.559	84.94
449.779	81.94
450	81.94
450.221	81.94
450.442	86.94
450.662	87.94
450.883	85.94
451.104	77.94
451.324	79.94
451.545	93.94
451.766	80.94
451.986	76.94
452.207	95.94
452.428	75.94
452.648	89.94
452.869	84.94
453.089	86.94
453.31	77.94
453.53	86.94
453.751	78.94
453.971	100.94
454.192	83.94
454.412	76.94
454.633	92.94
454.853	77.94
455.073	89.94
455.294	72.94
455.514	82.94
455.734	77.94
455.955	83.94
456.175	96.94
456.395	74.94
456.616	85.94
456.836	78.94
457.056	87.94
457.276	88.94
457.497	80.94
457.717	75.94
457.937	92.94
458.157	83.94
458.377	78.94
458.598	88.94
458.818	74.94
459.038	85.94
459.258	79.94
459.478	91.94
459.698	88.94
459.918	100.94
460.138	82.94
460.358	88.94
460.578	91.94
460.798	82.94
461.018	83.94
461.238	75.94
461.458	74.94
461.678	69.94
461.898	85.94
462.118	80.94
462.338	85.94
462.558	78.94
462.777	84.94
462.997	82.94
463.217	83.94
463.437	87.94
463.657	72.94
463.876	80.94
464.096	95.94
464.316	83.94
464.536	76.94
464.755	88.94
464.975	75.94
465.195	81.94
465.414	111.94
465.634	96.94
465.854	89.94
466.073	92.94
466.293	87.94
466.512	98.94
466.732	79.94
466.951	91.94
467.171	79.94
467.391	77.94
467.61	79.94
467.829	83.94
468.049	84.94
468.268	83.94
468.488	82.94
468.707	75.94
468.927	77.94
469.146	78.94
469.365	93.94
469.585	82.94
469.804	86.94
470.023	72.94
470.243	92.94
470.462	83.94
470.681	84.94
470.901	81.94
471.12	81.94
471.339	76.94
471.558	82.94
471.777	90.94
471.997	84.94
472.216	94.94
472.435	89.94
472.654	95.94
472.873	91.94
473.092	89.94
473.311	90.94
473.53	84.94
473.749	72.94
473.968	72.94
474.187	94.94
474.406	73.94
474.625	87.94
474.844	100.94
475.063	75.94
475.282	85.94
475.501	82.94
475.72	80.94
475.939	74.94
476.158	79.94
476.377	82.94
476.596	79.94
476.814	78.94
477.033	79.94
477.252	94.94
477.471	82.94
477.69	84.94
477.908	88.94
478.127	93.94
478.346	81.94
478.564	83.94
478.783	69.94
479.002	84.94
479.22	96.94
479.439	86.94
479.658	68.94
479.876	81.94
480.095	72.94
480.313	92.94
480.532	91.94
480.751	66.94
480.969	83.94
481.188	95.94
481.406	69.94
481.624	76.94
481.843	93.94
482.061	77.94
482.28	80.94
482.498	82.94
482.717	81.94
482.935	98.94
483.153	80.94
483.372	86.94
483.59	103.94
483.808	96.94
484.027	86.94
484.245	76.94
484.463	79.94
484.681	95.94
484.9	91.94
485.118	99.94
485.336	91.94
485.554	79.94
485.772	76.94
485.99	86.94
486.209	105.94
486.427	77.94
486.645	76.94
486.863	89.94
487.081	94.94
487.299	83.94
487.517	88.94
487.735	83.94
487.953	80.94
488.171	76.94
488.389	89.94
488.607	77.94
488.825	81.94
489.043	81.94
489.261	82.94
489.479	89.94
489.696	90.94
489.914	76.94
490.132	69.94
490.35	89.94
490.568	87.94
490.786	89.94
491.003	89.94
491.221	87.94
491.439	94.94
491.657	98.94
491.874	90.94
492.092	84.94
492.31	91.94
492.527	90.94
492.745	81.94
492.963	93.94
493.18	76.94
493.398	72.94
493.615	81.94
493.833	95.94
494.05	86.94
494.268	91.94
494.485	77.94
494.703	98.94
494.92	70.94
495.138	87.94
495.355	92.94
495.573	84.94
495.79	81.94
496.008	83.94
496.225	101.94
496.442	104.94
496.66	87.94
496.877	81.94
497.094	86.94
497.312	97.94
497.529	91.94
497.746	84.94
497.963	81.94
498.181	88.94
498.398	84.94
498.615	97.94
498.832	91.94
499.049	88.94
499.267	92.94
499.484	90.94
499.701	94.94
499.918	89.94
500.135	84.94
500.352	70.94
500.569	90.94
500.786	84.94
501.003	96.94
501.22	80.94
501.437	94.94
501.654	80.94
501.871	81.94
502.088	75.94
502.305	88.94
502.522	88.94
502.739	85.94
502.956	89.94
503.172	83.94
503.389	92.94
503.606	93.94
503.823	85.94
504.04	86.94
504.256	92.94
504.473	82.94
504.69	96.94
504.907	93.94
505.123	91.94
505.34	76.94
505.557	87.94
505.773	87.94
505.99	83.94
506.207	90.94
506.423	89.94
506.64	85.94
506.856	90.94
507.073	90.94
507.289	87.94
507.506	69.94
507.722	83.94
507.939	76.94
508.155	90.94
508.372	85.94
508.588	91.94
508.805	96.94
509.021	81.94
509.238	93.94
509.454	79.94
509.67	89.94
509.887	91.94
510.103	101.94
510.319	77.94
510.536	78.94
510.752	92.94
510.968	74.94
511.184	89.94
511.401	92.94
511.617	84.94
511.833	87.94
512.049	81.94
512.265	82.94
512.481	82.94
512.698	94.94
512.914	92.94
513.13	89.94
513.346	85.94
513.562	75.94
513.778	82.94
513.994	87.94
514.21	87.94
514.426	93.94
514.642	96.94
514.858	89.94
515.074	72.94
515.29	82.94
515.506	83.94
515.721	85.94
515.937	78.94
516.153	88.94
516.369	84.94
516.585	89.94
516.801	84.94
517.016	82.94
517.232	85.94
517.448	83.94
517.664	87.94
517.879	78.94
518.095	88.94
518.311	77.94
518.527	82.94
518.742	89.94
518.958	93.94
519.173	100.94
519.389	97.94
519.605	97.94
