Data from Dirtnoheat1_HRD10591_00019.txt Node
Date: Fri Dec 27 15:18:37 EST 2024
User: Yrep
Spectrometer: HR+D1059
Trigger mode: 1
Integration Time (sec): 1.000000E-1
Scans to average: 1
Electric dark correction enabled: true
Nonlinearity correction enabled: false
Boxcar width: 0
XAxis mode: Wavelengths
Number of Pixels in Spectrum: 2048
>>>>>Begin Spectral Data<<<<<
223.165	-15.56
223.4	-15.56
223.635	-15.56
223.869	-19.56
224.104	-16.56
224.338	-15.56
224.573	-24.56
224.808	-3.56
225.042	2.44
225.277	0.44
225.511	-10.56
225.746	-3.56
225.98	0.44
226.215	14.44
226.449	13.44
226.683	15.44
226.918	30.44
227.152	32.44
227.387	41.44
227.621	49.44
227.856	49.44
228.09	36.44
228.324	45.44
228.559	76.44
228.793	58.44
229.027	70.44
229.262	59.44
229.496	59.44
229.73	68.44
229.964	91.44
230.199	83.44
230.433	85.44
230.667	83.44
230.901	81.44
231.136	88.44
231.37	84.44
231.604	77.44
231.838	87.44
232.072	74.44
232.306	85.44
232.541	65.44
232.775	86.44
233.009	79.44
233.243	85.44
233.477	82.44
233.711	86.44
233.945	85.44
234.179	78.44
234.413	94.44
234.647	90.44
234.881	83.44
235.115	56.44
235.349	62.44
235.583	92.44
235.817	81.44
236.051	87.44
236.285	83.44
236.519	73.44
236.753	88.44
236.987	57.44
237.221	70.44
237.455	88.44
237.689	72.44
237.922	67.44
238.156	76.44
238.39	85.44
238.624	78.44
238.858	86.44
239.091	78.44
239.325	71.44
239.559	79.44
239.793	74.44
240.027	78.44
240.26	81.44
240.494	84.44
240.728	70.44
240.961	84.44
241.195	81.44
241.429	78.44
241.662	85.44
241.896	72.44
242.13	74.44
242.363	72.44
242.597	97.44
242.83	84.44
243.064	75.44
243.298	67.44
243.531	69.44
243.765	69.44
243.998	80.44
244.232	77.44
244.465	79.44
244.699	81.44
244.932	91.44
245.166	78.44
245.399	84.44
245.633	92.44
245.866	90.44
246.099	69.44
246.333	88.44
246.566	72.44
246.8	85.44
247.033	95.44
247.266	85.44
247.5	84.44
247.733	83.44
247.966	95.44
248.2	82.44
248.433	82.44
248.666	81.44
248.899	89.44
249.133	81.44
249.366	88.44
249.599	77.44
249.832	85.44
250.066	81.44
250.299	94.44
250.532	81.44
250.765	90.44
250.998	82.44
251.231	75.44
251.465	75.44
251.698	78.44
251.931	75.44
252.164	71.44
252.397	79.44
252.63	78.44
252.863	75.44
253.096	79.44
253.329	76.44
253.562	82.44
253.795	75.44
254.028	79.44
254.261	76.44
254.494	73.44
254.727	71.44
254.96	87.44
255.193	70.44
255.426	80.44
255.659	75.44
255.892	85.44
256.124	80.44
256.357	87.44
256.59	91.44
256.823	72.44
257.056	68.44
257.289	96.44
257.521	78.44
257.754	76.44
257.987	97.44
258.22	85.44
258.452	76.44
258.685	84.44
258.918	81.44
259.151	93.44
259.383	75.44
259.616	79.44
259.849	74.44
260.081	89.44
260.314	74.44
260.547	92.44
260.779	79.44
261.012	95.44
261.244	81.44
261.477	77.44
261.71	83.44
261.942	71.44
262.175	77.44
262.407	96.44
262.64	80.44
262.872	97.44
263.105	90.44
263.337	82.44
263.57	91.44
263.802	82.44
264.035	84.44
264.267	79.44
264.499	79.44
264.732	82.44
264.964	74.44
265.197	73.44
265.429	77.44
265.661	93.44
265.894	85.44
266.126	84.44
266.358	80.44
266.591	77.44
266.823	84.44
267.055	87.44
267.287	89.44
267.52	83.44
267.752	74.44
267.984	79.44
268.216	80.44
268.448	81.44
268.681	78.44
268.913	74.44
269.145	68.44
269.377	76.44
269.609	80.44
269.841	88.44
270.073	91.44
270.306	87.44
270.538	72.44
270.77	78.44
271.002	86.44
271.234	89.44
271.466	93.44
271.698	86.44
271.93	82.44
272.162	85.44
272.394	87.44
272.626	77.44
272.858	75.44
273.09	83.44
273.322	82.44
273.553	74.44
273.785	86.44
274.017	83.44
274.249	84.44
274.481	82.44
274.713	103.44
274.945	88.44
275.176	72.44
275.408	86.44
275.64	79.44
275.872	89.44
276.104	86.44
276.335	76.44
276.567	89.44
276.799	75.44
277.031	80.44
277.262	81.44
277.494	75.44
277.726	73.44
277.957	92.44
278.189	80.44
278.421	81.44
278.652	79.44
278.884	74.44
279.115	91.44
279.347	91.44
279.579	77.44
279.81	82.44
280.042	80.44
280.273	93.44
280.505	86.44
280.736	75.44
280.968	84.44
281.199	88.44
281.431	91.44
281.662	96.44
281.894	98.44
282.125	88.44
282.356	81.44
282.588	89.44
282.819	77.44
283.051	95.44
283.282	70.44
283.513	94.44
283.745	78.44
283.976	72.44
284.207	86.44
284.439	72.44
284.67	89.44
284.901	90.44
285.132	80.44
285.364	79.44
285.595	90.44
285.826	89.44
286.057	94.44
286.288	86.44
286.52	82.44
286.751	93.44
286.982	92.44
287.213	78.44
287.444	84.44
287.675	99.44
287.906	73.44
288.138	78.44
288.369	89.44
288.6	82.44
288.831	84.44
289.062	87.44
289.293	82.44
289.524	85.44
289.755	90.44
289.986	77.44
290.217	82.44
290.448	84.44
290.679	92.44
290.91	87.44
291.141	76.44
291.371	107.44
291.602	88.44
291.833	80.44
292.064	82.44
292.295	87.44
292.526	79.44
292.757	79.44
292.987	86.44
293.218	89.44
293.449	94.44
293.68	86.44
293.91	91.44
294.141	95.44
294.372	103.44
294.603	66.44
294.833	71.44
295.064	89.44
295.295	83.44
295.525	92.44
295.756	76.44
295.987	78.44
296.217	79.44
296.448	82.44
296.679	78.44
296.909	86.44
297.14	91.44
297.37	101.44
297.601	82.44
297.831	70.44
298.062	82.44
298.292	88.44
298.523	87.44
298.753	80.44
298.984	87.44
299.214	87.44
299.445	80.44
299.675	85.44
299.905	95.44
300.136	85.44
300.366	106.44
300.597	88.44
300.827	90.44
301.057	82.44
301.288	69.44
301.518	80.44
301.748	85.44
301.979	103.44
302.209	81.44
302.439	88.44
302.669	91.44
302.9	84.44
303.13	95.44
303.36	89.44
303.59	79.44
303.82	90.44
304.051	83.44
304.281	75.44
304.511	78.44
304.741	85.44
304.971	75.44
305.201	93.44
305.431	67.44
305.661	82.44
305.891	85.44
306.121	71.44
306.352	86.44
306.582	84.44
306.812	81.44
307.042	87.44
307.272	90.44
307.502	75.44
307.731	95.44
307.961	78.44
308.191	71.44
308.421	91.44
308.651	88.44
308.881	76.44
309.111	92.44
309.341	80.44
309.571	78.44
309.8	78.44
310.03	77.44
310.26	78.44
310.49	85.44
310.72	85.44
310.949	74.44
311.179	85.44
311.409	73.44
311.639	78.44
311.868	94.44
312.098	80.44
312.328	67.44
312.557	93.44
312.787	81.44
313.017	84.44
313.246	78.44
313.476	92.44
313.706	87.44
313.935	91.44
314.165	85.44
314.394	81.44
314.624	89.44
314.853	87.44
315.083	86.44
315.312	75.44
315.542	90.44
315.771	78.44
316.001	84.44
316.23	88.44
316.46	101.44
316.689	86.44
316.919	80.44
317.148	90.44
317.377	75.44
317.607	86.44
317.836	70.44
318.065	79.44
318.295	79.44
318.524	77.44
318.753	89.44
318.983	72.44
319.212	97.44
319.441	81.44
319.67	88.44
319.9	85.44
320.129	88.44
320.358	78.44
320.587	72.44
320.816	97.44
321.046	90.44
321.275	89.44
321.504	87.44
321.733	90.44
321.962	81.44
322.191	77.44
322.42	82.44
322.649	80.44
322.878	80.44
323.108	83.44
323.337	77.44
323.566	73.44
323.795	86.44
324.024	77.44
324.253	85.44
324.482	78.44
324.71	77.44
324.939	83.44
325.168	97.44
325.397	68.44
325.626	64.44
325.855	89.44
326.084	67.44
326.313	82.44
326.542	75.44
326.77	96.44
326.999	81.44
327.228	73.44
327.457	90.44
327.686	99.44
327.914	84.44
328.143	87.44
328.372	68.44
328.6	81.44
328.829	87.44
329.058	84.44
329.287	88.44
329.515	81.44
329.744	81.44
329.972	74.44
330.201	82.44
330.43	74.44
330.658	72.44
330.887	77.44
331.115	82.44
331.344	79.44
331.572	86.44
331.801	80.44
332.03	86.44
332.258	74.44
332.486	89.44
332.715	75.44
332.943	72.44
333.172	74.44
333.4	79.44
333.629	81.44
333.857	85.44
334.085	86.44
334.314	77.44
334.542	75.44
334.771	91.44
334.999	68.44
335.227	90.44
335.455	81.44
335.684	81.44
335.912	87.44
336.14	95.44
336.369	91.44
336.597	85.44
336.825	78.44
337.053	86.44
337.281	83.44
337.51	96.44
337.738	86.44
337.966	72.44
338.194	79.44
338.422	90.44
338.65	75.44
338.878	89.44
339.106	87.44
339.334	96.44
339.562	89.44
339.79	96.44
340.018	103.44
340.246	73.44
340.474	94.44
340.702	82.44
340.93	93.44
341.158	77.44
341.386	98.44
341.614	82.44
341.842	91.44
342.07	74.44
342.298	71.44
342.526	94.44
342.754	94.44
342.981	76.44
343.209	82.44
343.437	97.44
343.665	96.44
343.893	94.44
344.12	88.44
344.348	93.44
344.576	89.44
344.804	88.44
345.031	79.44
345.259	88.44
345.487	71.44
345.714	89.44
345.942	77.44
346.17	76.44
346.397	88.44
346.625	88.44
346.853	75.44
347.08	90.44
347.308	95.44
347.535	83.44
347.763	80.44
347.99	83.44
348.218	81.44
348.445	91.44
348.673	85.44
348.9	70.44
349.128	87.44
349.355	83.44
349.583	75.44
349.81	89.44
350.037	90.44
350.265	83.44
350.492	68.44
350.72	73.44
350.947	86.44
351.174	98.44
351.402	83.44
351.629	75.44
351.856	74.44
352.083	82.44
352.311	80.44
352.538	85.44
352.765	79.44
352.992	93.44
353.22	98.44
353.447	91.44
353.674	78.44
353.901	88.44
354.128	84.44
354.355	85.44
354.583	85.44
354.81	79.44
355.037	88.44
355.264	87.44
355.491	90.44
355.718	85.44
355.945	80.44
356.172	66.44
356.399	81.44
356.626	65.44
356.853	79.44
357.08	80.44
357.307	91.44
357.534	68.44
357.761	74.44
357.988	74.44
358.215	82.44
358.441	95.44
358.668	84.44
358.895	83.44
359.122	78.44
359.349	85.44
359.576	65.44
359.802	88.44
360.029	89.44
360.256	79.44
360.483	78.44
360.709	90.44
360.936	98.44
361.163	81.44
361.39	57.44
361.616	93.44
361.843	85.44
362.07	84.44
362.296	82.44
362.523	88.44
362.749	77.44
362.976	81.44
363.203	76.44
363.429	85.44
363.656	88.44
363.882	85.44
364.109	78.44
364.335	92.44
364.562	88.44
364.788	80.44
365.015	87.44
365.241	96.44
365.468	77.44
365.694	80.44
365.92	89.44
366.147	86.44
366.373	76.44
366.599	87.44
366.826	83.44
367.052	78.44
367.278	79.44
367.505	88.44
367.731	96.44
367.957	86.44
368.184	90.44
368.41	84.44
368.636	78.44
368.862	89.44
369.089	78.44
369.315	87.44
369.541	85.44
369.767	86.44
369.993	85.44
370.219	65.44
370.445	84.44
370.672	74.44
370.898	74.44
371.124	87.44
371.35	85.44
371.576	76.44
371.802	95.44
372.028	85.44
372.254	108.44
372.48	89.44
372.706	75.44
372.932	76.44
373.158	89.44
373.384	75.44
373.61	74.44
373.835	73.44
374.061	93.44
374.287	86.44
374.513	71.44
374.739	89.44
374.965	71.44
375.191	72.44
375.416	84.44
375.642	79.44
375.868	92.44
376.094	86.44
376.319	76.44
376.545	93.44
376.771	87.44
376.997	83.44
377.222	81.44
377.448	86.44
377.674	86.44
377.899	73.44
378.125	82.44
378.35	85.44
378.576	90.44
378.802	82.44
379.027	89.44
379.253	78.44
379.478	88.44
379.704	80.44
379.929	76.44
380.155	82.44
380.38	80.44
380.606	81.44
380.831	81.44
381.057	95.44
381.282	80.44
381.507	91.44
381.733	89.44
381.958	80.44
382.184	87.44
382.409	73.44
382.634	84.44
382.86	80.44
383.085	86.44
383.31	86.44
383.535	97.44
383.761	86.44
383.986	77.44
384.211	90.44
384.436	77.44
384.662	99.44
384.887	95.44
385.112	78.44
385.337	81.44
385.562	80.44
385.787	95.44
386.013	86.44
386.238	96.44
386.463	81.44
386.688	97.44
386.913	74.44
387.138	75.44
387.363	87.44
387.588	94.44
387.813	87.44
388.038	82.44
388.263	95.44
388.488	80.44
388.713	89.44
388.938	86.44
389.163	86.44
389.387	80.44
389.612	81.44
389.837	78.44
390.062	89.44
390.287	91.44
390.512	74.44
390.736	71.44
390.961	80.44
391.186	92.44
391.411	80.44
391.636	75.44
391.86	92.44
392.085	81.44
392.31	81.44
392.534	70.44
392.759	88.44
392.984	82.44
393.208	88.44
393.433	71.44
393.658	80.44
393.882	89.44
394.107	83.44
394.331	89.44
394.556	91.44
394.78	78.44
395.005	85.44
395.229	92.44
395.454	80.44
395.678	81.44
395.903	66.44
396.127	76.44
396.352	81.44
396.576	85.44
396.801	83.44
397.025	68.44
397.249	85.44
397.474	89.44
397.698	74.44
397.922	90.44
398.147	75.44
398.371	75.44
398.595	78.44
398.82	89.44
399.044	82.44
399.268	74.44
399.492	95.44
399.717	73.44
399.941	79.44
400.165	81.44
400.389	73.44
400.613	82.44
400.837	72.44
401.062	86.44
401.286	78.44
401.51	78.44
401.734	83.44
401.958	84.44
402.182	88.44
402.406	79.44
402.63	85.44
402.854	74.44
403.078	85.44
403.302	88.44
403.526	73.44
403.75	79.44
403.974	71.44
404.198	92.44
404.422	91.44
404.645	82.44
404.869	73.44
405.093	86.44
405.317	87.44
405.541	89.44
405.765	79.44
405.988	84.44
406.212	86.44
406.436	82.44
406.66	90.44
406.883	82.44
407.107	73.44
407.331	92.44
407.555	80.44
407.778	77.44
408.002	85.44
408.226	74.44
408.449	94.44
408.673	81.44
408.896	74.44
409.12	80.44
409.344	81.44
409.567	91.44
409.791	86.44
410.014	70.44
410.238	75.44
410.461	70.44
410.685	78.44
410.908	72.44
411.132	90.44
411.355	83.44
411.578	75.44
411.802	102.44
412.025	83.44
412.249	81.44
412.472	84.44
412.695	85.44
412.919	93.44
413.142	83.44
413.365	82.44
413.589	88.44
413.812	81.44
414.035	91.44
414.258	77.44
414.482	69.44
414.705	75.44
414.928	75.44
415.151	84.44
415.374	85.44
415.597	83.44
415.821	84.44
416.044	81.44
416.267	72.44
416.49	74.44
416.713	87.44
416.936	85.44
417.159	81.44
417.382	81.44
417.605	76.44
417.828	95.44
418.051	98.44
418.274	70.44
418.497	60.44
418.72	74.44
418.943	81.44
419.166	80.44
419.389	88.44
419.611	73.44
419.834	96.44
420.057	81.44
420.28	73.44
420.503	71.44
420.726	80.44
420.948	72.44
421.171	76.44
421.394	85.44
421.617	97.44
421.839	77.44
422.062	87.44
422.285	94.44
422.507	84.44
422.73	86.44
422.953	78.44
423.175	88.44
423.398	87.44
423.621	87.44
423.843	71.44
424.066	82.44
424.288	80.44
424.511	71.44
424.733	81.44
424.956	68.44
425.178	91.44
425.401	107.44
425.623	82.44
425.846	79.44
426.068	73.44
426.291	76.44
426.513	94.44
426.735	90.44
426.958	87.44
427.18	77.44
427.402	93.44
427.625	81.44
427.847	77.44
428.069	76.44
428.292	85.44
428.514	78.44
428.736	75.44
428.958	76.44
429.181	80.44
429.403	89.44
429.625	79.44
429.847	81.44
430.069	87.44
430.292	75.44
430.514	89.44
430.736	84.44
430.958	95.44
431.18	78.44
431.402	71.44
431.624	88.44
431.846	81.44
432.068	81.44
432.29	81.44
432.512	71.44
432.734	88.44
432.956	90.44
433.178	87.44
433.4	83.44
433.622	82.44
433.844	92.44
434.066	86.44
434.287	75.44
434.509	73.44
434.731	87.44
434.953	91.44
435.175	88.44
435.397	99.44
435.618	82.44
435.84	87.44
436.062	79.44
436.284	87.44
436.505	101.44
436.727	79.44
436.949	91.44
437.17	75.44
437.392	93.44
437.614	80.44
437.835	86.44
438.057	87.44
438.278	92.44
438.5	84.44
438.721	89.44
438.943	91.44
439.165	95.44
439.386	88.44
439.608	83.44
439.829	66.44
440.05	87.44
440.272	79.44
440.493	99.44
440.715	83.44
440.936	82.44
441.158	82.44
441.379	86.44
441.6	78.44
441.822	87.44
442.043	87.44
442.264	90.44
442.486	71.44
442.707	88.44
442.928	73.44
443.149	78.44
443.371	94.44
443.592	102.44
443.813	69.44
444.034	87.44
444.255	78.44
444.476	76.44
444.698	89.44
444.919	85.44
445.14	139.44
445.361	106.44
445.582	94.44
445.803	80.44
446.024	81.44
446.245	83.44
446.466	86.44
446.687	84.44
446.908	86.44
447.129	78.44
447.35	72.44
447.571	85.44
447.792	74.44
448.013	65.44
448.234	86.44
448.455	81.44
448.675	77.44
448.896	87.44
449.117	77.44
449.338	78.44
449.559	76.44
449.779	89.44
450	89.44
450.221	76.44
450.442	88.44
450.662	87.44
450.883	82.44
451.104	96.44
451.324	85.44
451.545	79.44
451.766	89.44
451.986	81.44
452.207	92.44
452.428	97.44
452.648	81.44
452.869	84.44
453.089	85.44
453.31	77.44
453.53	85.44
453.751	91.44
453.971	74.44
454.192	62.44
454.412	81.44
454.633	85.44
454.853	92.44
455.073	70.44
455.294	80.44
455.514	87.44
455.734	89.44
455.955	73.44
456.175	63.44
456.395	87.44
456.616	75.44
456.836	79.44
457.056	72.44
457.276	75.44
457.497	79.44
457.717	86.44
457.937	79.44
458.157	87.44
458.377	74.44
458.598	69.44
458.818	82.44
459.038	86.44
459.258	83.44
459.478	82.44
459.698	78.44
459.918	79.44
460.138	88.44
460.358	87.44
460.578	82.44
460.798	88.44
461.018	79.44
461.238	82.44
461.458	76.44
461.678	92.44
461.898	86.44
462.118	80.44
462.338	87.44
462.558	80.44
462.777	85.44
462.997	61.44
463.217	73.44
463.437	76.44
463.657	96.44
463.876	83.44
464.096	96.44
464.316	85.44
464.536	86.44
464.755	79.44
464.975	81.44
465.195	86.44
465.414	78.44
465.634	78.44
465.854	98.44
466.073	90.44
466.293	86.44
466.512	90.44
466.732	91.44
466.951	79.44
467.171	81.44
467.391	79.44
467.61	88.44
467.829	72.44
468.049	88.44
468.268	85.44
468.488	81.44
468.707	78.44
468.927	82.44
469.146	76.44
469.365	90.44
469.585	86.44
469.804	79.44
470.023	87.44
470.243	99.44
470.462	96.44
470.681	79.44
470.901	82.44
471.12	81.44
471.339	88.44
471.558	88.44
471.777	90.44
471.997	95.44
472.216	78.44
472.435	83.44
472.654	79.44
472.873	95.44
473.092	91.44
473.311	78.44
473.53	83.44
473.749	77.44
473.968	102.44
474.187	73.44
474.406	76.44
474.625	85.44
474.844	81.44
475.063	89.44
475.282	75.44
475.501	82.44
475.72	87.44
475.939	85.44
476.158	82.44
476.377	87.44
476.596	93.44
476.814	87.44
477.033	80.44
477.252	82.44
477.471	78.44
477.69	85.44
477.908	71.44
478.127	85.44
478.346	84.44
478.564	68.44
478.783	84.44
479.002	89.44
479.22	84.44
479.439	80.44
479.658	67.44
479.876	105.44
480.095	78.44
480.313	87.44
480.532	78.44
480.751	83.44
480.969	74.44
481.188	78.44
481.406	80.44
481.624	98.44
481.843	88.44
482.061	90.44
482.28	83.44
482.498	90.44
482.717	83.44
482.935	73.44
483.153	79.44
483.372	92.44
483.59	88.44
483.808	95.44
484.027	83.44
484.245	74.44
484.463	81.44
484.681	77.44
484.9	82.44
485.118	88.44
485.336	82.44
485.554	75.44
485.772	88.44
485.99	68.44
486.209	75.44
486.427	80.44
486.645	78.44
486.863	98.44
487.081	75.44
487.299	89.44
487.517	88.44
487.735	94.44
487.953	91.44
488.171	93.44
488.389	87.44
488.607	93.44
488.825	84.44
489.043	85.44
489.261	79.44
489.479	95.44
489.696	78.44
489.914	89.44
490.132	81.44
490.35	89.44
490.568	79.44
490.786	82.44
491.003	88.44
491.221	71.44
491.439	102.44
491.657	85.44
491.874	94.44
492.092	83.44
492.31	81.44
492.527	89.44
492.745	92.44
492.963	84.44
493.18	97.44
493.398	90.44
493.615	88.44
493.833	64.44
494.05	96.44
494.268	80.44
494.485	87.44
494.703	87.44
494.92	79.44
495.138	90.44
495.355	87.44
495.573	84.44
495.79	80.44
496.008	81.44
496.225	78.44
496.442	85.44
496.66	87.44
496.877	89.44
497.094	96.44
497.312	82.44
497.529	89.44
497.746	87.44
497.963	82.44
498.181	86.44
498.398	91.44
498.615	77.44
498.832	84.44
499.049	91.44
499.267	84.44
499.484	101.44
499.701	101.44
499.918	85.44
500.135	76.44
500.352	91.44
500.569	73.44
500.786	93.44
501.003	93.44
501.22	104.44
501.437	89.44
501.654	82.44
501.871	86.44
502.088	73.44
502.305	79.44
502.522	74.44
502.739	73.44
502.956	89.44
503.172	95.44
503.389	85.44
503.606	93.44
503.823	86.44
504.04	86.44
504.256	91.44
504.473	85.44
504.69	87.44
504.907	95.44
505.123	85.44
505.34	83.44
505.557	94.44
505.773	86.44
505.99	80.44
506.207	70.44
506.423	88.44
506.64	95.44
506.856	90.44
507.073	84.44
507.289	92.44
507.506	95.44
507.722	75.44
507.939	85.44
508.155	75.44
508.372	79.44
508.588	81.44
508.805	78.44
509.021	92.44
509.238	85.44
509.454	85.44
509.67	83.44
509.887	81.44
510.103	90.44
510.319	78.44
510.536	89.44
510.752	88.44
510.968	87.44
511.184	86.44
511.401	82.44
511.617	92.44
511.833	81.44
512.049	76.44
512.265	91.44
512.481	102.44
512.698	80.44
512.914	71.44
513.13	86.44
513.346	97.44
513.562	87.44
513.778	93.44
513.994	86.44
514.21	85.44
514.426	92.44
514.642	85.44
514.858	65.44
515.074	71.44
515.29	97.44
515.506	85.44
515.721	85.44
515.937	104.44
516.153	85.44
516.369	76.44
516.585	85.44
516.801	81.44
517.016	83.44
517.232	89.44
517.448	83.44
517.664	82.44
517.879	78.44
518.095	77.44
518.311	91.44
518.527	82.44
518.742	77.44
518.958	82.44
519.173	72.44
519.389	93.44
519.605	83.44
519.82	80.44
520.036	85.44
