Data from Dirtnoheat1_HRD10591_00013.txt Node
Date: Fri Dec 27 15:18:31 EST 2024
User: Yrep
Spectrometer: HR+D1059
Trigger mode: 1
Integration Time (sec): 1.000000E-1
Scans to average: 1
Electric dark correction enabled: true
Nonlinearity correction enabled: false
Boxcar width: 0
XAxis mode: Wavelengths
Number of Pixels in Spectrum: 2048
>>>>>Begin Spectral Data<<<<<
223.165	-21.5
223.4	-21.5
223.635	-21.5
223.869	-18.5
224.104	-27.5
224.338	-7.5
224.573	-27.5
224.808	0.5
225.042	-7.5
225.277	0.5
225.511	-6.5
225.746	14.5
225.98	5.5
226.215	3.5
226.449	13.5
226.683	33.5
226.918	13.5
227.152	31.5
227.387	51.5
227.621	44.5
227.856	35.5
228.09	63.5
228.324	52.5
228.559	73.5
228.793	61.5
229.027	69.5
229.262	67.5
229.496	73.5
229.73	62.5
229.964	68.5
230.199	90.5
230.433	78.5
230.667	99.5
230.901	71.5
231.136	95.5
231.37	86.5
231.604	91.5
231.838	88.5
232.072	92.5
232.306	91.5
232.541	92.5
232.775	95.5
233.009	87.5
233.243	88.5
233.477	101.5
233.711	84.5
233.945	82.5
234.179	88.5
234.413	86.5
234.647	87.5
234.881	85.5
235.115	79.5
235.349	91.5
235.583	84.5
235.817	69.5
236.051	85.5
236.285	84.5
236.519	88.5
236.753	86.5
236.987	77.5
237.221	70.5
237.455	97.5
237.689	88.5
237.922	88.5
238.156	73.5
238.39	81.5
238.624	89.5
238.858	68.5
239.091	67.5
239.325	76.5
239.559	77.5
239.793	88.5
240.027	95.5
240.26	83.5
240.494	81.5
240.728	76.5
240.961	76.5
241.195	79.5
241.429	74.5
241.662	77.5
241.896	79.5
242.13	90.5
242.363	75.5
242.597	89.5
242.83	100.5
243.064	92.5
243.298	90.5
243.531	78.5
243.765	76.5
243.998	84.5
244.232	90.5
244.465	82.5
244.699	91.5
244.932	88.5
245.166	88.5
245.399	83.5
245.633	80.5
245.866	91.5
246.099	81.5
246.333	94.5
246.566	84.5
246.8	75.5
247.033	73.5
247.266	87.5
247.5	82.5
247.733	90.5
247.966	70.5
248.2	79.5
248.433	83.5
248.666	80.5
248.899	83.5
249.133	67.5
249.366	91.5
249.599	78.5
249.832	94.5
250.066	86.5
250.299	84.5
250.532	81.5
250.765	74.5
250.998	91.5
251.231	102.5
251.465	97.5
251.698	86.5
251.931	75.5
252.164	80.5
252.397	76.5
252.63	80.5
252.863	78.5
253.096	95.5
253.329	87.5
253.562	83.5
253.795	80.5
254.028	84.5
254.261	91.5
254.494	74.5
254.727	97.5
254.96	78.5
255.193	76.5
255.426	82.5
255.659	78.5
255.892	77.5
256.124	75.5
256.357	90.5
256.59	88.5
256.823	88.5
257.056	85.5
257.289	73.5
257.521	79.5
257.754	78.5
257.987	85.5
258.22	92.5
258.452	62.5
258.685	77.5
258.918	81.5
259.151	79.5
259.383	85.5
259.616	92.5
259.849	78.5
260.081	73.5
260.314	91.5
260.547	87.5
260.779	94.5
261.012	80.5
261.244	90.5
261.477	78.5
261.71	86.5
261.942	76.5
262.175	81.5
262.407	80.5
262.64	82.5
262.872	89.5
263.105	90.5
263.337	83.5
263.57	81.5
263.802	92.5
264.035	89.5
264.267	91.5
264.499	93.5
264.732	79.5
264.964	90.5
265.197	96.5
265.429	83.5
265.661	87.5
265.894	81.5
266.126	94.5
266.358	92.5
266.591	92.5
266.823	83.5
267.055	86.5
267.287	93.5
267.52	94.5
267.752	88.5
267.984	76.5
268.216	86.5
268.448	91.5
268.681	83.5
268.913	91.5
269.145	92.5
269.377	77.5
269.609	82.5
269.841	88.5
270.073	88.5
270.306	81.5
270.538	86.5
270.77	89.5
271.002	96.5
271.234	88.5
271.466	80.5
271.698	85.5
271.93	85.5
272.162	101.5
272.394	79.5
272.626	70.5
272.858	80.5
273.09	83.5
273.322	81.5
273.553	100.5
273.785	84.5
274.017	81.5
274.249	91.5
274.481	89.5
274.713	76.5
274.945	83.5
275.176	88.5
275.408	89.5
275.64	88.5
275.872	94.5
276.104	90.5
276.335	103.5
276.567	78.5
276.799	71.5
277.031	87.5
277.262	75.5
277.494	98.5
277.726	88.5
277.957	84.5
278.189	85.5
278.421	92.5
278.652	94.5
278.884	87.5
279.115	97.5
279.347	80.5
279.579	73.5
279.81	78.5
280.042	85.5
280.273	75.5
280.505	78.5
280.736	74.5
280.968	92.5
281.199	89.5
281.431	81.5
281.662	108.5
281.894	85.5
282.125	91.5
282.356	73.5
282.588	75.5
282.819	77.5
283.051	93.5
283.282	91.5
283.513	80.5
283.745	86.5
283.976	93.5
284.207	79.5
284.439	102.5
284.67	88.5
284.901	79.5
285.132	91.5
285.364	102.5
285.595	88.5
285.826	94.5
286.057	88.5
286.288	90.5
286.52	81.5
286.751	89.5
286.982	91.5
287.213	92.5
287.444	80.5
287.675	89.5
287.906	113.5
288.138	97.5
288.369	85.5
288.6	94.5
288.831	87.5
289.062	92.5
289.293	107.5
289.524	87.5
289.755	82.5
289.986	91.5
290.217	99.5
290.448	93.5
290.679	85.5
290.91	95.5
291.141	89.5
291.371	103.5
291.602	87.5
291.833	92.5
292.064	95.5
292.295	82.5
292.526	71.5
292.757	82.5
292.987	81.5
293.218	94.5
293.449	87.5
293.68	73.5
293.91	93.5
294.141	93.5
294.372	88.5
294.603	86.5
294.833	95.5
295.064	83.5
295.295	98.5
295.525	92.5
295.756	100.5
295.987	96.5
296.217	75.5
296.448	92.5
296.679	94.5
296.909	102.5
297.14	95.5
297.37	91.5
297.601	86.5
297.831	84.5
298.062	92.5
298.292	91.5
298.523	89.5
298.753	95.5
298.984	73.5
299.214	97.5
299.445	80.5
299.675	85.5
299.905	83.5
300.136	90.5
300.366	87.5
300.597	100.5
300.827	85.5
301.057	85.5
301.288	96.5
301.518	86.5
301.748	86.5
301.979	123.5
302.209	94.5
302.439	91.5
302.669	96.5
302.9	84.5
303.13	85.5
303.36	94.5
303.59	88.5
303.82	97.5
304.051	107.5
304.281	87.5
304.511	97.5
304.741	73.5
304.971	82.5
305.201	99.5
305.431	87.5
305.661	80.5
305.891	97.5
306.121	94.5
306.352	84.5
306.582	87.5
306.812	84.5
307.042	73.5
307.272	93.5
307.502	79.5
307.731	88.5
307.961	85.5
308.191	84.5
308.421	90.5
308.651	87.5
308.881	71.5
309.111	97.5
309.341	87.5
309.571	79.5
309.8	80.5
310.03	85.5
310.26	86.5
310.49	87.5
310.72	97.5
310.949	92.5
311.179	95.5
311.409	90.5
311.639	88.5
311.868	87.5
312.098	91.5
312.328	95.5
312.557	69.5
312.787	100.5
313.017	86.5
313.246	78.5
313.476	84.5
313.706	79.5
313.935	85.5
314.165	89.5
314.394	98.5
314.624	98.5
314.853	86.5
315.083	85.5
315.312	93.5
315.542	84.5
315.771	78.5
316.001	81.5
316.23	98.5
316.46	77.5
316.689	96.5
316.919	88.5
317.148	105.5
317.377	97.5
317.607	92.5
317.836	95.5
318.065	88.5
318.295	85.5
318.524	76.5
318.753	91.5
318.983	79.5
319.212	93.5
319.441	79.5
319.67	79.5
319.9	90.5
320.129	89.5
320.358	107.5
320.587	98.5
320.816	97.5
321.046	85.5
321.275	93.5
321.504	85.5
321.733	81.5
321.962	85.5
322.191	93.5
322.42	85.5
322.649	101.5
322.878	86.5
323.108	85.5
323.337	85.5
323.566	107.5
323.795	99.5
324.024	84.5
324.253	86.5
324.482	85.5
324.71	81.5
324.939	96.5
325.168	94.5
325.397	85.5
325.626	99.5
325.855	100.5
326.084	100.5
326.313	80.5
326.542	84.5
326.77	99.5
326.999	89.5
327.228	98.5
327.457	104.5
327.686	91.5
327.914	79.5
328.143	110.5
328.372	84.5
328.6	78.5
328.829	94.5
329.058	80.5
329.287	99.5
329.515	98.5
329.744	100.5
329.972	96.5
330.201	107.5
330.43	107.5
330.658	90.5
330.887	82.5
331.115	84.5
331.344	81.5
331.572	106.5
331.801	107.5
332.03	98.5
332.258	81.5
332.486	82.5
332.715	88.5
332.943	83.5
333.172	104.5
333.4	87.5
333.629	100.5
333.857	82.5
334.085	90.5
334.314	90.5
334.542	84.5
334.771	95.5
334.999	84.5
335.227	88.5
335.455	99.5
335.684	94.5
335.912	86.5
336.14	95.5
336.369	85.5
336.597	86.5
336.825	87.5
337.053	91.5
337.281	102.5
337.51	93.5
337.738	95.5
337.966	99.5
338.194	94.5
338.422	73.5
338.65	86.5
338.878	103.5
339.106	86.5
339.334	96.5
339.562	96.5
339.79	87.5
340.018	78.5
340.246	78.5
340.474	96.5
340.702	98.5
340.93	75.5
341.158	99.5
341.386	96.5
341.614	77.5
341.842	99.5
342.07	99.5
342.298	89.5
342.526	88.5
342.754	81.5
342.981	91.5
343.209	79.5
343.437	108.5
343.665	89.5
343.893	86.5
344.12	87.5
344.348	88.5
344.576	87.5
344.804	79.5
345.031	93.5
345.259	99.5
345.487	81.5
345.714	100.5
345.942	96.5
346.17	89.5
346.397	99.5
346.625	77.5
346.853	77.5
347.08	83.5
347.308	81.5
347.535	91.5
347.763	86.5
347.99	105.5
348.218	95.5
348.445	88.5
348.673	94.5
348.9	98.5
349.128	82.5
349.355	82.5
349.583	96.5
349.81	92.5
350.037	93.5
350.265	88.5
350.492	88.5
350.72	83.5
350.947	79.5
351.174	101.5
351.402	88.5
351.629	79.5
351.856	78.5
352.083	87.5
352.311	89.5
352.538	88.5
352.765	88.5
352.992	97.5
353.22	93.5
353.447	86.5
353.674	76.5
353.901	90.5
354.128	86.5
354.355	86.5
354.583	89.5
354.81	100.5
355.037	93.5
355.264	99.5
355.491	89.5
355.718	105.5
355.945	85.5
356.172	91.5
356.399	73.5
356.626	95.5
356.853	91.5
357.08	87.5
357.307	92.5
357.534	85.5
357.761	79.5
357.988	106.5
358.215	99.5
358.441	100.5
358.668	103.5
358.895	86.5
359.122	87.5
359.349	88.5
359.576	103.5
359.802	90.5
360.029	93.5
360.256	68.5
360.483	95.5
360.709	80.5
360.936	106.5
361.163	80.5
361.39	81.5
361.616	81.5
361.843	92.5
362.07	97.5
362.296	71.5
362.523	91.5
362.749	99.5
362.976	92.5
363.203	93.5
363.429	92.5
363.656	87.5
363.882	98.5
364.109	79.5
364.335	93.5
364.562	86.5
364.788	99.5
365.015	103.5
365.241	79.5
365.468	90.5
365.694	85.5
365.92	89.5
366.147	91.5
366.373	94.5
366.599	83.5
366.826	88.5
367.052	84.5
367.278	97.5
367.505	82.5
367.731	95.5
367.957	97.5
368.184	99.5
368.41	87.5
368.636	84.5
368.862	85.5
369.089	87.5
369.315	99.5
369.541	100.5
369.767	79.5
369.993	82.5
370.219	101.5
370.445	93.5
370.672	84.5
370.898	86.5
371.124	86.5
371.35	88.5
371.576	91.5
371.802	86.5
372.028	88.5
372.254	91.5
372.48	86.5
372.706	88.5
372.932	77.5
373.158	87.5
373.384	87.5
373.61	97.5
373.835	92.5
374.061	93.5
374.287	99.5
374.513	96.5
374.739	92.5
374.965	84.5
375.191	86.5
375.416	93.5
375.642	87.5
375.868	93.5
376.094	90.5
376.319	83.5
376.545	100.5
376.771	80.5
376.997	97.5
377.222	96.5
377.448	76.5
377.674	84.5
377.899	101.5
378.125	87.5
378.35	91.5
378.576	87.5
378.802	92.5
379.027	78.5
379.253	82.5
379.478	82.5
379.704	89.5
379.929	95.5
380.155	92.5
380.38	86.5
380.606	88.5
380.831	84.5
381.057	89.5
381.282	81.5
381.507	81.5
381.733	82.5
381.958	82.5
382.184	75.5
382.409	93.5
382.634	103.5
382.86	94.5
383.085	88.5
383.31	87.5
383.535	83.5
383.761	109.5
383.986	101.5
384.211	88.5
384.436	97.5
384.662	92.5
384.887	92.5
385.112	93.5
385.337	88.5
385.562	94.5
385.787	86.5
386.013	83.5
386.238	95.5
386.463	83.5
386.688	95.5
386.913	93.5
387.138	103.5
387.363	94.5
387.588	100.5
387.813	88.5
388.038	94.5
388.263	80.5
388.488	78.5
388.713	80.5
388.938	76.5
389.163	80.5
389.387	84.5
389.612	90.5
389.837	86.5
390.062	84.5
390.287	97.5
390.512	79.5
390.736	81.5
390.961	80.5
391.186	78.5
391.411	79.5
391.636	75.5
391.86	82.5
392.085	86.5
392.31	95.5
392.534	98.5
392.759	99.5
392.984	77.5
393.208	95.5
393.433	101.5
393.658	90.5
393.882	98.5
394.107	93.5
394.331	84.5
394.556	86.5
394.78	91.5
395.005	100.5
395.229	80.5
395.454	83.5
395.678	91.5
395.903	96.5
396.127	91.5
396.352	83.5
396.576	89.5
396.801	91.5
397.025	81.5
397.249	91.5
397.474	95.5
397.698	87.5
397.922	86.5
398.147	80.5
398.371	87.5
398.595	87.5
398.82	89.5
399.044	80.5
399.268	97.5
399.492	85.5
399.717	81.5
399.941	95.5
400.165	82.5
400.389	88.5
400.613	89.5
400.837	92.5
401.062	75.5
401.286	79.5
401.51	84.5
401.734	85.5
401.958	82.5
402.182	94.5
402.406	93.5
402.63	100.5
402.854	66.5
403.078	94.5
403.302	90.5
403.526	90.5
403.75	94.5
403.974	83.5
404.198	83.5
404.422	81.5
404.645	84.5
404.869	85.5
405.093	88.5
405.317	89.5
405.541	89.5
405.765	81.5
405.988	75.5
406.212	83.5
406.436	80.5
406.66	80.5
406.883	94.5
407.107	84.5
407.331	79.5
407.555	89.5
407.778	86.5
408.002	84.5
408.226	86.5
408.449	82.5
408.673	86.5
408.896	84.5
409.12	82.5
409.344	82.5
409.567	88.5
409.791	96.5
410.014	89.5
410.238	79.5
410.461	85.5
410.685	90.5
410.908	77.5
411.132	89.5
411.355	94.5
411.578	88.5
411.802	88.5
412.025	76.5
412.249	98.5
412.472	100.5
412.695	81.5
412.919	84.5
413.142	81.5
413.365	92.5
413.589	89.5
413.812	91.5
414.035	90.5
414.258	83.5
414.482	91.5
414.705	80.5
414.928	91.5
415.151	95.5
415.374	91.5
415.597	76.5
415.821	70.5
416.044	74.5
416.267	88.5
416.49	89.5
416.713	91.5
416.936	92.5
417.159	77.5
417.382	94.5
417.605	94.5
417.828	77.5
418.051	78.5
418.274	80.5
418.497	79.5
418.72	82.5
418.943	99.5
419.166	86.5
419.389	85.5
419.611	82.5
419.834	81.5
420.057	91.5
420.28	95.5
420.503	71.5
420.726	78.5
420.948	87.5
421.171	70.5
421.394	86.5
421.617	97.5
421.839	76.5
422.062	87.5
422.285	95.5
422.507	87.5
422.73	86.5
422.953	81.5
423.175	69.5
423.398	89.5
423.621	94.5
423.843	99.5
424.066	80.5
424.288	86.5
424.511	85.5
424.733	85.5
424.956	80.5
425.178	80.5
425.401	103.5
425.623	92.5
425.846	83.5
426.068	89.5
426.291	87.5
426.513	91.5
426.735	79.5
426.958	80.5
427.18	85.5
427.402	97.5
427.625	85.5
427.847	98.5
428.069	96.5
428.292	79.5
428.514	79.5
428.736	82.5
428.958	91.5
429.181	94.5
429.403	87.5
429.625	95.5
429.847	87.5
430.069	75.5
430.292	86.5
430.514	79.5
430.736	85.5
430.958	91.5
431.18	85.5
431.402	95.5
431.624	84.5
431.846	88.5
432.068	81.5
432.29	84.5
432.512	87.5
432.734	96.5
432.956	79.5
433.178	85.5
433.4	88.5
433.622	93.5
433.844	87.5
434.066	91.5
434.287	79.5
434.509	83.5
434.731	75.5
434.953	87.5
435.175	91.5
435.397	86.5
435.618	88.5
435.84	94.5
436.062	79.5
436.284	87.5
436.505	82.5
436.727	88.5
436.949	96.5
437.17	76.5
437.392	86.5
437.614	99.5
437.835	85.5
438.057	80.5
438.278	88.5
438.5	77.5
438.721	86.5
438.943	84.5
439.165	99.5
439.386	89.5
439.608	84.5
439.829	87.5
440.05	105.5
440.272	80.5
440.493	83.5
440.715	83.5
440.936	65.5
441.158	75.5
441.379	86.5
441.6	77.5
441.822	83.5
442.043	79.5
442.264	77.5
442.486	77.5
442.707	93.5
442.928	92.5
443.149	98.5
443.371	99.5
443.592	89.5
443.813	75.5
444.034	80.5
444.255	84.5
444.476	79.5
444.698	97.5
444.919	77.5
445.14	155.5
445.361	121.5
445.582	86.5
445.803	95.5
446.024	89.5
446.245	79.5
446.466	86.5
446.687	88.5
446.908	97.5
447.129	88.5
447.35	95.5
447.571	93.5
447.792	77.5
448.013	82.5
448.234	88.5
448.455	87.5
448.675	79.5
448.896	84.5
449.117	83.5
449.338	88.5
449.559	84.5
449.779	85.5
450	81.5
450.221	76.5
450.442	78.5
450.662	91.5
450.883	91.5
451.104	78.5
451.324	97.5
451.545	92.5
451.766	99.5
451.986	67.5
452.207	88.5
452.428	93.5
452.648	82.5
452.869	70.5
453.089	95.5
453.31	83.5
453.53	87.5
453.751	100.5
453.971	82.5
454.192	77.5
454.412	82.5
454.633	87.5
454.853	85.5
455.073	86.5
455.294	77.5
455.514	91.5
455.734	92.5
455.955	94.5
456.175	81.5
456.395	87.5
456.616	81.5
456.836	88.5
457.056	75.5
457.276	77.5
457.497	103.5
457.717	98.5
457.937	75.5
458.157	87.5
458.377	97.5
458.598	89.5
458.818	94.5
459.038	89.5
459.258	87.5
459.478	80.5
459.698	83.5
459.918	91.5
460.138	96.5
460.358	98.5
460.578	88.5
460.798	94.5
461.018	95.5
461.238	91.5
461.458	79.5
461.678	86.5
461.898	98.5
462.118	84.5
462.338	94.5
462.558	96.5
462.777	100.5
462.997	85.5
463.217	76.5
463.437	88.5
463.657	81.5
463.876	71.5
464.096	97.5
464.316	87.5
464.536	83.5
464.755	89.5
464.975	64.5
465.195	97.5
465.414	92.5
465.634	78.5
465.854	88.5
466.073	88.5
466.293	87.5
466.512	85.5
466.732	88.5
466.951	65.5
467.171	81.5
467.391	81.5
467.61	88.5
467.829	94.5
468.049	93.5
468.268	85.5
468.488	76.5
468.707	79.5
468.927	99.5
469.146	91.5
469.365	87.5
469.585	90.5
469.804	85.5
470.023	77.5
470.243	80.5
470.462	98.5
470.681	72.5
470.901	82.5
471.12	93.5
471.339	92.5
471.558	102.5
471.777	98.5
471.997	92.5
472.216	91.5
472.435	88.5
472.654	83.5
472.873	88.5
473.092	86.5
473.311	78.5
473.53	94.5
473.749	86.5
473.968	90.5
474.187	87.5
474.406	84.5
474.625	98.5
474.844	108.5
475.063	85.5
475.282	90.5
475.501	94.5
475.72	91.5
475.939	76.5
476.158	79.5
476.377	86.5
476.596	95.5
476.814	82.5
477.033	106.5
477.252	79.5
477.471	93.5
477.69	87.5
477.908	78.5
478.127	80.5
478.346	101.5
478.564	99.5
478.783	76.5
479.002	84.5
479.22	90.5
479.439	89.5
479.658	85.5
479.876	79.5
480.095	73.5
480.313	91.5
480.532	84.5
480.751	92.5
480.969	88.5
481.188	95.5
481.406	85.5
481.624	81.5
481.843	70.5
482.061	69.5
482.28	77.5
482.498	88.5
482.717	77.5
482.935	96.5
483.153	93.5
483.372	95.5
483.59	74.5
483.808	89.5
484.027	84.5
484.245	78.5
484.463	90.5
484.681	97.5
484.9	76.5
485.118	83.5
485.336	93.5
485.554	82.5
485.772	99.5
485.99	77.5
486.209	83.5
486.427	69.5
486.645	87.5
486.863	91.5
487.081	75.5
487.299	88.5
487.517	93.5
487.735	78.5
487.953	87.5
488.171	99.5
488.389	79.5
488.607	75.5
488.825	81.5
489.043	82.5
489.261	89.5
489.479	88.5
489.696	104.5
489.914	95.5
490.132	86.5
490.35	87.5
490.568	80.5
490.786	96.5
491.003	82.5
491.221	73.5
491.439	96.5
491.657	94.5
491.874	94.5
492.092	93.5
492.31	99.5
492.527	92.5
492.745	82.5
492.963	87.5
493.18	79.5
493.398	89.5
493.615	88.5
493.833	89.5
494.05	102.5
494.268	87.5
494.485	101.5
494.703	95.5
494.92	87.5
495.138	78.5
495.355	86.5
495.573	84.5
495.79	95.5
496.008	86.5
496.225	84.5
496.442	107.5
496.66	99.5
496.877	82.5
497.094	93.5
497.312	86.5
497.529	83.5
497.746	92.5
497.963	82.5
498.181	91.5
498.398	86.5
498.615	78.5
498.832	88.5
499.049	89.5
499.267	104.5
499.484	91.5
499.701	102.5
499.918	102.5
500.135	77.5
500.352	77.5
500.569	83.5
500.786	84.5
501.003	80.5
501.22	101.5
501.437	94.5
501.654	95.5
501.871	70.5
502.088	88.5
502.305	87.5
502.522	79.5
502.739	96.5
502.956	82.5
503.172	89.5
503.389	89.5
503.606	67.5
503.823	103.5
504.04	100.5
504.256	95.5
504.473	99.5
504.69	101.5
504.907	96.5
505.123	95.5
505.34	84.5
505.557	93.5
505.773	89.5
505.99	97.5
506.207	85.5
506.423	81.5
506.64	92.5
506.856	89.5
507.073	88.5
507.289	80.5
507.506	85.5
507.722	80.5
507.939	84.5
508.155	100.5
508.372	89.5
508.588	89.5
508.805	86.5
509.021	84.5
509.238	82.5
509.454	91.5
509.67	93.5
509.887	79.5
510.103	85.5
510.319	84.5
510.536	100.5
510.752	84.5
510.968	101.5
511.184	86.5
511.401	70.5
511.617	100.5
511.833	96.5
512.049	84.5
512.265	88.5
512.481	87.5
512.698	75.5
512.914	83.5
513.13	104.5
513.346	100.5
513.562	96.5
513.778	92.5
513.994	76.5
514.21	90.5
514.426	84.5
514.642	98.5
514.858	95.5
515.074	78.5
515.29	93.5
515.506	81.5
515.721	87.5
515.937	83.5
516.153	101.5
516.369	83.5
516.585	77.5
516.801	77.5
517.016	104.5
517.232	94.5
517.448	93.5
517.664	85.5
517.879	88.5
518.095	91.5
518.311	100.5
518.527	109.5
518.742	83.5
518.958	88.5
519.173	76.5
519.389	90.5
519.605	90.5
519.82	86.5
520.036	91.5
520.251	71.5
520.467	71.5
520.682	90.5
520.898	88.5
521.113	87.5
521.329	97.5
521.544	97.5
521.76	83.5
521.975	92.5
522.19	97.5
522.406	80.5
522.621	93.5
522.836	97.5
523.052	100.5
523.267	96.5
523.482	92.5
523.698	97.5
523.913	87.5
524.128	89.5
524.343	106.5
524.559	111.5
524.774	99.5
524.989	93.5
525.204	88.5
525.419	91.5
525.634	94.5
525.849	82.5
526.064	100.5
526.28	91.5
526.495	86.5
526.71	97.5
526.925	84.5
527.14	93.5
527.355	89.5
527.57	86.5
527.785	89.5
527.999	94.5
528.214	89.5
528.429	94.5
528.644	81.5
528.859	82.5
529.074	94.5
529.289	83.5
529.503	88.5
529.718	94.5
529.933	97.5
530.148	86.5
530.363	85.5
530.577	84.5
530.792	85.5
531.007	93.5
531.221	76.5
531.436	92.5
531.651	93.5
531.865	75.5
532.08	88.5
532.295	86.5
532.509	98.5
532.724	86.5
532.938	100.5
533.153	83.5
533.367	83.5
533.582	97.5
533.796	109.5
534.011	79.5
534.225	92.5
534.44	88.5
534.654	93.5
534.868	78.5
535.083	91.5
535.297	84.5
535.511	86.5
535.726	90.5
535.94	102.5
536.154	90.5
536.369	81.5
536.583	76.5
536.797	97.5
537.011	91.5
537.225	99.5
537.44	91.5
537.654	82.5
537.868	97.5
538.082	88.5
538.296	89.5
538.51	96.5
538.724	91.5
538.938	93.5
539.153	83.5
