Data from Dirtnoheat1_HRD10591_00008.txt Node
Date: Fri Dec 27 15:18:26 EST 2024
User: Yrep
Spectrometer: HR+D1059
Trigger mode: 1
Integration Time (sec): 1.000000E-1
Scans to average: 1
Electric dark correction enabled: true
Nonlinearity correction enabled: false
Boxcar width: 0
XAxis mode: Wavelengths
Number of Pixels in Spectrum: 2048
>>>>>Begin Spectral Data<<<<<
223.165	-26.56
223.4	-26.56
223.635	-26.56
223.869	-15.56
224.104	-22.56
224.338	-11.56
224.573	-20.56
224.808	-2.56
225.042	4.44
225.277	-4.56
225.511	-0.56
225.746	-5.56
225.98	10.44
226.215	11.44
226.449	24.44
226.683	28.44
226.918	9.44
227.152	21.44
227.387	39.44
227.621	50.44
227.856	45.44
228.09	52.44
228.324	53.44
228.559	66.44
228.793	69.44
229.027	69.44
229.262	65.44
229.496	77.44
229.73	64.44
229.964	68.44
230.199	76.44
230.433	75.44
230.667	77.44
230.901	67.44
231.136	79.44
231.37	85.44
231.604	84.44
231.838	87.44
232.072	82.44
232.306	81.44
232.541	83.44
232.775	90.44
233.009	73.44
233.243	92.44
233.477	87.44
233.711	82.44
233.945	83.44
234.179	82.44
234.413	86.44
234.647	94.44
234.881	73.44
235.115	87.44
235.349	96.44
235.583	83.44
235.817	81.44
236.051	93.44
236.285	84.44
236.519	81.44
236.753	90.44
236.987	87.44
237.221	83.44
237.455	87.44
237.689	82.44
237.922	85.44
238.156	88.44
238.39	81.44
238.624	76.44
238.858	72.44
239.091	69.44
239.325	80.44
239.559	89.44
239.793	84.44
240.027	77.44
240.26	75.44
240.494	89.44
240.728	73.44
240.961	70.44
241.195	87.44
241.429	84.44
241.662	75.44
241.896	77.44
242.13	69.44
242.363	73.44
242.597	80.44
242.83	78.44
243.064	76.44
243.298	59.44
243.531	83.44
243.765	95.44
243.998	95.44
244.232	76.44
244.465	83.44
244.699	81.44
244.932	61.44
245.166	67.44
245.399	87.44
245.633	76.44
245.866	81.44
246.099	75.44
246.333	76.44
246.566	78.44
246.8	82.44
247.033	85.44
247.266	91.44
247.5	77.44
247.733	80.44
247.966	73.44
248.2	73.44
248.433	90.44
248.666	83.44
248.899	82.44
249.133	82.44
249.366	79.44
249.599	86.44
249.832	81.44
250.066	98.44
250.299	93.44
250.532	76.44
250.765	80.44
250.998	82.44
251.231	79.44
251.465	83.44
251.698	87.44
251.931	91.44
252.164	80.44
252.397	93.44
252.63	85.44
252.863	75.44
253.096	81.44
253.329	93.44
253.562	83.44
253.795	84.44
254.028	88.44
254.261	62.44
254.494	91.44
254.727	91.44
254.96	78.44
255.193	79.44
255.426	84.44
255.659	90.44
255.892	93.44
256.124	82.44
256.357	75.44
256.59	75.44
256.823	76.44
257.056	76.44
257.289	81.44
257.521	84.44
257.754	81.44
257.987	92.44
258.22	77.44
258.452	88.44
258.685	87.44
258.918	97.44
259.151	80.44
259.383	75.44
259.616	95.44
259.849	92.44
260.081	87.44
260.314	80.44
260.547	80.44
260.779	84.44
261.012	83.44
261.244	84.44
261.477	75.44
261.71	73.44
261.942	75.44
262.175	83.44
262.407	84.44
262.64	73.44
262.872	99.44
263.105	77.44
263.337	93.44
263.57	77.44
263.802	83.44
264.035	82.44
264.267	74.44
264.499	90.44
264.732	101.44
264.964	86.44
265.197	91.44
265.429	93.44
265.661	91.44
265.894	79.44
266.126	85.44
266.358	78.44
266.591	80.44
266.823	106.44
267.055	88.44
267.287	89.44
267.52	90.44
267.752	114.44
267.984	89.44
268.216	81.44
268.448	74.44
268.681	96.44
268.913	79.44
269.145	92.44
269.377	70.44
269.609	94.44
269.841	95.44
270.073	86.44
270.306	95.44
270.538	81.44
270.77	90.44
271.002	89.44
271.234	86.44
271.466	88.44
271.698	81.44
271.93	96.44
272.162	98.44
272.394	80.44
272.626	86.44
272.858	83.44
273.09	80.44
273.322	81.44
273.553	97.44
273.785	80.44
274.017	79.44
274.249	98.44
274.481	72.44
274.713	82.44
274.945	83.44
275.176	83.44
275.408	89.44
275.64	93.44
275.872	87.44
276.104	108.44
276.335	89.44
276.567	87.44
276.799	83.44
277.031	97.44
277.262	84.44
277.494	89.44
277.726	88.44
277.957	88.44
278.189	89.44
278.421	73.44
278.652	82.44
278.884	96.44
279.115	93.44
279.347	63.44
279.579	90.44
279.81	83.44
280.042	95.44
280.273	97.44
280.505	92.44
280.736	85.44
280.968	96.44
281.199	86.44
281.431	86.44
281.662	87.44
281.894	76.44
282.125	83.44
282.356	82.44
282.588	85.44
282.819	95.44
283.051	84.44
283.282	76.44
283.513	95.44
283.745	89.44
283.976	83.44
284.207	84.44
284.439	91.44
284.67	82.44
284.901	76.44
285.132	84.44
285.364	80.44
285.595	87.44
285.826	100.44
286.057	91.44
286.288	94.44
286.52	79.44
286.751	95.44
286.982	91.44
287.213	83.44
287.444	83.44
287.675	90.44
287.906	96.44
288.138	86.44
288.369	96.44
288.6	96.44
288.831	81.44
289.062	78.44
289.293	87.44
289.524	88.44
289.755	99.44
289.986	93.44
290.217	86.44
290.448	95.44
290.679	87.44
290.91	100.44
291.141	89.44
291.371	82.44
291.602	75.44
291.833	96.44
292.064	107.44
292.295	95.44
292.526	86.44
292.757	67.44
292.987	77.44
293.218	89.44
293.449	88.44
293.68	94.44
293.91	98.44
294.141	83.44
294.372	96.44
294.603	84.44
294.833	86.44
295.064	99.44
295.295	89.44
295.525	79.44
295.756	89.44
295.987	94.44
296.217	94.44
296.448	80.44
296.679	91.44
296.909	80.44
297.14	90.44
297.37	81.44
297.601	79.44
297.831	84.44
298.062	105.44
298.292	91.44
298.523	96.44
298.753	87.44
298.984	93.44
299.214	97.44
299.445	78.44
299.675	89.44
299.905	74.44
300.136	92.44
300.366	83.44
300.597	87.44
300.827	93.44
301.057	88.44
301.288	83.44
301.518	78.44
301.748	83.44
301.979	105.44
302.209	87.44
302.439	81.44
302.669	84.44
302.9	75.44
303.13	89.44
303.36	79.44
303.59	73.44
303.82	108.44
304.051	91.44
304.281	86.44
304.511	86.44
304.741	97.44
304.971	98.44
305.201	89.44
305.431	95.44
305.661	86.44
305.891	95.44
306.121	93.44
306.352	88.44
306.582	69.44
306.812	92.44
307.042	92.44
307.272	93.44
307.502	81.44
307.731	71.44
307.961	84.44
308.191	80.44
308.421	91.44
308.651	94.44
308.881	91.44
309.111	87.44
309.341	88.44
309.571	95.44
309.8	95.44
310.03	87.44
310.26	78.44
310.49	79.44
310.72	92.44
310.949	76.44
311.179	94.44
311.409	96.44
311.639	81.44
311.868	108.44
312.098	97.44
312.328	96.44
312.557	82.44
312.787	95.44
313.017	97.44
313.246	90.44
313.476	83.44
313.706	79.44
313.935	82.44
314.165	85.44
314.394	86.44
314.624	83.44
314.853	86.44
315.083	78.44
315.312	82.44
315.542	98.44
315.771	90.44
316.001	87.44
316.23	84.44
316.46	93.44
316.689	90.44
316.919	85.44
317.148	97.44
317.377	80.44
317.607	96.44
317.836	91.44
318.065	87.44
318.295	70.44
318.524	101.44
318.753	91.44
318.983	89.44
319.212	81.44
319.441	88.44
319.67	82.44
319.9	89.44
320.129	87.44
320.358	78.44
320.587	81.44
320.816	98.44
321.046	84.44
321.275	91.44
321.504	91.44
321.733	97.44
321.962	91.44
322.191	83.44
322.42	88.44
322.649	89.44
322.878	85.44
323.108	98.44
323.337	85.44
323.566	96.44
323.795	84.44
324.024	76.44
324.253	87.44
324.482	97.44
324.71	85.44
324.939	88.44
325.168	85.44
325.397	93.44
325.626	90.44
325.855	96.44
326.084	84.44
326.313	88.44
326.542	90.44
326.77	83.44
326.999	84.44
327.228	82.44
327.457	78.44
327.686	87.44
327.914	85.44
328.143	96.44
328.372	88.44
328.6	98.44
328.829	90.44
329.058	102.44
329.287	97.44
329.515	91.44
329.744	83.44
329.972	83.44
330.201	85.44
330.43	82.44
330.658	86.44
330.887	79.44
331.115	89.44
331.344	90.44
331.572	106.44
331.801	101.44
332.03	79.44
332.258	72.44
332.486	99.44
332.715	74.44
332.943	83.44
333.172	83.44
333.4	84.44
333.629	91.44
333.857	92.44
334.085	87.44
334.314	91.44
334.542	83.44
334.771	86.44
334.999	87.44
335.227	93.44
335.455	80.44
335.684	93.44
335.912	87.44
336.14	85.44
336.369	105.44
336.597	89.44
336.825	92.44
337.053	83.44
337.281	99.44
337.51	97.44
337.738	97.44
337.966	99.44
338.194	84.44
338.422	81.44
338.65	89.44
338.878	79.44
339.106	91.44
339.334	95.44
339.562	87.44
339.79	97.44
340.018	95.44
340.246	72.44
340.474	94.44
340.702	87.44
340.93	76.44
341.158	82.44
341.386	87.44
341.614	82.44
341.842	93.44
342.07	102.44
342.298	92.44
342.526	85.44
342.754	88.44
342.981	91.44
343.209	96.44
343.437	108.44
343.665	96.44
343.893	98.44
344.12	98.44
344.348	97.44
344.576	95.44
344.804	97.44
345.031	87.44
345.259	91.44
345.487	82.44
345.714	94.44
345.942	97.44
346.17	77.44
346.397	90.44
346.625	94.44
346.853	91.44
347.08	83.44
347.308	90.44
347.535	85.44
347.763	92.44
347.99	89.44
348.218	102.44
348.445	102.44
348.673	93.44
348.9	89.44
349.128	96.44
349.355	86.44
349.583	94.44
349.81	85.44
350.037	73.44
350.265	87.44
350.492	70.44
350.72	86.44
350.947	85.44
351.174	87.44
351.402	76.44
351.629	82.44
351.856	77.44
352.083	90.44
352.311	89.44
352.538	84.44
352.765	94.44
352.992	102.44
353.22	93.44
353.447	98.44
353.674	90.44
353.901	74.44
354.128	92.44
354.355	86.44
354.583	84.44
354.81	90.44
355.037	94.44
355.264	102.44
355.491	92.44
355.718	88.44
355.945	86.44
356.172	83.44
356.399	84.44
356.626	81.44
356.853	79.44
357.08	70.44
357.307	105.44
357.534	86.44
357.761	96.44
357.988	81.44
358.215	93.44
358.441	92.44
358.668	81.44
358.895	80.44
359.122	78.44
359.349	86.44
359.576	84.44
359.802	77.44
360.029	91.44
360.256	82.44
360.483	87.44
360.709	82.44
360.936	94.44
361.163	82.44
361.39	83.44
361.616	80.44
361.843	95.44
362.07	87.44
362.296	88.44
362.523	79.44
362.749	77.44
362.976	84.44
363.203	103.44
363.429	79.44
363.656	67.44
363.882	108.44
364.109	90.44
364.335	98.44
364.562	82.44
364.788	80.44
365.015	77.44
365.241	86.44
365.468	72.44
365.694	82.44
365.92	82.44
366.147	85.44
366.373	81.44
366.599	92.44
366.826	98.44
367.052	89.44
367.278	100.44
367.505	81.44
367.731	95.44
367.957	91.44
368.184	91.44
368.41	94.44
368.636	83.44
368.862	87.44
369.089	95.44
369.315	92.44
369.541	103.44
369.767	86.44
369.993	82.44
370.219	84.44
370.445	83.44
370.672	87.44
370.898	89.44
371.124	94.44
371.35	93.44
371.576	97.44
371.802	81.44
372.028	88.44
372.254	93.44
372.48	98.44
372.706	87.44
372.932	87.44
373.158	92.44
373.384	58.44
373.61	86.44
373.835	95.44
374.061	83.44
374.287	96.44
374.513	91.44
374.739	78.44
374.965	89.44
375.191	84.44
375.416	79.44
375.642	82.44
375.868	92.44
376.094	74.44
376.319	85.44
376.545	87.44
376.771	100.44
376.997	103.44
377.222	88.44
377.448	81.44
377.674	80.44
377.899	87.44
378.125	75.44
378.35	90.44
378.576	82.44
378.802	82.44
379.027	85.44
379.253	97.44
379.478	91.44
379.704	89.44
379.929	80.44
380.155	83.44
380.38	103.44
380.606	94.44
380.831	84.44
381.057	97.44
381.282	85.44
381.507	81.44
381.733	87.44
381.958	80.44
382.184	80.44
382.409	93.44
382.634	101.44
382.86	94.44
383.085	90.44
383.31	93.44
383.535	79.44
383.761	70.44
383.986	83.44
384.211	78.44
384.436	82.44
384.662	81.44
384.887	79.44
385.112	76.44
385.337	77.44
385.562	85.44
385.787	82.44
386.013	79.44
386.238	83.44
386.463	100.44
386.688	97.44
386.913	77.44
387.138	92.44
387.363	92.44
387.588	90.44
387.813	91.44
388.038	95.44
388.263	100.44
388.488	81.44
388.713	83.44
388.938	75.44
389.163	87.44
389.387	90.44
389.612	88.44
389.837	90.44
390.062	80.44
390.287	89.44
390.512	85.44
390.736	91.44
390.961	80.44
391.186	98.44
391.411	91.44
391.636	87.44
391.86	89.44
392.085	97.44
392.31	91.44
392.534	84.44
392.759	89.44
392.984	75.44
393.208	98.44
393.433	73.44
393.658	92.44
393.882	76.44
394.107	92.44
394.331	84.44
394.556	82.44
394.78	88.44
395.005	88.44
395.229	78.44
395.454	99.44
395.678	89.44
395.903	90.44
396.127	87.44
396.352	81.44
396.576	105.44
396.801	88.44
397.025	79.44
397.249	95.44
397.474	102.44
397.698	80.44
397.922	91.44
398.147	85.44
398.371	79.44
398.595	89.44
398.82	84.44
399.044	81.44
399.268	89.44
399.492	91.44
399.717	81.44
399.941	96.44
400.165	105.44
400.389	96.44
400.613	88.44
400.837	90.44
401.062	83.44
401.286	90.44
401.51	87.44
401.734	98.44
401.958	84.44
402.182	74.44
402.406	91.44
402.63	93.44
402.854	88.44
403.078	79.44
403.302	91.44
403.526	92.44
403.75	87.44
403.974	87.44
404.198	85.44
404.422	91.44
404.645	91.44
404.869	91.44
405.093	77.44
405.317	90.44
405.541	74.44
405.765	92.44
405.988	94.44
406.212	93.44
406.436	80.44
406.66	83.44
406.883	80.44
407.107	104.44
407.331	80.44
407.555	81.44
407.778	77.44
408.002	107.44
408.226	94.44
408.449	86.44
408.673	88.44
408.896	81.44
409.12	91.44
409.344	84.44
409.567	81.44
409.791	75.44
410.014	86.44
410.238	85.44
410.461	78.44
410.685	79.44
410.908	75.44
411.132	87.44
411.355	85.44
411.578	86.44
411.802	83.44
412.025	67.44
412.249	85.44
412.472	84.44
412.695	86.44
412.919	97.44
413.142	93.44
413.365	91.44
413.589	84.44
413.812	81.44
414.035	95.44
414.258	92.44
414.482	87.44
414.705	96.44
414.928	83.44
415.151	87.44
415.374	68.44
415.597	87.44
415.821	78.44
416.044	70.44
416.267	82.44
416.49	86.44
416.713	96.44
416.936	83.44
417.159	76.44
417.382	91.44
417.605	81.44
417.828	86.44
418.051	96.44
418.274	82.44
418.497	88.44
418.72	89.44
418.943	86.44
419.166	85.44
419.389	93.44
419.611	95.44
419.834	77.44
420.057	85.44
420.28	79.44
420.503	76.44
420.726	79.44
420.948	97.44
421.171	88.44
421.394	88.44
421.617	87.44
421.839	80.44
422.062	94.44
422.285	88.44
422.507	85.44
422.73	105.44
422.953	90.44
423.175	95.44
423.398	100.44
423.621	92.44
423.843	72.44
424.066	92.44
424.288	88.44
424.511	89.44
424.733	94.44
424.956	90.44
425.178	103.44
425.401	88.44
425.623	86.44
425.846	78.44
426.068	88.44
426.291	69.44
426.513	68.44
426.735	80.44
426.958	89.44
427.18	83.44
427.402	91.44
427.625	87.44
427.847	84.44
428.069	85.44
428.292	96.44
428.514	89.44
428.736	76.44
428.958	81.44
429.181	85.44
429.403	79.44
429.625	67.44
429.847	84.44
430.069	89.44
430.292	75.44
430.514	78.44
430.736	88.44
430.958	80.44
431.18	91.44
431.402	80.44
431.624	84.44
431.846	84.44
432.068	100.44
432.29	92.44
432.512	89.44
432.734	75.44
432.956	84.44
433.178	92.44
433.4	88.44
433.622	91.44
433.844	90.44
434.066	81.44
434.287	74.44
434.509	86.44
434.731	84.44
434.953	83.44
435.175	81.44
435.397	69.44
435.618	72.44
435.84	79.44
436.062	84.44
436.284	95.44
436.505	77.44
436.727	89.44
436.949	95.44
437.17	97.44
437.392	80.44
437.614	78.44
437.835	81.44
438.057	87.44
438.278	81.44
438.5	88.44
438.721	87.44
438.943	90.44
439.165	81.44
439.386	91.44
439.608	87.44
439.829	90.44
440.05	83.44
440.272	91.44
440.493	93.44
440.715	96.44
440.936	88.44
441.158	85.44
441.379	93.44
441.6	95.44
441.822	73.44
442.043	83.44
442.264	70.44
442.486	88.44
442.707	90.44
442.928	103.44
443.149	75.44
443.371	96.44
443.592	98.44
443.813	79.44
444.034	79.44
444.255	106.44
444.476	82.44
444.698	85.44
444.919	88.44
445.14	139.44
445.361	123.44
445.582	101.44
445.803	76.44
446.024	83.44
446.245	83.44
446.466	99.44
446.687	95.44
446.908	101.44
447.129	88.44
447.35	78.44
447.571	79.44
447.792	84.44
448.013	90.44
448.234	86.44
448.455	91.44
448.675	76.44
448.896	95.44
449.117	90.44
449.338	85.44
449.559	91.44
449.779	88.44
450	68.44
450.221	68.44
450.442	82.44
450.662	87.44
450.883	89.44
451.104	93.44
451.324	92.44
451.545	80.44
451.766	89.44
451.986	87.44
452.207	89.44
452.428	85.44
452.648	68.44
452.869	88.44
453.089	92.44
453.31	87.44
453.53	78.44
453.751	81.44
453.971	90.44
454.192	93.44
454.412	86.44
454.633	95.44
454.853	81.44
455.073	92.44
455.294	77.44
455.514	94.44
455.734	96.44
455.955	89.44
456.175	78.44
456.395	90.44
456.616	76.44
456.836	98.44
457.056	74.44
457.276	83.44
457.497	98.44
457.717	92.44
457.937	88.44
458.157	84.44
458.377	84.44
458.598	86.44
458.818	96.44
459.038	84.44
459.258	79.44
459.478	76.44
459.698	83.44
459.918	84.44
460.138	92.44
460.358	94.44
460.578	93.44
460.798	88.44
461.018	75.44
461.238	77.44
461.458	74.44
461.678	88.44
461.898	106.44
462.118	91.44
462.338	80.44
462.558	89.44
462.777	92.44
462.997	63.44
463.217	78.44
463.437	74.44
463.657	78.44
463.876	89.44
464.096	93.44
464.316	82.44
464.536	87.44
464.755	85.44
464.975	96.44
465.195	86.44
465.414	89.44
465.634	88.44
465.854	90.44
466.073	89.44
466.293	88.44
466.512	86.44
466.732	71.44
466.951	70.44
467.171	72.44
467.391	75.44
467.61	73.44
467.829	84.44
468.049	72.44
468.268	82.44
468.488	83.44
468.707	90.44
468.927	88.44
469.146	88.44
469.365	91.44
469.585	79.44
469.804	79.44
470.023	92.44
470.243	72.44
470.462	96.44
470.681	91.44
470.901	86.44
471.12	81.44
471.339	73.44
471.558	89.44
471.777	88.44
471.997	93.44
472.216	88.44
472.435	87.44
472.654	85.44
472.873	79.44
473.092	92.44
473.311	81.44
473.53	78.44
473.749	99.44
473.968	86.44
474.187	84.44
474.406	87.44
474.625	89.44
474.844	76.44
475.063	92.44
475.282	80.44
475.501	94.44
475.72	82.44
475.939	84.44
476.158	88.44
476.377	95.44
476.596	94.44
476.814	88.44
477.033	83.44
477.252	80.44
477.471	75.44
477.69	85.44
477.908	87.44
478.127	102.44
478.346	82.44
478.564	82.44
478.783	97.44
479.002	76.44
479.22	86.44
479.439	87.44
479.658	76.44
479.876	84.44
480.095	89.44
480.313	93.44
480.532	86.44
480.751	86.44
480.969	84.44
481.188	86.44
481.406	99.44
481.624	84.44
481.843	89.44
482.061	98.44
482.28	91.44
482.498	74.44
482.717	77.44
482.935	88.44
483.153	85.44
483.372	88.44
483.59	84.44
483.808	91.44
484.027	90.44
484.245	87.44
484.463	87.44
484.681	74.44
484.9	84.44
485.118	94.44
485.336	90.44
485.554	78.44
485.772	106.44
485.99	89.44
486.209	87.44
486.427	79.44
486.645	72.44
486.863	79.44
487.081	92.44
487.299	92.44
487.517	89.44
487.735	88.44
487.953	94.44
488.171	91.44
488.389	86.44
488.607	67.44
488.825	85.44
489.043	83.44
489.261	87.44
489.479	98.44
489.696	83.44
489.914	88.44
490.132	93.44
490.35	84.44
490.568	80.44
490.786	77.44
491.003	109.44
491.221	90.44
491.439	94.44
491.657	91.44
491.874	83.44
492.092	81.44
492.31	77.44
492.527	78.44
492.745	90.44
492.963	99.44
493.18	79.44
493.398	84.44
493.615	89.44
493.833	91.44
494.05	89.44
494.268	75.44
494.485	95.44
494.703	94.44
494.92	90.44
495.138	87.44
495.355	88.44
495.573	87.44
495.79	74.44
496.008	83.44
496.225	73.44
496.442	78.44
496.66	88.44
496.877	73.44
497.094	81.44
497.312	86.44
497.529	92.44
497.746	89.44
497.963	89.44
498.181	89.44
498.398	92.44
498.615	101.44
498.832	104.44
499.049	80.44
499.267	74.44
499.484	90.44
499.701	92.44
499.918	79.44
500.135	81.44
500.352	95.44
500.569	81.44
500.786	93.44
501.003	80.44
501.22	83.44
501.437	103.44
501.654	86.44
501.871	72.44
502.088	86.44
502.305	105.44
502.522	79.44
502.739	91.44
502.956	83.44
503.172	91.44
503.389	83.44
503.606	88.44
503.823	76.44
504.04	92.44
504.256	100.44
504.473	79.44
504.69	83.44
504.907	92.44
505.123	103.44
505.34	90.44
505.557	82.44
505.773	105.44
505.99	85.44
506.207	82.44
506.423	90.44
506.64	100.44
506.856	92.44
507.073	85.44
507.289	97.44
507.506	88.44
507.722	88.44
507.939	88.44
508.155	81.44
508.372	88.44
508.588	76.44
508.805	88.44
509.021	82.44
509.238	74.44
509.454	84.44
509.67	83.44
509.887	88.44
510.103	93.44
510.319	93.44
510.536	91.44
510.752	72.44
510.968	96.44
511.184	83.44
511.401	84.44
511.617	84.44
511.833	96.44
512.049	76.44
512.265	91.44
512.481	83.44
512.698	96.44
512.914	77.44
513.13	89.44
513.346	84.44
513.562	73.44
513.778	88.44
513.994	84.44
514.21	80.44
514.426	88.44
514.642	89.44
514.858	88.44
515.074	107.44
515.29	77.44
515.506	84.44
515.721	90.44
515.937	92.44
516.153	76.44
516.369	96.44
516.585	99.44
516.801	89.44
517.016	94.44
517.232	85.44
517.448	88.44
517.664	85.44
517.879	93.44
518.095	87.44
518.311	76.44
518.527	75.44
518.742	103.44
518.958	83.44
519.173	105.44
519.389	91.44
