Data from Dirtnoheat1_HRD10591_00020.txt Node
Date: Fri Dec 27 15:18:38 EST 2024
User: Yrep
Spectrometer: HR+D1059
Trigger mode: 1
Integration Time (sec): 1.000000E-1
Scans to average: 1
Electric dark correction enabled: true
Nonlinearity correction enabled: false
Boxcar width: 0
XAxis mode: Wavelengths
Number of Pixels in Spectrum: 2048
>>>>>Begin Spectral Data<<<<<
223.165	-17.12
223.4	-17.12
223.635	-17.12
223.869	-11.12
224.104	-15.12
224.338	-12.12
224.573	-18.12
224.808	-11.12
225.042	4.88
225.277	-2.12
225.511	-19.12
225.746	-3.12
225.98	0.88
226.215	9.88
226.449	18.88
226.683	17.88
226.918	24.88
227.152	31.88
227.387	40.88
227.621	44.88
227.856	58.88
228.09	49.88
228.324	48.88
228.559	66.88
228.793	59.88
229.027	53.88
229.262	66.88
229.496	68.88
229.73	58.88
229.964	86.88
230.199	71.88
230.433	62.88
230.667	78.88
230.901	93.88
231.136	71.88
231.37	85.88
231.604	62.88
231.838	72.88
232.072	81.88
232.306	76.88
232.541	89.88
232.775	84.88
233.009	86.88
233.243	74.88
233.477	69.88
233.711	76.88
233.945	72.88
234.179	84.88
234.413	70.88
234.647	89.88
234.881	88.88
235.115	84.88
235.349	98.88
235.583	94.88
235.817	73.88
236.051	77.88
236.285	66.88
236.519	77.88
236.753	72.88
236.987	83.88
237.221	67.88
237.455	76.88
237.689	71.88
237.922	72.88
238.156	80.88
238.39	64.88
238.624	53.88
238.858	69.88
239.091	61.88
239.325	91.88
239.559	72.88
239.793	73.88
240.027	78.88
240.26	75.88
240.494	75.88
240.728	66.88
240.961	72.88
241.195	80.88
241.429	69.88
241.662	100.88
241.896	92.88
242.13	76.88
242.363	76.88
242.597	75.88
242.83	72.88
243.064	81.88
243.298	72.88
243.531	87.88
243.765	72.88
243.998	80.88
244.232	80.88
244.465	76.88
244.699	74.88
244.932	80.88
245.166	65.88
245.399	68.88
245.633	80.88
245.866	81.88
246.099	77.88
246.333	75.88
246.566	78.88
246.8	66.88
247.033	80.88
247.266	74.88
247.5	64.88
247.733	73.88
247.966	66.88
248.2	70.88
248.433	80.88
248.666	68.88
248.899	89.88
249.133	79.88
249.366	82.88
249.599	71.88
249.832	63.88
250.066	83.88
250.299	88.88
250.532	88.88
250.765	76.88
250.998	64.88
251.231	71.88
251.465	78.88
251.698	78.88
251.931	71.88
252.164	76.88
252.397	82.88
252.63	76.88
252.863	92.88
253.096	73.88
253.329	76.88
253.562	81.88
253.795	71.88
254.028	77.88
254.261	74.88
254.494	75.88
254.727	72.88
254.96	55.88
255.193	66.88
255.426	79.88
255.659	84.88
255.892	91.88
256.124	67.88
256.357	84.88
256.59	86.88
256.823	70.88
257.056	72.88
257.289	72.88
257.521	76.88
257.754	86.88
257.987	65.88
258.22	80.88
258.452	86.88
258.685	76.88
258.918	81.88
259.151	70.88
259.383	89.88
259.616	79.88
259.849	85.88
260.081	73.88
260.314	78.88
260.547	71.88
260.779	80.88
261.012	93.88
261.244	89.88
261.477	65.88
261.71	72.88
261.942	69.88
262.175	87.88
262.407	74.88
262.64	86.88
262.872	77.88
263.105	72.88
263.337	77.88
263.57	78.88
263.802	84.88
264.035	83.88
264.267	78.88
264.499	78.88
264.732	79.88
264.964	79.88
265.197	90.88
265.429	70.88
265.661	82.88
265.894	89.88
266.126	87.88
266.358	79.88
266.591	84.88
266.823	69.88
267.055	71.88
267.287	81.88
267.52	71.88
267.752	73.88
267.984	87.88
268.216	70.88
268.448	81.88
268.681	85.88
268.913	85.88
269.145	76.88
269.377	69.88
269.609	87.88
269.841	82.88
270.073	80.88
270.306	90.88
270.538	81.88
270.77	77.88
271.002	71.88
271.234	68.88
271.466	88.88
271.698	77.88
271.93	88.88
272.162	82.88
272.394	85.88
272.626	89.88
272.858	91.88
273.09	88.88
273.322	96.88
273.553	81.88
273.785	95.88
274.017	78.88
274.249	78.88
274.481	81.88
274.713	85.88
274.945	84.88
275.176	77.88
275.408	86.88
275.64	80.88
275.872	73.88
276.104	84.88
276.335	75.88
276.567	85.88
276.799	81.88
277.031	91.88
277.262	91.88
277.494	80.88
277.726	71.88
277.957	68.88
278.189	88.88
278.421	77.88
278.652	78.88
278.884	87.88
279.115	78.88
279.347	71.88
279.579	90.88
279.81	85.88
280.042	74.88
280.273	74.88
280.505	82.88
280.736	70.88
280.968	79.88
281.199	74.88
281.431	73.88
281.662	80.88
281.894	78.88
282.125	69.88
282.356	86.88
282.588	83.88
282.819	82.88
283.051	76.88
283.282	76.88
283.513	86.88
283.745	80.88
283.976	78.88
284.207	72.88
284.439	78.88
284.67	74.88
284.901	86.88
285.132	81.88
285.364	91.88
285.595	77.88
285.826	82.88
286.057	90.88
286.288	81.88
286.52	87.88
286.751	76.88
286.982	85.88
287.213	72.88
287.444	85.88
287.675	81.88
287.906	100.88
288.138	85.88
288.369	86.88
288.6	88.88
288.831	70.88
289.062	89.88
289.293	88.88
289.524	81.88
289.755	90.88
289.986	94.88
290.217	65.88
290.448	76.88
290.679	81.88
290.91	66.88
291.141	91.88
291.371	72.88
291.602	74.88
291.833	72.88
292.064	90.88
292.295	93.88
292.526	84.88
292.757	81.88
292.987	90.88
293.218	91.88
293.449	80.88
293.68	86.88
293.91	86.88
294.141	87.88
294.372	92.88
294.603	84.88
294.833	73.88
295.064	85.88
295.295	83.88
295.525	84.88
295.756	77.88
295.987	81.88
296.217	83.88
296.448	94.88
296.679	86.88
296.909	89.88
297.14	83.88
297.37	82.88
297.601	85.88
297.831	65.88
298.062	62.88
298.292	70.88
298.523	76.88
298.753	103.88
298.984	93.88
299.214	80.88
299.445	84.88
299.675	97.88
299.905	90.88
300.136	77.88
300.366	84.88
300.597	77.88
300.827	95.88
301.057	78.88
301.288	94.88
301.518	89.88
301.748	81.88
301.979	96.88
302.209	72.88
302.439	85.88
302.669	80.88
302.9	81.88
303.13	78.88
303.36	71.88
303.59	78.88
303.82	88.88
304.051	84.88
304.281	76.88
304.511	78.88
304.741	72.88
304.971	84.88
305.201	75.88
305.431	84.88
305.661	72.88
305.891	91.88
306.121	93.88
306.352	81.88
306.582	89.88
306.812	75.88
307.042	89.88
307.272	84.88
307.502	81.88
307.731	74.88
307.961	87.88
308.191	87.88
308.421	74.88
308.651	78.88
308.881	93.88
309.111	87.88
309.341	80.88
309.571	82.88
309.8	92.88
310.03	80.88
310.26	70.88
310.49	86.88
310.72	76.88
310.949	79.88
311.179	84.88
311.409	72.88
311.639	84.88
311.868	76.88
312.098	72.88
312.328	75.88
312.557	88.88
312.787	81.88
313.017	93.88
313.246	87.88
313.476	79.88
313.706	64.88
313.935	83.88
314.165	83.88
314.394	96.88
314.624	79.88
314.853	74.88
315.083	90.88
315.312	87.88
315.542	70.88
315.771	80.88
316.001	100.88
316.23	73.88
316.46	81.88
316.689	73.88
316.919	75.88
317.148	76.88
317.377	85.88
317.607	68.88
317.836	90.88
318.065	74.88
318.295	71.88
318.524	77.88
318.753	80.88
318.983	81.88
319.212	85.88
319.441	74.88
319.67	80.88
319.9	97.88
320.129	80.88
320.358	90.88
320.587	97.88
320.816	76.88
321.046	70.88
321.275	77.88
321.504	88.88
321.733	89.88
321.962	85.88
322.191	75.88
322.42	82.88
322.649	83.88
322.878	76.88
323.108	76.88
323.337	81.88
323.566	73.88
323.795	80.88
324.024	81.88
324.253	89.88
324.482	90.88
324.71	71.88
324.939	80.88
325.168	75.88
325.397	94.88
325.626	75.88
325.855	77.88
326.084	83.88
326.313	78.88
326.542	76.88
326.77	76.88
326.999	75.88
327.228	71.88
327.457	63.88
327.686	83.88
327.914	86.88
328.143	87.88
328.372	69.88
328.6	74.88
328.829	63.88
329.058	77.88
329.287	87.88
329.515	77.88
329.744	79.88
329.972	71.88
330.201	86.88
330.43	73.88
330.658	68.88
330.887	74.88
331.115	90.88
331.344	85.88
331.572	84.88
331.801	77.88
332.03	70.88
332.258	73.88
332.486	80.88
332.715	80.88
332.943	79.88
333.172	83.88
333.4	75.88
333.629	79.88
333.857	80.88
334.085	82.88
334.314	88.88
334.542	74.88
334.771	91.88
334.999	89.88
335.227	74.88
335.455	79.88
335.684	79.88
335.912	74.88
336.14	83.88
336.369	79.88
336.597	96.88
336.825	73.88
337.053	80.88
337.281	81.88
337.51	72.88
337.738	80.88
337.966	69.88
338.194	79.88
338.422	83.88
338.65	88.88
338.878	85.88
339.106	90.88
339.334	82.88
339.562	84.88
339.79	68.88
340.018	84.88
340.246	85.88
340.474	85.88
340.702	86.88
340.93	95.88
341.158	86.88
341.386	79.88
341.614	86.88
341.842	82.88
342.07	72.88
342.298	84.88
342.526	86.88
342.754	73.88
342.981	84.88
343.209	77.88
343.437	80.88
343.665	94.88
343.893	78.88
344.12	78.88
344.348	90.88
344.576	84.88
344.804	72.88
345.031	78.88
345.259	92.88
345.487	100.88
345.714	89.88
345.942	85.88
346.17	87.88
346.397	87.88
346.625	92.88
346.853	77.88
347.08	74.88
347.308	77.88
347.535	76.88
347.763	72.88
347.99	81.88
348.218	77.88
348.445	90.88
348.673	85.88
348.9	97.88
349.128	87.88
349.355	88.88
349.583	90.88
349.81	83.88
350.037	87.88
350.265	73.88
350.492	101.88
350.72	75.88
350.947	75.88
351.174	84.88
351.402	81.88
351.629	81.88
351.856	80.88
352.083	85.88
352.311	86.88
352.538	81.88
352.765	73.88
352.992	95.88
353.22	87.88
353.447	79.88
353.674	81.88
353.901	77.88
354.128	85.88
354.355	93.88
354.583	85.88
354.81	77.88
355.037	97.88
355.264	78.88
355.491	100.88
355.718	70.88
355.945	75.88
356.172	80.88
356.399	82.88
356.626	74.88
356.853	63.88
357.08	79.88
357.307	87.88
357.534	83.88
357.761	91.88
357.988	86.88
358.215	80.88
358.441	88.88
358.668	84.88
358.895	71.88
359.122	78.88
359.349	79.88
359.576	78.88
359.802	79.88
360.029	82.88
360.256	70.88
360.483	74.88
360.709	80.88
360.936	87.88
361.163	66.88
361.39	70.88
361.616	69.88
361.843	78.88
362.07	73.88
362.296	85.88
362.523	88.88
362.749	82.88
362.976	84.88
363.203	90.88
363.429	78.88
363.656	78.88
363.882	78.88
364.109	89.88
364.335	76.88
364.562	77.88
364.788	91.88
365.015	71.88
365.241	87.88
365.468	92.88
365.694	92.88
365.92	82.88
366.147	75.88
366.373	75.88
366.599	62.88
366.826	94.88
367.052	87.88
367.278	71.88
367.505	72.88
367.731	100.88
367.957	87.88
368.184	76.88
368.41	80.88
368.636	81.88
368.862	82.88
369.089	81.88
369.315	81.88
369.541	84.88
369.767	78.88
369.993	84.88
370.219	79.88
370.445	86.88
370.672	72.88
370.898	83.88
371.124	79.88
371.35	82.88
371.576	80.88
371.802	83.88
372.028	68.88
372.254	86.88
372.48	71.88
372.706	80.88
372.932	92.88
373.158	78.88
373.384	92.88
373.61	88.88
373.835	94.88
374.061	74.88
374.287	79.88
374.513	90.88
374.739	82.88
374.965	85.88
375.191	80.88
375.416	79.88
375.642	75.88
375.868	80.88
376.094	81.88
376.319	81.88
376.545	93.88
376.771	85.88
376.997	82.88
377.222	85.88
377.448	86.88
377.674	94.88
377.899	80.88
378.125	89.88
378.35	94.88
378.576	82.88
378.802	83.88
379.027	74.88
379.253	81.88
379.478	85.88
379.704	71.88
379.929	86.88
380.155	82.88
380.38	85.88
380.606	80.88
380.831	84.88
381.057	70.88
381.282	68.88
381.507	86.88
381.733	85.88
381.958	67.88
382.184	81.88
382.409	69.88
382.634	79.88
382.86	83.88
383.085	76.88
383.31	64.88
383.535	82.88
383.761	85.88
383.986	71.88
384.211	77.88
384.436	75.88
384.662	79.88
384.887	76.88
385.112	86.88
385.337	65.88
385.562	95.88
385.787	71.88
386.013	84.88
386.238	91.88
386.463	67.88
386.688	94.88
386.913	83.88
387.138	70.88
387.363	76.88
387.588	90.88
387.813	76.88
388.038	80.88
388.263	77.88
388.488	89.88
388.713	86.88
388.938	74.88
389.163	88.88
389.387	65.88
389.612	85.88
389.837	68.88
390.062	79.88
390.287	79.88
390.512	79.88
390.736	84.88
390.961	76.88
391.186	97.88
391.411	77.88
391.636	77.88
391.86	78.88
392.085	88.88
392.31	79.88
392.534	70.88
392.759	76.88
392.984	81.88
393.208	67.88
393.433	82.88
393.658	77.88
393.882	78.88
394.107	90.88
394.331	91.88
394.556	80.88
394.78	71.88
395.005	83.88
395.229	82.88
395.454	78.88
395.678	84.88
395.903	86.88
396.127	94.88
396.352	78.88
396.576	86.88
396.801	87.88
397.025	80.88
397.249	96.88
397.474	84.88
397.698	70.88
397.922	88.88
398.147	76.88
398.371	78.88
398.595	100.88
398.82	74.88
399.044	77.88
399.268	80.88
399.492	66.88
399.717	84.88
399.941	93.88
400.165	79.88
400.389	91.88
400.613	83.88
400.837	79.88
401.062	88.88
401.286	70.88
401.51	85.88
401.734	86.88
401.958	77.88
402.182	70.88
402.406	87.88
402.63	59.88
402.854	88.88
403.078	79.88
403.302	80.88
403.526	90.88
403.75	84.88
403.974	81.88
404.198	80.88
404.422	79.88
404.645	63.88
404.869	81.88
405.093	79.88
405.317	72.88
405.541	73.88
405.765	64.88
405.988	82.88
406.212	81.88
406.436	88.88
406.66	68.88
406.883	83.88
407.107	76.88
407.331	82.88
407.555	84.88
407.778	86.88
408.002	73.88
408.226	87.88
408.449	77.88
408.673	81.88
408.896	88.88
409.12	76.88
409.344	73.88
409.567	91.88
409.791	78.88
410.014	96.88
410.238	94.88
410.461	70.88
410.685	75.88
410.908	74.88
411.132	87.88
411.355	93.88
411.578	70.88
411.802	87.88
412.025	71.88
412.249	76.88
412.472	80.88
412.695	70.88
412.919	76.88
413.142	80.88
413.365	87.88
413.589	78.88
413.812	90.88
414.035	69.88
414.258	88.88
414.482	78.88
414.705	78.88
414.928	76.88
415.151	81.88
415.374	76.88
415.597	80.88
415.821	82.88
416.044	73.88
416.267	79.88
416.49	72.88
416.713	88.88
416.936	75.88
417.159	72.88
417.382	82.88
417.605	72.88
417.828	80.88
418.051	83.88
418.274	87.88
418.497	80.88
418.72	77.88
418.943	72.88
419.166	76.88
419.389	85.88
419.611	84.88
419.834	65.88
420.057	80.88
420.28	94.88
420.503	88.88
420.726	72.88
420.948	81.88
421.171	79.88
421.394	71.88
421.617	85.88
421.839	70.88
422.062	78.88
422.285	84.88
422.507	76.88
422.73	87.88
422.953	80.88
423.175	78.88
423.398	81.88
423.621	81.88
423.843	89.88
424.066	89.88
424.288	74.88
424.511	71.88
424.733	85.88
424.956	94.88
425.178	82.88
425.401	87.88
425.623	87.88
425.846	85.88
426.068	71.88
426.291	65.88
426.513	84.88
426.735	83.88
426.958	86.88
427.18	89.88
427.402	84.88
427.625	71.88
427.847	64.88
428.069	90.88
428.292	91.88
428.514	77.88
428.736	78.88
428.958	72.88
429.181	88.88
429.403	76.88
429.625	80.88
429.847	90.88
430.069	72.88
430.292	84.88
430.514	77.88
430.736	81.88
430.958	81.88
431.18	82.88
431.402	77.88
431.624	68.88
431.846	82.88
432.068	73.88
432.29	88.88
432.512	78.88
432.734	95.88
432.956	91.88
433.178	86.88
433.4	80.88
433.622	80.88
433.844	77.88
434.066	80.88
434.287	83.88
434.509	73.88
434.731	76.88
434.953	84.88
435.175	81.88
435.397	90.88
435.618	86.88
435.84	84.88
436.062	77.88
436.284	76.88
436.505	81.88
436.727	93.88
436.949	79.88
437.17	71.88
437.392	76.88
437.614	82.88
437.835	67.88
438.057	76.88
438.278	81.88
438.5	88.88
438.721	80.88
438.943	84.88
439.165	81.88
439.386	72.88
439.608	89.88
439.829	96.88
440.05	95.88
440.272	77.88
440.493	75.88
440.715	74.88
440.936	63.88
441.158	85.88
441.379	93.88
441.6	84.88
441.822	84.88
442.043	90.88
442.264	99.88
442.486	79.88
442.707	86.88
442.928	79.88
443.149	76.88
443.371	70.88
443.592	79.88
443.813	85.88
444.034	97.88
444.255	72.88
444.476	88.88
444.698	86.88
444.919	74.88
445.14	151.88
445.361	123.88
445.582	75.88
445.803	77.88
446.024	76.88
446.245	74.88
446.466	70.88
446.687	76.88
446.908	84.88
447.129	79.88
447.35	68.88
447.571	78.88
447.792	84.88
448.013	84.88
448.234	83.88
448.455	84.88
448.675	89.88
448.896	81.88
449.117	79.88
449.338	69.88
449.559	65.88
449.779	73.88
450	106.88
450.221	74.88
450.442	82.88
450.662	87.88
450.883	85.88
451.104	90.88
451.324	96.88
451.545	78.88
451.766	77.88
451.986	76.88
452.207	76.88
452.428	77.88
452.648	73.88
452.869	75.88
453.089	82.88
453.31	78.88
453.53	96.88
453.751	73.88
453.971	86.88
454.192	81.88
454.412	84.88
454.633	81.88
454.853	85.88
455.073	88.88
455.294	81.88
455.514	89.88
455.734	87.88
455.955	89.88
456.175	82.88
456.395	75.88
456.616	88.88
456.836	83.88
457.056	86.88
457.276	64.88
457.497	64.88
457.717	79.88
457.937	78.88
458.157	84.88
458.377	86.88
458.598	80.88
458.818	92.88
459.038	82.88
459.258	93.88
459.478	72.88
459.698	74.88
459.918	88.88
460.138	79.88
460.358	84.88
460.578	78.88
460.798	75.88
461.018	91.88
461.238	88.88
461.458	76.88
461.678	93.88
461.898	79.88
462.118	87.88
462.338	62.88
462.558	87.88
462.777	75.88
462.997	70.88
463.217	86.88
463.437	101.88
463.657	73.88
463.876	80.88
464.096	78.88
464.316	83.88
464.536	90.88
464.755	86.88
464.975	86.88
465.195	73.88
465.414	83.88
465.634	86.88
465.854	79.88
466.073	73.88
466.293	84.88
466.512	80.88
466.732	78.88
466.951	78.88
467.171	103.88
467.391	86.88
467.61	93.88
467.829	80.88
468.049	77.88
468.268	79.88
468.488	79.88
468.707	87.88
468.927	80.88
469.146	99.88
469.365	72.88
469.585	77.88
469.804	82.88
470.023	80.88
470.243	81.88
470.462	89.88
470.681	94.88
470.901	73.88
471.12	73.88
471.339	88.88
471.558	82.88
471.777	88.88
471.997	72.88
472.216	69.88
472.435	77.88
472.654	93.88
472.873	80.88
473.092	84.88
473.311	79.88
473.53	84.88
473.749	79.88
473.968	89.88
474.187	91.88
474.406	80.88
474.625	80.88
474.844	75.88
475.063	78.88
475.282	73.88
475.501	82.88
475.72	90.88
475.939	91.88
476.158	76.88
476.377	70.88
476.596	76.88
476.814	77.88
477.033	84.88
477.252	88.88
477.471	83.88
477.69	89.88
477.908	81.88
478.127	92.88
478.346	79.88
478.564	81.88
478.783	88.88
479.002	74.88
479.22	90.88
479.439	72.88
479.658	74.88
479.876	76.88
480.095	76.88
480.313	73.88
480.532	88.88
480.751	69.88
480.969	76.88
481.188	88.88
481.406	77.88
481.624	77.88
481.843	92.88
482.061	87.88
482.28	89.88
482.498	81.88
482.717	70.88
482.935	84.88
483.153	75.88
483.372	79.88
483.59	80.88
483.808	73.88
484.027	78.88
484.245	79.88
484.463	71.88
484.681	84.88
484.9	77.88
485.118	82.88
485.336	64.88
485.554	89.88
485.772	84.88
485.99	76.88
486.209	93.88
486.427	88.88
486.645	81.88
486.863	80.88
487.081	77.88
487.299	95.88
487.517	77.88
487.735	74.88
487.953	80.88
488.171	83.88
488.389	90.88
488.607	76.88
488.825	79.88
489.043	80.88
489.261	87.88
489.479	86.88
489.696	86.88
489.914	78.88
490.132	78.88
490.35	97.88
490.568	87.88
490.786	80.88
491.003	87.88
491.221	81.88
491.439	79.88
491.657	76.88
491.874	93.88
492.092	86.88
492.31	79.88
492.527	90.88
492.745	78.88
492.963	77.88
493.18	77.88
493.398	63.88
493.615	87.88
493.833	88.88
494.05	97.88
494.268	89.88
494.485	91.88
494.703	80.88
494.92	81.88
495.138	82.88
495.355	94.88
495.573	86.88
495.79	80.88
496.008	95.88
496.225	86.88
496.442	84.88
496.66	84.88
496.877	87.88
497.094	90.88
497.312	72.88
497.529	73.88
497.746	79.88
497.963	77.88
498.181	81.88
498.398	92.88
498.615	84.88
498.832	88.88
499.049	73.88
499.267	77.88
499.484	74.88
499.701	83.88
499.918	96.88
500.135	84.88
500.352	77.88
500.569	75.88
500.786	86.88
501.003	75.88
501.22	72.88
501.437	81.88
501.654	92.88
501.871	74.88
502.088	67.88
502.305	83.88
502.522	87.88
502.739	81.88
502.956	85.88
503.172	78.88
503.389	81.88
503.606	61.88
503.823	89.88
504.04	87.88
504.256	87.88
504.473	65.88
504.69	85.88
504.907	91.88
505.123	87.88
505.34	81.88
505.557	61.88
505.773	91.88
505.99	85.88
506.207	79.88
506.423	76.88
506.64	95.88
506.856	84.88
507.073	88.88
507.289	78.88
507.506	76.88
507.722	82.88
507.939	74.88
508.155	84.88
508.372	99.88
508.588	91.88
508.805	85.88
509.021	89.88
509.238	82.88
509.454	65.88
509.67	84.88
509.887	90.88
510.103	77.88
510.319	85.88
510.536	91.88
510.752	68.88
510.968	76.88
511.184	84.88
511.401	80.88
511.617	90.88
511.833	89.88
512.049	94.88
512.265	85.88
512.481	83.88
512.698	86.88
512.914	90.88
513.13	77.88
513.346	88.88
513.562	77.88
513.778	77.88
513.994	81.88
514.21	71.88
514.426	83.88
514.642	89.88
514.858	81.88
515.074	86.88
515.29	99.88
515.506	85.88
515.721	86.88
515.937	81.88
516.153	71.88
516.369	79.88
516.585	91.88
516.801	81.88
517.016	71.88
517.232	81.88
517.448	85.88
517.664	86.88
517.879	75.88
518.095	74.88
518.311	82.88
518.527	76.88
518.742	88.88
518.958	72.88
519.173	84.88
519.389	94.88
519.605	86.88
519.82	88.88
520.036	81.88
