Data from Dirtnoheat1_HRD10591_00016.txt Node
Date: Fri Dec 27 15:18:34 EST 2024
User: Yrep
Spectrometer: HR+D1059
Trigger mode: 1
Integration Time (sec): 1.000000E-1
Scans to average: 1
Electric dark correction enabled: true
Nonlinearity correction enabled: false
Boxcar width: 0
XAxis mode: Wavelengths
Number of Pixels in Spectrum: 2048
>>>>>Begin Spectral Data<<<<<
223.165	-16.94
223.4	-16.94
223.635	-16.94
223.869	-17.94
224.104	-17.94
224.338	-18.94
224.573	-8.94
224.808	-11.94
225.042	-3.94
225.277	-7.94
225.511	3.06
225.746	-1.94
225.98	4.06
226.215	9.06
226.449	21.06
226.683	25.06
226.918	15.06
227.152	29.06
227.387	46.06
227.621	34.06
227.856	58.06
228.09	38.06
228.324	48.06
228.559	66.06
228.793	65.06
229.027	51.06
229.262	63.06
229.496	70.06
229.73	79.06
229.964	72.06
230.199	84.06
230.433	75.06
230.667	72.06
230.901	76.06
231.136	89.06
231.37	90.06
231.604	80.06
231.838	83.06
232.072	72.06
232.306	98.06
232.541	87.06
232.775	74.06
233.009	79.06
233.243	87.06
233.477	86.06
233.711	73.06
233.945	83.06
234.179	74.06
234.413	76.06
234.647	79.06
234.881	69.06
235.115	81.06
235.349	71.06
235.583	86.06
235.817	70.06
236.051	86.06
236.285	73.06
236.519	73.06
236.753	79.06
236.987	86.06
237.221	76.06
237.455	78.06
237.689	86.06
237.922	77.06
238.156	81.06
238.39	72.06
238.624	71.06
238.858	89.06
239.091	77.06
239.325	83.06
239.559	82.06
239.793	81.06
240.027	86.06
240.26	67.06
240.494	68.06
240.728	72.06
240.961	80.06
241.195	83.06
241.429	74.06
241.662	87.06
241.896	75.06
242.13	66.06
242.363	67.06
242.597	86.06
242.83	82.06
243.064	75.06
243.298	59.06
243.531	75.06
243.765	78.06
243.998	84.06
244.232	62.06
244.465	88.06
244.699	83.06
244.932	91.06
245.166	94.06
245.399	84.06
245.633	77.06
245.866	74.06
246.099	65.06
246.333	85.06
246.566	77.06
246.8	87.06
247.033	77.06
247.266	89.06
247.5	72.06
247.733	77.06
247.966	77.06
248.2	90.06
248.433	63.06
248.666	79.06
248.899	75.06
249.133	70.06
249.366	73.06
249.599	86.06
249.832	71.06
250.066	81.06
250.299	85.06
250.532	83.06
250.765	83.06
250.998	78.06
251.231	79.06
251.465	81.06
251.698	78.06
251.931	79.06
252.164	75.06
252.397	76.06
252.63	66.06
252.863	92.06
253.096	85.06
253.329	83.06
253.562	83.06
253.795	70.06
254.028	77.06
254.261	80.06
254.494	71.06
254.727	90.06
254.96	82.06
255.193	79.06
255.426	73.06
255.659	79.06
255.892	88.06
256.124	80.06
256.357	75.06
256.59	87.06
256.823	90.06
257.056	91.06
257.289	86.06
257.521	77.06
257.754	74.06
257.987	82.06
258.22	75.06
258.452	77.06
258.685	79.06
258.918	65.06
259.151	72.06
259.383	89.06
259.616	79.06
259.849	85.06
260.081	82.06
260.314	92.06
260.547	83.06
260.779	82.06
261.012	69.06
261.244	90.06
261.477	81.06
261.71	96.06
261.942	70.06
262.175	95.06
262.407	82.06
262.64	76.06
262.872	67.06
263.105	81.06
263.337	86.06
263.57	88.06
263.802	67.06
264.035	80.06
264.267	78.06
264.499	90.06
264.732	82.06
264.964	71.06
265.197	76.06
265.429	82.06
265.661	82.06
265.894	87.06
266.126	83.06
266.358	86.06
266.591	76.06
266.823	82.06
267.055	93.06
267.287	81.06
267.52	62.06
267.752	73.06
267.984	87.06
268.216	79.06
268.448	87.06
268.681	81.06
268.913	81.06
269.145	78.06
269.377	88.06
269.609	82.06
269.841	89.06
270.073	79.06
270.306	75.06
270.538	77.06
270.77	75.06
271.002	88.06
271.234	85.06
271.466	70.06
271.698	82.06
271.93	86.06
272.162	73.06
272.394	82.06
272.626	89.06
272.858	69.06
273.09	86.06
273.322	97.06
273.553	89.06
273.785	94.06
274.017	77.06
274.249	78.06
274.481	88.06
274.713	85.06
274.945	86.06
275.176	75.06
275.408	87.06
275.64	80.06
275.872	88.06
276.104	74.06
276.335	74.06
276.567	81.06
276.799	83.06
277.031	89.06
277.262	80.06
277.494	102.06
277.726	77.06
277.957	74.06
278.189	72.06
278.421	74.06
278.652	83.06
278.884	87.06
279.115	73.06
279.347	82.06
279.579	79.06
279.81	82.06
280.042	86.06
280.273	79.06
280.505	79.06
280.736	85.06
280.968	85.06
281.199	81.06
281.431	79.06
281.662	89.06
281.894	104.06
282.125	90.06
282.356	71.06
282.588	89.06
282.819	84.06
283.051	65.06
283.282	89.06
283.513	79.06
283.745	73.06
283.976	76.06
284.207	82.06
284.439	83.06
284.67	68.06
284.901	78.06
285.132	88.06
285.364	86.06
285.595	90.06
285.826	97.06
286.057	94.06
286.288	82.06
286.52	98.06
286.751	80.06
286.982	75.06
287.213	79.06
287.444	106.06
287.675	65.06
287.906	90.06
288.138	75.06
288.369	79.06
288.6	94.06
288.831	84.06
289.062	87.06
289.293	85.06
289.524	71.06
289.755	81.06
289.986	93.06
290.217	77.06
290.448	67.06
290.679	95.06
290.91	95.06
291.141	84.06
291.371	88.06
291.602	87.06
291.833	80.06
292.064	84.06
292.295	72.06
292.526	82.06
292.757	86.06
292.987	78.06
293.218	96.06
293.449	74.06
293.68	92.06
293.91	104.06
294.141	105.06
294.372	78.06
294.603	77.06
294.833	79.06
295.064	93.06
295.295	80.06
295.525	86.06
295.756	79.06
295.987	77.06
296.217	83.06
296.448	82.06
296.679	88.06
296.909	82.06
297.14	82.06
297.37	89.06
297.601	92.06
297.831	89.06
298.062	104.06
298.292	82.06
298.523	86.06
298.753	87.06
298.984	80.06
299.214	88.06
299.445	76.06
299.675	91.06
299.905	90.06
300.136	96.06
300.366	91.06
300.597	77.06
300.827	75.06
301.057	83.06
301.288	81.06
301.518	76.06
301.748	87.06
301.979	84.06
302.209	81.06
302.439	81.06
302.669	86.06
302.9	78.06
303.13	82.06
303.36	90.06
303.59	79.06
303.82	88.06
304.051	99.06
304.281	93.06
304.511	80.06
304.741	93.06
304.971	91.06
305.201	78.06
305.431	89.06
305.661	79.06
305.891	85.06
306.121	94.06
306.352	94.06
306.582	82.06
306.812	76.06
307.042	87.06
307.272	100.06
307.502	82.06
307.731	75.06
307.961	83.06
308.191	83.06
308.421	94.06
308.651	91.06
308.881	93.06
309.111	80.06
309.341	87.06
309.571	98.06
309.8	90.06
310.03	85.06
310.26	83.06
310.49	75.06
310.72	98.06
310.949	97.06
311.179	81.06
311.409	87.06
311.639	100.06
311.868	84.06
312.098	97.06
312.328	76.06
312.557	74.06
312.787	89.06
313.017	74.06
313.246	84.06
313.476	84.06
313.706	88.06
313.935	89.06
314.165	80.06
314.394	91.06
314.624	88.06
314.853	73.06
315.083	84.06
315.312	75.06
315.542	97.06
315.771	87.06
316.001	77.06
316.23	83.06
316.46	89.06
316.689	97.06
316.919	79.06
317.148	86.06
317.377	85.06
317.607	82.06
317.836	81.06
318.065	81.06
318.295	86.06
318.524	76.06
318.753	74.06
318.983	84.06
319.212	95.06
319.441	77.06
319.67	86.06
319.9	79.06
320.129	90.06
320.358	90.06
320.587	79.06
320.816	92.06
321.046	81.06
321.275	93.06
321.504	79.06
321.733	96.06
321.962	87.06
322.191	92.06
322.42	78.06
322.649	94.06
322.878	91.06
323.108	90.06
323.337	80.06
323.566	81.06
323.795	90.06
324.024	88.06
324.253	97.06
324.482	104.06
324.71	74.06
324.939	92.06
325.168	87.06
325.397	63.06
325.626	79.06
325.855	92.06
326.084	86.06
326.313	91.06
326.542	77.06
326.77	91.06
326.999	85.06
327.228	93.06
327.457	84.06
327.686	75.06
327.914	87.06
328.143	85.06
328.372	82.06
328.6	75.06
328.829	83.06
329.058	86.06
329.287	93.06
329.515	92.06
329.744	89.06
329.972	96.06
330.201	90.06
330.43	67.06
330.658	72.06
330.887	85.06
331.115	85.06
331.344	97.06
331.572	94.06
331.801	91.06
332.03	79.06
332.258	84.06
332.486	89.06
332.715	93.06
332.943	75.06
333.172	81.06
333.4	79.06
333.629	88.06
333.857	71.06
334.085	78.06
334.314	85.06
334.542	89.06
334.771	81.06
334.999	82.06
335.227	85.06
335.455	89.06
335.684	79.06
335.912	76.06
336.14	70.06
336.369	87.06
336.597	81.06
336.825	88.06
337.053	92.06
337.281	85.06
337.51	94.06
337.738	92.06
337.966	86.06
338.194	94.06
338.422	82.06
338.65	83.06
338.878	92.06
339.106	73.06
339.334	77.06
339.562	84.06
339.79	73.06
340.018	75.06
340.246	79.06
340.474	84.06
340.702	78.06
340.93	95.06
341.158	95.06
341.386	78.06
341.614	82.06
341.842	85.06
342.07	78.06
342.298	76.06
342.526	83.06
342.754	88.06
342.981	96.06
343.209	95.06
343.437	108.06
343.665	67.06
343.893	82.06
344.12	85.06
344.348	78.06
344.576	91.06
344.804	90.06
345.031	81.06
345.259	82.06
345.487	91.06
345.714	83.06
345.942	69.06
346.17	88.06
346.397	73.06
346.625	81.06
346.853	86.06
347.08	75.06
347.308	83.06
347.535	85.06
347.763	93.06
347.99	75.06
348.218	81.06
348.445	81.06
348.673	97.06
348.9	86.06
349.128	86.06
349.355	84.06
349.583	78.06
349.81	80.06
350.037	75.06
350.265	79.06
350.492	74.06
350.72	81.06
350.947	90.06
351.174	78.06
351.402	81.06
351.629	90.06
351.856	88.06
352.083	85.06
352.311	104.06
352.538	89.06
352.765	93.06
352.992	84.06
353.22	79.06
353.447	65.06
353.674	83.06
353.901	107.06
354.128	84.06
354.355	67.06
354.583	82.06
354.81	90.06
355.037	85.06
355.264	87.06
355.491	82.06
355.718	78.06
355.945	90.06
356.172	83.06
356.399	96.06
356.626	94.06
356.853	95.06
357.08	59.06
357.307	87.06
357.534	87.06
357.761	81.06
357.988	84.06
358.215	93.06
358.441	76.06
358.668	86.06
358.895	86.06
359.122	84.06
359.349	83.06
359.576	88.06
359.802	84.06
360.029	84.06
360.256	78.06
360.483	86.06
360.709	86.06
360.936	90.06
361.163	72.06
361.39	72.06
361.616	75.06
361.843	88.06
362.07	98.06
362.296	70.06
362.523	73.06
362.749	85.06
362.976	80.06
363.203	90.06
363.429	73.06
363.656	73.06
363.882	81.06
364.109	84.06
364.335	82.06
364.562	83.06
364.788	86.06
365.015	89.06
365.241	82.06
365.468	97.06
365.694	97.06
365.92	87.06
366.147	83.06
366.373	88.06
366.599	89.06
366.826	87.06
367.052	91.06
367.278	95.06
367.505	76.06
367.731	82.06
367.957	96.06
368.184	88.06
368.41	75.06
368.636	90.06
368.862	80.06
369.089	74.06
369.315	91.06
369.541	83.06
369.767	83.06
369.993	72.06
370.219	84.06
370.445	74.06
370.672	69.06
370.898	79.06
371.124	81.06
371.35	79.06
371.576	78.06
371.802	88.06
372.028	80.06
372.254	78.06
372.48	81.06
372.706	88.06
372.932	86.06
373.158	79.06
373.384	79.06
373.61	85.06
373.835	84.06
374.061	83.06
374.287	78.06
374.513	91.06
374.739	88.06
374.965	89.06
375.191	81.06
375.416	83.06
375.642	90.06
375.868	89.06
376.094	73.06
376.319	65.06
376.545	84.06
376.771	65.06
376.997	76.06
377.222	91.06
377.448	74.06
377.674	73.06
377.899	81.06
378.125	83.06
378.35	79.06
378.576	79.06
378.802	74.06
379.027	83.06
379.253	86.06
379.478	96.06
379.704	77.06
379.929	68.06
380.155	81.06
380.38	79.06
380.606	83.06
380.831	72.06
381.057	96.06
381.282	90.06
381.507	83.06
381.733	88.06
381.958	83.06
382.184	82.06
382.409	86.06
382.634	90.06
382.86	85.06
383.085	105.06
383.31	78.06
383.535	94.06
383.761	82.06
383.986	83.06
384.211	62.06
384.436	87.06
384.662	84.06
384.887	85.06
385.112	82.06
385.337	95.06
385.562	73.06
385.787	89.06
386.013	80.06
386.238	84.06
386.463	83.06
386.688	109.06
386.913	80.06
387.138	83.06
387.363	86.06
387.588	79.06
387.813	89.06
388.038	85.06
388.263	79.06
388.488	75.06
388.713	75.06
388.938	79.06
389.163	79.06
389.387	76.06
389.612	73.06
389.837	82.06
390.062	82.06
390.287	78.06
390.512	83.06
390.736	86.06
390.961	96.06
391.186	82.06
391.411	84.06
391.636	95.06
391.86	72.06
392.085	93.06
392.31	105.06
392.534	79.06
392.759	85.06
392.984	91.06
393.208	83.06
393.433	85.06
393.658	77.06
393.882	77.06
394.107	91.06
394.331	90.06
394.556	71.06
394.78	81.06
395.005	76.06
395.229	75.06
395.454	93.06
395.678	89.06
395.903	92.06
396.127	83.06
396.352	91.06
396.576	89.06
396.801	92.06
397.025	71.06
397.249	82.06
397.474	81.06
397.698	90.06
397.922	74.06
398.147	87.06
398.371	75.06
398.595	81.06
398.82	73.06
399.044	81.06
399.268	71.06
399.492	96.06
399.717	88.06
399.941	102.06
400.165	77.06
400.389	78.06
400.613	80.06
400.837	80.06
401.062	64.06
401.286	79.06
401.51	90.06
401.734	82.06
401.958	79.06
402.182	91.06
402.406	78.06
402.63	91.06
402.854	85.06
403.078	66.06
403.302	70.06
403.526	92.06
403.75	87.06
403.974	70.06
404.198	80.06
404.422	73.06
404.645	74.06
404.869	78.06
405.093	72.06
405.317	71.06
405.541	81.06
405.765	78.06
405.988	73.06
406.212	83.06
406.436	87.06
406.66	81.06
406.883	71.06
407.107	87.06
407.331	86.06
407.555	80.06
407.778	64.06
408.002	92.06
408.226	86.06
408.449	82.06
408.673	76.06
408.896	73.06
409.12	82.06
409.344	87.06
409.567	86.06
409.791	72.06
410.014	103.06
410.238	97.06
410.461	85.06
410.685	79.06
410.908	59.06
411.132	61.06
411.355	77.06
411.578	95.06
411.802	87.06
412.025	97.06
412.249	85.06
412.472	86.06
412.695	96.06
412.919	96.06
413.142	84.06
413.365	75.06
413.589	67.06
413.812	79.06
414.035	93.06
414.258	102.06
414.482	65.06
414.705	79.06
414.928	85.06
415.151	81.06
415.374	68.06
415.597	97.06
415.821	90.06
416.044	75.06
416.267	85.06
416.49	86.06
416.713	83.06
416.936	85.06
417.159	86.06
417.382	74.06
417.605	90.06
417.828	71.06
418.051	69.06
418.274	67.06
418.497	88.06
418.72	75.06
418.943	78.06
419.166	74.06
419.389	78.06
419.611	80.06
419.834	78.06
420.057	81.06
420.28	82.06
420.503	96.06
420.726	77.06
420.948	73.06
421.171	89.06
421.394	83.06
421.617	87.06
421.839	80.06
422.062	89.06
422.285	102.06
422.507	86.06
422.73	85.06
422.953	102.06
423.175	74.06
423.398	86.06
423.621	85.06
423.843	81.06
424.066	83.06
424.288	82.06
424.511	91.06
424.733	92.06
424.956	93.06
425.178	88.06
425.401	85.06
425.623	90.06
425.846	72.06
426.068	85.06
426.291	83.06
426.513	84.06
426.735	84.06
426.958	101.06
427.18	82.06
427.402	93.06
427.625	90.06
427.847	85.06
428.069	86.06
428.292	75.06
428.514	83.06
428.736	77.06
428.958	72.06
429.181	79.06
429.403	79.06
429.625	71.06
429.847	99.06
430.069	86.06
430.292	76.06
430.514	89.06
430.736	83.06
430.958	87.06
431.18	72.06
431.402	78.06
431.624	85.06
431.846	96.06
432.068	77.06
432.29	79.06
432.512	83.06
432.734	88.06
432.956	64.06
433.178	89.06
433.4	94.06
433.622	83.06
433.844	71.06
434.066	76.06
434.287	73.06
434.509	73.06
434.731	85.06
434.953	78.06
435.175	87.06
435.397	77.06
435.618	74.06
435.84	85.06
436.062	77.06
436.284	86.06
436.505	90.06
436.727	86.06
436.949	78.06
437.17	77.06
437.392	85.06
437.614	86.06
437.835	96.06
438.057	79.06
438.278	72.06
438.5	84.06
438.721	87.06
438.943	80.06
439.165	89.06
439.386	75.06
439.608	79.06
439.829	81.06
440.05	75.06
440.272	79.06
440.493	84.06
440.715	72.06
440.936	78.06
441.158	81.06
441.379	85.06
441.6	82.06
441.822	77.06
442.043	93.06
442.264	61.06
442.486	94.06
442.707	81.06
442.928	81.06
443.149	85.06
443.371	91.06
443.592	90.06
443.813	76.06
444.034	69.06
444.255	88.06
444.476	85.06
444.698	77.06
444.919	83.06
445.14	158.06
445.361	103.06
445.582	81.06
445.803	78.06
446.024	80.06
446.245	87.06
446.466	66.06
446.687	75.06
446.908	80.06
447.129	71.06
447.35	83.06
447.571	86.06
447.792	78.06
448.013	86.06
448.234	83.06
448.455	77.06
448.675	78.06
448.896	89.06
449.117	90.06
449.338	79.06
449.559	85.06
449.779	83.06
450	85.06
450.221	77.06
450.442	94.06
450.662	84.06
450.883	80.06
451.104	75.06
451.324	83.06
451.545	65.06
451.766	87.06
451.986	91.06
452.207	83.06
452.428	98.06
452.648	81.06
452.869	72.06
453.089	80.06
453.31	95.06
453.53	74.06
453.751	99.06
453.971	93.06
454.192	69.06
454.412	87.06
454.633	91.06
454.853	79.06
455.073	77.06
455.294	73.06
455.514	85.06
455.734	93.06
455.955	86.06
456.175	76.06
456.395	86.06
456.616	88.06
456.836	82.06
457.056	67.06
457.276	81.06
457.497	74.06
457.717	78.06
457.937	96.06
458.157	79.06
458.377	89.06
458.598	72.06
458.818	88.06
459.038	84.06
459.258	85.06
459.478	87.06
459.698	71.06
459.918	75.06
460.138	98.06
460.358	87.06
460.578	79.06
460.798	82.06
461.018	77.06
461.238	85.06
461.458	82.06
461.678	79.06
461.898	80.06
462.118	72.06
462.338	86.06
462.558	77.06
462.777	89.06
462.997	82.06
463.217	86.06
463.437	79.06
463.657	77.06
463.876	69.06
464.096	87.06
464.316	88.06
464.536	74.06
464.755	96.06
464.975	86.06
465.195	81.06
465.414	90.06
465.634	74.06
465.854	84.06
466.073	78.06
466.293	72.06
466.512	81.06
466.732	81.06
466.951	84.06
467.171	73.06
467.391	70.06
467.61	75.06
467.829	79.06
468.049	89.06
468.268	82.06
468.488	86.06
468.707	80.06
468.927	73.06
469.146	82.06
469.365	88.06
469.585	85.06
469.804	81.06
470.023	94.06
470.243	77.06
470.462	76.06
470.681	80.06
470.901	87.06
471.12	93.06
471.339	85.06
471.558	74.06
471.777	80.06
471.997	94.06
472.216	89.06
472.435	96.06
472.654	98.06
472.873	90.06
473.092	84.06
473.311	91.06
473.53	79.06
473.749	87.06
473.968	90.06
474.187	82.06
474.406	85.06
474.625	82.06
474.844	103.06
475.063	93.06
475.282	81.06
475.501	73.06
475.72	82.06
475.939	90.06
476.158	85.06
476.377	89.06
476.596	74.06
476.814	86.06
477.033	78.06
477.252	79.06
477.471	85.06
477.69	85.06
477.908	90.06
478.127	90.06
478.346	93.06
478.564	79.06
478.783	95.06
479.002	94.06
479.22	82.06
479.439	97.06
479.658	83.06
479.876	85.06
480.095	73.06
480.313	87.06
480.532	89.06
480.751	75.06
480.969	81.06
481.188	82.06
481.406	86.06
481.624	84.06
481.843	65.06
482.061	82.06
482.28	95.06
482.498	82.06
482.717	87.06
482.935	79.06
483.153	83.06
483.372	101.06
483.59	85.06
483.808	78.06
484.027	75.06
484.245	77.06
484.463	78.06
484.681	95.06
484.9	77.06
485.118	85.06
485.336	98.06
485.554	96.06
485.772	84.06
485.99	86.06
486.209	82.06
486.427	75.06
486.645	71.06
486.863	74.06
487.081	83.06
487.299	92.06
487.517	81.06
487.735	95.06
487.953	72.06
488.171	82.06
488.389	82.06
488.607	80.06
488.825	76.06
489.043	89.06
489.261	76.06
489.479	92.06
489.696	93.06
489.914	89.06
490.132	86.06
490.35	77.06
490.568	73.06
490.786	76.06
491.003	74.06
491.221	93.06
491.439	85.06
491.657	84.06
491.874	93.06
492.092	84.06
492.31	82.06
492.527	86.06
492.745	74.06
492.963	83.06
493.18	73.06
493.398	91.06
493.615	65.06
493.833	72.06
494.05	87.06
494.268	79.06
494.485	92.06
494.703	90.06
494.92	97.06
495.138	83.06
495.355	90.06
495.573	80.06
495.79	85.06
496.008	96.06
496.225	75.06
496.442	88.06
496.66	82.06
496.877	60.06
497.094	82.06
497.312	78.06
497.529	83.06
497.746	92.06
497.963	86.06
498.181	72.06
498.398	78.06
498.615	95.06
498.832	89.06
499.049	80.06
499.267	92.06
499.484	77.06
499.701	89.06
499.918	80.06
500.135	80.06
500.352	68.06
500.569	84.06
500.786	81.06
501.003	88.06
501.22	82.06
501.437	89.06
501.654	84.06
501.871	78.06
502.088	79.06
502.305	87.06
502.522	92.06
502.739	91.06
502.956	90.06
503.172	82.06
503.389	72.06
503.606	79.06
503.823	81.06
504.04	101.06
504.256	82.06
504.473	83.06
504.69	95.06
504.907	87.06
505.123	87.06
505.34	90.06
505.557	102.06
505.773	95.06
505.99	78.06
506.207	86.06
506.423	85.06
506.64	86.06
506.856	71.06
507.073	83.06
507.289	82.06
507.506	76.06
507.722	90.06
507.939	71.06
508.155	91.06
508.372	89.06
508.588	84.06
508.805	88.06
509.021	80.06
509.238	80.06
509.454	78.06
509.67	76.06
509.887	89.06
510.103	78.06
510.319	97.06
510.536	79.06
510.752	88.06
510.968	88.06
511.184	73.06
511.401	91.06
511.617	88.06
511.833	87.06
512.049	82.06
512.265	75.06
512.481	83.06
512.698	95.06
512.914	84.06
513.13	101.06
513.346	79.06
513.562	85.06
513.778	91.06
513.994	86.06
514.21	90.06
514.426	105.06
514.642	87.06
514.858	87.06
515.074	90.06
515.29	93.06
515.506	87.06
515.721	85.06
515.937	72.06
516.153	92.06
516.369	81.06
516.585	82.06
516.801	69.06
517.016	83.06
517.232	86.06
517.448	101.06
517.664	85.06
517.879	86.06
518.095	96.06
518.311	89.06
518.527	80.06
518.742	89.06
518.958	83.06
519.173	88.06
519.389	75.06
519.605	79.06
519.82	92.06
