Data from 10100_1_HRD10591_00039.txt Node
Date: Mon Jan 19 14:00:44 EST 2026
User: Yrep
Spectrometer: HR+D1059
Trigger mode: 1
Integration Time (sec): 1.000000E-1
Scans to average: 1
Electric dark correction enabled: true
Nonlinearity correction enabled: false
Boxcar width: 0
XAxis mode: Wavelengths
Number of Pixels in Spectrum: 2048
>>>>>Begin Spectral Data<<<<<
223.165	-19.44
223.4	-19.44
223.635	-19.44
223.869	-28.44
224.104	-10.44
224.338	-13.44
224.573	-14.44
224.808	-16.44
225.042	-11.44
225.277	-5.44
225.511	8.56
225.746	5.56
225.98	12.56
226.215	0.56
226.449	11.56
226.683	11.56
226.918	33.56
227.152	35.56
227.387	37.56
227.621	33.56
227.856	36.56
228.09	58.56
228.324	52.56
228.559	64.56
228.793	60.56
229.027	52.56
229.262	66.56
229.496	61.56
229.73	54.56
229.964	64.56
230.199	62.56
230.433	67.56
230.667	66.56
230.901	69.56
231.136	81.56
231.37	76.56
231.604	90.56
231.838	79.56
232.072	69.56
232.306	74.56
232.541	70.56
232.775	71.56
233.009	77.56
233.243	80.56
233.477	72.56
233.711	65.56
233.945	77.56
234.179	67.56
234.413	75.56
234.647	58.56
234.881	82.56
235.115	75.56
235.349	88.56
235.583	84.56
235.817	70.56
236.051	67.56
236.285	60.56
236.519	76.56
236.753	74.56
236.987	69.56
237.221	70.56
237.455	74.56
237.689	68.56
237.922	64.56
238.156	80.56
238.39	69.56
238.624	65.56
238.858	62.56
239.091	72.56
239.325	79.56
239.559	83.56
239.793	73.56
240.027	75.56
240.26	82.56
240.494	80.56
240.728	70.56
240.961	72.56
241.195	70.56
241.429	81.56
241.662	82.56
241.896	63.56
242.13	71.56
242.363	81.56
242.597	76.56
242.83	92.56
243.064	73.56
243.298	60.56
243.531	74.56
243.765	80.56
243.998	91.56
244.232	72.56
244.465	69.56
244.699	88.56
244.932	69.56
245.166	75.56
245.399	72.56
245.633	94.56
245.866	76.56
246.099	66.56
246.333	82.56
246.566	80.56
246.8	70.56
247.033	79.56
247.266	68.56
247.5	78.56
247.733	78.56
247.966	66.56
248.2	90.56
248.433	69.56
248.666	74.56
248.899	62.56
249.133	83.56
249.366	74.56
249.599	74.56
249.832	82.56
250.066	75.56
250.299	75.56
250.532	69.56
250.765	80.56
250.998	70.56
251.231	70.56
251.465	84.56
251.698	80.56
251.931	65.56
252.164	82.56
252.397	78.56
252.63	77.56
252.863	72.56
253.096	76.56
253.329	83.56
253.562	76.56
253.795	64.56
254.028	78.56
254.261	72.56
254.494	84.56
254.727	68.56
254.96	77.56
255.193	78.56
255.426	78.56
255.659	65.56
255.892	70.56
256.124	64.56
256.357	73.56
256.59	80.56
256.823	73.56
257.056	78.56
257.289	77.56
257.521	78.56
257.754	81.56
257.987	75.56
258.22	69.56
258.452	90.56
258.685	76.56
258.918	85.56
259.151	84.56
259.383	80.56
259.616	63.56
259.849	67.56
260.081	92.56
260.314	70.56
260.547	88.56
260.779	86.56
261.012	73.56
261.244	73.56
261.477	90.56
261.71	83.56
261.942	90.56
262.175	78.56
262.407	76.56
262.64	87.56
262.872	75.56
263.105	80.56
263.337	87.56
263.57	74.56
263.802	85.56
264.035	67.56
264.267	91.56
264.499	84.56
264.732	87.56
264.964	69.56
265.197	89.56
265.429	87.56
265.661	70.56
265.894	84.56
266.126	72.56
266.358	77.56
266.591	92.56
266.823	77.56
267.055	69.56
267.287	86.56
267.52	71.56
267.752	87.56
267.984	88.56
268.216	70.56
268.448	88.56
268.681	86.56
268.913	72.56
269.145	69.56
269.377	77.56
269.609	67.56
269.841	83.56
270.073	83.56
270.306	79.56
270.538	82.56
270.77	64.56
271.002	95.56
271.234	80.56
271.466	98.56
271.698	83.56
271.93	68.56
272.162	83.56
272.394	80.56
272.626	85.56
272.858	87.56
273.09	89.56
273.322	72.56
273.553	98.56
273.785	70.56
274.017	61.56
274.249	85.56
274.481	79.56
274.713	72.56
274.945	94.56
275.176	76.56
275.408	84.56
275.64	83.56
275.872	94.56
276.104	69.56
276.335	88.56
276.567	100.56
276.799	92.56
277.031	76.56
277.262	87.56
277.494	79.56
277.726	82.56
277.957	76.56
278.189	86.56
278.421	86.56
278.652	82.56
278.884	74.56
279.115	84.56
279.347	82.56
279.579	86.56
279.81	89.56
280.042	78.56
280.273	75.56
280.505	85.56
280.736	66.56
280.968	80.56
281.199	82.56
281.431	83.56
281.662	81.56
281.894	79.56
282.125	85.56
282.356	79.56
282.588	83.56
282.819	86.56
283.051	78.56
283.282	80.56
283.513	81.56
283.745	91.56
283.976	79.56
284.207	77.56
284.439	79.56
284.67	68.56
284.901	82.56
285.132	82.56
285.364	85.56
285.595	86.56
285.826	86.56
286.057	90.56
286.288	93.56
286.52	90.56
286.751	86.56
286.982	76.56
287.213	86.56
287.444	87.56
287.675	86.56
287.906	94.56
288.138	88.56
288.369	86.56
288.6	83.56
288.831	77.56
289.062	79.56
289.293	82.56
289.524	78.56
289.755	87.56
289.986	87.56
290.217	79.56
290.448	75.56
290.679	84.56
290.91	75.56
291.141	82.56
291.371	84.56
291.602	81.56
291.833	89.56
292.064	80.56
292.295	80.56
292.526	82.56
292.757	78.56
292.987	90.56
293.218	83.56
293.449	82.56
293.68	84.56
293.91	91.56
294.141	81.56
294.372	79.56
294.603	83.56
294.833	95.56
295.064	85.56
295.295	82.56
295.525	93.56
295.756	86.56
295.987	81.56
296.217	83.56
296.448	93.56
296.679	88.56
296.909	90.56
297.14	82.56
297.37	81.56
297.601	67.56
297.831	80.56
298.062	86.56
298.292	107.56
298.523	94.56
298.753	62.56
298.984	86.56
299.214	91.56
299.445	92.56
299.675	81.56
299.905	84.56
300.136	91.56
300.366	77.56
300.597	78.56
300.827	90.56
301.057	82.56
301.288	86.56
301.518	91.56
301.748	88.56
301.979	94.56
302.209	84.56
302.439	66.56
302.669	88.56
302.9	80.56
303.13	91.56
303.36	76.56
303.59	72.56
303.82	83.56
304.051	101.56
304.281	80.56
304.511	78.56
304.741	76.56
304.971	84.56
305.201	90.56
305.431	84.56
305.661	85.56
305.891	84.56
306.121	82.56
306.352	86.56
306.582	83.56
306.812	84.56
307.042	83.56
307.272	60.56
307.502	85.56
307.731	84.56
307.961	93.56
308.191	76.56
308.421	84.56
308.651	87.56
308.881	84.56
309.111	85.56
309.341	94.56
309.571	100.56
309.8	81.56
310.03	58.56
310.26	75.56
310.49	87.56
310.72	87.56
310.949	91.56
311.179	85.56
311.409	74.56
311.639	82.56
311.868	76.56
312.098	91.56
312.328	72.56
312.557	96.56
312.787	75.56
313.017	73.56
313.246	63.56
313.476	74.56
313.706	76.56
313.935	72.56
314.165	84.56
314.394	78.56
314.624	83.56
314.853	100.56
315.083	87.56
315.312	99.56
315.542	82.56
315.771	86.56
316.001	99.56
316.23	82.56
316.46	87.56
316.689	93.56
316.919	75.56
317.148	83.56
317.377	78.56
317.607	85.56
317.836	90.56
318.065	75.56
318.295	91.56
318.524	91.56
318.753	91.56
318.983	84.56
319.212	89.56
319.441	82.56
319.67	82.56
319.9	78.56
320.129	68.56
320.358	78.56
320.587	78.56
320.816	83.56
321.046	91.56
321.275	99.56
321.504	89.56
321.733	93.56
321.962	97.56
322.191	85.56
322.42	79.56
322.649	98.56
322.878	94.56
323.108	95.56
323.337	84.56
323.566	90.56
323.795	96.56
324.024	96.56
324.253	80.56
324.482	72.56
324.71	82.56
324.939	74.56
325.168	92.56
325.397	78.56
325.626	75.56
325.855	90.56
326.084	66.56
326.313	79.56
326.542	83.56
326.77	79.56
326.999	86.56
327.228	95.56
327.457	90.56
327.686	73.56
327.914	66.56
328.143	91.56
328.372	87.56
328.6	74.56
328.829	80.56
329.058	86.56
329.287	85.56
329.515	82.56
329.744	77.56
329.972	84.56
330.201	83.56
330.43	94.56
330.658	78.56
330.887	82.56
331.115	71.56
331.344	88.56
331.572	88.56
331.801	92.56
332.03	86.56
332.258	94.56
332.486	84.56
332.715	79.56
332.943	71.56
333.172	78.56
333.4	84.56
333.629	87.56
333.857	91.56
334.085	72.56
334.314	96.56
334.542	88.56
334.771	77.56
334.999	88.56
335.227	94.56
335.455	96.56
335.684	91.56
335.912	84.56
336.14	80.56
336.369	84.56
336.597	83.56
336.825	79.56
337.053	74.56
337.281	73.56
337.51	73.56
337.738	85.56
337.966	76.56
338.194	83.56
338.422	77.56
338.65	84.56
338.878	84.56
339.106	84.56
339.334	94.56
339.562	76.56
339.79	81.56
340.018	80.56
340.246	81.56
340.474	79.56
340.702	78.56
340.93	78.56
341.158	66.56
341.386	68.56
341.614	87.56
341.842	97.56
342.07	86.56
342.298	82.56
342.526	86.56
342.754	80.56
342.981	77.56
343.209	76.56
343.437	101.56
343.665	90.56
343.893	93.56
344.12	80.56
344.348	90.56
344.576	85.56
344.804	88.56
345.031	84.56
345.259	72.56
345.487	78.56
345.714	64.56
345.942	78.56
346.17	74.56
346.397	72.56
346.625	80.56
346.853	84.56
347.08	71.56
347.308	75.56
347.535	91.56
347.763	76.56
347.99	88.56
348.218	80.56
348.445	77.56
348.673	89.56
348.9	79.56
349.128	84.56
349.355	76.56
349.583	83.56
349.81	75.56
350.037	87.56
350.265	73.56
350.492	70.56
350.72	76.56
350.947	74.56
351.174	82.56
351.402	94.56
351.629	78.56
351.856	77.56
352.083	86.56
352.311	91.56
352.538	84.56
352.765	88.56
352.992	90.56
353.22	74.56
353.447	72.56
353.674	90.56
353.901	72.56
354.128	84.56
354.355	75.56
354.583	71.56
354.81	88.56
355.037	90.56
355.264	69.56
355.491	68.56
355.718	77.56
355.945	85.56
356.172	91.56
356.399	86.56
356.626	80.56
356.853	84.56
357.08	83.56
357.307	88.56
357.534	88.56
357.761	80.56
357.988	73.56
358.215	85.56
358.441	91.56
358.668	88.56
358.895	74.56
359.122	68.56
359.349	70.56
359.576	75.56
359.802	89.56
360.029	89.56
360.256	97.56
360.483	70.56
360.709	82.56
360.936	93.56
361.163	93.56
361.39	90.56
361.616	92.56
361.843	90.56
362.07	83.56
362.296	80.56
362.523	90.56
362.749	90.56
362.976	99.56
363.203	91.56
363.429	93.56
363.656	84.56
363.882	76.56
364.109	83.56
364.335	106.56
364.562	87.56
364.788	82.56
365.015	86.56
365.241	87.56
365.468	80.56
365.694	82.56
365.92	72.56
366.147	91.56
366.373	79.56
366.599	92.56
366.826	88.56
367.052	85.56
367.278	80.56
367.505	91.56
367.731	90.56
367.957	82.56
368.184	63.56
368.41	83.56
368.636	72.56
368.862	84.56
369.089	84.56
369.315	86.56
369.541	76.56
369.767	96.56
369.993	74.56
370.219	68.56
370.445	82.56
370.672	90.56
370.898	83.56
371.124	84.56
371.35	89.56
371.576	80.56
371.802	82.56
372.028	80.56
372.254	62.56
372.48	80.56
372.706	74.56
372.932	90.56
373.158	79.56
373.384	89.56
373.61	69.56
373.835	109.56
374.061	83.56
374.287	83.56
374.513	76.56
374.739	85.56
374.965	88.56
375.191	78.56
375.416	80.56
375.642	76.56
375.868	87.56
376.094	74.56
376.319	87.56
376.545	66.56
376.771	71.56
376.997	74.56
377.222	75.56
377.448	75.56
377.674	92.56
377.899	72.56
378.125	91.56
378.35	86.56
378.576	77.56
378.802	75.56
379.027	87.56
379.253	79.56
379.478	72.56
379.704	91.56
379.929	66.56
380.155	79.56
380.38	77.56
380.606	80.56
380.831	92.56
381.057	92.56
381.282	85.56
381.507	94.56
381.733	78.56
381.958	89.56
382.184	82.56
382.409	84.56
382.634	85.56
382.86	76.56
383.085	84.56
383.31	98.56
383.535	80.56
383.761	80.56
383.986	85.56
384.211	82.56
384.436	72.56
384.662	77.56
384.887	85.56
385.112	85.56
385.337	73.56
385.562	78.56
385.787	83.56
386.013	86.56
386.238	85.56
386.463	107.56
386.688	86.56
386.913	87.56
387.138	81.56
387.363	76.56
387.588	88.56
387.813	82.56
388.038	90.56
388.263	83.56
388.488	94.56
388.713	85.56
388.938	75.56
389.163	77.56
389.387	71.56
389.612	90.56
389.837	76.56
390.062	90.56
390.287	87.56
390.512	66.56
390.736	98.56
390.961	78.56
391.186	78.56
391.411	82.56
391.636	98.56
391.86	75.56
392.085	87.56
392.31	79.56
392.534	72.56
392.759	88.56
392.984	109.56
393.208	130.56
393.433	172.56
393.658	150.56
393.882	101.56
394.107	100.56
394.331	87.56
394.556	99.56
394.78	89.56
395.005	91.56
395.229	81.56
395.454	83.56
395.678	92.56
395.903	89.56
396.127	110.56
396.352	108.56
396.576	112.56
396.801	130.56
397.025	146.56
397.249	101.56
397.474	91.56
397.698	90.56
397.922	83.56
398.147	70.56
398.371	63.56
398.595	81.56
398.82	84.56
399.044	66.56
399.268	89.56
399.492	80.56
399.717	75.56
399.941	104.56
400.165	77.56
400.389	71.56
400.613	91.56
400.837	71.56
401.062	70.56
401.286	73.56
401.51	80.56
401.734	74.56
401.958	84.56
402.182	89.56
402.406	77.56
402.63	89.56
402.854	84.56
403.078	59.56
403.302	86.56
403.526	84.56
403.75	83.56
403.974	87.56
404.198	64.56
404.422	66.56
404.645	71.56
404.869	63.56
405.093	86.56
405.317	82.56
405.541	86.56
405.765	86.56
405.988	70.56
406.212	98.56
406.436	90.56
406.66	84.56
406.883	75.56
407.107	81.56
407.331	86.56
407.555	64.56
407.778	90.56
408.002	90.56
408.226	78.56
408.449	60.56
408.673	63.56
408.896	88.56
409.12	77.56
409.344	81.56
409.567	81.56
409.791	87.56
410.014	100.56
410.238	83.56
410.461	74.56
410.685	66.56
410.908	72.56
411.132	73.56
411.355	72.56
411.578	72.56
411.802	69.56
412.025	76.56
412.249	82.56
412.472	68.56
412.695	76.56
412.919	83.56
413.142	73.56
413.365	76.56
413.589	87.56
413.812	90.56
414.035	60.56
414.258	82.56
414.482	96.56
414.705	87.56
414.928	81.56
415.151	78.56
415.374	80.56
415.597	72.56
415.821	79.56
416.044	62.56
416.267	64.56
416.49	82.56
416.713	89.56
416.936	86.56
417.159	85.56
417.382	82.56
417.605	82.56
417.828	88.56
418.051	95.56
418.274	86.56
418.497	84.56
418.72	84.56
418.943	74.56
419.166	72.56
419.389	72.56
419.611	83.56
419.834	86.56
420.057	87.56
420.28	82.56
420.503	83.56
420.726	70.56
420.948	76.56
421.171	90.56
421.394	82.56
421.617	80.56
421.839	93.56
422.062	84.56
422.285	110.56
422.507	144.56
422.73	200.56
422.953	199.56
423.175	111.56
423.398	95.56
423.621	90.56
423.843	91.56
424.066	86.56
424.288	86.56
424.511	68.56
424.733	87.56
424.956	70.56
425.178	84.56
425.401	75.56
425.623	70.56
425.846	65.56
426.068	68.56
426.291	83.56
426.513	80.56
426.735	82.56
426.958	68.56
427.18	74.56
427.402	88.56
427.625	50.56
427.847	76.56
428.069	96.56
428.292	97.56
428.514	93.56
428.736	106.56
428.958	100.56
429.181	90.56
429.403	83.56
429.625	82.56
429.847	102.56
430.069	112.56
430.292	114.56
430.514	98.56
430.736	93.56
430.958	94.56
431.18	86.56
431.402	82.56
431.624	87.56
431.846	94.56
432.068	93.56
432.29	75.56
432.512	80.56
432.734	85.56
432.956	72.56
433.178	76.56
433.4	74.56
433.622	78.56
433.844	98.56
434.066	79.56
434.287	92.56
434.509	81.56
434.731	84.56
434.953	83.56
435.175	76.56
435.397	73.56
435.618	82.56
435.84	85.56
436.062	76.56
436.284	64.56
436.505	81.56
436.727	89.56
436.949	78.56
437.17	68.56
437.392	75.56
437.614	82.56
437.835	70.56
438.057	74.56
438.278	74.56
438.5	63.56
438.721	85.56
438.943	68.56
439.165	87.56
439.386	66.56
439.608	72.56
439.829	76.56
440.05	79.56
440.272	71.56
440.493	94.56
440.715	74.56
440.936	76.56
441.158	94.56
441.379	79.56
441.6	83.56
441.822	87.56
442.043	85.56
442.264	87.56
442.486	83.56
442.707	101.56
442.928	101.56
443.149	89.56
443.371	109.56
443.592	122.56
443.813	124.56
444.034	79.56
444.255	67.56
444.476	80.56
444.698	82.56
444.919	78.56
445.14	146.56
445.361	126.56
445.582	159.56
445.803	141.56
446.024	76.56
446.245	92.56
446.466	90.56
446.687	77.56
446.908	77.56
447.129	92.56
447.35	81.56
447.571	71.56
447.792	76.56
448.013	70.56
448.234	66.56
448.455	80.56
448.675	73.56
448.896	78.56
449.117	60.56
449.338	66.56
449.559	87.56
449.779	82.56
450	78.56
450.221	64.56
450.442	87.56
450.662	100.56
450.883	76.56
451.104	91.56
451.324	78.56
451.545	68.56
451.766	69.56
451.986	72.56
452.207	79.56
452.428	78.56
452.648	93.56
452.869	75.56
453.089	81.56
453.31	72.56
453.53	76.56
453.751	78.56
453.971	82.56
454.192	86.56
454.412	73.56
454.633	83.56
454.853	76.56
455.073	68.56
455.294	79.56
455.514	76.56
455.734	78.56
455.955	78.56
456.175	69.56
456.395	80.56
456.616	78.56
456.836	92.56
457.056	82.56
457.276	78.56
457.497	72.56
457.717	78.56
457.937	107.56
458.157	86.56
458.377	92.56
458.598	92.56
458.818	95.56
459.038	88.56
459.258	80.56
459.478	80.56
459.698	91.56
459.918	86.56
460.138	86.56
460.358	84.56
460.578	80.56
460.798	90.56
461.018	83.56
461.238	82.56
461.458	93.56
461.678	78.56
461.898	72.56
462.118	74.56
462.338	74.56
462.558	88.56
462.777	65.56
462.997	78.56
463.217	79.56
463.437	78.56
463.657	68.56
463.876	88.56
464.096	70.56
464.316	79.56
464.536	83.56
464.755	78.56
464.975	78.56
465.195	75.56
465.414	82.56
465.634	76.56
465.854	92.56
466.073	91.56
466.293	87.56
466.512	85.56
466.732	77.56
466.951	81.56
467.171	84.56
467.391	70.56
467.61	68.56
467.829	63.56
468.049	79.56
468.268	71.56
468.488	83.56
468.707	80.56
468.927	77.56
469.146	89.56
469.365	91.56
469.585	71.56
469.804	78.56
470.023	71.56
470.243	72.56
470.462	90.56
470.681	88.56
470.901	72.56
471.12	77.56
471.339	83.56
471.558	75.56
471.777	82.56
471.997	71.56
472.216	78.56
472.435	94.56
472.654	79.56
472.873	75.56
473.092	71.56
473.311	74.56
473.53	86.56
473.749	84.56
473.968	81.56
474.187	83.56
474.406	87.56
474.625	99.56
474.844	84.56
475.063	82.56
475.282	79.56
475.501	76.56
475.72	82.56
475.939	94.56
476.158	92.56
476.377	84.56
476.596	78.56
476.814	83.56
477.033	82.56
477.252	85.56
477.471	65.56
477.69	77.56
477.908	83.56
478.127	87.56
478.346	83.56
478.564	88.56
478.783	68.56
479.002	78.56
479.22	85.56
479.439	76.56
479.658	82.56
479.876	90.56
480.095	60.56
480.313	83.56
480.532	79.56
480.751	83.56
480.969	78.56
481.188	74.56
481.406	80.56
481.624	81.56
481.843	87.56
482.061	72.56
482.28	66.56
482.498	94.56
482.717	86.56
482.935	79.56
483.153	55.56
483.372	72.56
483.59	96.56
483.808	80.56
484.027	86.56
484.245	85.56
484.463	71.56
484.681	72.56
484.9	93.56
485.118	81.56
485.336	93.56
485.554	87.56
485.772	83.56
485.99	81.56
486.209	82.56
486.427	100.56
486.645	86.56
486.863	86.56
487.081	88.56
487.299	87.56
487.517	80.56
487.735	93.56
487.953	109.56
488.171	95.56
488.389	86.56
488.607	82.56
488.825	73.56
489.043	76.56
489.261	87.56
489.479	86.56
489.696	92.56
489.914	72.56
490.132	76.56
490.35	91.56
490.568	68.56
490.786	85.56
491.003	80.56
491.221	79.56
491.439	78.56
491.657	85.56
491.874	80.56
492.092	90.56
492.31	85.56
492.527	67.56
492.745	72.56
492.963	77.56
493.18	88.56
493.398	75.56
493.615	81.56
493.833	84.56
494.05	84.56
494.268	76.56
494.485	76.56
494.703	88.56
494.92	82.56
495.138	65.56
495.355	100.56
495.573	87.56
495.79	82.56
496.008	80.56
496.225	82.56
496.442	87.56
496.66	87.56
496.877	78.56
497.094	87.56
497.312	89.56
497.529	78.56
497.746	92.56
497.963	86.56
498.181	76.56
498.398	81.56
498.615	81.56
498.832	75.56
499.049	87.56
499.267	88.56
499.484	81.56
499.701	80.56
499.918	93.56
500.135	97.56
500.352	83.56
500.569	92.56
500.786	88.56
501.003	86.56
501.22	83.56
501.437	77.56
501.654	79.56
501.871	75.56
502.088	90.56
502.305	94.56
502.522	76.56
502.739	92.56
502.956	72.56
503.172	78.56
503.389	88.56
503.606	74.56
503.823	86.56
504.04	97.56
504.256	110.56
504.473	92.56
504.69	93.56
504.907	97.56
505.123	72.56
505.34	83.56
505.557	96.56
505.773	96.56
505.99	85.56
506.207	78.56
506.423	74.56
506.64	90.56
506.856	79.56
507.073	89.56
507.289	74.56
507.506	90.56
507.722	89.56
507.939	76.56
508.155	81.56
508.372	75.56
508.588	87.56
508.805	71.56
509.021	70.56
509.238	93.56
509.454	70.56
509.67	90.56
509.887	67.56
510.103	84.56
510.319	81.56
510.536	93.56
510.752	78.56
510.968	79.56
511.184	83.56
511.401	83.56
511.617	100.56
511.833	73.56
512.049	86.56
512.265	84.56
512.481	91.56
512.698	82.56
512.914	80.56
513.13	90.56
513.346	75.56
513.562	61.56
513.778	86.56
513.994	86.56
514.21	97.56
514.426	82.56
514.642	96.56
514.858	86.56
515.074	91.56
515.29	83.56
515.506	91.56
515.721	73.56
515.937	84.56
516.153	80.56
516.369	85.56
516.585	86.56
516.801	90.56
517.016	88.56
517.232	69.56
517.448	87.56
517.664	70.56
517.879	79.56
518.095	84.56
518.311	104.56
518.527	82.56
518.742	99.56
518.958	100.56
519.173	98.56
519.389	99.56
519.605	92.56
