Data from 10100_1_HRD10591_00045.txt Node
Date: Mon Jan 19 14:00:47 EST 2026
User: Yrep
Spectrometer: HR+D1059
Trigger mode: 1
Integration Time (sec): 1.000000E-1
Scans to average: 1
Electric dark correction enabled: true
Nonlinearity correction enabled: false
Boxcar width: 0
XAxis mode: Wavelengths
Number of Pixels in Spectrum: 2048
>>>>>Begin Spectral Data<<<<<
223.165	-13.5
223.4	-13.5
223.635	-13.5
223.869	-31.5
224.104	-29.5
224.338	-23.5
224.573	-16.5
224.808	-6.5
225.042	-17.5
225.277	-10.5
225.511	-3.5
225.746	12.5
225.98	3.5
226.215	23.5
226.449	17.5
226.683	14.5
226.918	41.5
227.152	39.5
227.387	41.5
227.621	38.5
227.856	38.5
228.09	42.5
228.324	44.5
228.559	60.5
228.793	61.5
229.027	60.5
229.262	73.5
229.496	57.5
229.73	72.5
229.964	78.5
230.199	83.5
230.433	84.5
230.667	73.5
230.901	70.5
231.136	74.5
231.37	70.5
231.604	89.5
231.838	98.5
232.072	97.5
232.306	86.5
232.541	99.5
232.775	89.5
233.009	79.5
233.243	93.5
233.477	78.5
233.711	80.5
233.945	91.5
234.179	74.5
234.413	87.5
234.647	70.5
234.881	73.5
235.115	66.5
235.349	78.5
235.583	88.5
235.817	69.5
236.051	85.5
236.285	74.5
236.519	91.5
236.753	101.5
236.987	77.5
237.221	88.5
237.455	86.5
237.689	82.5
237.922	75.5
238.156	83.5
238.39	73.5
238.624	76.5
238.858	92.5
239.091	84.5
239.325	85.5
239.559	77.5
239.793	89.5
240.027	99.5
240.26	84.5
240.494	78.5
240.728	77.5
240.961	75.5
241.195	75.5
241.429	78.5
241.662	74.5
241.896	84.5
242.13	91.5
242.363	78.5
242.597	87.5
242.83	87.5
243.064	69.5
243.298	76.5
243.531	74.5
243.765	83.5
243.998	84.5
244.232	68.5
244.465	77.5
244.699	72.5
244.932	85.5
245.166	80.5
245.399	75.5
245.633	94.5
245.866	85.5
246.099	91.5
246.333	70.5
246.566	73.5
246.8	81.5
247.033	86.5
247.266	73.5
247.5	96.5
247.733	82.5
247.966	84.5
248.2	76.5
248.433	87.5
248.666	72.5
248.899	84.5
249.133	82.5
249.366	84.5
249.599	93.5
249.832	87.5
250.066	88.5
250.299	77.5
250.532	74.5
250.765	81.5
250.998	76.5
251.231	79.5
251.465	76.5
251.698	90.5
251.931	89.5
252.164	85.5
252.397	88.5
252.63	84.5
252.863	82.5
253.096	84.5
253.329	77.5
253.562	81.5
253.795	92.5
254.028	89.5
254.261	71.5
254.494	68.5
254.727	78.5
254.96	83.5
255.193	85.5
255.426	77.5
255.659	72.5
255.892	85.5
256.124	85.5
256.357	86.5
256.59	92.5
256.823	85.5
257.056	60.5
257.289	59.5
257.521	83.5
257.754	78.5
257.987	82.5
258.22	80.5
258.452	82.5
258.685	85.5
258.918	87.5
259.151	79.5
259.383	82.5
259.616	73.5
259.849	84.5
260.081	82.5
260.314	97.5
260.547	85.5
260.779	80.5
261.012	71.5
261.244	86.5
261.477	80.5
261.71	88.5
261.942	91.5
262.175	69.5
262.407	99.5
262.64	90.5
262.872	75.5
263.105	79.5
263.337	92.5
263.57	90.5
263.802	99.5
264.035	98.5
264.267	90.5
264.499	78.5
264.732	95.5
264.964	78.5
265.197	74.5
265.429	78.5
265.661	76.5
265.894	85.5
266.126	84.5
266.358	81.5
266.591	78.5
266.823	83.5
267.055	81.5
267.287	82.5
267.52	89.5
267.752	82.5
267.984	91.5
268.216	82.5
268.448	86.5
268.681	90.5
268.913	94.5
269.145	79.5
269.377	92.5
269.609	83.5
269.841	76.5
270.073	91.5
270.306	81.5
270.538	91.5
270.77	78.5
271.002	71.5
271.234	88.5
271.466	98.5
271.698	85.5
271.93	81.5
272.162	109.5
272.394	88.5
272.626	86.5
272.858	101.5
273.09	72.5
273.322	84.5
273.553	86.5
273.785	90.5
274.017	82.5
274.249	75.5
274.481	77.5
274.713	81.5
274.945	86.5
275.176	91.5
275.408	91.5
275.64	89.5
275.872	99.5
276.104	94.5
276.335	93.5
276.567	89.5
276.799	94.5
277.031	89.5
277.262	84.5
277.494	98.5
277.726	100.5
277.957	80.5
278.189	94.5
278.421	93.5
278.652	75.5
278.884	95.5
279.115	89.5
279.347	91.5
279.579	95.5
279.81	84.5
280.042	86.5
280.273	81.5
280.505	92.5
280.736	94.5
280.968	82.5
281.199	89.5
281.431	87.5
281.662	98.5
281.894	105.5
282.125	92.5
282.356	93.5
282.588	90.5
282.819	87.5
283.051	81.5
283.282	77.5
283.513	92.5
283.745	83.5
283.976	86.5
284.207	85.5
284.439	89.5
284.67	75.5
284.901	92.5
285.132	88.5
285.364	97.5
285.595	84.5
285.826	94.5
286.057	81.5
286.288	92.5
286.52	89.5
286.751	90.5
286.982	97.5
287.213	93.5
287.444	102.5
287.675	95.5
287.906	80.5
288.138	91.5
288.369	96.5
288.6	88.5
288.831	92.5
289.062	84.5
289.293	93.5
289.524	77.5
289.755	74.5
289.986	87.5
290.217	92.5
290.448	86.5
290.679	96.5
290.91	84.5
291.141	75.5
291.371	80.5
291.602	87.5
291.833	89.5
292.064	85.5
292.295	77.5
292.526	81.5
292.757	84.5
292.987	88.5
293.218	88.5
293.449	96.5
293.68	92.5
293.91	88.5
294.141	101.5
294.372	84.5
294.603	80.5
294.833	90.5
295.064	77.5
295.295	95.5
295.525	94.5
295.756	90.5
295.987	84.5
296.217	88.5
296.448	96.5
296.679	97.5
296.909	79.5
297.14	94.5
297.37	78.5
297.601	85.5
297.831	79.5
298.062	85.5
298.292	90.5
298.523	84.5
298.753	98.5
298.984	86.5
299.214	97.5
299.445	94.5
299.675	91.5
299.905	87.5
300.136	102.5
300.366	90.5
300.597	93.5
300.827	99.5
301.057	84.5
301.288	96.5
301.518	85.5
301.748	92.5
301.979	83.5
302.209	96.5
302.439	94.5
302.669	78.5
302.9	93.5
303.13	77.5
303.36	91.5
303.59	92.5
303.82	107.5
304.051	80.5
304.281	103.5
304.511	96.5
304.741	88.5
304.971	91.5
305.201	98.5
305.431	104.5
305.661	81.5
305.891	90.5
306.121	92.5
306.352	89.5
306.582	80.5
306.812	90.5
307.042	85.5
307.272	101.5
307.502	93.5
307.731	92.5
307.961	89.5
308.191	113.5
308.421	98.5
308.651	102.5
308.881	112.5
309.111	112.5
309.341	108.5
309.571	100.5
309.8	104.5
310.03	81.5
310.26	86.5
310.49	94.5
310.72	87.5
310.949	92.5
311.179	84.5
311.409	94.5
311.639	84.5
311.868	93.5
312.098	95.5
312.328	91.5
312.557	104.5
312.787	102.5
313.017	99.5
313.246	88.5
313.476	86.5
313.706	91.5
313.935	90.5
314.165	88.5
314.394	99.5
314.624	97.5
314.853	72.5
315.083	103.5
315.312	102.5
315.542	98.5
315.771	102.5
316.001	101.5
316.23	95.5
316.46	81.5
316.689	78.5
316.919	98.5
317.148	79.5
317.377	109.5
317.607	118.5
317.836	110.5
318.065	100.5
318.295	102.5
318.524	89.5
318.753	83.5
318.983	98.5
319.212	80.5
319.441	90.5
319.67	88.5
319.9	92.5
320.129	90.5
320.358	93.5
320.587	85.5
320.816	88.5
321.046	98.5
321.275	90.5
321.504	92.5
321.733	102.5
321.962	86.5
322.191	81.5
322.42	99.5
322.649	82.5
322.878	85.5
323.108	110.5
323.337	86.5
323.566	87.5
323.795	91.5
324.024	107.5
324.253	84.5
324.482	87.5
324.71	96.5
324.939	108.5
325.168	82.5
325.397	82.5
325.626	92.5
325.855	88.5
326.084	94.5
326.313	84.5
326.542	91.5
326.77	76.5
326.999	94.5
327.228	85.5
327.457	88.5
327.686	94.5
327.914	92.5
328.143	110.5
328.372	91.5
328.6	93.5
328.829	84.5
329.058	95.5
329.287	79.5
329.515	94.5
329.744	89.5
329.972	88.5
330.201	87.5
330.43	78.5
330.658	87.5
330.887	83.5
331.115	97.5
331.344	90.5
331.572	94.5
331.801	77.5
332.03	87.5
332.258	83.5
332.486	90.5
332.715	84.5
332.943	76.5
333.172	86.5
333.4	89.5
333.629	98.5
333.857	93.5
334.085	99.5
334.314	97.5
334.542	96.5
334.771	109.5
334.999	116.5
335.227	107.5
335.455	88.5
335.684	99.5
335.912	91.5
336.14	101.5
336.369	92.5
336.597	98.5
336.825	85.5
337.053	89.5
337.281	96.5
337.51	92.5
337.738	82.5
337.966	75.5
338.194	94.5
338.422	79.5
338.65	101.5
338.878	81.5
339.106	85.5
339.334	89.5
339.562	99.5
339.79	85.5
340.018	87.5
340.246	102.5
340.474	99.5
340.702	73.5
340.93	75.5
341.158	92.5
341.386	83.5
341.614	79.5
341.842	85.5
342.07	75.5
342.298	75.5
342.526	93.5
342.754	89.5
342.981	101.5
343.209	83.5
343.437	96.5
343.665	90.5
343.893	91.5
344.12	108.5
344.348	98.5
344.576	93.5
344.804	92.5
345.031	90.5
345.259	83.5
345.487	80.5
345.714	88.5
345.942	97.5
346.17	83.5
346.397	84.5
346.625	77.5
346.853	98.5
347.08	87.5
347.308	89.5
347.535	79.5
347.763	104.5
347.99	86.5
348.218	90.5
348.445	94.5
348.673	95.5
348.9	90.5
349.128	86.5
349.355	100.5
349.583	81.5
349.81	100.5
350.037	86.5
350.265	86.5
350.492	86.5
350.72	101.5
350.947	88.5
351.174	72.5
351.402	87.5
351.629	89.5
351.856	83.5
352.083	86.5
352.311	97.5
352.538	89.5
352.765	95.5
352.992	97.5
353.22	93.5
353.447	85.5
353.674	92.5
353.901	96.5
354.128	101.5
354.355	91.5
354.583	72.5
354.81	82.5
355.037	72.5
355.264	83.5
355.491	100.5
355.718	79.5
355.945	83.5
356.172	78.5
356.399	109.5
356.626	100.5
356.853	101.5
357.08	107.5
357.307	95.5
357.534	95.5
357.761	101.5
357.988	102.5
358.215	107.5
358.441	88.5
358.668	97.5
358.895	94.5
359.122	98.5
359.349	72.5
359.576	71.5
359.802	98.5
360.029	87.5
360.256	83.5
360.483	90.5
360.709	82.5
360.936	93.5
361.163	94.5
361.39	85.5
361.616	86.5
361.843	98.5
362.07	109.5
362.296	107.5
362.523	105.5
362.749	109.5
362.976	124.5
363.203	148.5
363.429	121.5
363.656	113.5
363.882	105.5
364.109	121.5
364.335	147.5
364.562	149.5
364.788	123.5
365.015	97.5
365.241	92.5
365.468	77.5
365.694	94.5
365.92	96.5
366.147	80.5
366.373	101.5
366.599	87.5
366.826	84.5
367.052	105.5
367.278	91.5
367.505	98.5
367.731	89.5
367.957	97.5
368.184	89.5
368.41	105.5
368.636	101.5
368.862	97.5
369.089	85.5
369.315	106.5
369.541	88.5
369.767	86.5
369.993	102.5
370.219	90.5
370.445	94.5
370.672	110.5
370.898	103.5
371.124	97.5
371.35	98.5
371.576	97.5
371.802	109.5
372.028	104.5
372.254	104.5
372.48	83.5
372.706	89.5
372.932	94.5
373.158	99.5
373.384	118.5
373.61	146.5
373.835	155.5
374.061	100.5
374.287	109.5
374.513	101.5
374.739	107.5
374.965	112.5
375.191	88.5
375.416	92.5
375.642	117.5
375.868	105.5
376.094	96.5
376.319	97.5
376.545	102.5
376.771	103.5
376.997	98.5
377.222	93.5
377.448	82.5
377.674	87.5
377.899	82.5
378.125	89.5
378.35	97.5
378.576	95.5
378.802	93.5
379.027	96.5
379.253	96.5
379.478	75.5
379.704	92.5
379.929	103.5
380.155	101.5
380.38	104.5
380.606	88.5
380.831	86.5
381.057	89.5
381.282	97.5
381.507	104.5
381.733	97.5
381.958	108.5
382.184	104.5
382.409	110.5
382.634	123.5
382.86	115.5
383.085	108.5
383.31	94.5
383.535	119.5
383.761	115.5
383.986	113.5
384.211	111.5
384.436	79.5
384.662	101.5
384.887	100.5
385.112	89.5
385.337	100.5
385.562	114.5
385.787	102.5
386.013	124.5
386.238	105.5
386.463	106.5
386.688	109.5
386.913	102.5
387.138	107.5
387.363	93.5
387.588	108.5
387.813	96.5
388.038	95.5
388.263	102.5
388.488	92.5
388.713	79.5
388.938	98.5
389.163	105.5
389.387	98.5
389.612	84.5
389.837	98.5
390.062	96.5
390.287	97.5
390.512	115.5
390.736	101.5
390.961	92.5
391.186	98.5
391.411	86.5
391.636	102.5
391.86	108.5
392.085	100.5
392.31	112.5
392.534	123.5
392.759	149.5
392.984	226.5
393.208	411.5
393.433	624.5
393.658	464.5
393.882	190.5
394.107	131.5
394.331	143.5
394.556	132.5
394.78	136.5
395.005	106.5
395.229	110.5
395.454	115.5
395.678	114.5
395.903	133.5
396.127	173.5
396.352	184.5
396.576	232.5
396.801	423.5
397.025	488.5
397.249	254.5
397.474	141.5
397.698	123.5
397.922	118.5
398.147	96.5
398.371	92.5
398.595	96.5
398.82	84.5
399.044	100.5
399.268	86.5
399.492	94.5
399.717	94.5
399.941	90.5
400.165	102.5
400.389	91.5
400.613	91.5
400.837	96.5
401.062	73.5
401.286	87.5
401.51	86.5
401.734	98.5
401.958	84.5
402.182	85.5
402.406	91.5
402.63	88.5
402.854	76.5
403.078	76.5
403.302	98.5
403.526	102.5
403.75	78.5
403.974	94.5
404.198	100.5
404.422	93.5
404.645	106.5
404.869	93.5
405.093	91.5
405.317	82.5
405.541	103.5
405.765	86.5
405.988	88.5
406.212	98.5
406.436	101.5
406.66	97.5
406.883	89.5
407.107	96.5
407.331	86.5
407.555	104.5
407.778	129.5
408.002	133.5
408.226	88.5
408.449	75.5
408.673	80.5
408.896	98.5
409.12	88.5
409.344	114.5
409.567	97.5
409.791	110.5
410.014	125.5
410.238	112.5
410.461	92.5
410.685	92.5
410.908	91.5
411.132	104.5
411.355	91.5
411.578	100.5
411.802	94.5
412.025	93.5
412.249	106.5
412.472	92.5
412.695	91.5
412.919	90.5
413.142	89.5
413.365	91.5
413.589	88.5
413.812	95.5
414.035	94.5
414.258	98.5
414.482	86.5
414.705	106.5
414.928	98.5
415.151	92.5
415.374	90.5
415.597	97.5
415.821	98.5
416.044	83.5
416.267	97.5
416.49	92.5
416.713	91.5
416.936	94.5
417.159	84.5
417.382	83.5
417.605	92.5
417.828	69.5
418.051	90.5
418.274	93.5
418.497	77.5
418.72	86.5
418.943	83.5
419.166	71.5
419.389	100.5
419.611	97.5
419.834	94.5
420.057	90.5
420.28	93.5
420.503	91.5
420.726	88.5
420.948	104.5
421.171	108.5
421.394	112.5
421.617	155.5
421.839	138.5
422.062	132.5
422.285	198.5
422.507	333.5
422.73	564.5
422.953	494.5
423.175	227.5
423.398	149.5
423.621	125.5
423.843	98.5
424.066	107.5
424.288	95.5
424.511	86.5
424.733	96.5
424.956	106.5
425.178	90.5
425.401	89.5
425.623	78.5
425.846	82.5
426.068	86.5
426.291	90.5
426.513	90.5
426.735	89.5
426.958	100.5
427.18	84.5
427.402	99.5
427.625	105.5
427.847	92.5
428.069	109.5
428.292	149.5
428.514	166.5
428.736	125.5
428.958	150.5
429.181	152.5
429.403	116.5
429.625	115.5
429.847	136.5
430.069	183.5
430.292	231.5
430.514	212.5
430.736	163.5
430.958	158.5
431.18	108.5
431.402	100.5
431.624	108.5
431.846	134.5
432.068	170.5
432.29	117.5
432.512	104.5
432.734	98.5
432.956	96.5
433.178	97.5
433.4	95.5
433.622	83.5
433.844	83.5
434.066	88.5
434.287	74.5
434.509	90.5
434.731	91.5
434.953	93.5
435.175	74.5
435.397	91.5
435.618	102.5
435.84	104.5
436.062	89.5
436.284	94.5
436.505	98.5
436.727	91.5
436.949	88.5
437.17	101.5
437.392	86.5
437.614	105.5
437.835	79.5
438.057	88.5
438.278	84.5
438.5	103.5
438.721	99.5
438.943	83.5
439.165	88.5
439.386	93.5
439.608	92.5
439.829	88.5
440.05	99.5
440.272	92.5
440.493	103.5
440.715	82.5
440.936	89.5
441.158	92.5
441.379	99.5
441.6	84.5
441.822	82.5
442.043	95.5
442.264	116.5
442.486	160.5
442.707	180.5
442.928	138.5
443.149	125.5
443.371	189.5
443.592	312.5
443.813	277.5
444.034	118.5
444.255	119.5
444.476	99.5
444.698	104.5
444.919	100.5
445.14	185.5
445.361	244.5
445.582	391.5
445.803	321.5
446.024	138.5
446.245	100.5
446.466	86.5
446.687	102.5
446.908	74.5
447.129	99.5
447.35	88.5
447.571	86.5
447.792	82.5
448.013	96.5
448.234	89.5
448.455	83.5
448.675	92.5
448.896	93.5
449.117	93.5
449.338	100.5
449.559	91.5
449.779	89.5
450	89.5
450.221	89.5
450.442	81.5
450.662	97.5
450.883	81.5
451.104	82.5
451.324	88.5
451.545	87.5
451.766	95.5
451.986	90.5
452.207	108.5
452.428	99.5
452.648	100.5
452.869	108.5
453.089	97.5
453.31	112.5
453.53	102.5
453.751	93.5
453.971	82.5
454.192	74.5
454.412	93.5
454.633	89.5
454.853	81.5
455.073	83.5
455.294	93.5
455.514	94.5
455.734	103.5
455.955	83.5
456.175	84.5
456.395	77.5
456.616	92.5
456.836	76.5
457.056	88.5
457.276	83.5
457.497	85.5
457.717	84.5
457.937	121.5
458.157	145.5
458.377	144.5
458.598	138.5
458.818	138.5
459.038	118.5
459.258	105.5
459.478	86.5
459.698	96.5
459.918	75.5
460.138	88.5
460.358	89.5
460.578	105.5
460.798	124.5
461.018	124.5
461.238	87.5
461.458	80.5
461.678	79.5
461.898	93.5
462.118	91.5
462.338	92.5
462.558	74.5
462.777	88.5
462.997	97.5
463.217	77.5
463.437	69.5
463.657	80.5
463.876	84.5
464.096	93.5
464.316	94.5
464.536	93.5
464.755	91.5
464.975	86.5
465.195	83.5
465.414	77.5
465.634	89.5
465.854	97.5
466.073	94.5
466.293	72.5
466.512	103.5
466.732	94.5
466.951	102.5
467.171	82.5
467.391	68.5
467.61	62.5
467.829	82.5
468.049	94.5
468.268	97.5
468.488	96.5
468.707	93.5
468.927	89.5
469.146	90.5
469.365	83.5
469.585	91.5
469.804	90.5
470.023	92.5
470.243	104.5
470.462	94.5
470.681	84.5
470.901	87.5
471.12	84.5
471.339	101.5
471.558	84.5
471.777	80.5
471.997	84.5
472.216	93.5
472.435	84.5
472.654	73.5
472.873	98.5
473.092	98.5
473.311	91.5
473.53	83.5
473.749	86.5
473.968	105.5
474.187	87.5
474.406	82.5
474.625	87.5
474.844	97.5
475.063	96.5
475.282	94.5
475.501	92.5
475.72	94.5
475.939	100.5
476.158	91.5
476.377	96.5
476.596	88.5
476.814	94.5
477.033	102.5
477.252	73.5
477.471	91.5
477.69	89.5
477.908	87.5
478.127	81.5
478.346	114.5
478.564	92.5
478.783	98.5
479.002	99.5
479.22	98.5
479.439	90.5
479.658	79.5
479.876	94.5
480.095	84.5
480.313	88.5
480.532	107.5
480.751	92.5
480.969	98.5
481.188	84.5
481.406	84.5
481.624	71.5
481.843	84.5
482.061	91.5
482.28	98.5
482.498	90.5
482.717	93.5
482.935	78.5
483.153	106.5
483.372	94.5
483.59	81.5
483.808	93.5
484.027	76.5
484.245	92.5
484.463	98.5
484.681	93.5
484.9	94.5
485.118	101.5
485.336	78.5
485.554	90.5
485.772	85.5
485.99	105.5
486.209	97.5
486.427	89.5
486.645	90.5
486.863	92.5
487.081	79.5
487.299	101.5
487.517	105.5
487.735	114.5
487.953	221.5
488.171	177.5
488.389	103.5
488.607	88.5
488.825	92.5
489.043	81.5
489.261	92.5
489.479	98.5
489.696	98.5
489.914	81.5
490.132	98.5
490.35	94.5
490.568	97.5
490.786	96.5
491.003	77.5
491.221	94.5
491.439	91.5
491.657	93.5
491.874	90.5
492.092	104.5
492.31	104.5
492.527	94.5
492.745	84.5
492.963	88.5
493.18	99.5
493.398	94.5
493.615	121.5
493.833	88.5
494.05	81.5
494.268	83.5
494.485	91.5
494.703	87.5
494.92	94.5
495.138	93.5
495.355	107.5
495.573	87.5
495.79	87.5
496.008	88.5
496.225	94.5
496.442	96.5
496.66	101.5
496.877	83.5
497.094	90.5
497.312	81.5
497.529	82.5
497.746	77.5
497.963	95.5
498.181	108.5
498.398	103.5
498.615	90.5
498.832	95.5
499.049	105.5
499.267	100.5
499.484	92.5
499.701	105.5
499.918	97.5
500.135	89.5
500.352	91.5
500.569	90.5
500.786	86.5
501.003	92.5
501.22	96.5
501.437	108.5
501.654	107.5
501.871	91.5
502.088	91.5
502.305	102.5
502.522	107.5
502.739	89.5
502.956	104.5
503.172	89.5
503.389	97.5
503.606	102.5
503.823	102.5
504.04	94.5
504.256	155.5
504.473	157.5
504.69	102.5
504.907	119.5
505.123	88.5
505.34	86.5
505.557	98.5
505.773	101.5
505.99	92.5
506.207	91.5
506.423	99.5
506.64	88.5
506.856	104.5
507.073	76.5
507.289	91.5
507.506	90.5
507.722	95.5
507.939	94.5
508.155	89.5
508.372	93.5
508.588	91.5
508.805	105.5
509.021	93.5
509.238	92.5
509.454	97.5
509.67	95.5
509.887	88.5
510.103	84.5
510.319	104.5
510.536	88.5
510.752	87.5
510.968	92.5
511.184	93.5
511.401	96.5
511.617	94.5
511.833	92.5
512.049	90.5
512.265	93.5
512.481	93.5
512.698	105.5
512.914	86.5
513.13	96.5
513.346	80.5
513.562	76.5
513.778	93.5
513.994	98.5
514.21	105.5
514.426	100.5
514.642	95.5
514.858	99.5
515.074	88.5
515.29	92.5
515.506	97.5
515.721	101.5
515.937	100.5
516.153	85.5
516.369	90.5
516.585	90.5
516.801	97.5
517.016	102.5
517.232	93.5
517.448	112.5
517.664	94.5
517.879	90.5
518.095	94.5
518.311	109.5
518.527	116.5
518.742	107.5
518.958	197.5
519.173	217.5
519.389	121.5
519.605	113.5
519.82	95.5
520.036	91.5
520.251	93.5
520.467	103.5
520.682	88.5
520.898	106.5
521.113	97.5
521.329	105.5
521.544	90.5
521.76	97.5
521.975	98.5
522.19	82.5
522.406	90.5
522.621	88.5
522.836	93.5
523.052	100.5
523.267	86.5
523.482	105.5
523.698	84.5
523.913	98.5
524.128	93.5
524.343	85.5
524.559	87.5
524.774	102.5
524.989	101.5
525.204	90.5
525.419	98.5
525.634	110.5
525.849	120.5
526.064	138.5
526.28	276.5
526.495	392.5
526.71	442.5
526.925	279.5
527.14	356.5
527.355	304.5
527.57	125.5
527.785	116.5
527.999	113.5
528.214	91.5
528.429	84.5
528.644	90.5
528.859	100.5
529.074	85.5
529.289	94.5
529.503	82.5
529.718	124.5
529.933	99.5
530.148	102.5
530.363	100.5
530.577	87.5
530.792	88.5
531.007	113.5
531.221	99.5
531.436	90.5
531.651	101.5
531.865	109.5
532.08	103.5
532.295	105.5
532.509	113.5
532.724	100.5
532.938	106.5
533.153	108.5
533.367	102.5
533.582	96.5
533.796	106.5
534.011	95.5
534.225	93.5
534.44	96.5
534.654	101.5
534.868	108.5
535.083	206.5
535.297	171.5
