Data from 10100_1_HRD10591_00018.txt Node
Date: Mon Jan 19 14:00:33 EST 2026
User: Yrep
Spectrometer: HR+D1059
Trigger mode: 1
Integration Time (sec): 1.000000E-1
Scans to average: 1
Electric dark correction enabled: true
Nonlinearity correction enabled: false
Boxcar width: 0
XAxis mode: Wavelengths
Number of Pixels in Spectrum: 2048
>>>>>Begin Spectral Data<<<<<
223.165	-9.19
223.4	-9.19
223.635	-9.19
223.869	-26.19
224.104	-11.19
224.338	-1.19
224.573	-3.19
224.808	0.81
225.042	-8.19
225.277	-16.19
225.511	-20.19
225.746	2.81
225.98	-5.19
226.215	16.81
226.449	13.81
226.683	12.81
226.918	16.81
227.152	36.81
227.387	23.81
227.621	56.81
227.856	56.81
228.09	62.81
228.324	58.81
228.559	68.81
228.793	65.81
229.027	63.81
229.262	58.81
229.496	76.81
229.73	71.81
229.964	71.81
230.199	76.81
230.433	78.81
230.667	81.81
230.901	82.81
231.136	95.81
231.37	71.81
231.604	71.81
231.838	85.81
232.072	82.81
232.306	87.81
232.541	77.81
232.775	85.81
233.009	80.81
233.243	88.81
233.477	82.81
233.711	83.81
233.945	83.81
234.179	94.81
234.413	80.81
234.647	78.81
234.881	79.81
235.115	78.81
235.349	84.81
235.583	70.81
235.817	86.81
236.051	85.81
236.285	76.81
236.519	81.81
236.753	80.81
236.987	81.81
237.221	86.81
237.455	68.81
237.689	72.81
237.922	82.81
238.156	66.81
238.39	75.81
238.624	64.81
238.858	67.81
239.091	70.81
239.325	79.81
239.559	76.81
239.793	71.81
240.027	73.81
240.26	73.81
240.494	72.81
240.728	76.81
240.961	76.81
241.195	73.81
241.429	91.81
241.662	73.81
241.896	75.81
242.13	83.81
242.363	68.81
242.597	71.81
242.83	80.81
243.064	79.81
243.298	77.81
243.531	72.81
243.765	77.81
243.998	86.81
244.232	98.81
244.465	83.81
244.699	74.81
244.932	84.81
245.166	84.81
245.399	86.81
245.633	98.81
245.866	81.81
246.099	88.81
246.333	80.81
246.566	84.81
246.8	76.81
247.033	69.81
247.266	86.81
247.5	70.81
247.733	66.81
247.966	80.81
248.2	91.81
248.433	69.81
248.666	77.81
248.899	82.81
249.133	65.81
249.366	75.81
249.599	83.81
249.832	79.81
250.066	76.81
250.299	78.81
250.532	88.81
250.765	72.81
250.998	77.81
251.231	96.81
251.465	79.81
251.698	96.81
251.931	73.81
252.164	71.81
252.397	84.81
252.63	82.81
252.863	88.81
253.096	82.81
253.329	86.81
253.562	85.81
253.795	85.81
254.028	86.81
254.261	85.81
254.494	89.81
254.727	84.81
254.96	81.81
255.193	87.81
255.426	76.81
255.659	74.81
255.892	94.81
256.124	87.81
256.357	76.81
256.59	91.81
256.823	82.81
257.056	74.81
257.289	88.81
257.521	71.81
257.754	86.81
257.987	84.81
258.22	87.81
258.452	76.81
258.685	88.81
258.918	61.81
259.151	80.81
259.383	80.81
259.616	82.81
259.849	75.81
260.081	84.81
260.314	84.81
260.547	81.81
260.779	85.81
261.012	104.81
261.244	78.81
261.477	82.81
261.71	77.81
261.942	89.81
262.175	99.81
262.407	88.81
262.64	83.81
262.872	88.81
263.105	93.81
263.337	93.81
263.57	80.81
263.802	84.81
264.035	84.81
264.267	84.81
264.499	82.81
264.732	83.81
264.964	90.81
265.197	92.81
265.429	67.81
265.661	74.81
265.894	85.81
266.126	89.81
266.358	77.81
266.591	62.81
266.823	88.81
267.055	92.81
267.287	83.81
267.52	79.81
267.752	90.81
267.984	90.81
268.216	71.81
268.448	72.81
268.681	91.81
268.913	87.81
269.145	80.81
269.377	92.81
269.609	76.81
269.841	83.81
270.073	85.81
270.306	81.81
270.538	79.81
270.77	94.81
271.002	83.81
271.234	86.81
271.466	84.81
271.698	91.81
271.93	79.81
272.162	88.81
272.394	100.81
272.626	81.81
272.858	91.81
273.09	91.81
273.322	93.81
273.553	74.81
273.785	75.81
274.017	76.81
274.249	91.81
274.481	88.81
274.713	89.81
274.945	73.81
275.176	67.81
275.408	85.81
275.64	86.81
275.872	73.81
276.104	78.81
276.335	86.81
276.567	87.81
276.799	95.81
277.031	108.81
277.262	85.81
277.494	93.81
277.726	81.81
277.957	64.81
278.189	86.81
278.421	88.81
278.652	80.81
278.884	90.81
279.115	79.81
279.347	86.81
279.579	95.81
279.81	88.81
280.042	89.81
280.273	97.81
280.505	91.81
280.736	98.81
280.968	84.81
281.199	91.81
281.431	87.81
281.662	93.81
281.894	78.81
282.125	87.81
282.356	81.81
282.588	75.81
282.819	82.81
283.051	72.81
283.282	76.81
283.513	95.81
283.745	86.81
283.976	96.81
284.207	76.81
284.439	90.81
284.67	83.81
284.901	78.81
285.132	87.81
285.364	89.81
285.595	96.81
285.826	86.81
286.057	99.81
286.288	81.81
286.52	104.81
286.751	94.81
286.982	84.81
287.213	91.81
287.444	89.81
287.675	90.81
287.906	83.81
288.138	87.81
288.369	95.81
288.6	99.81
288.831	84.81
289.062	90.81
289.293	79.81
289.524	90.81
289.755	98.81
289.986	92.81
290.217	83.81
290.448	81.81
290.679	84.81
290.91	91.81
291.141	84.81
291.371	87.81
291.602	70.81
291.833	69.81
292.064	85.81
292.295	76.81
292.526	82.81
292.757	89.81
292.987	96.81
293.218	84.81
293.449	69.81
293.68	90.81
293.91	96.81
294.141	89.81
294.372	88.81
294.603	90.81
294.833	81.81
295.064	95.81
295.295	90.81
295.525	79.81
295.756	86.81
295.987	94.81
296.217	80.81
296.448	83.81
296.679	97.81
296.909	87.81
297.14	75.81
297.37	82.81
297.601	98.81
297.831	79.81
298.062	96.81
298.292	94.81
298.523	83.81
298.753	87.81
298.984	84.81
299.214	88.81
299.445	86.81
299.675	104.81
299.905	89.81
300.136	72.81
300.366	82.81
300.597	88.81
300.827	84.81
301.057	94.81
301.288	66.81
301.518	90.81
301.748	93.81
301.979	87.81
302.209	77.81
302.439	85.81
302.669	85.81
302.9	84.81
303.13	96.81
303.36	77.81
303.59	89.81
303.82	88.81
304.051	77.81
304.281	82.81
304.511	104.81
304.741	102.81
304.971	87.81
305.201	90.81
305.431	67.81
305.661	87.81
305.891	90.81
306.121	90.81
306.352	76.81
306.582	80.81
306.812	75.81
307.042	93.81
307.272	87.81
307.502	89.81
307.731	100.81
307.961	98.81
308.191	74.81
308.421	98.81
308.651	96.81
308.881	70.81
309.111	92.81
309.341	83.81
309.571	79.81
309.8	88.81
310.03	87.81
310.26	91.81
310.49	88.81
310.72	95.81
310.949	96.81
311.179	89.81
311.409	68.81
311.639	81.81
311.868	84.81
312.098	99.81
312.328	88.81
312.557	92.81
312.787	85.81
313.017	82.81
313.246	75.81
313.476	89.81
313.706	74.81
313.935	92.81
314.165	87.81
314.394	90.81
314.624	69.81
314.853	90.81
315.083	83.81
315.312	86.81
315.542	91.81
315.771	86.81
316.001	87.81
316.23	94.81
316.46	96.81
316.689	90.81
316.919	88.81
317.148	90.81
317.377	92.81
317.607	99.81
317.836	90.81
318.065	78.81
318.295	82.81
318.524	95.81
318.753	85.81
318.983	80.81
319.212	94.81
319.441	97.81
319.67	94.81
319.9	91.81
320.129	78.81
320.358	86.81
320.587	76.81
320.816	86.81
321.046	77.81
321.275	90.81
321.504	72.81
321.733	91.81
321.962	74.81
322.191	81.81
322.42	81.81
322.649	90.81
322.878	87.81
323.108	76.81
323.337	86.81
323.566	105.81
323.795	92.81
324.024	81.81
324.253	100.81
324.482	86.81
324.71	93.81
324.939	76.81
325.168	75.81
325.397	80.81
325.626	86.81
325.855	82.81
326.084	88.81
326.313	86.81
326.542	79.81
326.77	86.81
326.999	89.81
327.228	92.81
327.457	90.81
327.686	95.81
327.914	88.81
328.143	84.81
328.372	83.81
328.6	82.81
328.829	79.81
329.058	80.81
329.287	76.81
329.515	88.81
329.744	85.81
329.972	80.81
330.201	81.81
330.43	72.81
330.658	82.81
330.887	86.81
331.115	84.81
331.344	79.81
331.572	101.81
331.801	92.81
332.03	82.81
332.258	78.81
332.486	71.81
332.715	59.81
332.943	73.81
333.172	89.81
333.4	94.81
333.629	96.81
333.857	84.81
334.085	96.81
334.314	85.81
334.542	105.81
334.771	84.81
334.999	98.81
335.227	91.81
335.455	85.81
335.684	76.81
335.912	101.81
336.14	80.81
336.369	93.81
336.597	94.81
336.825	82.81
337.053	72.81
337.281	85.81
337.51	80.81
337.738	77.81
337.966	76.81
338.194	84.81
338.422	86.81
338.65	92.81
338.878	76.81
339.106	95.81
339.334	100.81
339.562	86.81
339.79	103.81
340.018	86.81
340.246	84.81
340.474	96.81
340.702	79.81
340.93	74.81
341.158	84.81
341.386	87.81
341.614	85.81
341.842	63.81
342.07	88.81
342.298	87.81
342.526	72.81
342.754	90.81
342.981	93.81
343.209	99.81
343.437	96.81
343.665	82.81
343.893	77.81
344.12	100.81
344.348	78.81
344.576	80.81
344.804	90.81
345.031	69.81
345.259	74.81
345.487	87.81
345.714	84.81
345.942	91.81
346.17	81.81
346.397	88.81
346.625	88.81
346.853	90.81
347.08	99.81
347.308	92.81
347.535	88.81
347.763	92.81
347.99	96.81
348.218	72.81
348.445	88.81
348.673	76.81
348.9	102.81
349.128	90.81
349.355	90.81
349.583	94.81
349.81	89.81
350.037	89.81
350.265	95.81
350.492	82.81
350.72	88.81
350.947	86.81
351.174	104.81
351.402	86.81
351.629	97.81
351.856	91.81
352.083	77.81
352.311	80.81
352.538	83.81
352.765	88.81
352.992	89.81
353.22	75.81
353.447	82.81
353.674	81.81
353.901	91.81
354.128	90.81
354.355	88.81
354.583	96.81
354.81	84.81
355.037	86.81
355.264	80.81
355.491	80.81
355.718	79.81
355.945	81.81
356.172	89.81
356.399	86.81
356.626	89.81
356.853	94.81
357.08	88.81
357.307	87.81
357.534	96.81
357.761	92.81
357.988	88.81
358.215	96.81
358.441	88.81
358.668	86.81
358.895	75.81
359.122	87.81
359.349	91.81
359.576	85.81
359.802	88.81
360.029	72.81
360.256	88.81
360.483	88.81
360.709	100.81
360.936	103.81
361.163	73.81
361.39	80.81
361.616	88.81
361.843	92.81
362.07	101.81
362.296	103.81
362.523	82.81
362.749	95.81
362.976	111.81
363.203	108.81
363.429	84.81
363.656	90.81
363.882	101.81
364.109	102.81
364.335	118.81
364.562	118.81
364.788	103.81
365.015	100.81
365.241	100.81
365.468	100.81
365.694	81.81
365.92	95.81
366.147	91.81
366.373	98.81
366.599	73.81
366.826	102.81
367.052	88.81
367.278	98.81
367.505	94.81
367.731	96.81
367.957	87.81
368.184	99.81
368.41	72.81
368.636	80.81
368.862	94.81
369.089	79.81
369.315	84.81
369.541	91.81
369.767	94.81
369.993	80.81
370.219	99.81
370.445	94.81
370.672	94.81
370.898	101.81
371.124	99.81
371.35	80.81
371.576	90.81
371.802	92.81
372.028	79.81
372.254	88.81
372.48	84.81
372.706	86.81
372.932	81.81
373.158	94.81
373.384	98.81
373.61	95.81
373.835	118.81
374.061	97.81
374.287	84.81
374.513	76.81
374.739	82.81
374.965	108.81
375.191	116.81
375.416	87.81
375.642	101.81
375.868	86.81
376.094	85.81
376.319	84.81
376.545	79.81
376.771	96.81
376.997	95.81
377.222	93.81
377.448	101.81
377.674	101.81
377.899	71.81
378.125	90.81
378.35	100.81
378.576	84.81
378.802	67.81
379.027	91.81
379.253	89.81
379.478	102.81
379.704	95.81
379.929	102.81
380.155	82.81
380.38	94.81
380.606	76.81
380.831	86.81
381.057	96.81
381.282	85.81
381.507	95.81
381.733	110.81
381.958	94.81
382.184	94.81
382.409	85.81
382.634	93.81
382.86	82.81
383.085	91.81
383.31	94.81
383.535	101.81
383.761	87.81
383.986	99.81
384.211	87.81
384.436	89.81
384.662	87.81
384.887	86.81
385.112	81.81
385.337	82.81
385.562	82.81
385.787	98.81
386.013	92.81
386.238	99.81
386.463	94.81
386.688	100.81
386.913	88.81
387.138	83.81
387.363	75.81
387.588	107.81
387.813	93.81
388.038	101.81
388.263	98.81
388.488	86.81
388.713	100.81
388.938	98.81
389.163	74.81
389.387	94.81
389.612	88.81
389.837	83.81
390.062	99.81
390.287	75.81
390.512	91.81
390.736	81.81
390.961	81.81
391.186	82.81
391.411	90.81
391.636	80.81
391.86	96.81
392.085	94.81
392.31	82.81
392.534	92.81
392.759	107.81
392.984	137.81
393.208	158.81
393.433	242.81
393.658	174.81
393.882	111.81
394.107	112.81
394.331	102.81
394.556	106.81
394.78	83.81
395.005	78.81
395.229	84.81
395.454	110.81
395.678	101.81
395.903	99.81
396.127	109.81
396.352	120.81
396.576	111.81
396.801	159.81
397.025	198.81
397.249	126.81
397.474	118.81
397.698	105.81
397.922	95.81
398.147	93.81
398.371	84.81
398.595	88.81
398.82	74.81
399.044	74.81
399.268	82.81
399.492	85.81
399.717	82.81
399.941	86.81
400.165	90.81
400.389	88.81
400.613	95.81
400.837	78.81
401.062	82.81
401.286	97.81
401.51	92.81
401.734	83.81
401.958	86.81
402.182	82.81
402.406	83.81
402.63	91.81
402.854	79.81
403.078	82.81
403.302	86.81
403.526	102.81
403.75	85.81
403.974	92.81
404.198	99.81
404.422	99.81
404.645	90.81
404.869	102.81
405.093	92.81
405.317	87.81
405.541	94.81
405.765	100.81
405.988	76.81
406.212	96.81
406.436	85.81
406.66	92.81
406.883	75.81
407.107	79.81
407.331	78.81
407.555	92.81
407.778	100.81
408.002	99.81
408.226	92.81
408.449	91.81
408.673	82.81
408.896	88.81
409.12	87.81
409.344	89.81
409.567	92.81
409.791	115.81
410.014	114.81
410.238	103.81
410.461	86.81
410.685	92.81
410.908	80.81
411.132	90.81
411.355	69.81
411.578	68.81
411.802	96.81
412.025	86.81
412.249	68.81
412.472	84.81
412.695	95.81
412.919	87.81
413.142	86.81
413.365	88.81
413.589	92.81
413.812	99.81
414.035	105.81
414.258	97.81
414.482	93.81
414.705	96.81
414.928	86.81
415.151	78.81
415.374	77.81
415.597	84.81
415.821	99.81
416.044	96.81
416.267	79.81
416.49	97.81
416.713	93.81
416.936	80.81
417.159	91.81
417.382	86.81
417.605	75.81
417.828	82.81
418.051	83.81
418.274	86.81
418.497	96.81
418.72	95.81
418.943	86.81
419.166	92.81
419.389	91.81
419.611	98.81
419.834	85.81
420.057	88.81
420.28	89.81
420.503	86.81
420.726	96.81
420.948	80.81
421.171	96.81
421.394	101.81
421.617	110.81
421.839	112.81
422.062	127.81
422.285	155.81
422.507	219.81
422.73	318.81
422.953	276.81
423.175	198.81
423.398	134.81
423.621	114.81
423.843	83.81
424.066	85.81
424.288	105.81
424.511	107.81
424.733	104.81
424.956	102.81
425.178	105.81
425.401	94.81
425.623	89.81
425.846	93.81
426.068	87.81
426.291	75.81
426.513	92.81
426.735	86.81
426.958	87.81
427.18	94.81
427.402	92.81
427.625	74.81
427.847	90.81
428.069	98.81
428.292	109.81
428.514	130.81
428.736	108.81
428.958	115.81
429.181	110.81
429.403	93.81
429.625	96.81
429.847	104.81
430.069	137.81
430.292	140.81
430.514	146.81
430.736	118.81
430.958	130.81
431.18	108.81
431.402	107.81
431.624	104.81
431.846	96.81
432.068	119.81
432.29	104.81
432.512	90.81
432.734	95.81
432.956	94.81
433.178	86.81
433.4	83.81
433.622	91.81
433.844	91.81
434.066	87.81
434.287	91.81
434.509	83.81
434.731	96.81
434.953	90.81
435.175	96.81
435.397	99.81
435.618	102.81
435.84	100.81
436.062	77.81
436.284	76.81
436.505	87.81
436.727	86.81
436.949	98.81
437.17	74.81
437.392	80.81
437.614	71.81
437.835	86.81
438.057	86.81
438.278	83.81
438.5	92.81
438.721	87.81
438.943	82.81
439.165	91.81
439.386	94.81
439.608	100.81
439.829	92.81
440.05	98.81
440.272	97.81
440.493	91.81
440.715	90.81
440.936	71.81
441.158	99.81
441.379	82.81
441.6	84.81
441.822	90.81
442.043	96.81
442.264	88.81
442.486	117.81
442.707	149.81
442.928	116.81
443.149	90.81
443.371	133.81
443.592	202.81
443.813	187.81
444.034	106.81
444.255	102.81
444.476	95.81
444.698	89.81
444.919	100.81
445.14	170.81
445.361	175.81
445.582	247.81
445.803	190.81
446.024	114.81
446.245	101.81
446.466	101.81
446.687	95.81
446.908	83.81
447.129	98.81
447.35	84.81
447.571	93.81
447.792	87.81
448.013	83.81
448.234	90.81
448.455	82.81
448.675	80.81
448.896	90.81
449.117	83.81
449.338	80.81
449.559	91.81
449.779	96.81
450	80.81
450.221	81.81
450.442	82.81
450.662	79.81
450.883	95.81
451.104	103.81
451.324	92.81
451.545	97.81
451.766	80.81
451.986	89.81
452.207	85.81
452.428	96.81
452.648	89.81
452.869	118.81
453.089	103.81
453.31	87.81
453.53	94.81
453.751	84.81
453.971	77.81
454.192	90.81
454.412	85.81
454.633	88.81
454.853	87.81
455.073	88.81
455.294	98.81
455.514	89.81
455.734	90.81
455.955	87.81
456.175	88.81
456.395	84.81
456.616	111.81
456.836	85.81
457.056	78.81
457.276	82.81
457.497	92.81
457.717	99.81
457.937	110.81
458.157	112.81
458.377	128.81
458.598	121.81
458.818	135.81
459.038	90.81
459.258	82.81
459.478	92.81
459.698	69.81
459.918	87.81
460.138	83.81
460.358	81.81
460.578	99.81
460.798	120.81
461.018	112.81
461.238	94.81
461.458	96.81
461.678	86.81
461.898	81.81
462.118	78.81
462.338	91.81
462.558	96.81
462.777	84.81
462.997	98.81
463.217	91.81
463.437	96.81
463.657	84.81
463.876	82.81
464.096	75.81
464.316	84.81
464.536	97.81
464.755	94.81
464.975	75.81
465.195	86.81
465.414	104.81
465.634	84.81
465.854	83.81
466.073	93.81
466.293	80.81
466.512	79.81
466.732	84.81
466.951	88.81
467.171	88.81
467.391	92.81
467.61	82.81
467.829	82.81
468.049	90.81
468.268	104.81
468.488	98.81
468.707	101.81
468.927	94.81
469.146	88.81
469.365	115.81
469.585	86.81
469.804	89.81
470.023	86.81
470.243	88.81
470.462	89.81
470.681	89.81
470.901	99.81
471.12	91.81
471.339	100.81
471.558	75.81
471.777	87.81
471.997	88.81
472.216	93.81
472.435	78.81
472.654	91.81
472.873	91.81
473.092	81.81
473.311	87.81
473.53	86.81
473.749	92.81
473.968	89.81
474.187	76.81
474.406	87.81
474.625	89.81
474.844	90.81
475.063	97.81
475.282	94.81
475.501	76.81
475.72	82.81
475.939	85.81
476.158	85.81
476.377	91.81
476.596	84.81
476.814	77.81
477.033	92.81
477.252	97.81
477.471	88.81
477.69	92.81
477.908	111.81
478.127	88.81
478.346	96.81
478.564	102.81
478.783	95.81
479.002	91.81
479.22	96.81
479.439	88.81
479.658	78.81
479.876	78.81
480.095	96.81
480.313	105.81
480.532	88.81
480.751	76.81
480.969	96.81
481.188	82.81
481.406	103.81
481.624	88.81
481.843	82.81
482.061	88.81
482.28	100.81
482.498	92.81
482.717	89.81
482.935	98.81
483.153	83.81
483.372	104.81
483.59	110.81
483.808	94.81
484.027	106.81
484.245	95.81
484.463	105.81
484.681	96.81
484.9	87.81
485.118	98.81
485.336	102.81
485.554	88.81
485.772	89.81
485.99	93.81
486.209	94.81
486.427	94.81
486.645	105.81
486.863	92.81
487.081	97.81
487.299	84.81
487.517	90.81
487.735	122.81
487.953	145.81
488.171	137.81
488.389	90.81
488.607	95.81
488.825	77.81
489.043	87.81
489.261	103.81
489.479	107.81
489.696	93.81
489.914	89.81
490.132	105.81
490.35	95.81
490.568	75.81
490.786	98.81
491.003	79.81
491.221	82.81
491.439	73.81
491.657	91.81
491.874	88.81
492.092	96.81
492.31	99.81
492.527	86.81
492.745	87.81
492.963	85.81
493.18	94.81
493.398	97.81
493.615	103.81
493.833	93.81
494.05	89.81
494.268	83.81
494.485	90.81
494.703	96.81
494.92	95.81
495.138	99.81
495.355	80.81
495.573	82.81
495.79	103.81
496.008	92.81
496.225	92.81
496.442	87.81
496.66	82.81
496.877	94.81
497.094	89.81
497.312	94.81
497.529	101.81
497.746	94.81
497.963	92.81
498.181	95.81
498.398	106.81
498.615	100.81
498.832	95.81
499.049	99.81
499.267	99.81
499.484	74.81
499.701	96.81
499.918	100.81
500.135	79.81
500.352	99.81
500.569	102.81
500.786	107.81
501.003	91.81
501.22	105.81
501.437	105.81
501.654	93.81
501.871	92.81
502.088	87.81
502.305	107.81
502.522	95.81
502.739	93.81
502.956	97.81
503.172	103.81
503.389	106.81
503.606	90.81
503.823	102.81
504.04	103.81
504.256	124.81
504.473	144.81
504.69	103.81
504.907	101.81
505.123	95.81
505.34	84.81
505.557	85.81
505.773	94.81
505.99	83.81
506.207	87.81
506.423	99.81
506.64	90.81
506.856	96.81
507.073	88.81
507.289	90.81
507.506	93.81
507.722	94.81
507.939	86.81
508.155	91.81
508.372	96.81
508.588	98.81
508.805	89.81
509.021	94.81
509.238	91.81
509.454	87.81
509.67	89.81
509.887	89.81
510.103	84.81
510.319	93.81
510.536	86.81
510.752	108.81
510.968	90.81
511.184	78.81
511.401	84.81
511.617	87.81
511.833	86.81
512.049	90.81
512.265	92.81
512.481	102.81
512.698	103.81
512.914	86.81
513.13	71.81
513.346	98.81
513.562	99.81
513.778	83.81
513.994	92.81
514.21	88.81
514.426	89.81
514.642	96.81
514.858	95.81
515.074	98.81
515.29	102.81
515.506	97.81
515.721	100.81
515.937	90.81
516.153	98.81
516.369	98.81
516.585	87.81
516.801	84.81
517.016	97.81
517.232	94.81
517.448	101.81
517.664	76.81
