Data from 10100_1_HRD10591_00049.txt Node
Date: Mon Jan 19 14:00:49 EST 2026
User: Yrep
Spectrometer: HR+D1059
Trigger mode: 1
Integration Time (sec): 1.000000E-1
Scans to average: 1
Electric dark correction enabled: true
Nonlinearity correction enabled: false
Boxcar width: 0
XAxis mode: Wavelengths
Number of Pixels in Spectrum: 2048
>>>>>Begin Spectral Data<<<<<
223.165	-30.62
223.4	-30.62
223.635	-30.62
223.869	-27.62
224.104	-28.62
224.338	-13.62
224.573	-9.62
224.808	-16.62
225.042	4.38
225.277	-9.62
225.511	-17.62
225.746	9.38
225.98	13.38
226.215	26.38
226.449	17.38
226.683	11.38
226.918	34.38
227.152	37.38
227.387	30.38
227.621	55.38
227.856	40.38
228.09	49.38
228.324	46.38
228.559	75.38
228.793	57.38
229.027	71.38
229.262	58.38
229.496	76.38
229.73	53.38
229.964	82.38
230.199	69.38
230.433	89.38
230.667	83.38
230.901	92.38
231.136	77.38
231.37	74.38
231.604	81.38
231.838	73.38
232.072	68.38
232.306	81.38
232.541	79.38
232.775	80.38
233.009	80.38
233.243	93.38
233.477	74.38
233.711	88.38
233.945	69.38
234.179	73.38
234.413	89.38
234.647	72.38
234.881	69.38
235.115	76.38
235.349	90.38
235.583	75.38
235.817	84.38
236.051	65.38
236.285	84.38
236.519	77.38
236.753	88.38
236.987	64.38
237.221	84.38
237.455	80.38
237.689	86.38
237.922	82.38
238.156	74.38
238.39	63.38
238.624	87.38
238.858	68.38
239.091	75.38
239.325	92.38
239.559	80.38
239.793	77.38
240.027	77.38
240.26	82.38
240.494	76.38
240.728	96.38
240.961	79.38
241.195	77.38
241.429	74.38
241.662	65.38
241.896	80.38
242.13	72.38
242.363	82.38
242.597	68.38
242.83	76.38
243.064	86.38
243.298	86.38
243.531	67.38
243.765	75.38
243.998	71.38
244.232	88.38
244.465	71.38
244.699	92.38
244.932	77.38
245.166	63.38
245.399	75.38
245.633	81.38
245.866	75.38
246.099	71.38
246.333	66.38
246.566	68.38
246.8	71.38
247.033	69.38
247.266	69.38
247.5	80.38
247.733	81.38
247.966	88.38
248.2	88.38
248.433	98.38
248.666	89.38
248.899	82.38
249.133	79.38
249.366	88.38
249.599	96.38
249.832	90.38
250.066	92.38
250.299	92.38
250.532	90.38
250.765	74.38
250.998	84.38
251.231	69.38
251.465	82.38
251.698	96.38
251.931	82.38
252.164	59.38
252.397	86.38
252.63	86.38
252.863	82.38
253.096	71.38
253.329	82.38
253.562	82.38
253.795	74.38
254.028	72.38
254.261	89.38
254.494	84.38
254.727	84.38
254.96	88.38
255.193	87.38
255.426	73.38
255.659	80.38
255.892	87.38
256.124	70.38
256.357	74.38
256.59	62.38
256.823	82.38
257.056	87.38
257.289	87.38
257.521	88.38
257.754	76.38
257.987	82.38
258.22	82.38
258.452	78.38
258.685	85.38
258.918	87.38
259.151	96.38
259.383	86.38
259.616	83.38
259.849	87.38
260.081	87.38
260.314	101.38
260.547	90.38
260.779	82.38
261.012	82.38
261.244	76.38
261.477	88.38
261.71	86.38
261.942	87.38
262.175	76.38
262.407	88.38
262.64	91.38
262.872	90.38
263.105	82.38
263.337	86.38
263.57	81.38
263.802	89.38
264.035	83.38
264.267	88.38
264.499	79.38
264.732	73.38
264.964	75.38
265.197	85.38
265.429	74.38
265.661	88.38
265.894	86.38
266.126	73.38
266.358	100.38
266.591	96.38
266.823	85.38
267.055	90.38
267.287	78.38
267.52	82.38
267.752	81.38
267.984	76.38
268.216	82.38
268.448	80.38
268.681	82.38
268.913	80.38
269.145	77.38
269.377	85.38
269.609	69.38
269.841	83.38
270.073	78.38
270.306	79.38
270.538	75.38
270.77	81.38
271.002	83.38
271.234	98.38
271.466	90.38
271.698	80.38
271.93	96.38
272.162	84.38
272.394	83.38
272.626	99.38
272.858	93.38
273.09	62.38
273.322	89.38
273.553	90.38
273.785	89.38
274.017	89.38
274.249	89.38
274.481	69.38
274.713	88.38
274.945	90.38
275.176	80.38
275.408	87.38
275.64	88.38
275.872	92.38
276.104	78.38
276.335	101.38
276.567	89.38
276.799	82.38
277.031	76.38
277.262	79.38
277.494	90.38
277.726	92.38
277.957	100.38
278.189	89.38
278.421	88.38
278.652	69.38
278.884	94.38
279.115	100.38
279.347	83.38
279.579	91.38
279.81	87.38
280.042	105.38
280.273	92.38
280.505	80.38
280.736	77.38
280.968	86.38
281.199	85.38
281.431	98.38
281.662	83.38
281.894	92.38
282.125	102.38
282.356	88.38
282.588	112.38
282.819	81.38
283.051	75.38
283.282	86.38
283.513	89.38
283.745	92.38
283.976	91.38
284.207	85.38
284.439	88.38
284.67	97.38
284.901	82.38
285.132	93.38
285.364	105.38
285.595	92.38
285.826	87.38
286.057	87.38
286.288	81.38
286.52	81.38
286.751	81.38
286.982	85.38
287.213	92.38
287.444	86.38
287.675	81.38
287.906	84.38
288.138	112.38
288.369	99.38
288.6	95.38
288.831	83.38
289.062	91.38
289.293	96.38
289.524	74.38
289.755	87.38
289.986	97.38
290.217	99.38
290.448	77.38
290.679	84.38
290.91	104.38
291.141	86.38
291.371	88.38
291.602	76.38
291.833	76.38
292.064	98.38
292.295	76.38
292.526	91.38
292.757	86.38
292.987	93.38
293.218	87.38
293.449	87.38
293.68	96.38
293.91	80.38
294.141	98.38
294.372	102.38
294.603	91.38
294.833	80.38
295.064	96.38
295.295	85.38
295.525	83.38
295.756	84.38
295.987	81.38
296.217	90.38
296.448	82.38
296.679	83.38
296.909	90.38
297.14	92.38
297.37	87.38
297.601	94.38
297.831	84.38
298.062	88.38
298.292	87.38
298.523	94.38
298.753	98.38
298.984	91.38
299.214	86.38
299.445	82.38
299.675	89.38
299.905	89.38
300.136	94.38
300.366	90.38
300.597	98.38
300.827	94.38
301.057	89.38
301.288	80.38
301.518	82.38
301.748	84.38
301.979	116.38
302.209	83.38
302.439	95.38
302.669	97.38
302.9	90.38
303.13	82.38
303.36	86.38
303.59	84.38
303.82	83.38
304.051	95.38
304.281	99.38
304.511	84.38
304.741	75.38
304.971	92.38
305.201	78.38
305.431	98.38
305.661	94.38
305.891	98.38
306.121	94.38
306.352	92.38
306.582	96.38
306.812	96.38
307.042	82.38
307.272	95.38
307.502	107.38
307.731	82.38
307.961	85.38
308.191	90.38
308.421	99.38
308.651	96.38
308.881	83.38
309.111	94.38
309.341	105.38
309.571	121.38
309.8	84.38
310.03	81.38
310.26	82.38
310.49	76.38
310.72	80.38
310.949	82.38
311.179	84.38
311.409	95.38
311.639	100.38
311.868	76.38
312.098	91.38
312.328	96.38
312.557	84.38
312.787	84.38
313.017	104.38
313.246	85.38
313.476	86.38
313.706	87.38
313.935	95.38
314.165	90.38
314.394	76.38
314.624	67.38
314.853	100.38
315.083	85.38
315.312	82.38
315.542	104.38
315.771	94.38
316.001	131.38
316.23	120.38
316.46	89.38
316.689	80.38
316.919	97.38
317.148	92.38
317.377	102.38
317.607	103.38
317.836	139.38
318.065	151.38
318.295	128.38
318.524	92.38
318.753	93.38
318.983	74.38
319.212	99.38
319.441	89.38
319.67	81.38
319.9	76.38
320.129	90.38
320.358	91.38
320.587	92.38
320.816	98.38
321.046	86.38
321.275	102.38
321.504	96.38
321.733	91.38
321.962	101.38
322.191	94.38
322.42	87.38
322.649	98.38
322.878	97.38
323.108	85.38
323.337	89.38
323.566	88.38
323.795	85.38
324.024	67.38
324.253	81.38
324.482	90.38
324.71	88.38
324.939	91.38
325.168	92.38
325.397	102.38
325.626	89.38
325.855	82.38
326.084	83.38
326.313	91.38
326.542	91.38
326.77	81.38
326.999	88.38
327.228	82.38
327.457	82.38
327.686	98.38
327.914	102.38
328.143	94.38
328.372	89.38
328.6	88.38
328.829	80.38
329.058	90.38
329.287	100.38
329.515	85.38
329.744	91.38
329.972	95.38
330.201	90.38
330.43	104.38
330.658	86.38
330.887	93.38
331.115	95.38
331.344	87.38
331.572	94.38
331.801	86.38
332.03	106.38
332.258	100.38
332.486	89.38
332.715	88.38
332.943	82.38
333.172	75.38
333.4	74.38
333.629	80.38
333.857	91.38
334.085	100.38
334.314	102.38
334.542	96.38
334.771	96.38
334.999	97.38
335.227	97.38
335.455	105.38
335.684	104.38
335.912	101.38
336.14	117.38
336.369	109.38
336.597	93.38
336.825	98.38
337.053	90.38
337.281	97.38
337.51	96.38
337.738	94.38
337.966	88.38
338.194	95.38
338.422	101.38
338.65	98.38
338.878	84.38
339.106	94.38
339.334	90.38
339.562	86.38
339.79	79.38
340.018	80.38
340.246	98.38
340.474	81.38
340.702	85.38
340.93	95.38
341.158	84.38
341.386	90.38
341.614	86.38
341.842	88.38
342.07	96.38
342.298	91.38
342.526	79.38
342.754	103.38
342.981	101.38
343.209	88.38
343.437	92.38
343.665	103.38
343.893	99.38
344.12	100.38
344.348	101.38
344.576	96.38
344.804	90.38
345.031	102.38
345.259	76.38
345.487	81.38
345.714	77.38
345.942	84.38
346.17	93.38
346.397	97.38
346.625	87.38
346.853	97.38
347.08	83.38
347.308	102.38
347.535	96.38
347.763	91.38
347.99	90.38
348.218	103.38
348.445	98.38
348.673	89.38
348.9	104.38
349.128	95.38
349.355	100.38
349.583	71.38
349.81	79.38
350.037	86.38
350.265	99.38
350.492	80.38
350.72	96.38
350.947	108.38
351.174	82.38
351.402	87.38
351.629	91.38
351.856	91.38
352.083	90.38
352.311	97.38
352.538	106.38
352.765	92.38
352.992	106.38
353.22	91.38
353.447	83.38
353.674	102.38
353.901	70.38
354.128	115.38
354.355	96.38
354.583	88.38
354.81	79.38
355.037	104.38
355.264	96.38
355.491	87.38
355.718	92.38
355.945	103.38
356.172	86.38
356.399	92.38
356.626	104.38
356.853	83.38
357.08	107.38
357.307	117.38
357.534	92.38
357.761	102.38
357.988	111.38
358.215	112.38
358.441	95.38
358.668	90.38
358.895	103.38
359.122	87.38
359.349	83.38
359.576	102.38
359.802	84.38
360.029	97.38
360.256	94.38
360.483	90.38
360.709	89.38
360.936	106.38
361.163	89.38
361.39	90.38
361.616	99.38
361.843	107.38
362.07	114.38
362.296	94.38
362.523	119.38
362.749	116.38
362.976	125.38
363.203	160.38
363.429	114.38
363.656	92.38
363.882	111.38
364.109	100.38
364.335	156.38
364.562	156.38
364.788	125.38
365.015	102.38
365.241	98.38
365.468	101.38
365.694	88.38
365.92	99.38
366.147	94.38
366.373	92.38
366.599	88.38
366.826	98.38
367.052	83.38
367.278	85.38
367.505	95.38
367.731	105.38
367.957	101.38
368.184	95.38
368.41	99.38
368.636	93.38
368.862	90.38
369.089	104.38
369.315	87.38
369.541	100.38
369.767	86.38
369.993	96.38
370.219	88.38
370.445	112.38
370.672	132.38
370.898	138.38
371.124	107.38
371.35	101.38
371.576	90.38
371.802	99.38
372.028	118.38
372.254	123.38
372.48	107.38
372.706	84.38
372.932	97.38
373.158	92.38
373.384	127.38
373.61	148.38
373.835	176.38
374.061	119.38
374.287	108.38
374.513	112.38
374.739	114.38
374.965	114.38
375.191	119.38
375.416	97.38
375.642	118.38
375.868	100.38
376.094	114.38
376.319	99.38
376.545	104.38
376.771	98.38
376.997	94.38
377.222	88.38
377.448	94.38
377.674	97.38
377.899	79.38
378.125	97.38
378.35	89.38
378.576	80.38
378.802	90.38
379.027	92.38
379.253	97.38
379.478	96.38
379.704	99.38
379.929	99.38
380.155	97.38
380.38	101.38
380.606	93.38
380.831	112.38
381.057	100.38
381.282	114.38
381.507	112.38
381.733	116.38
381.958	121.38
382.184	114.38
382.409	116.38
382.634	121.38
382.86	121.38
383.085	130.38
383.31	128.38
383.535	119.38
383.761	115.38
383.986	126.38
384.211	121.38
384.436	107.38
384.662	107.38
384.887	110.38
385.112	96.38
385.337	108.38
385.562	113.38
385.787	119.38
386.013	128.38
386.238	110.38
386.463	118.38
386.688	127.38
386.913	111.38
387.138	114.38
387.363	102.38
387.588	101.38
387.813	125.38
388.038	133.38
388.263	120.38
388.488	123.38
388.713	112.38
388.938	83.38
389.163	80.38
389.387	92.38
389.612	106.38
389.837	94.38
390.062	98.38
390.287	100.38
390.512	99.38
390.736	106.38
390.961	91.38
391.186	88.38
391.411	96.38
391.636	95.38
391.86	91.38
392.085	103.38
392.31	110.38
392.534	132.38
392.759	167.38
392.984	292.38
393.208	570.38
393.433	953.38
393.658	715.38
393.882	251.38
394.107	138.38
394.331	142.38
394.556	154.38
394.78	120.38
395.005	128.38
395.229	103.38
395.454	117.38
395.678	126.38
395.903	152.38
396.127	189.38
396.352	243.38
396.576	343.38
396.801	620.38
397.025	708.38
397.249	338.38
397.474	186.38
397.698	123.38
397.922	114.38
398.147	104.38
398.371	108.38
398.595	105.38
398.82	91.38
399.044	97.38
399.268	97.38
399.492	91.38
399.717	91.38
399.941	98.38
400.165	94.38
400.389	94.38
400.613	98.38
400.837	84.38
401.062	98.38
401.286	94.38
401.51	98.38
401.734	99.38
401.958	75.38
402.182	83.38
402.406	89.38
402.63	83.38
402.854	105.38
403.078	94.38
403.302	112.38
403.526	98.38
403.75	87.38
403.974	110.38
404.198	95.38
404.422	106.38
404.645	118.38
404.869	98.38
405.093	104.38
405.317	81.38
405.541	86.38
405.765	95.38
405.988	92.38
406.212	89.38
406.436	116.38
406.66	104.38
406.883	99.38
407.107	91.38
407.331	114.38
407.555	117.38
407.778	160.38
408.002	170.38
408.226	106.38
408.449	90.38
408.673	100.38
408.896	93.38
409.12	99.38
409.344	104.38
409.567	125.38
409.791	104.38
410.014	126.38
410.238	113.38
410.461	89.38
410.685	94.38
410.908	101.38
411.132	97.38
411.355	100.38
411.578	98.38
411.802	110.38
412.025	98.38
412.249	97.38
412.472	75.38
412.695	107.38
412.919	86.38
413.142	116.38
413.365	108.38
413.589	98.38
413.812	90.38
414.035	89.38
414.258	98.38
414.482	98.38
414.705	94.38
414.928	97.38
415.151	96.38
415.374	96.38
415.597	90.38
415.821	92.38
416.044	90.38
416.267	104.38
416.49	94.38
416.713	87.38
416.936	92.38
417.159	77.38
417.382	91.38
417.605	96.38
417.828	91.38
418.051	82.38
418.274	97.38
418.497	94.38
418.72	100.38
418.943	94.38
419.166	85.38
419.389	94.38
419.611	87.38
419.834	95.38
420.057	100.38
420.28	84.38
420.503	99.38
420.726	107.38
420.948	94.38
421.171	110.38
421.394	135.38
421.617	172.38
421.839	187.38
422.062	187.38
422.285	253.38
422.507	483.38
422.73	739.38
422.953	667.38
423.175	303.38
423.398	178.38
423.621	133.38
423.843	126.38
424.066	119.38
424.288	114.38
424.511	105.38
424.733	101.38
424.956	88.38
425.178	100.38
425.401	81.38
425.623	103.38
425.846	99.38
426.068	95.38
426.291	81.38
426.513	84.38
426.735	95.38
426.958	93.38
427.18	102.38
427.402	95.38
427.625	94.38
427.847	100.38
428.069	136.38
428.292	180.38
428.514	178.38
428.736	148.38
428.958	169.38
429.181	178.38
429.403	106.38
429.625	106.38
429.847	166.38
430.069	227.38
430.292	281.38
430.514	275.38
430.736	207.38
430.958	202.38
431.18	131.38
431.402	97.38
431.624	103.38
431.846	163.38
432.068	194.38
432.29	107.38
432.512	112.38
432.734	100.38
432.956	97.38
433.178	92.38
433.4	90.38
433.622	92.38
433.844	95.38
434.066	105.38
434.287	98.38
434.509	92.38
434.731	98.38
434.953	108.38
435.175	98.38
435.397	103.38
435.618	102.38
435.84	120.38
436.062	92.38
436.284	97.38
436.505	80.38
436.727	97.38
436.949	94.38
437.17	99.38
437.392	79.38
437.614	86.38
437.835	73.38
438.057	83.38
438.278	99.38
438.5	123.38
438.721	107.38
438.943	94.38
439.165	103.38
439.386	98.38
439.608	82.38
439.829	72.38
440.05	92.38
440.272	87.38
440.493	102.38
440.715	93.38
440.936	104.38
441.158	89.38
441.379	97.38
441.6	110.38
441.822	107.38
442.043	82.38
442.264	116.38
442.486	178.38
442.707	261.38
442.928	180.38
443.149	142.38
443.371	209.38
443.592	409.38
443.813	330.38
444.034	142.38
444.255	107.38
444.476	94.38
444.698	110.38
444.919	116.38
445.14	207.38
445.361	292.38
445.582	474.38
445.803	403.38
446.024	138.38
446.245	98.38
446.466	96.38
446.687	98.38
446.908	103.38
447.129	91.38
447.35	86.38
447.571	105.38
447.792	84.38
448.013	84.38
448.234	99.38
448.455	89.38
448.675	94.38
448.896	87.38
449.117	90.38
449.338	94.38
449.559	87.38
449.779	92.38
450	85.38
450.221	89.38
450.442	90.38
450.662	63.38
450.883	90.38
451.104	100.38
451.324	79.38
451.545	96.38
451.766	99.38
451.986	91.38
452.207	93.38
452.428	94.38
452.648	99.38
452.869	126.38
453.089	106.38
453.31	91.38
453.53	105.38
453.751	99.38
453.971	84.38
454.192	93.38
454.412	82.38
454.633	101.38
454.853	92.38
455.073	97.38
455.294	88.38
455.514	102.38
455.734	121.38
455.955	95.38
456.175	96.38
456.395	109.38
456.616	94.38
456.836	91.38
457.056	104.38
457.276	86.38
457.497	106.38
457.717	100.38
457.937	127.38
458.157	161.38
458.377	165.38
458.598	155.38
458.818	163.38
459.038	107.38
459.258	90.38
459.478	96.38
459.698	89.38
459.918	91.38
460.138	98.38
460.358	97.38
460.578	102.38
460.798	155.38
461.018	152.38
461.238	91.38
461.458	91.38
461.678	90.38
461.898	82.38
462.118	91.38
462.338	95.38
462.558	94.38
462.777	87.38
462.997	76.38
463.217	90.38
463.437	94.38
463.657	88.38
463.876	90.38
464.096	69.38
464.316	87.38
464.536	74.38
464.755	82.38
464.975	98.38
465.195	95.38
465.414	82.38
465.634	86.38
465.854	97.38
466.073	95.38
466.293	84.38
466.512	86.38
466.732	82.38
466.951	91.38
467.171	94.38
467.391	84.38
467.61	87.38
467.829	98.38
468.049	74.38
468.268	94.38
468.488	112.38
468.707	112.38
468.927	91.38
469.146	88.38
469.365	98.38
469.585	90.38
469.804	96.38
470.023	96.38
470.243	92.38
470.462	88.38
470.681	108.38
470.901	99.38
471.12	95.38
471.339	102.38
471.558	96.38
471.777	92.38
471.997	90.38
472.216	92.38
472.435	100.38
472.654	100.38
472.873	103.38
473.092	99.38
473.311	99.38
473.53	82.38
473.749	94.38
473.968	94.38
474.187	81.38
474.406	84.38
474.625	98.38
474.844	84.38
475.063	78.38
475.282	95.38
475.501	97.38
475.72	89.38
475.939	99.38
476.158	105.38
476.377	94.38
476.596	82.38
476.814	94.38
477.033	86.38
477.252	87.38
477.471	91.38
477.69	101.38
477.908	91.38
478.127	107.38
478.346	91.38
478.564	96.38
478.783	91.38
479.002	107.38
479.22	96.38
479.439	102.38
479.658	94.38
479.876	96.38
480.095	94.38
480.313	79.38
480.532	87.38
480.751	99.38
480.969	91.38
481.188	86.38
481.406	104.38
481.624	101.38
481.843	95.38
482.061	97.38
482.28	96.38
482.498	98.38
482.717	96.38
482.935	99.38
483.153	99.38
483.372	111.38
483.59	110.38
483.808	101.38
484.027	93.38
484.245	89.38
484.463	110.38
484.681	105.38
484.9	107.38
485.118	89.38
485.336	88.38
485.554	84.38
485.772	86.38
485.99	90.38
486.209	104.38
486.427	94.38
486.645	78.38
486.863	104.38
487.081	105.38
487.299	102.38
487.517	114.38
487.735	148.38
487.953	258.38
488.171	205.38
488.389	105.38
488.607	103.38
488.825	96.38
489.043	110.38
489.261	88.38
489.479	110.38
489.696	116.38
489.914	85.38
490.132	86.38
490.35	111.38
490.568	96.38
490.786	82.38
491.003	95.38
491.221	96.38
491.439	102.38
491.657	82.38
491.874	92.38
492.092	107.38
492.31	98.38
492.527	98.38
492.745	91.38
492.963	98.38
493.18	118.38
493.398	112.38
493.615	113.38
493.833	97.38
494.05	96.38
494.268	100.38
494.485	96.38
494.703	90.38
494.92	101.38
495.138	106.38
495.355	94.38
495.573	88.38
495.79	85.38
496.008	111.38
496.225	94.38
496.442	100.38
496.66	88.38
496.877	105.38
497.094	89.38
497.312	96.38
497.529	90.38
497.746	101.38
497.963	104.38
498.181	101.38
498.398	120.38
498.615	105.38
498.832	114.38
499.049	114.38
499.267	122.38
499.484	103.38
499.701	92.38
499.918	103.38
500.135	97.38
500.352	97.38
500.569	111.38
500.786	102.38
501.003	104.38
501.22	103.38
501.437	107.38
501.654	113.38
501.871	90.38
502.088	88.38
502.305	105.38
502.522	95.38
502.739	115.38
502.956	96.38
503.172	94.38
503.389	90.38
503.606	97.38
503.823	103.38
504.04	135.38
504.256	187.38
504.473	181.38
504.69	101.38
504.907	102.38
505.123	93.38
505.34	98.38
505.557	106.38
505.773	93.38
505.99	95.38
506.207	90.38
506.423	102.38
506.64	88.38
506.856	95.38
507.073	92.38
507.289	100.38
507.506	96.38
507.722	82.38
507.939	102.38
508.155	112.38
508.372	100.38
508.588	87.38
508.805	98.38
509.021	86.38
509.238	98.38
509.454	82.38
509.67	96.38
509.887	102.38
510.103	98.38
510.319	99.38
510.536	103.38
510.752	106.38
510.968	114.38
511.184	100.38
511.401	96.38
511.617	102.38
511.833	90.38
512.049	90.38
512.265	103.38
512.481	100.38
512.698	95.38
512.914	103.38
513.13	89.38
513.346	98.38
513.562	110.38
513.778	95.38
513.994	82.38
514.21	87.38
514.426	83.38
514.642	99.38
