Data from 10100_1_HRD10591_00038.txt Node
Date: Mon Jan 19 14:00:43 EST 2026
User: Yrep
Spectrometer: HR+D1059
Trigger mode: 1
Integration Time (sec): 1.000000E-1
Scans to average: 1
Electric dark correction enabled: true
Nonlinearity correction enabled: false
Boxcar width: 0
XAxis mode: Wavelengths
Number of Pixels in Spectrum: 2048
>>>>>Begin Spectral Data<<<<<
223.165	-21.69
223.4	-21.69
223.635	-21.69
223.869	-19.69
224.104	-12.69
224.338	-8.69
224.573	-14.69
224.808	-2.69
225.042	-20.69
225.277	3.31
225.511	-1.69
225.746	3.31
225.98	1.31
226.215	13.31
226.449	2.31
226.683	20.31
226.918	23.31
227.152	35.31
227.387	46.31
227.621	48.31
227.856	34.31
228.09	36.31
228.324	56.31
228.559	57.31
228.793	67.31
229.027	63.31
229.262	82.31
229.496	73.31
229.73	70.31
229.964	68.31
230.199	66.31
230.433	68.31
230.667	83.31
230.901	86.31
231.136	94.31
231.37	84.31
231.604	88.31
231.838	76.31
232.072	85.31
232.306	81.31
232.541	85.31
232.775	95.31
233.009	87.31
233.243	70.31
233.477	85.31
233.711	72.31
233.945	97.31
234.179	79.31
234.413	89.31
234.647	75.31
234.881	71.31
235.115	94.31
235.349	71.31
235.583	91.31
235.817	79.31
236.051	83.31
236.285	76.31
236.519	77.31
236.753	76.31
236.987	78.31
237.221	78.31
237.455	76.31
237.689	79.31
237.922	85.31
238.156	75.31
238.39	86.31
238.624	81.31
238.858	71.31
239.091	81.31
239.325	68.31
239.559	77.31
239.793	81.31
240.027	92.31
240.26	68.31
240.494	71.31
240.728	71.31
240.961	88.31
241.195	79.31
241.429	70.31
241.662	83.31
241.896	70.31
242.13	76.31
242.363	72.31
242.597	78.31
242.83	83.31
243.064	73.31
243.298	75.31
243.531	88.31
243.765	73.31
243.998	84.31
244.232	81.31
244.465	82.31
244.699	59.31
244.932	68.31
245.166	72.31
245.399	91.31
245.633	94.31
245.866	81.31
246.099	74.31
246.333	76.31
246.566	87.31
246.8	69.31
247.033	82.31
247.266	75.31
247.5	74.31
247.733	80.31
247.966	73.31
248.2	94.31
248.433	69.31
248.666	76.31
248.899	92.31
249.133	85.31
249.366	95.31
249.599	84.31
249.832	71.31
250.066	81.31
250.299	84.31
250.532	83.31
250.765	85.31
250.998	76.31
251.231	87.31
251.465	87.31
251.698	82.31
251.931	85.31
252.164	83.31
252.397	78.31
252.63	91.31
252.863	72.31
253.096	84.31
253.329	75.31
253.562	92.31
253.795	74.31
254.028	64.31
254.261	101.31
254.494	76.31
254.727	90.31
254.96	71.31
255.193	79.31
255.426	87.31
255.659	91.31
255.892	74.31
256.124	77.31
256.357	93.31
256.59	84.31
256.823	81.31
257.056	91.31
257.289	89.31
257.521	90.31
257.754	72.31
257.987	104.31
258.22	86.31
258.452	88.31
258.685	78.31
258.918	96.31
259.151	91.31
259.383	82.31
259.616	90.31
259.849	89.31
260.081	92.31
260.314	71.31
260.547	79.31
260.779	83.31
261.012	79.31
261.244	89.31
261.477	94.31
261.71	86.31
261.942	100.31
262.175	85.31
262.407	83.31
262.64	79.31
262.872	101.31
263.105	80.31
263.337	77.31
263.57	73.31
263.802	94.31
264.035	91.31
264.267	78.31
264.499	83.31
264.732	85.31
264.964	92.31
265.197	85.31
265.429	87.31
265.661	81.31
265.894	100.31
266.126	78.31
266.358	69.31
266.591	92.31
266.823	73.31
267.055	90.31
267.287	84.31
267.52	83.31
267.752	82.31
267.984	90.31
268.216	91.31
268.448	76.31
268.681	83.31
268.913	78.31
269.145	98.31
269.377	82.31
269.609	78.31
269.841	91.31
270.073	83.31
270.306	78.31
270.538	80.31
270.77	96.31
271.002	89.31
271.234	96.31
271.466	83.31
271.698	88.31
271.93	83.31
272.162	82.31
272.394	91.31
272.626	92.31
272.858	85.31
273.09	96.31
273.322	73.31
273.553	88.31
273.785	87.31
274.017	81.31
274.249	76.31
274.481	83.31
274.713	93.31
274.945	78.31
275.176	83.31
275.408	70.31
275.64	81.31
275.872	79.31
276.104	86.31
276.335	75.31
276.567	80.31
276.799	81.31
277.031	82.31
277.262	79.31
277.494	76.31
277.726	86.31
277.957	83.31
278.189	84.31
278.421	85.31
278.652	93.31
278.884	76.31
279.115	85.31
279.347	79.31
279.579	84.31
279.81	96.31
280.042	88.31
280.273	82.31
280.505	86.31
280.736	87.31
280.968	85.31
281.199	75.31
281.431	81.31
281.662	89.31
281.894	87.31
282.125	86.31
282.356	90.31
282.588	84.31
282.819	76.31
283.051	69.31
283.282	80.31
283.513	87.31
283.745	77.31
283.976	83.31
284.207	93.31
284.439	86.31
284.67	89.31
284.901	98.31
285.132	89.31
285.364	101.31
285.595	72.31
285.826	89.31
286.057	87.31
286.288	101.31
286.52	98.31
286.751	86.31
286.982	60.31
287.213	88.31
287.444	86.31
287.675	88.31
287.906	67.31
288.138	89.31
288.369	97.31
288.6	81.31
288.831	83.31
289.062	81.31
289.293	83.31
289.524	80.31
289.755	76.31
289.986	87.31
290.217	81.31
290.448	77.31
290.679	102.31
290.91	87.31
291.141	83.31
291.371	85.31
291.602	96.31
291.833	67.31
292.064	85.31
292.295	72.31
292.526	83.31
292.757	75.31
292.987	73.31
293.218	80.31
293.449	84.31
293.68	102.31
293.91	77.31
294.141	95.31
294.372	86.31
294.603	82.31
294.833	93.31
295.064	88.31
295.295	89.31
295.525	81.31
295.756	84.31
295.987	91.31
296.217	83.31
296.448	79.31
296.679	96.31
296.909	91.31
297.14	87.31
297.37	89.31
297.601	76.31
297.831	93.31
298.062	97.31
298.292	83.31
298.523	76.31
298.753	89.31
298.984	95.31
299.214	101.31
299.445	89.31
299.675	98.31
299.905	91.31
300.136	76.31
300.366	89.31
300.597	93.31
300.827	96.31
301.057	97.31
301.288	95.31
301.518	84.31
301.748	90.31
301.979	99.31
302.209	100.31
302.439	83.31
302.669	91.31
302.9	91.31
303.13	94.31
303.36	79.31
303.59	89.31
303.82	91.31
304.051	95.31
304.281	89.31
304.511	109.31
304.741	92.31
304.971	83.31
305.201	98.31
305.431	93.31
305.661	102.31
305.891	88.31
306.121	105.31
306.352	88.31
306.582	77.31
306.812	65.31
307.042	98.31
307.272	91.31
307.502	84.31
307.731	92.31
307.961	92.31
308.191	103.31
308.421	107.31
308.651	91.31
308.881	86.31
309.111	92.31
309.341	95.31
309.571	91.31
309.8	91.31
310.03	82.31
310.26	84.31
310.49	83.31
310.72	91.31
310.949	67.31
311.179	84.31
311.409	94.31
311.639	87.31
311.868	86.31
312.098	92.31
312.328	89.31
312.557	87.31
312.787	90.31
313.017	84.31
313.246	85.31
313.476	89.31
313.706	91.31
313.935	96.31
314.165	86.31
314.394	97.31
314.624	79.31
314.853	70.31
315.083	93.31
315.312	92.31
315.542	100.31
315.771	87.31
316.001	105.31
316.23	85.31
316.46	96.31
316.689	83.31
316.919	94.31
317.148	93.31
317.377	95.31
317.607	97.31
317.836	106.31
318.065	111.31
318.295	106.31
318.524	85.31
318.753	82.31
318.983	84.31
319.212	83.31
319.441	69.31
319.67	100.31
319.9	82.31
320.129	96.31
320.358	85.31
320.587	97.31
320.816	72.31
321.046	83.31
321.275	95.31
321.504	79.31
321.733	81.31
321.962	89.31
322.191	92.31
322.42	83.31
322.649	91.31
322.878	91.31
323.108	81.31
323.337	101.31
323.566	100.31
323.795	101.31
324.024	89.31
324.253	81.31
324.482	100.31
324.71	89.31
324.939	85.31
325.168	95.31
325.397	95.31
325.626	98.31
325.855	97.31
326.084	87.31
326.313	81.31
326.542	84.31
326.77	85.31
326.999	91.31
327.228	82.31
327.457	96.31
327.686	89.31
327.914	97.31
328.143	85.31
328.372	102.31
328.6	98.31
328.829	100.31
329.058	83.31
329.287	75.31
329.515	81.31
329.744	82.31
329.972	86.31
330.201	97.31
330.43	84.31
330.658	94.31
330.887	79.31
331.115	96.31
331.344	100.31
331.572	89.31
331.801	86.31
332.03	88.31
332.258	89.31
332.486	106.31
332.715	89.31
332.943	91.31
333.172	97.31
333.4	93.31
333.629	77.31
333.857	86.31
334.085	86.31
334.314	102.31
334.542	85.31
334.771	83.31
334.999	75.31
335.227	106.31
335.455	91.31
335.684	92.31
335.912	110.31
336.14	107.31
336.369	92.31
336.597	97.31
336.825	95.31
337.053	97.31
337.281	100.31
337.51	77.31
337.738	85.31
337.966	99.31
338.194	94.31
338.422	76.31
338.65	89.31
338.878	96.31
339.106	93.31
339.334	83.31
339.562	82.31
339.79	75.31
340.018	83.31
340.246	88.31
340.474	91.31
340.702	90.31
340.93	90.31
341.158	93.31
341.386	88.31
341.614	90.31
341.842	92.31
342.07	87.31
342.298	90.31
342.526	89.31
342.754	82.31
342.981	95.31
343.209	73.31
343.437	96.31
343.665	95.31
343.893	91.31
344.12	96.31
344.348	75.31
344.576	97.31
344.804	95.31
345.031	78.31
345.259	89.31
345.487	102.31
345.714	84.31
345.942	83.31
346.17	98.31
346.397	97.31
346.625	81.31
346.853	88.31
347.08	93.31
347.308	88.31
347.535	86.31
347.763	83.31
347.99	95.31
348.218	95.31
348.445	82.31
348.673	92.31
348.9	88.31
349.128	86.31
349.355	87.31
349.583	90.31
349.81	87.31
350.037	94.31
350.265	83.31
350.492	85.31
350.72	83.31
350.947	89.31
351.174	92.31
351.402	84.31
351.629	76.31
351.856	96.31
352.083	85.31
352.311	79.31
352.538	85.31
352.765	98.31
352.992	101.31
353.22	95.31
353.447	88.31
353.674	95.31
353.901	95.31
354.128	94.31
354.355	78.31
354.583	73.31
354.81	90.31
355.037	77.31
355.264	92.31
355.491	97.31
355.718	104.31
355.945	98.31
356.172	89.31
356.399	96.31
356.626	76.31
356.853	96.31
357.08	101.31
357.307	93.31
357.534	95.31
357.761	87.31
357.988	89.31
358.215	104.31
358.441	101.31
358.668	103.31
358.895	93.31
359.122	90.31
359.349	75.31
359.576	93.31
359.802	88.31
360.029	73.31
360.256	97.31
360.483	94.31
360.709	90.31
360.936	98.31
361.163	95.31
361.39	89.31
361.616	78.31
361.843	98.31
362.07	97.31
362.296	101.31
362.523	96.31
362.749	101.31
362.976	108.31
363.203	133.31
363.429	107.31
363.656	104.31
363.882	99.31
364.109	103.31
364.335	122.31
364.562	131.31
364.788	106.31
365.015	92.31
365.241	89.31
365.468	98.31
365.694	100.31
365.92	87.31
366.147	86.31
366.373	97.31
366.599	92.31
366.826	103.31
367.052	85.31
367.278	92.31
367.505	84.31
367.731	92.31
367.957	93.31
368.184	80.31
368.41	84.31
368.636	95.31
368.862	89.31
369.089	85.31
369.315	83.31
369.541	89.31
369.767	101.31
369.993	82.31
370.219	91.31
370.445	108.31
370.672	89.31
370.898	91.31
371.124	95.31
371.35	100.31
371.576	85.31
371.802	104.31
372.028	100.31
372.254	104.31
372.48	86.31
372.706	91.31
372.932	88.31
373.158	80.31
373.384	108.31
373.61	123.31
373.835	123.31
374.061	104.31
374.287	92.31
374.513	99.31
374.739	116.31
374.965	107.31
375.191	87.31
375.416	93.31
375.642	107.31
375.868	100.31
376.094	87.31
376.319	83.31
376.545	113.31
376.771	90.31
376.997	95.31
377.222	79.31
377.448	87.31
377.674	89.31
377.899	87.31
378.125	92.31
378.35	71.31
378.576	99.31
378.802	91.31
379.027	98.31
379.253	95.31
379.478	88.31
379.704	91.31
379.929	89.31
380.155	89.31
380.38	97.31
380.606	98.31
380.831	87.31
381.057	84.31
381.282	102.31
381.507	90.31
381.733	98.31
381.958	96.31
382.184	103.31
382.409	105.31
382.634	96.31
382.86	98.31
383.085	100.31
383.31	108.31
383.535	103.31
383.761	97.31
383.986	84.31
384.211	105.31
384.436	105.31
384.662	96.31
384.887	98.31
385.112	98.31
385.337	90.31
385.562	107.31
385.787	121.31
386.013	120.31
386.238	111.31
386.463	98.31
386.688	105.31
386.913	90.31
387.138	94.31
387.363	106.31
387.588	108.31
387.813	122.31
388.038	102.31
388.263	96.31
388.488	85.31
388.713	90.31
388.938	96.31
389.163	95.31
389.387	97.31
389.612	92.31
389.837	107.31
390.062	103.31
390.287	81.31
390.512	106.31
390.736	95.31
390.961	84.31
391.186	80.31
391.411	87.31
391.636	89.31
391.86	92.31
392.085	95.31
392.31	99.31
392.534	113.31
392.759	136.31
392.984	173.31
393.208	309.31
393.433	487.31
393.658	345.31
393.882	154.31
394.107	120.31
394.331	122.31
394.556	139.31
394.78	124.31
395.005	94.31
395.229	99.31
395.454	97.31
395.678	98.31
395.903	100.31
396.127	145.31
396.352	181.31
396.576	182.31
396.801	317.31
397.025	397.31
397.249	184.31
397.474	131.31
397.698	96.31
397.922	97.31
398.147	93.31
398.371	95.31
398.595	87.31
398.82	86.31
399.044	75.31
399.268	91.31
399.492	94.31
399.717	75.31
399.941	84.31
400.165	93.31
400.389	102.31
400.613	79.31
400.837	96.31
401.062	88.31
401.286	93.31
401.51	88.31
401.734	91.31
401.958	87.31
402.182	96.31
402.406	99.31
402.63	98.31
402.854	100.31
403.078	102.31
403.302	95.31
403.526	80.31
403.75	91.31
403.974	91.31
404.198	93.31
404.422	94.31
404.645	95.31
404.869	90.31
405.093	87.31
405.317	86.31
405.541	95.31
405.765	96.31
405.988	78.31
406.212	87.31
406.436	93.31
406.66	105.31
406.883	74.31
407.107	79.31
407.331	87.31
407.555	95.31
407.778	105.31
408.002	123.31
408.226	94.31
408.449	90.31
408.673	95.31
408.896	93.31
409.12	87.31
409.344	83.31
409.567	93.31
409.791	101.31
410.014	92.31
410.238	99.31
410.461	95.31
410.685	97.31
410.908	81.31
411.132	91.31
411.355	95.31
411.578	97.31
411.802	82.31
412.025	97.31
412.249	73.31
412.472	81.31
412.695	88.31
412.919	86.31
413.142	91.31
413.365	91.31
413.589	93.31
413.812	90.31
414.035	93.31
414.258	95.31
414.482	89.31
414.705	89.31
414.928	108.31
415.151	95.31
415.374	87.31
415.597	103.31
415.821	89.31
416.044	87.31
416.267	86.31
416.49	94.31
416.713	87.31
416.936	83.31
417.159	100.31
417.382	88.31
417.605	79.31
417.828	101.31
418.051	87.31
418.274	78.31
418.497	80.31
418.72	84.31
418.943	92.31
419.166	91.31
419.389	94.31
419.611	77.31
419.834	83.31
420.057	85.31
420.28	93.31
420.503	79.31
420.726	83.31
420.948	104.31
421.171	105.31
421.394	117.31
421.617	132.31
421.839	130.31
422.062	123.31
422.285	155.31
422.507	295.31
422.73	473.31
422.953	418.31
423.175	198.31
423.398	139.31
423.621	103.31
423.843	101.31
424.066	103.31
424.288	104.31
424.511	93.31
424.733	84.31
424.956	92.31
425.178	111.31
425.401	85.31
425.623	97.31
425.846	88.31
426.068	88.31
426.291	86.31
426.513	70.31
426.735	84.31
426.958	90.31
427.18	90.31
427.402	100.31
427.625	99.31
427.847	89.31
428.069	98.31
428.292	125.31
428.514	143.31
428.736	124.31
428.958	139.31
429.181	136.31
429.403	109.31
429.625	103.31
429.847	128.31
430.069	167.31
430.292	179.31
430.514	200.31
430.736	136.31
430.958	162.31
431.18	107.31
431.402	98.31
431.624	106.31
431.846	119.31
432.068	143.31
432.29	91.31
432.512	97.31
432.734	100.31
432.956	93.31
433.178	82.31
433.4	91.31
433.622	107.31
433.844	89.31
434.066	91.31
434.287	84.31
434.509	84.31
434.731	87.31
434.953	79.31
435.175	91.31
435.397	77.31
435.618	84.31
435.84	89.31
436.062	91.31
436.284	89.31
436.505	79.31
436.727	87.31
436.949	87.31
437.17	106.31
437.392	90.31
437.614	88.31
437.835	93.31
438.057	85.31
438.278	81.31
438.5	100.31
438.721	73.31
438.943	92.31
439.165	90.31
439.386	88.31
439.608	85.31
439.829	104.31
440.05	81.31
440.272	85.31
440.493	99.31
440.715	101.31
440.936	82.31
441.158	101.31
441.379	82.31
441.6	88.31
441.822	91.31
442.043	89.31
442.264	85.31
442.486	136.31
442.707	168.31
442.928	119.31
443.149	120.31
443.371	141.31
443.592	245.31
443.813	222.31
444.034	120.31
444.255	96.31
444.476	99.31
444.698	86.31
444.919	84.31
445.14	176.31
445.361	193.31
445.582	309.31
445.803	255.31
446.024	123.31
446.245	83.31
446.466	87.31
446.687	85.31
446.908	88.31
447.129	105.31
447.35	84.31
447.571	85.31
447.792	78.31
448.013	87.31
448.234	77.31
448.455	89.31
448.675	90.31
448.896	87.31
449.117	87.31
449.338	89.31
449.559	89.31
449.779	104.31
450	69.31
450.221	95.31
450.442	83.31
450.662	68.31
450.883	74.31
451.104	77.31
451.324	85.31
451.545	99.31
451.766	87.31
451.986	80.31
452.207	95.31
452.428	84.31
452.648	100.31
452.869	114.31
453.089	87.31
453.31	100.31
453.53	99.31
453.751	97.31
453.971	74.31
454.192	85.31
454.412	91.31
454.633	89.31
454.853	97.31
455.073	90.31
455.294	97.31
455.514	97.31
455.734	80.31
455.955	71.31
456.175	81.31
456.395	75.31
456.616	87.31
456.836	87.31
457.056	90.31
457.276	95.31
457.497	91.31
457.717	87.31
457.937	119.31
458.157	104.31
458.377	123.31
458.598	115.31
458.818	122.31
459.038	104.31
459.258	91.31
459.478	85.31
459.698	78.31
459.918	93.31
460.138	91.31
460.358	91.31
460.578	89.31
460.798	121.31
461.018	121.31
461.238	85.31
461.458	93.31
461.678	91.31
461.898	81.31
462.118	96.31
462.338	82.31
462.558	83.31
462.777	78.31
462.997	90.31
463.217	91.31
463.437	97.31
463.657	87.31
463.876	85.31
464.096	91.31
464.316	85.31
464.536	80.31
464.755	86.31
464.975	92.31
465.195	87.31
465.414	92.31
465.634	95.31
465.854	81.31
466.073	93.31
466.293	79.31
466.512	80.31
466.732	85.31
466.951	87.31
467.171	87.31
467.391	87.31
467.61	107.31
467.829	95.31
468.049	95.31
468.268	82.31
468.488	83.31
468.707	81.31
468.927	91.31
469.146	103.31
469.365	66.31
469.585	89.31
469.804	93.31
470.023	99.31
470.243	95.31
470.462	104.31
470.681	89.31
470.901	98.31
471.12	83.31
471.339	105.31
471.558	87.31
471.777	87.31
471.997	84.31
472.216	89.31
472.435	85.31
472.654	94.31
472.873	81.31
473.092	80.31
473.311	96.31
473.53	85.31
473.749	101.31
473.968	91.31
474.187	92.31
474.406	100.31
474.625	100.31
474.844	92.31
475.063	82.31
475.282	99.31
475.501	83.31
475.72	81.31
475.939	98.31
476.158	99.31
476.377	90.31
476.596	103.31
476.814	89.31
477.033	105.31
477.252	92.31
477.471	89.31
477.69	90.31
477.908	97.31
478.127	88.31
478.346	76.31
478.564	92.31
478.783	93.31
479.002	88.31
479.22	71.31
479.439	81.31
479.658	89.31
479.876	97.31
480.095	92.31
480.313	102.31
480.532	91.31
480.751	90.31
480.969	91.31
481.188	103.31
481.406	107.31
481.624	88.31
481.843	83.31
482.061	81.31
482.28	101.31
482.498	103.31
482.717	92.31
482.935	106.31
483.153	88.31
483.372	100.31
483.59	101.31
483.808	84.31
484.027	97.31
484.245	83.31
484.463	99.31
484.681	104.31
484.9	81.31
485.118	91.31
485.336	85.31
485.554	98.31
485.772	95.31
485.99	93.31
486.209	79.31
486.427	99.31
486.645	97.31
486.863	94.31
487.081	97.31
487.299	97.31
487.517	109.31
487.735	122.31
487.953	170.31
488.171	132.31
488.389	98.31
488.607	95.31
488.825	82.31
489.043	87.31
489.261	106.31
489.479	95.31
489.696	85.31
489.914	95.31
490.132	91.31
490.35	91.31
490.568	75.31
490.786	81.31
491.003	91.31
491.221	96.31
491.439	97.31
491.657	96.31
491.874	96.31
492.092	84.31
492.31	95.31
492.527	81.31
492.745	80.31
492.963	88.31
493.18	106.31
493.398	101.31
493.615	107.31
493.833	94.31
494.05	92.31
494.268	107.31
494.485	95.31
494.703	96.31
494.92	70.31
495.138	91.31
495.355	83.31
495.573	81.31
495.79	96.31
496.008	90.31
496.225	94.31
496.442	107.31
496.66	93.31
496.877	79.31
497.094	100.31
497.312	108.31
497.529	82.31
497.746	70.31
497.963	82.31
498.181	90.31
498.398	74.31
498.615	89.31
498.832	85.31
499.049	78.31
499.267	102.31
499.484	109.31
499.701	89.31
499.918	100.31
500.135	100.31
500.352	83.31
500.569	101.31
500.786	103.31
501.003	89.31
501.22	93.31
501.437	90.31
501.654	101.31
501.871	105.31
502.088	91.31
502.305	94.31
502.522	91.31
502.739	87.31
502.956	84.31
503.172	84.31
503.389	94.31
503.606	107.31
503.823	97.31
504.04	107.31
504.256	143.31
504.473	124.31
504.69	91.31
504.907	91.31
505.123	97.31
505.34	99.31
505.557	92.31
505.773	97.31
505.99	93.31
506.207	85.31
506.423	103.31
506.64	91.31
506.856	90.31
507.073	95.31
507.289	102.31
507.506	74.31
507.722	86.31
507.939	91.31
508.155	89.31
508.372	95.31
508.588	92.31
508.805	106.31
509.021	88.31
509.238	90.31
509.454	88.31
509.67	97.31
509.887	75.31
510.103	87.31
510.319	95.31
510.536	92.31
510.752	90.31
510.968	74.31
511.184	91.31
511.401	83.31
511.617	99.31
511.833	94.31
512.049	98.31
512.265	111.31
512.481	83.31
512.698	95.31
512.914	109.31
513.13	107.31
513.346	89.31
513.562	89.31
513.778	89.31
513.994	88.31
514.21	100.31
514.426	83.31
514.642	89.31
514.858	106.31
515.074	100.31
515.29	96.31
515.506	91.31
515.721	104.31
515.937	83.31
516.153	96.31
516.369	91.31
516.585	83.31
516.801	83.31
