Data from 10100_1_HRD10591_00040.txt Node
Date: Mon Jan 19 14:00:44 EST 2026
User: Yrep
Spectrometer: HR+D1059
Trigger mode: 1
Integration Time (sec): 1.000000E-1
Scans to average: 1
Electric dark correction enabled: true
Nonlinearity correction enabled: false
Boxcar width: 0
XAxis mode: Wavelengths
Number of Pixels in Spectrum: 2048
>>>>>Begin Spectral Data<<<<<
223.165	-16.19
223.4	-16.19
223.635	-16.19
223.869	-21.19
224.104	-17.19
224.338	-23.19
224.573	-25.19
224.808	-1.19
225.042	-13.19
225.277	-5.19
225.511	6.81
225.746	5.81
225.98	8.81
226.215	16.81
226.449	7.81
226.683	17.81
226.918	30.81
227.152	27.81
227.387	31.81
227.621	16.81
227.856	47.81
228.09	34.81
228.324	35.81
228.559	56.81
228.793	61.81
229.027	66.81
229.262	59.81
229.496	52.81
229.73	75.81
229.964	55.81
230.199	61.81
230.433	60.81
230.667	83.81
230.901	76.81
231.136	69.81
231.37	80.81
231.604	78.81
231.838	80.81
232.072	84.81
232.306	79.81
232.541	67.81
232.775	67.81
233.009	83.81
233.243	96.81
233.477	75.81
233.711	77.81
233.945	74.81
234.179	80.81
234.413	76.81
234.647	81.81
234.881	82.81
235.115	75.81
235.349	65.81
235.583	76.81
235.817	69.81
236.051	78.81
236.285	84.81
236.519	86.81
236.753	65.81
236.987	82.81
237.221	72.81
237.455	87.81
237.689	82.81
237.922	79.81
238.156	74.81
238.39	68.81
238.624	66.81
238.858	68.81
239.091	72.81
239.325	83.81
239.559	78.81
239.793	75.81
240.027	75.81
240.26	63.81
240.494	82.81
240.728	54.81
240.961	75.81
241.195	74.81
241.429	76.81
241.662	60.81
241.896	76.81
242.13	55.81
242.363	64.81
242.597	76.81
242.83	71.81
243.064	74.81
243.298	72.81
243.531	62.81
243.765	70.81
243.998	72.81
244.232	77.81
244.465	82.81
244.699	67.81
244.932	67.81
245.166	71.81
245.399	79.81
245.633	82.81
245.866	76.81
246.099	80.81
246.333	67.81
246.566	60.81
246.8	76.81
247.033	80.81
247.266	73.81
247.5	74.81
247.733	72.81
247.966	69.81
248.2	67.81
248.433	74.81
248.666	77.81
248.899	89.81
249.133	59.81
249.366	83.81
249.599	83.81
249.832	81.81
250.066	81.81
250.299	72.81
250.532	90.81
250.765	79.81
250.998	70.81
251.231	70.81
251.465	78.81
251.698	82.81
251.931	85.81
252.164	76.81
252.397	77.81
252.63	77.81
252.863	84.81
253.096	82.81
253.329	78.81
253.562	94.81
253.795	84.81
254.028	80.81
254.261	62.81
254.494	84.81
254.727	62.81
254.96	87.81
255.193	56.81
255.426	68.81
255.659	73.81
255.892	66.81
256.124	76.81
256.357	87.81
256.59	68.81
256.823	73.81
257.056	76.81
257.289	77.81
257.521	80.81
257.754	84.81
257.987	92.81
258.22	87.81
258.452	74.81
258.685	74.81
258.918	80.81
259.151	83.81
259.383	84.81
259.616	78.81
259.849	70.81
260.081	87.81
260.314	80.81
260.547	75.81
260.779	79.81
261.012	84.81
261.244	70.81
261.477	86.81
261.71	80.81
261.942	81.81
262.175	92.81
262.407	84.81
262.64	68.81
262.872	76.81
263.105	85.81
263.337	81.81
263.57	59.81
263.802	72.81
264.035	80.81
264.267	81.81
264.499	84.81
264.732	86.81
264.964	74.81
265.197	85.81
265.429	76.81
265.661	71.81
265.894	68.81
266.126	78.81
266.358	86.81
266.591	80.81
266.823	76.81
267.055	77.81
267.287	88.81
267.52	83.81
267.752	72.81
267.984	74.81
268.216	89.81
268.448	87.81
268.681	74.81
268.913	79.81
269.145	80.81
269.377	83.81
269.609	71.81
269.841	90.81
270.073	93.81
270.306	94.81
270.538	80.81
270.77	71.81
271.002	79.81
271.234	76.81
271.466	75.81
271.698	67.81
271.93	88.81
272.162	69.81
272.394	82.81
272.626	74.81
272.858	86.81
273.09	77.81
273.322	72.81
273.553	82.81
273.785	80.81
274.017	66.81
274.249	68.81
274.481	70.81
274.713	86.81
274.945	78.81
275.176	81.81
275.408	86.81
275.64	79.81
275.872	76.81
276.104	71.81
276.335	66.81
276.567	67.81
276.799	66.81
277.031	88.81
277.262	68.81
277.494	91.81
277.726	78.81
277.957	73.81
278.189	72.81
278.421	70.81
278.652	83.81
278.884	66.81
279.115	69.81
279.347	66.81
279.579	84.81
279.81	82.81
280.042	75.81
280.273	86.81
280.505	87.81
280.736	79.81
280.968	82.81
281.199	83.81
281.431	83.81
281.662	69.81
281.894	80.81
282.125	82.81
282.356	64.81
282.588	84.81
282.819	82.81
283.051	91.81
283.282	84.81
283.513	78.81
283.745	84.81
283.976	81.81
284.207	76.81
284.439	76.81
284.67	81.81
284.901	83.81
285.132	85.81
285.364	80.81
285.595	102.81
285.826	70.81
286.057	78.81
286.288	88.81
286.52	92.81
286.751	73.81
286.982	73.81
287.213	93.81
287.444	81.81
287.675	84.81
287.906	92.81
288.138	71.81
288.369	72.81
288.6	83.81
288.831	84.81
289.062	76.81
289.293	81.81
289.524	88.81
289.755	72.81
289.986	86.81
290.217	72.81
290.448	81.81
290.679	80.81
290.91	81.81
291.141	76.81
291.371	77.81
291.602	76.81
291.833	91.81
292.064	91.81
292.295	93.81
292.526	75.81
292.757	84.81
292.987	94.81
293.218	82.81
293.449	87.81
293.68	79.81
293.91	81.81
294.141	90.81
294.372	87.81
294.603	79.81
294.833	83.81
295.064	85.81
295.295	84.81
295.525	91.81
295.756	87.81
295.987	76.81
296.217	75.81
296.448	70.81
296.679	83.81
296.909	91.81
297.14	81.81
297.37	92.81
297.601	80.81
297.831	84.81
298.062	84.81
298.292	81.81
298.523	91.81
298.753	67.81
298.984	86.81
299.214	76.81
299.445	86.81
299.675	80.81
299.905	92.81
300.136	93.81
300.366	89.81
300.597	89.81
300.827	90.81
301.057	78.81
301.288	84.81
301.518	89.81
301.748	93.81
301.979	98.81
302.209	92.81
302.439	85.81
302.669	86.81
302.9	70.81
303.13	74.81
303.36	75.81
303.59	76.81
303.82	91.81
304.051	77.81
304.281	79.81
304.511	94.81
304.741	98.81
304.971	82.81
305.201	93.81
305.431	87.81
305.661	77.81
305.891	68.81
306.121	74.81
306.352	93.81
306.582	84.81
306.812	76.81
307.042	76.81
307.272	77.81
307.502	83.81
307.731	74.81
307.961	85.81
308.191	90.81
308.421	92.81
308.651	77.81
308.881	84.81
309.111	92.81
309.341	88.81
309.571	82.81
309.8	83.81
310.03	62.81
310.26	80.81
310.49	77.81
310.72	78.81
310.949	92.81
311.179	69.81
311.409	75.81
311.639	82.81
311.868	69.81
312.098	88.81
312.328	73.81
312.557	87.81
312.787	106.81
313.017	72.81
313.246	81.81
313.476	79.81
313.706	64.81
313.935	87.81
314.165	74.81
314.394	92.81
314.624	93.81
314.853	93.81
315.083	93.81
315.312	80.81
315.542	88.81
315.771	93.81
316.001	82.81
316.23	84.81
316.46	87.81
316.689	86.81
316.919	71.81
317.148	75.81
317.377	83.81
317.607	88.81
317.836	99.81
318.065	100.81
318.295	93.81
318.524	76.81
318.753	73.81
318.983	77.81
319.212	83.81
319.441	86.81
319.67	84.81
319.9	80.81
320.129	96.81
320.358	96.81
320.587	85.81
320.816	76.81
321.046	82.81
321.275	76.81
321.504	93.81
321.733	71.81
321.962	69.81
322.191	83.81
322.42	80.81
322.649	87.81
322.878	97.81
323.108	88.81
323.337	86.81
323.566	97.81
323.795	89.81
324.024	87.81
324.253	87.81
324.482	84.81
324.71	101.81
324.939	84.81
325.168	78.81
325.397	91.81
325.626	95.81
325.855	79.81
326.084	69.81
326.313	84.81
326.542	77.81
326.77	60.81
326.999	74.81
327.228	81.81
327.457	90.81
327.686	72.81
327.914	78.81
328.143	76.81
328.372	88.81
328.6	90.81
328.829	90.81
329.058	77.81
329.287	87.81
329.515	81.81
329.744	79.81
329.972	71.81
330.201	86.81
330.43	78.81
330.658	80.81
330.887	77.81
331.115	91.81
331.344	88.81
331.572	86.81
331.801	79.81
332.03	74.81
332.258	77.81
332.486	88.81
332.715	75.81
332.943	80.81
333.172	80.81
333.4	90.81
333.629	74.81
333.857	82.81
334.085	78.81
334.314	89.81
334.542	84.81
334.771	86.81
334.999	82.81
335.227	79.81
335.455	96.81
335.684	89.81
335.912	88.81
336.14	87.81
336.369	95.81
336.597	68.81
336.825	88.81
337.053	86.81
337.281	90.81
337.51	90.81
337.738	76.81
337.966	92.81
338.194	75.81
338.422	75.81
338.65	83.81
338.878	97.81
339.106	87.81
339.334	82.81
339.562	74.81
339.79	98.81
340.018	82.81
340.246	70.81
340.474	79.81
340.702	90.81
340.93	87.81
341.158	80.81
341.386	85.81
341.614	90.81
341.842	89.81
342.07	81.81
342.298	71.81
342.526	99.81
342.754	86.81
342.981	98.81
343.209	80.81
343.437	90.81
343.665	88.81
343.893	87.81
344.12	97.81
344.348	91.81
344.576	79.81
344.804	82.81
345.031	82.81
345.259	79.81
345.487	85.81
345.714	80.81
345.942	76.81
346.17	87.81
346.397	76.81
346.625	87.81
346.853	78.81
347.08	72.81
347.308	86.81
347.535	72.81
347.763	83.81
347.99	102.81
348.218	76.81
348.445	79.81
348.673	92.81
348.9	107.81
349.128	109.81
349.355	85.81
349.583	82.81
349.81	81.81
350.037	83.81
350.265	76.81
350.492	82.81
350.72	86.81
350.947	89.81
351.174	73.81
351.402	67.81
351.629	81.81
351.856	68.81
352.083	70.81
352.311	92.81
352.538	69.81
352.765	84.81
352.992	73.81
353.22	87.81
353.447	101.81
353.674	88.81
353.901	82.81
354.128	94.81
354.355	88.81
354.583	80.81
354.81	88.81
355.037	77.81
355.264	69.81
355.491	78.81
355.718	92.81
355.945	87.81
356.172	71.81
356.399	80.81
356.626	95.81
356.853	83.81
357.08	78.81
357.307	101.81
357.534	88.81
357.761	81.81
357.988	80.81
358.215	92.81
358.441	87.81
358.668	86.81
358.895	88.81
359.122	104.81
359.349	82.81
359.576	87.81
359.802	78.81
360.029	78.81
360.256	91.81
360.483	72.81
360.709	79.81
360.936	101.81
361.163	81.81
361.39	83.81
361.616	88.81
361.843	92.81
362.07	88.81
362.296	91.81
362.523	92.81
362.749	94.81
362.976	109.81
363.203	110.81
363.429	94.81
363.656	97.81
363.882	90.81
364.109	103.81
364.335	115.81
364.562	116.81
364.788	115.81
365.015	98.81
365.241	91.81
365.468	90.81
365.694	85.81
365.92	88.81
366.147	69.81
366.373	84.81
366.599	77.81
366.826	96.81
367.052	86.81
367.278	94.81
367.505	71.81
367.731	91.81
367.957	76.81
368.184	80.81
368.41	83.81
368.636	99.81
368.862	87.81
369.089	83.81
369.315	89.81
369.541	84.81
369.767	85.81
369.993	87.81
370.219	84.81
370.445	91.81
370.672	86.81
370.898	83.81
371.124	91.81
371.35	89.81
371.576	88.81
371.802	78.81
372.028	79.81
372.254	87.81
372.48	78.81
372.706	78.81
372.932	81.81
373.158	102.81
373.384	100.81
373.61	95.81
373.835	114.81
374.061	114.81
374.287	87.81
374.513	90.81
374.739	106.81
374.965	107.81
375.191	108.81
375.416	98.81
375.642	70.81
375.868	100.81
376.094	97.81
376.319	81.81
376.545	88.81
376.771	95.81
376.997	92.81
377.222	80.81
377.448	85.81
377.674	86.81
377.899	79.81
378.125	68.81
378.35	86.81
378.576	85.81
378.802	81.81
379.027	78.81
379.253	84.81
379.478	90.81
379.704	82.81
379.929	91.81
380.155	76.81
380.38	93.81
380.606	78.81
380.831	83.81
381.057	92.81
381.282	71.81
381.507	79.81
381.733	80.81
381.958	93.81
382.184	102.81
382.409	106.81
382.634	97.81
382.86	97.81
383.085	98.81
383.31	98.81
383.535	88.81
383.761	98.81
383.986	91.81
384.211	80.81
384.436	81.81
384.662	99.81
384.887	80.81
385.112	80.81
385.337	91.81
385.562	87.81
385.787	86.81
386.013	99.81
386.238	84.81
386.463	102.81
386.688	98.81
386.913	82.81
387.138	86.81
387.363	95.81
387.588	101.81
387.813	98.81
388.038	97.81
388.263	99.81
388.488	87.81
388.713	92.81
388.938	87.81
389.163	84.81
389.387	89.81
389.612	88.81
389.837	94.81
390.062	88.81
390.287	75.81
390.512	80.81
390.736	81.81
390.961	87.81
391.186	83.81
391.411	97.81
391.636	91.81
391.86	91.81
392.085	90.81
392.31	93.81
392.534	117.81
392.759	126.81
392.984	178.81
393.208	313.81
393.433	480.81
393.658	360.81
393.882	161.81
394.107	111.81
394.331	118.81
394.556	108.81
394.78	100.81
395.005	101.81
395.229	90.81
395.454	92.81
395.678	103.81
395.903	130.81
396.127	126.81
396.352	163.81
396.576	196.81
396.801	326.81
397.025	372.81
397.249	207.81
397.474	120.81
397.698	98.81
397.922	98.81
398.147	75.81
398.371	85.81
398.595	91.81
398.82	90.81
399.044	81.81
399.268	80.81
399.492	108.81
399.717	88.81
399.941	93.81
400.165	88.81
400.389	86.81
400.613	99.81
400.837	104.81
401.062	84.81
401.286	91.81
401.51	96.81
401.734	81.81
401.958	96.81
402.182	76.81
402.406	84.81
402.63	87.81
402.854	82.81
403.078	91.81
403.302	91.81
403.526	92.81
403.75	87.81
403.974	91.81
404.198	87.81
404.422	90.81
404.645	102.81
404.869	93.81
405.093	73.81
405.317	72.81
405.541	71.81
405.765	82.81
405.988	82.81
406.212	79.81
406.436	88.81
406.66	101.81
406.883	88.81
407.107	80.81
407.331	89.81
407.555	99.81
407.778	117.81
408.002	119.81
408.226	85.81
408.449	83.81
408.673	90.81
408.896	86.81
409.12	90.81
409.344	96.81
409.567	103.81
409.791	89.81
410.014	98.81
410.238	86.81
410.461	82.81
410.685	98.81
410.908	95.81
411.132	81.81
411.355	89.81
411.578	82.81
411.802	96.81
412.025	92.81
412.249	80.81
412.472	70.81
412.695	83.81
412.919	84.81
413.142	73.81
413.365	86.81
413.589	74.81
413.812	91.81
414.035	84.81
414.258	89.81
414.482	89.81
414.705	87.81
414.928	102.81
415.151	102.81
415.374	89.81
415.597	79.81
415.821	96.81
416.044	75.81
416.267	77.81
416.49	80.81
416.713	102.81
416.936	85.81
417.159	80.81
417.382	82.81
417.605	73.81
417.828	80.81
418.051	82.81
418.274	88.81
418.497	87.81
418.72	80.81
418.943	84.81
419.166	84.81
419.389	82.81
419.611	89.81
419.834	99.81
420.057	87.81
420.28	80.81
420.503	92.81
420.726	94.81
420.948	87.81
421.171	105.81
421.394	110.81
421.617	130.81
421.839	117.81
422.062	117.81
422.285	170.81
422.507	312.81
422.73	532.81
422.953	459.81
423.175	200.81
423.398	126.81
423.621	122.81
423.843	90.81
424.066	103.81
424.288	93.81
424.511	107.81
424.733	86.81
424.956	90.81
425.178	91.81
425.401	92.81
425.623	99.81
425.846	82.81
426.068	88.81
426.291	77.81
426.513	83.81
426.735	87.81
426.958	83.81
427.18	85.81
427.402	87.81
427.625	82.81
427.847	90.81
428.069	102.81
428.292	137.81
428.514	154.81
428.736	117.81
428.958	117.81
429.181	135.81
429.403	95.81
429.625	95.81
429.847	133.81
430.069	167.81
430.292	196.81
430.514	172.81
430.736	136.81
430.958	149.81
431.18	104.81
431.402	98.81
431.624	94.81
431.846	125.81
432.068	130.81
432.29	92.81
432.512	95.81
432.734	98.81
432.956	101.81
433.178	91.81
433.4	90.81
433.622	80.81
433.844	97.81
434.066	90.81
434.287	80.81
434.509	84.81
434.731	73.81
434.953	76.81
435.175	79.81
435.397	88.81
435.618	72.81
435.84	84.81
436.062	78.81
436.284	85.81
436.505	80.81
436.727	91.81
436.949	80.81
437.17	79.81
437.392	75.81
437.614	91.81
437.835	85.81
438.057	86.81
438.278	93.81
438.5	94.81
438.721	79.81
438.943	79.81
439.165	85.81
439.386	88.81
439.608	73.81
439.829	92.81
440.05	83.81
440.272	83.81
440.493	73.81
440.715	87.81
440.936	80.81
441.158	83.81
441.379	84.81
441.6	78.81
441.822	76.81
442.043	93.81
442.264	90.81
442.486	131.81
442.707	164.81
442.928	109.81
443.149	112.81
443.371	157.81
443.592	266.81
443.813	223.81
444.034	113.81
444.255	103.81
444.476	90.81
444.698	90.81
444.919	95.81
445.14	171.81
445.361	204.81
445.582	308.81
445.803	263.81
446.024	117.81
446.245	88.81
446.466	99.81
446.687	73.81
446.908	85.81
447.129	84.81
447.35	77.81
447.571	76.81
447.792	82.81
448.013	71.81
448.234	72.81
448.455	89.81
448.675	75.81
448.896	91.81
449.117	83.81
449.338	62.81
449.559	70.81
449.779	82.81
450	77.81
450.221	86.81
450.442	84.81
450.662	70.81
450.883	75.81
451.104	87.81
451.324	76.81
451.545	85.81
451.766	93.81
451.986	70.81
452.207	79.81
452.428	96.81
452.648	80.81
452.869	83.81
453.089	79.81
453.31	97.81
453.53	92.81
453.751	74.81
453.971	82.81
454.192	77.81
454.412	67.81
454.633	85.81
454.853	75.81
455.073	83.81
455.294	87.81
455.514	91.81
455.734	90.81
455.955	80.81
456.175	95.81
456.395	81.81
456.616	88.81
456.836	91.81
457.056	85.81
457.276	80.81
457.497	88.81
457.717	99.81
457.937	124.81
458.157	106.81
458.377	119.81
458.598	126.81
458.818	132.81
459.038	87.81
459.258	85.81
459.478	82.81
459.698	95.81
459.918	84.81
460.138	94.81
460.358	95.81
460.578	101.81
460.798	126.81
461.018	118.81
461.238	75.81
461.458	76.81
461.678	82.81
461.898	90.81
462.118	83.81
462.338	74.81
462.558	84.81
462.777	91.81
462.997	88.81
463.217	85.81
463.437	80.81
463.657	76.81
463.876	71.81
464.096	90.81
464.316	83.81
464.536	76.81
464.755	94.81
464.975	93.81
465.195	78.81
465.414	84.81
465.634	91.81
465.854	83.81
466.073	74.81
466.293	82.81
466.512	85.81
466.732	91.81
466.951	97.81
467.171	80.81
467.391	78.81
467.61	82.81
467.829	72.81
468.049	86.81
468.268	97.81
468.488	77.81
468.707	91.81
468.927	86.81
469.146	91.81
469.365	92.81
469.585	84.81
469.804	90.81
470.023	84.81
470.243	75.81
470.462	75.81
470.681	75.81
470.901	81.81
471.12	83.81
471.339	94.81
471.558	87.81
471.777	80.81
471.997	74.81
472.216	80.81
472.435	98.81
472.654	93.81
472.873	86.81
473.092	80.81
473.311	76.81
473.53	91.81
473.749	83.81
473.968	73.81
474.187	91.81
474.406	85.81
474.625	91.81
474.844	85.81
475.063	89.81
475.282	85.81
475.501	100.81
475.72	91.81
475.939	95.81
476.158	80.81
476.377	77.81
476.596	76.81
476.814	84.81
477.033	92.81
477.252	76.81
477.471	89.81
477.69	84.81
477.908	67.81
478.127	76.81
478.346	76.81
478.564	83.81
478.783	90.81
479.002	99.81
479.22	69.81
479.439	93.81
479.658	76.81
479.876	94.81
480.095	83.81
480.313	76.81
480.532	92.81
480.751	85.81
480.969	75.81
481.188	81.81
481.406	94.81
481.624	80.81
481.843	80.81
482.061	76.81
482.28	86.81
482.498	86.81
482.717	77.81
482.935	80.81
483.153	91.81
483.372	64.81
483.59	84.81
483.808	100.81
484.027	70.81
484.245	95.81
484.463	95.81
484.681	86.81
484.9	99.81
485.118	94.81
485.336	80.81
485.554	79.81
485.772	99.81
485.99	82.81
486.209	88.81
486.427	93.81
486.645	80.81
486.863	90.81
487.081	82.81
487.299	81.81
487.517	82.81
487.735	90.81
487.953	155.81
488.171	128.81
488.389	92.81
488.607	94.81
488.825	88.81
489.043	96.81
489.261	77.81
489.479	73.81
489.696	85.81
489.914	95.81
490.132	90.81
490.35	78.81
490.568	81.81
490.786	86.81
491.003	93.81
491.221	88.81
491.439	83.81
491.657	78.81
491.874	87.81
492.092	87.81
492.31	102.81
492.527	72.81
492.745	85.81
492.963	74.81
493.18	75.81
493.398	90.81
493.615	92.81
493.833	93.81
494.05	91.81
494.268	90.81
494.485	81.81
494.703	98.81
494.92	94.81
495.138	85.81
495.355	83.81
495.573	92.81
495.79	93.81
496.008	90.81
496.225	84.81
496.442	78.81
496.66	98.81
496.877	80.81
497.094	96.81
497.312	76.81
497.529	89.81
497.746	91.81
497.963	84.81
498.181	96.81
498.398	95.81
498.615	90.81
498.832	84.81
499.049	94.81
499.267	100.81
499.484	82.81
499.701	91.81
499.918	96.81
500.135	86.81
500.352	82.81
500.569	92.81
500.786	94.81
501.003	75.81
501.22	87.81
501.437	96.81
501.654	86.81
501.871	74.81
502.088	83.81
502.305	102.81
502.522	91.81
502.739	83.81
502.956	87.81
503.172	102.81
503.389	85.81
503.606	82.81
503.823	85.81
504.04	95.81
504.256	117.81
504.473	123.81
504.69	86.81
504.907	96.81
505.123	89.81
505.34	85.81
505.557	79.81
505.773	85.81
505.99	79.81
506.207	82.81
506.423	81.81
506.64	70.81
506.856	89.81
507.073	76.81
507.289	100.81
507.506	83.81
507.722	92.81
507.939	84.81
508.155	91.81
508.372	76.81
508.588	75.81
508.805	102.81
509.021	113.81
509.238	89.81
509.454	79.81
509.67	86.81
509.887	78.81
510.103	100.81
510.319	92.81
510.536	96.81
510.752	85.81
510.968	85.81
511.184	90.81
511.401	66.81
511.617	102.81
511.833	87.81
512.049	91.81
512.265	82.81
512.481	72.81
512.698	90.81
512.914	87.81
513.13	86.81
513.346	89.81
513.562	96.81
513.778	83.81
513.994	73.81
514.21	94.81
514.426	103.81
514.642	88.81
514.858	95.81
515.074	88.81
515.29	84.81
515.506	83.81
515.721	91.81
515.937	68.81
516.153	106.81
516.369	94.81
516.585	91.81
516.801	87.81
517.016	91.81
517.232	94.81
517.448	100.81
517.664	91.81
517.879	89.81
518.095	97.81
518.311	94.81
518.527	103.81
