Data from 10100_1_HRD10591_00042.txt Node
Date: Mon Jan 19 14:00:45 EST 2026
User: Yrep
Spectrometer: HR+D1059
Trigger mode: 1
Integration Time (sec): 1.000000E-1
Scans to average: 1
Electric dark correction enabled: true
Nonlinearity correction enabled: false
Boxcar width: 0
XAxis mode: Wavelengths
Number of Pixels in Spectrum: 2048
>>>>>Begin Spectral Data<<<<<
223.165	-5.94
223.4	-5.94
223.635	-5.94
223.869	-8.94
224.104	-17.94
224.338	-13.94
224.573	-9.94
224.808	-30.94
225.042	-18.94
225.277	-5.94
225.511	-4.94
225.746	-4.94
225.98	17.06
226.215	0.06
226.449	17.06
226.683	24.06
226.918	35.06
227.152	29.06
227.387	51.06
227.621	32.06
227.856	50.06
228.09	46.06
228.324	59.06
228.559	64.06
228.793	42.06
229.027	68.06
229.262	66.06
229.496	62.06
229.73	70.06
229.964	77.06
230.199	74.06
230.433	70.06
230.667	73.06
230.901	85.06
231.136	94.06
231.37	76.06
231.604	73.06
231.838	82.06
232.072	80.06
232.306	72.06
232.541	69.06
232.775	99.06
233.009	81.06
233.243	79.06
233.477	82.06
233.711	86.06
233.945	83.06
234.179	74.06
234.413	92.06
234.647	80.06
234.881	82.06
235.115	92.06
235.349	87.06
235.583	82.06
235.817	83.06
236.051	83.06
236.285	81.06
236.519	79.06
236.753	82.06
236.987	81.06
237.221	64.06
237.455	71.06
237.689	77.06
237.922	70.06
238.156	76.06
238.39	74.06
238.624	73.06
238.858	80.06
239.091	76.06
239.325	80.06
239.559	79.06
239.793	64.06
240.027	82.06
240.26	80.06
240.494	63.06
240.728	70.06
240.961	85.06
241.195	76.06
241.429	100.06
241.662	83.06
241.896	88.06
242.13	86.06
242.363	83.06
242.597	89.06
242.83	74.06
243.064	76.06
243.298	72.06
243.531	82.06
243.765	82.06
243.998	74.06
244.232	70.06
244.465	77.06
244.699	74.06
244.932	82.06
245.166	80.06
245.399	70.06
245.633	84.06
245.866	79.06
246.099	79.06
246.333	84.06
246.566	82.06
246.8	87.06
247.033	85.06
247.266	77.06
247.5	73.06
247.733	88.06
247.966	70.06
248.2	82.06
248.433	80.06
248.666	79.06
248.899	79.06
249.133	77.06
249.366	87.06
249.599	82.06
249.832	76.06
250.066	89.06
250.299	81.06
250.532	79.06
250.765	72.06
250.998	74.06
251.231	72.06
251.465	72.06
251.698	71.06
251.931	70.06
252.164	83.06
252.397	80.06
252.63	94.06
252.863	89.06
253.096	75.06
253.329	83.06
253.562	72.06
253.795	80.06
254.028	83.06
254.261	80.06
254.494	75.06
254.727	84.06
254.96	83.06
255.193	82.06
255.426	89.06
255.659	70.06
255.892	72.06
256.124	96.06
256.357	71.06
256.59	85.06
256.823	74.06
257.056	85.06
257.289	65.06
257.521	85.06
257.754	90.06
257.987	75.06
258.22	87.06
258.452	82.06
258.685	74.06
258.918	72.06
259.151	82.06
259.383	82.06
259.616	77.06
259.849	73.06
260.081	72.06
260.314	91.06
260.547	90.06
260.779	90.06
261.012	90.06
261.244	89.06
261.477	85.06
261.71	90.06
261.942	86.06
262.175	73.06
262.407	78.06
262.64	83.06
262.872	76.06
263.105	94.06
263.337	95.06
263.57	75.06
263.802	83.06
264.035	77.06
264.267	88.06
264.499	91.06
264.732	73.06
264.964	81.06
265.197	84.06
265.429	86.06
265.661	78.06
265.894	79.06
266.126	99.06
266.358	83.06
266.591	83.06
266.823	105.06
267.055	75.06
267.287	77.06
267.52	81.06
267.752	80.06
267.984	81.06
268.216	90.06
268.448	83.06
268.681	84.06
268.913	90.06
269.145	91.06
269.377	84.06
269.609	80.06
269.841	71.06
270.073	82.06
270.306	76.06
270.538	88.06
270.77	76.06
271.002	101.06
271.234	75.06
271.466	90.06
271.698	85.06
271.93	65.06
272.162	85.06
272.394	81.06
272.626	70.06
272.858	88.06
273.09	86.06
273.322	86.06
273.553	83.06
273.785	96.06
274.017	87.06
274.249	74.06
274.481	77.06
274.713	94.06
274.945	89.06
275.176	85.06
275.408	77.06
275.64	85.06
275.872	88.06
276.104	87.06
276.335	68.06
276.567	85.06
276.799	78.06
277.031	76.06
277.262	85.06
277.494	79.06
277.726	75.06
277.957	106.06
278.189	81.06
278.421	85.06
278.652	85.06
278.884	74.06
279.115	86.06
279.347	95.06
279.579	89.06
279.81	93.06
280.042	93.06
280.273	84.06
280.505	90.06
280.736	93.06
280.968	78.06
281.199	89.06
281.431	91.06
281.662	98.06
281.894	91.06
282.125	76.06
282.356	79.06
282.588	86.06
282.819	97.06
283.051	84.06
283.282	87.06
283.513	81.06
283.745	88.06
283.976	76.06
284.207	84.06
284.439	81.06
284.67	75.06
284.901	90.06
285.132	100.06
285.364	92.06
285.595	71.06
285.826	76.06
286.057	104.06
286.288	88.06
286.52	92.06
286.751	97.06
286.982	82.06
287.213	88.06
287.444	92.06
287.675	92.06
287.906	89.06
288.138	92.06
288.369	80.06
288.6	91.06
288.831	91.06
289.062	73.06
289.293	72.06
289.524	95.06
289.755	86.06
289.986	94.06
290.217	93.06
290.448	77.06
290.679	84.06
290.91	100.06
291.141	77.06
291.371	90.06
291.602	92.06
291.833	69.06
292.064	87.06
292.295	78.06
292.526	70.06
292.757	85.06
292.987	74.06
293.218	82.06
293.449	83.06
293.68	84.06
293.91	83.06
294.141	76.06
294.372	82.06
294.603	86.06
294.833	89.06
295.064	95.06
295.295	86.06
295.525	83.06
295.756	80.06
295.987	79.06
296.217	80.06
296.448	86.06
296.679	86.06
296.909	74.06
297.14	91.06
297.37	81.06
297.601	88.06
297.831	86.06
298.062	80.06
298.292	75.06
298.523	87.06
298.753	103.06
298.984	80.06
299.214	82.06
299.445	87.06
299.675	83.06
299.905	79.06
300.136	99.06
300.366	79.06
300.597	82.06
300.827	86.06
301.057	85.06
301.288	90.06
301.518	95.06
301.748	86.06
301.979	98.06
302.209	99.06
302.439	86.06
302.669	94.06
302.9	78.06
303.13	84.06
303.36	95.06
303.59	100.06
303.82	80.06
304.051	93.06
304.281	75.06
304.511	87.06
304.741	88.06
304.971	91.06
305.201	75.06
305.431	84.06
305.661	74.06
305.891	82.06
306.121	85.06
306.352	88.06
306.582	83.06
306.812	91.06
307.042	89.06
307.272	87.06
307.502	79.06
307.731	77.06
307.961	90.06
308.191	92.06
308.421	86.06
308.651	81.06
308.881	100.06
309.111	107.06
309.341	106.06
309.571	100.06
309.8	78.06
310.03	84.06
310.26	90.06
310.49	99.06
310.72	86.06
310.949	96.06
311.179	77.06
311.409	106.06
311.639	91.06
311.868	75.06
312.098	86.06
312.328	74.06
312.557	78.06
312.787	75.06
313.017	92.06
313.246	84.06
313.476	74.06
313.706	66.06
313.935	84.06
314.165	96.06
314.394	86.06
314.624	82.06
314.853	76.06
315.083	89.06
315.312	91.06
315.542	94.06
315.771	90.06
316.001	84.06
316.23	89.06
316.46	93.06
316.689	84.06
316.919	93.06
317.148	89.06
317.377	94.06
317.607	98.06
317.836	89.06
318.065	83.06
318.295	88.06
318.524	84.06
318.753	89.06
318.983	92.06
319.212	82.06
319.441	89.06
319.67	86.06
319.9	90.06
320.129	85.06
320.358	80.06
320.587	72.06
320.816	82.06
321.046	78.06
321.275	99.06
321.504	71.06
321.733	85.06
321.962	77.06
322.191	85.06
322.42	95.06
322.649	98.06
322.878	86.06
323.108	93.06
323.337	80.06
323.566	87.06
323.795	105.06
324.024	94.06
324.253	82.06
324.482	90.06
324.71	74.06
324.939	93.06
325.168	70.06
325.397	94.06
325.626	86.06
325.855	79.06
326.084	74.06
326.313	70.06
326.542	78.06
326.77	80.06
326.999	74.06
327.228	84.06
327.457	84.06
327.686	76.06
327.914	85.06
328.143	92.06
328.372	80.06
328.6	80.06
328.829	75.06
329.058	81.06
329.287	93.06
329.515	98.06
329.744	91.06
329.972	81.06
330.201	78.06
330.43	79.06
330.658	75.06
330.887	77.06
331.115	77.06
331.344	81.06
331.572	98.06
331.801	87.06
332.03	87.06
332.258	97.06
332.486	90.06
332.715	90.06
332.943	72.06
333.172	76.06
333.4	86.06
333.629	86.06
333.857	84.06
334.085	79.06
334.314	98.06
334.542	82.06
334.771	79.06
334.999	90.06
335.227	93.06
335.455	83.06
335.684	90.06
335.912	96.06
336.14	103.06
336.369	104.06
336.597	99.06
336.825	84.06
337.053	93.06
337.281	80.06
337.51	71.06
337.738	70.06
337.966	80.06
338.194	75.06
338.422	83.06
338.65	91.06
338.878	90.06
339.106	82.06
339.334	79.06
339.562	81.06
339.79	77.06
340.018	81.06
340.246	90.06
340.474	76.06
340.702	86.06
340.93	103.06
341.158	86.06
341.386	72.06
341.614	80.06
341.842	76.06
342.07	72.06
342.298	90.06
342.526	90.06
342.754	77.06
342.981	99.06
343.209	82.06
343.437	78.06
343.665	82.06
343.893	81.06
344.12	90.06
344.348	106.06
344.576	80.06
344.804	89.06
345.031	78.06
345.259	96.06
345.487	104.06
345.714	94.06
345.942	88.06
346.17	75.06
346.397	93.06
346.625	76.06
346.853	86.06
347.08	91.06
347.308	75.06
347.535	79.06
347.763	97.06
347.99	96.06
348.218	70.06
348.445	74.06
348.673	89.06
348.9	89.06
349.128	111.06
349.355	91.06
349.583	75.06
349.81	83.06
350.037	86.06
350.265	89.06
350.492	81.06
350.72	83.06
350.947	94.06
351.174	101.06
351.402	94.06
351.629	85.06
351.856	82.06
352.083	72.06
352.311	90.06
352.538	93.06
352.765	103.06
352.992	95.06
353.22	77.06
353.447	90.06
353.674	91.06
353.901	82.06
354.128	70.06
354.355	83.06
354.583	79.06
354.81	84.06
355.037	94.06
355.264	94.06
355.491	94.06
355.718	88.06
355.945	90.06
356.172	83.06
356.399	76.06
356.626	97.06
356.853	101.06
357.08	86.06
357.307	90.06
357.534	89.06
357.761	79.06
357.988	106.06
358.215	87.06
358.441	90.06
358.668	101.06
358.895	89.06
359.122	100.06
359.349	83.06
359.576	83.06
359.802	84.06
360.029	79.06
360.256	81.06
360.483	74.06
360.709	68.06
360.936	79.06
361.163	83.06
361.39	71.06
361.616	89.06
361.843	87.06
362.07	88.06
362.296	84.06
362.523	92.06
362.749	69.06
362.976	98.06
363.203	109.06
363.429	84.06
363.656	92.06
363.882	90.06
364.109	112.06
364.335	99.06
364.562	109.06
364.788	110.06
365.015	100.06
365.241	87.06
365.468	89.06
365.694	98.06
365.92	87.06
366.147	100.06
366.373	88.06
366.599	84.06
366.826	91.06
367.052	73.06
367.278	90.06
367.505	101.06
367.731	91.06
367.957	95.06
368.184	90.06
368.41	87.06
368.636	89.06
368.862	86.06
369.089	83.06
369.315	78.06
369.541	77.06
369.767	91.06
369.993	93.06
370.219	68.06
370.445	98.06
370.672	73.06
370.898	84.06
371.124	89.06
371.35	87.06
371.576	91.06
371.802	73.06
372.028	92.06
372.254	76.06
372.48	118.06
372.706	91.06
372.932	88.06
373.158	97.06
373.384	95.06
373.61	100.06
373.835	100.06
374.061	87.06
374.287	93.06
374.513	87.06
374.739	100.06
374.965	88.06
375.191	100.06
375.416	91.06
375.642	81.06
375.868	76.06
376.094	86.06
376.319	86.06
376.545	91.06
376.771	86.06
376.997	93.06
377.222	97.06
377.448	92.06
377.674	80.06
377.899	90.06
378.125	73.06
378.35	82.06
378.576	71.06
378.802	94.06
379.027	81.06
379.253	90.06
379.478	97.06
379.704	77.06
379.929	79.06
380.155	94.06
380.38	81.06
380.606	80.06
380.831	96.06
381.057	94.06
381.282	94.06
381.507	91.06
381.733	103.06
381.958	87.06
382.184	108.06
382.409	88.06
382.634	94.06
382.86	92.06
383.085	96.06
383.31	103.06
383.535	105.06
383.761	93.06
383.986	84.06
384.211	87.06
384.436	87.06
384.662	83.06
384.887	70.06
385.112	82.06
385.337	86.06
385.562	100.06
385.787	102.06
386.013	86.06
386.238	100.06
386.463	93.06
386.688	114.06
386.913	84.06
387.138	90.06
387.363	91.06
387.588	86.06
387.813	96.06
388.038	97.06
388.263	110.06
388.488	99.06
388.713	95.06
388.938	97.06
389.163	94.06
389.387	75.06
389.612	91.06
389.837	80.06
390.062	90.06
390.287	79.06
390.512	98.06
390.736	88.06
390.961	88.06
391.186	70.06
391.411	79.06
391.636	92.06
391.86	88.06
392.085	76.06
392.31	76.06
392.534	99.06
392.759	113.06
392.984	130.06
393.208	208.06
393.433	305.06
393.658	238.06
393.882	122.06
394.107	96.06
394.331	110.06
394.556	96.06
394.78	104.06
395.005	94.06
395.229	88.06
395.454	91.06
395.678	91.06
395.903	111.06
396.127	114.06
396.352	131.06
396.576	146.06
396.801	204.06
397.025	260.06
397.249	157.06
397.474	98.06
397.698	103.06
397.922	91.06
398.147	92.06
398.371	104.06
398.595	97.06
398.82	84.06
399.044	79.06
399.268	97.06
399.492	86.06
399.717	99.06
399.941	100.06
400.165	99.06
400.389	92.06
400.613	108.06
400.837	94.06
401.062	93.06
401.286	94.06
401.51	87.06
401.734	80.06
401.958	85.06
402.182	88.06
402.406	84.06
402.63	74.06
402.854	92.06
403.078	78.06
403.302	80.06
403.526	78.06
403.75	90.06
403.974	73.06
404.198	93.06
404.422	95.06
404.645	72.06
404.869	94.06
405.093	94.06
405.317	80.06
405.541	88.06
405.765	80.06
405.988	91.06
406.212	81.06
406.436	89.06
406.66	82.06
406.883	96.06
407.107	101.06
407.331	83.06
407.555	103.06
407.778	119.06
408.002	109.06
408.226	77.06
408.449	87.06
408.673	69.06
408.896	75.06
409.12	78.06
409.344	81.06
409.567	88.06
409.791	91.06
410.014	93.06
410.238	88.06
410.461	89.06
410.685	81.06
410.908	91.06
411.132	93.06
411.355	92.06
411.578	74.06
411.802	89.06
412.025	72.06
412.249	88.06
412.472	90.06
412.695	83.06
412.919	90.06
413.142	81.06
413.365	76.06
413.589	94.06
413.812	95.06
414.035	89.06
414.258	81.06
414.482	99.06
414.705	74.06
414.928	99.06
415.151	100.06
415.374	89.06
415.597	89.06
415.821	78.06
416.044	95.06
416.267	96.06
416.49	81.06
416.713	103.06
416.936	94.06
417.159	74.06
417.382	77.06
417.605	94.06
417.828	92.06
418.051	89.06
418.274	87.06
418.497	70.06
418.72	100.06
418.943	92.06
419.166	82.06
419.389	90.06
419.611	87.06
419.834	94.06
420.057	88.06
420.28	92.06
420.503	101.06
420.726	93.06
420.948	86.06
421.171	96.06
421.394	99.06
421.617	117.06
421.839	110.06
422.062	104.06
422.285	132.06
422.507	223.06
422.73	344.06
422.953	281.06
423.175	137.06
423.398	105.06
423.621	92.06
423.843	88.06
424.066	82.06
424.288	90.06
424.511	89.06
424.733	85.06
424.956	86.06
425.178	87.06
425.401	75.06
425.623	83.06
425.846	72.06
426.068	94.06
426.291	84.06
426.513	93.06
426.735	81.06
426.958	92.06
427.18	93.06
427.402	94.06
427.625	85.06
427.847	105.06
428.069	95.06
428.292	117.06
428.514	121.06
428.736	106.06
428.958	114.06
429.181	120.06
429.403	91.06
429.625	92.06
429.847	95.06
430.069	120.06
430.292	152.06
430.514	134.06
430.736	132.06
430.958	121.06
431.18	86.06
431.402	92.06
431.624	94.06
431.846	112.06
432.068	127.06
432.29	112.06
432.512	107.06
432.734	89.06
432.956	89.06
433.178	81.06
433.4	74.06
433.622	87.06
433.844	74.06
434.066	85.06
434.287	91.06
434.509	80.06
434.731	97.06
434.953	83.06
435.175	102.06
435.397	83.06
435.618	96.06
435.84	98.06
436.062	95.06
436.284	78.06
436.505	92.06
436.727	98.06
436.949	82.06
437.17	69.06
437.392	80.06
437.614	86.06
437.835	87.06
438.057	88.06
438.278	97.06
438.5	92.06
438.721	74.06
438.943	98.06
439.165	88.06
439.386	68.06
439.608	92.06
439.829	86.06
440.05	88.06
440.272	98.06
440.493	86.06
440.715	98.06
440.936	93.06
441.158	81.06
441.379	83.06
441.6	92.06
441.822	85.06
442.043	79.06
442.264	93.06
442.486	114.06
442.707	138.06
442.928	115.06
443.149	94.06
443.371	124.06
443.592	190.06
443.813	169.06
444.034	98.06
444.255	88.06
444.476	104.06
444.698	89.06
444.919	83.06
445.14	140.06
445.361	175.06
445.582	210.06
445.803	191.06
446.024	98.06
446.245	90.06
446.466	98.06
446.687	86.06
446.908	84.06
447.129	89.06
447.35	85.06
447.571	78.06
447.792	79.06
448.013	85.06
448.234	84.06
448.455	95.06
448.675	92.06
448.896	86.06
449.117	83.06
449.338	84.06
449.559	87.06
449.779	90.06
450	82.06
450.221	81.06
450.442	86.06
450.662	87.06
450.883	81.06
451.104	87.06
451.324	80.06
451.545	77.06
451.766	85.06
451.986	90.06
452.207	93.06
452.428	80.06
452.648	94.06
452.869	88.06
453.089	83.06
453.31	84.06
453.53	86.06
453.751	87.06
453.971	91.06
454.192	90.06
454.412	83.06
454.633	77.06
454.853	86.06
455.073	101.06
455.294	82.06
455.514	95.06
455.734	72.06
455.955	91.06
456.175	104.06
456.395	75.06
456.616	92.06
456.836	70.06
457.056	72.06
457.276	77.06
457.497	82.06
457.717	78.06
457.937	89.06
458.157	101.06
458.377	87.06
458.598	96.06
458.818	104.06
459.038	91.06
459.258	87.06
459.478	86.06
459.698	77.06
459.918	81.06
460.138	91.06
460.358	72.06
460.578	89.06
460.798	103.06
461.018	103.06
461.238	105.06
461.458	92.06
461.678	77.06
461.898	91.06
462.118	81.06
462.338	87.06
462.558	77.06
462.777	91.06
462.997	83.06
463.217	79.06
463.437	90.06
463.657	75.06
463.876	83.06
464.096	80.06
464.316	84.06
464.536	81.06
464.755	77.06
464.975	91.06
465.195	84.06
465.414	79.06
465.634	92.06
465.854	70.06
466.073	86.06
466.293	91.06
466.512	76.06
466.732	88.06
466.951	97.06
467.171	103.06
467.391	82.06
467.61	88.06
467.829	82.06
468.049	92.06
468.268	87.06
468.488	95.06
468.707	82.06
468.927	83.06
469.146	82.06
469.365	92.06
469.585	94.06
469.804	89.06
470.023	92.06
470.243	83.06
470.462	93.06
470.681	70.06
470.901	74.06
471.12	73.06
471.339	76.06
471.558	80.06
471.777	83.06
471.997	87.06
472.216	87.06
472.435	98.06
472.654	89.06
472.873	101.06
473.092	81.06
473.311	73.06
473.53	91.06
473.749	94.06
473.968	103.06
474.187	79.06
474.406	89.06
474.625	82.06
474.844	87.06
475.063	97.06
475.282	88.06
475.501	88.06
475.72	90.06
475.939	74.06
476.158	76.06
476.377	75.06
476.596	67.06
476.814	92.06
477.033	88.06
477.252	87.06
477.471	83.06
477.69	82.06
477.908	87.06
478.127	90.06
478.346	81.06
478.564	91.06
478.783	90.06
479.002	83.06
479.22	87.06
479.439	90.06
479.658	86.06
479.876	92.06
480.095	91.06
480.313	96.06
480.532	78.06
480.751	86.06
480.969	105.06
481.188	84.06
481.406	89.06
481.624	90.06
481.843	65.06
482.061	89.06
482.28	77.06
482.498	96.06
482.717	92.06
482.935	92.06
483.153	84.06
483.372	99.06
483.59	93.06
483.808	80.06
484.027	94.06
484.245	102.06
484.463	90.06
484.681	93.06
484.9	88.06
485.118	82.06
485.336	96.06
485.554	99.06
485.772	86.06
485.99	83.06
486.209	83.06
486.427	80.06
486.645	89.06
486.863	88.06
487.081	79.06
487.299	80.06
487.517	107.06
487.735	91.06
487.953	121.06
488.171	125.06
488.389	96.06
488.607	93.06
488.825	91.06
489.043	82.06
489.261	90.06
489.479	79.06
489.696	76.06
489.914	81.06
490.132	75.06
490.35	96.06
490.568	100.06
490.786	87.06
491.003	82.06
491.221	75.06
491.439	82.06
491.657	100.06
491.874	91.06
492.092	89.06
492.31	94.06
492.527	83.06
492.745	86.06
492.963	91.06
493.18	88.06
493.398	89.06
493.615	92.06
493.833	89.06
494.05	89.06
494.268	96.06
494.485	88.06
494.703	98.06
494.92	91.06
495.138	86.06
495.355	97.06
495.573	90.06
495.79	91.06
496.008	92.06
496.225	74.06
496.442	73.06
496.66	86.06
496.877	83.06
497.094	90.06
497.312	89.06
497.529	87.06
497.746	94.06
497.963	71.06
498.181	87.06
498.398	94.06
498.615	86.06
498.832	103.06
499.049	98.06
499.267	78.06
499.484	84.06
499.701	88.06
499.918	84.06
500.135	93.06
500.352	91.06
500.569	88.06
500.786	111.06
501.003	87.06
501.22	83.06
501.437	81.06
501.654	86.06
501.871	81.06
502.088	90.06
502.305	80.06
502.522	83.06
502.739	97.06
502.956	86.06
503.172	90.06
503.389	92.06
503.606	90.06
503.823	100.06
504.04	92.06
504.256	123.06
504.473	116.06
504.69	81.06
504.907	100.06
505.123	87.06
505.34	80.06
505.557	72.06
505.773	97.06
505.99	83.06
506.207	91.06
506.423	83.06
506.64	91.06
506.856	100.06
507.073	88.06
507.289	99.06
507.506	76.06
507.722	95.06
507.939	98.06
508.155	79.06
508.372	89.06
508.588	98.06
508.805	109.06
509.021	90.06
509.238	86.06
509.454	87.06
509.67	89.06
509.887	84.06
510.103	90.06
510.319	100.06
510.536	83.06
510.752	85.06
510.968	91.06
511.184	85.06
511.401	84.06
511.617	81.06
511.833	72.06
512.049	88.06
512.265	84.06
512.481	97.06
512.698	88.06
512.914	104.06
513.13	89.06
513.346	80.06
513.562	86.06
513.778	94.06
513.994	98.06
514.21	91.06
514.426	82.06
514.642	95.06
514.858	84.06
515.074	84.06
515.29	93.06
515.506	78.06
515.721	76.06
515.937	83.06
516.153	82.06
516.369	91.06
516.585	86.06
516.801	87.06
517.016	94.06
517.232	95.06
517.448	86.06
517.664	97.06
517.879	99.06
518.095	91.06
518.311	101.06
