Data from 10100_1_HRD10591_00009.txt Node
Date: Mon Jan 19 14:00:29 EST 2026
User: Yrep
Spectrometer: HR+D1059
Trigger mode: 1
Integration Time (sec): 1.000000E-1
Scans to average: 1
Electric dark correction enabled: true
Nonlinearity correction enabled: false
Boxcar width: 0
XAxis mode: Wavelengths
Number of Pixels in Spectrum: 2048
>>>>>Begin Spectral Data<<<<<
223.165	-14.19
223.4	-14.19
223.635	-14.19
223.869	-17.19
224.104	-20.19
224.338	-14.19
224.573	-34.19
224.808	-14.19
225.042	-16.19
225.277	-10.19
225.511	-4.19
225.746	-1.19
225.98	13.81
226.215	7.81
226.449	25.81
226.683	33.81
226.918	25.81
227.152	38.81
227.387	38.81
227.621	48.81
227.856	55.81
228.09	44.81
228.324	53.81
228.559	60.81
228.793	47.81
229.027	65.81
229.262	63.81
229.496	67.81
229.73	74.81
229.964	59.81
230.199	71.81
230.433	80.81
230.667	72.81
230.901	71.81
231.136	83.81
231.37	76.81
231.604	75.81
231.838	76.81
232.072	79.81
232.306	87.81
232.541	79.81
232.775	87.81
233.009	81.81
233.243	81.81
233.477	83.81
233.711	71.81
233.945	71.81
234.179	68.81
234.413	85.81
234.647	81.81
234.881	91.81
235.115	93.81
235.349	67.81
235.583	65.81
235.817	80.81
236.051	83.81
236.285	75.81
236.519	81.81
236.753	77.81
236.987	76.81
237.221	81.81
237.455	67.81
237.689	77.81
237.922	72.81
238.156	76.81
238.39	79.81
238.624	67.81
238.858	68.81
239.091	77.81
239.325	76.81
239.559	76.81
239.793	70.81
240.027	73.81
240.26	79.81
240.494	80.81
240.728	86.81
240.961	73.81
241.195	63.81
241.429	82.81
241.662	91.81
241.896	80.81
242.13	77.81
242.363	79.81
242.597	68.81
242.83	81.81
243.064	81.81
243.298	74.81
243.531	63.81
243.765	65.81
243.998	81.81
244.232	65.81
244.465	70.81
244.699	85.81
244.932	74.81
245.166	73.81
245.399	89.81
245.633	81.81
245.866	75.81
246.099	61.81
246.333	87.81
246.566	71.81
246.8	71.81
247.033	60.81
247.266	72.81
247.5	85.81
247.733	64.81
247.966	81.81
248.2	79.81
248.433	74.81
248.666	68.81
248.899	80.81
249.133	74.81
249.366	74.81
249.599	77.81
249.832	88.81
250.066	82.81
250.299	83.81
250.532	70.81
250.765	79.81
250.998	78.81
251.231	85.81
251.465	78.81
251.698	68.81
251.931	61.81
252.164	72.81
252.397	77.81
252.63	73.81
252.863	67.81
253.096	79.81
253.329	77.81
253.562	60.81
253.795	82.81
254.028	75.81
254.261	74.81
254.494	81.81
254.727	91.81
254.96	79.81
255.193	74.81
255.426	89.81
255.659	78.81
255.892	93.81
256.124	83.81
256.357	74.81
256.59	71.81
256.823	79.81
257.056	79.81
257.289	79.81
257.521	81.81
257.754	69.81
257.987	73.81
258.22	80.81
258.452	88.81
258.685	88.81
258.918	81.81
259.151	70.81
259.383	79.81
259.616	83.81
259.849	79.81
260.081	86.81
260.314	62.81
260.547	79.81
260.779	70.81
261.012	81.81
261.244	87.81
261.477	82.81
261.71	71.81
261.942	91.81
262.175	79.81
262.407	86.81
262.64	71.81
262.872	96.81
263.105	89.81
263.337	85.81
263.57	84.81
263.802	86.81
264.035	93.81
264.267	63.81
264.499	71.81
264.732	77.81
264.964	85.81
265.197	86.81
265.429	80.81
265.661	85.81
265.894	84.81
266.126	81.81
266.358	79.81
266.591	78.81
266.823	76.81
267.055	77.81
267.287	89.81
267.52	88.81
267.752	87.81
267.984	84.81
268.216	79.81
268.448	90.81
268.681	77.81
268.913	79.81
269.145	96.81
269.377	75.81
269.609	89.81
269.841	79.81
270.073	81.81
270.306	83.81
270.538	87.81
270.77	85.81
271.002	84.81
271.234	81.81
271.466	84.81
271.698	78.81
271.93	81.81
272.162	89.81
272.394	94.81
272.626	91.81
272.858	81.81
273.09	93.81
273.322	78.81
273.553	89.81
273.785	83.81
274.017	65.81
274.249	86.81
274.481	99.81
274.713	93.81
274.945	89.81
275.176	83.81
275.408	84.81
275.64	87.81
275.872	75.81
276.104	79.81
276.335	83.81
276.567	77.81
276.799	98.81
277.031	83.81
277.262	74.81
277.494	86.81
277.726	91.81
277.957	79.81
278.189	79.81
278.421	73.81
278.652	67.81
278.884	80.81
279.115	76.81
279.347	90.81
279.579	89.81
279.81	71.81
280.042	76.81
280.273	89.81
280.505	82.81
280.736	81.81
280.968	83.81
281.199	80.81
281.431	91.81
281.662	79.81
281.894	72.81
282.125	79.81
282.356	77.81
282.588	77.81
282.819	79.81
283.051	101.81
283.282	84.81
283.513	90.81
283.745	66.81
283.976	87.81
284.207	81.81
284.439	89.81
284.67	85.81
284.901	78.81
285.132	77.81
285.364	88.81
285.595	100.81
285.826	93.81
286.057	101.81
286.288	86.81
286.52	72.81
286.751	79.81
286.982	84.81
287.213	91.81
287.444	96.81
287.675	82.81
287.906	75.81
288.138	87.81
288.369	95.81
288.6	83.81
288.831	88.81
289.062	79.81
289.293	68.81
289.524	80.81
289.755	73.81
289.986	75.81
290.217	96.81
290.448	80.81
290.679	80.81
290.91	89.81
291.141	83.81
291.371	83.81
291.602	86.81
291.833	95.81
292.064	78.81
292.295	84.81
292.526	95.81
292.757	82.81
292.987	85.81
293.218	69.81
293.449	96.81
293.68	89.81
293.91	81.81
294.141	84.81
294.372	86.81
294.603	79.81
294.833	86.81
295.064	86.81
295.295	82.81
295.525	69.81
295.756	94.81
295.987	80.81
296.217	89.81
296.448	76.81
296.679	71.81
296.909	80.81
297.14	95.81
297.37	88.81
297.601	82.81
297.831	82.81
298.062	89.81
298.292	87.81
298.523	79.81
298.753	94.81
298.984	82.81
299.214	86.81
299.445	83.81
299.675	87.81
299.905	88.81
300.136	99.81
300.366	77.81
300.597	79.81
300.827	91.81
301.057	93.81
301.288	74.81
301.518	86.81
301.748	98.81
301.979	112.81
302.209	88.81
302.439	81.81
302.669	92.81
302.9	75.81
303.13	82.81
303.36	93.81
303.59	94.81
303.82	88.81
304.051	92.81
304.281	99.81
304.511	87.81
304.741	81.81
304.971	88.81
305.201	79.81
305.431	79.81
305.661	79.81
305.891	71.81
306.121	95.81
306.352	87.81
306.582	91.81
306.812	89.81
307.042	87.81
307.272	80.81
307.502	88.81
307.731	82.81
307.961	76.81
308.191	88.81
308.421	90.81
308.651	80.81
308.881	85.81
309.111	84.81
309.341	86.81
309.571	80.81
309.8	87.81
310.03	79.81
310.26	85.81
310.49	91.81
310.72	87.81
310.949	78.81
311.179	71.81
311.409	77.81
311.639	90.81
311.868	99.81
312.098	85.81
312.328	96.81
312.557	99.81
312.787	81.81
313.017	73.81
313.246	94.81
313.476	74.81
313.706	89.81
313.935	100.81
314.165	92.81
314.394	85.81
314.624	80.81
314.853	85.81
315.083	81.81
315.312	71.81
315.542	86.81
315.771	99.81
316.001	86.81
316.23	86.81
316.46	96.81
316.689	87.81
316.919	82.81
317.148	81.81
317.377	89.81
317.607	96.81
317.836	79.81
318.065	97.81
318.295	76.81
318.524	81.81
318.753	83.81
318.983	90.81
319.212	100.81
319.441	87.81
319.67	72.81
319.9	84.81
320.129	103.81
320.358	80.81
320.587	77.81
320.816	96.81
321.046	91.81
321.275	99.81
321.504	83.81
321.733	89.81
321.962	83.81
322.191	87.81
322.42	81.81
322.649	84.81
322.878	93.81
323.108	97.81
323.337	78.81
323.566	85.81
323.795	97.81
324.024	88.81
324.253	82.81
324.482	82.81
324.71	89.81
324.939	91.81
325.168	71.81
325.397	89.81
325.626	93.81
325.855	93.81
326.084	89.81
326.313	86.81
326.542	93.81
326.77	88.81
326.999	88.81
327.228	87.81
327.457	88.81
327.686	77.81
327.914	69.81
328.143	79.81
328.372	91.81
328.6	88.81
328.829	87.81
329.058	72.81
329.287	74.81
329.515	92.81
329.744	72.81
329.972	91.81
330.201	86.81
330.43	73.81
330.658	87.81
330.887	91.81
331.115	92.81
331.344	78.81
331.572	94.81
331.801	99.81
332.03	94.81
332.258	76.81
332.486	85.81
332.715	81.81
332.943	86.81
333.172	77.81
333.4	85.81
333.629	88.81
333.857	89.81
334.085	103.81
334.314	90.81
334.542	91.81
334.771	113.81
334.999	95.81
335.227	90.81
335.455	89.81
335.684	100.81
335.912	99.81
336.14	96.81
336.369	101.81
336.597	97.81
336.825	83.81
337.053	81.81
337.281	93.81
337.51	92.81
337.738	93.81
337.966	96.81
338.194	83.81
338.422	95.81
338.65	80.81
338.878	92.81
339.106	91.81
339.334	95.81
339.562	97.81
339.79	82.81
340.018	90.81
340.246	78.81
340.474	83.81
340.702	79.81
340.93	99.81
341.158	84.81
341.386	83.81
341.614	78.81
341.842	83.81
342.07	80.81
342.298	101.81
342.526	86.81
342.754	69.81
342.981	94.81
343.209	83.81
343.437	108.81
343.665	93.81
343.893	95.81
344.12	78.81
344.348	85.81
344.576	80.81
344.804	91.81
345.031	74.81
345.259	95.81
345.487	80.81
345.714	74.81
345.942	88.81
346.17	90.81
346.397	87.81
346.625	78.81
346.853	87.81
347.08	92.81
347.308	93.81
347.535	88.81
347.763	105.81
347.99	68.81
348.218	85.81
348.445	84.81
348.673	81.81
348.9	83.81
349.128	93.81
349.355	86.81
349.583	91.81
349.81	95.81
350.037	86.81
350.265	102.81
350.492	82.81
350.72	83.81
350.947	79.81
351.174	80.81
351.402	96.81
351.629	89.81
351.856	80.81
352.083	79.81
352.311	82.81
352.538	87.81
352.765	93.81
352.992	85.81
353.22	86.81
353.447	64.81
353.674	81.81
353.901	71.81
354.128	93.81
354.355	85.81
354.583	81.81
354.81	91.81
355.037	85.81
355.264	90.81
355.491	73.81
355.718	92.81
355.945	89.81
356.172	86.81
356.399	82.81
356.626	96.81
356.853	80.81
357.08	85.81
357.307	94.81
357.534	90.81
357.761	83.81
357.988	97.81
358.215	90.81
358.441	95.81
358.668	95.81
358.895	71.81
359.122	85.81
359.349	90.81
359.576	89.81
359.802	87.81
360.029	87.81
360.256	81.81
360.483	91.81
360.709	86.81
360.936	100.81
361.163	99.81
361.39	80.81
361.616	83.81
361.843	70.81
362.07	86.81
362.296	99.81
362.523	85.81
362.749	101.81
362.976	99.81
363.203	117.81
363.429	97.81
363.656	79.81
363.882	103.81
364.109	119.81
364.335	126.81
364.562	123.81
364.788	102.81
365.015	101.81
365.241	103.81
365.468	89.81
365.694	79.81
365.92	97.81
366.147	83.81
366.373	90.81
366.599	97.81
366.826	95.81
367.052	84.81
367.278	82.81
367.505	77.81
367.731	86.81
367.957	79.81
368.184	91.81
368.41	87.81
368.636	102.81
368.862	86.81
369.089	86.81
369.315	86.81
369.541	91.81
369.767	63.81
369.993	83.81
370.219	90.81
370.445	99.81
370.672	85.81
370.898	86.81
371.124	85.81
371.35	89.81
371.576	85.81
371.802	92.81
372.028	93.81
372.254	97.81
372.48	79.81
372.706	94.81
372.932	94.81
373.158	92.81
373.384	94.81
373.61	99.81
373.835	77.81
374.061	77.81
374.287	87.81
374.513	93.81
374.739	100.81
374.965	92.81
375.191	84.81
375.416	83.81
375.642	93.81
375.868	85.81
376.094	97.81
376.319	95.81
376.545	92.81
376.771	101.81
376.997	91.81
377.222	74.81
377.448	77.81
377.674	92.81
377.899	96.81
378.125	95.81
378.35	88.81
378.576	90.81
378.802	79.81
379.027	80.81
379.253	81.81
379.478	91.81
379.704	88.81
379.929	90.81
380.155	94.81
380.38	70.81
380.606	87.81
380.831	90.81
381.057	88.81
381.282	81.81
381.507	80.81
381.733	95.81
381.958	93.81
382.184	83.81
382.409	92.81
382.634	110.81
382.86	92.81
383.085	96.81
383.31	99.81
383.535	96.81
383.761	97.81
383.986	98.81
384.211	97.81
384.436	99.81
384.662	83.81
384.887	85.81
385.112	84.81
385.337	87.81
385.562	93.81
385.787	88.81
386.013	110.81
386.238	96.81
386.463	87.81
386.688	102.81
386.913	96.81
387.138	95.81
387.363	94.81
387.588	92.81
387.813	116.81
388.038	99.81
388.263	94.81
388.488	86.81
388.713	104.81
388.938	79.81
389.163	82.81
389.387	82.81
389.612	99.81
389.837	73.81
390.062	102.81
390.287	98.81
390.512	94.81
390.736	82.81
390.961	91.81
391.186	85.81
391.411	85.81
391.636	102.81
391.86	87.81
392.085	92.81
392.31	101.81
392.534	93.81
392.759	113.81
392.984	131.81
393.208	188.81
393.433	230.81
393.658	206.81
393.882	129.81
394.107	115.81
394.331	108.81
394.556	109.81
394.78	107.81
395.005	102.81
395.229	86.81
395.454	95.81
395.678	86.81
395.903	104.81
396.127	119.81
396.352	134.81
396.576	130.81
396.801	169.81
397.025	199.81
397.249	136.81
397.474	108.81
397.698	100.81
397.922	87.81
398.147	95.81
398.371	85.81
398.595	89.81
398.82	93.81
399.044	91.81
399.268	85.81
399.492	93.81
399.717	99.81
399.941	77.81
400.165	84.81
400.389	77.81
400.613	105.81
400.837	91.81
401.062	90.81
401.286	75.81
401.51	89.81
401.734	67.81
401.958	77.81
402.182	90.81
402.406	85.81
402.63	86.81
402.854	102.81
403.078	76.81
403.302	88.81
403.526	93.81
403.75	84.81
403.974	95.81
404.198	85.81
404.422	117.81
404.645	97.81
404.869	91.81
405.093	85.81
405.317	98.81
405.541	79.81
405.765	87.81
405.988	90.81
406.212	81.81
406.436	79.81
406.66	72.81
406.883	95.81
407.107	83.81
407.331	88.81
407.555	93.81
407.778	92.81
408.002	104.81
408.226	96.81
408.449	88.81
408.673	96.81
408.896	91.81
409.12	89.81
409.344	92.81
409.567	107.81
409.791	109.81
410.014	93.81
410.238	100.81
410.461	102.81
410.685	76.81
410.908	78.81
411.132	95.81
411.355	86.81
411.578	101.81
411.802	95.81
412.025	78.81
412.249	62.81
412.472	82.81
412.695	79.81
412.919	75.81
413.142	74.81
413.365	87.81
413.589	86.81
413.812	87.81
414.035	89.81
414.258	89.81
414.482	79.81
414.705	79.81
414.928	73.81
415.151	87.81
415.374	91.81
415.597	96.81
415.821	73.81
416.044	67.81
416.267	89.81
416.49	94.81
416.713	90.81
416.936	90.81
417.159	94.81
417.382	94.81
417.605	95.81
417.828	76.81
418.051	77.81
418.274	84.81
418.497	92.81
418.72	92.81
418.943	86.81
419.166	93.81
419.389	87.81
419.611	73.81
419.834	93.81
420.057	98.81
420.28	81.81
420.503	79.81
420.726	82.81
420.948	96.81
421.171	81.81
421.394	120.81
421.617	125.81
421.839	133.81
422.062	142.81
422.285	185.81
422.507	281.81
422.73	353.81
422.953	327.81
423.175	209.81
423.398	164.81
423.621	131.81
423.843	113.81
424.066	120.81
424.288	105.81
424.511	87.81
424.733	91.81
424.956	109.81
425.178	93.81
425.401	94.81
425.623	91.81
425.846	96.81
426.068	79.81
426.291	91.81
426.513	101.81
426.735	79.81
426.958	89.81
427.18	96.81
427.402	93.81
427.625	66.81
427.847	101.81
428.069	98.81
428.292	124.81
428.514	129.81
428.736	111.81
428.958	103.81
429.181	120.81
429.403	88.81
429.625	94.81
429.847	118.81
430.069	159.81
430.292	160.81
430.514	152.81
430.736	128.81
430.958	132.81
431.18	102.81
431.402	102.81
431.624	93.81
431.846	120.81
432.068	136.81
432.29	90.81
432.512	80.81
432.734	96.81
432.956	101.81
433.178	89.81
433.4	83.81
433.622	88.81
433.844	84.81
434.066	92.81
434.287	88.81
434.509	73.81
434.731	77.81
434.953	72.81
435.175	85.81
435.397	100.81
435.618	100.81
435.84	88.81
436.062	86.81
436.284	87.81
436.505	70.81
436.727	102.81
436.949	79.81
437.17	86.81
437.392	83.81
437.614	78.81
437.835	81.81
438.057	83.81
438.278	70.81
438.5	100.81
438.721	89.81
438.943	99.81
439.165	99.81
439.386	89.81
439.608	97.81
439.829	103.81
440.05	90.81
440.272	78.81
440.493	87.81
440.715	86.81
440.936	85.81
441.158	86.81
441.379	94.81
441.6	80.81
441.822	83.81
442.043	86.81
442.264	98.81
442.486	113.81
442.707	139.81
442.928	117.81
443.149	100.81
443.371	143.81
443.592	229.81
443.813	207.81
444.034	107.81
444.255	104.81
444.476	85.81
444.698	89.81
444.919	96.81
445.14	170.81
445.361	194.81
445.582	255.81
445.803	239.81
446.024	123.81
446.245	99.81
446.466	94.81
446.687	89.81
446.908	90.81
447.129	86.81
447.35	103.81
447.571	79.81
447.792	97.81
448.013	92.81
448.234	98.81
448.455	81.81
448.675	89.81
448.896	85.81
449.117	83.81
449.338	91.81
449.559	86.81
449.779	92.81
450	79.81
450.221	87.81
450.442	85.81
450.662	89.81
450.883	83.81
451.104	90.81
451.324	86.81
451.545	90.81
451.766	86.81
451.986	80.81
452.207	79.81
452.428	88.81
452.648	107.81
452.869	87.81
453.089	81.81
453.31	81.81
453.53	88.81
453.751	90.81
453.971	89.81
454.192	95.81
454.412	90.81
454.633	93.81
454.853	79.81
455.073	90.81
455.294	91.81
455.514	96.81
455.734	97.81
455.955	91.81
456.175	90.81
456.395	75.81
456.616	72.81
456.836	83.81
457.056	84.81
457.276	86.81
457.497	104.81
457.717	104.81
457.937	110.81
458.157	124.81
458.377	116.81
458.598	132.81
458.818	129.81
459.038	93.81
459.258	77.81
459.478	83.81
459.698	79.81
459.918	102.81
460.138	95.81
460.358	102.81
460.578	101.81
460.798	121.81
461.018	115.81
461.238	91.81
461.458	73.81
461.678	76.81
461.898	89.81
462.118	95.81
462.338	99.81
462.558	93.81
462.777	93.81
462.997	77.81
463.217	92.81
463.437	95.81
463.657	102.81
463.876	79.81
464.096	89.81
464.316	84.81
464.536	81.81
464.755	87.81
464.975	91.81
465.195	85.81
465.414	94.81
465.634	67.81
465.854	95.81
466.073	95.81
466.293	98.81
466.512	83.81
466.732	78.81
466.951	87.81
467.171	89.81
467.391	88.81
467.61	87.81
467.829	85.81
468.049	89.81
468.268	95.81
468.488	84.81
468.707	99.81
468.927	88.81
469.146	81.81
469.365	78.81
469.585	87.81
469.804	81.81
470.023	93.81
470.243	82.81
470.462	79.81
470.681	82.81
470.901	96.81
471.12	81.81
471.339	85.81
471.558	93.81
471.777	94.81
471.997	99.81
472.216	83.81
472.435	92.81
472.654	81.81
472.873	88.81
473.092	94.81
473.311	74.81
473.53	85.81
473.749	98.81
473.968	92.81
474.187	87.81
474.406	95.81
474.625	85.81
474.844	91.81
475.063	82.81
475.282	94.81
475.501	86.81
475.72	79.81
475.939	88.81
476.158	95.81
476.377	85.81
476.596	97.81
476.814	91.81
477.033	83.81
477.252	80.81
477.471	92.81
477.69	86.81
477.908	89.81
478.127	97.81
478.346	93.81
478.564	82.81
478.783	79.81
479.002	88.81
479.22	75.81
479.439	93.81
479.658	79.81
479.876	92.81
480.095	77.81
480.313	71.81
480.532	80.81
480.751	89.81
480.969	90.81
481.188	76.81
481.406	94.81
481.624	76.81
481.843	91.81
482.061	91.81
482.28	86.81
482.498	75.81
482.717	89.81
482.935	100.81
483.153	99.81
483.372	100.81
483.59	94.81
483.808	92.81
484.027	88.81
484.245	80.81
484.463	84.81
484.681	89.81
484.9	88.81
485.118	91.81
485.336	85.81
485.554	76.81
485.772	102.81
485.99	84.81
486.209	83.81
486.427	86.81
486.645	88.81
486.863	89.81
487.081	93.81
487.299	93.81
487.517	111.81
487.735	117.81
487.953	192.81
488.171	151.81
488.389	96.81
488.607	90.81
488.825	94.81
489.043	77.81
489.261	97.81
489.479	87.81
489.696	103.81
489.914	89.81
490.132	87.81
490.35	88.81
490.568	84.81
490.786	96.81
491.003	88.81
491.221	86.81
491.439	81.81
491.657	102.81
491.874	92.81
492.092	85.81
492.31	101.81
492.527	87.81
492.745	75.81
492.963	95.81
493.18	92.81
493.398	74.81
493.615	91.81
493.833	84.81
494.05	92.81
494.268	94.81
494.485	95.81
494.703	93.81
494.92	89.81
495.138	91.81
495.355	94.81
495.573	82.81
495.79	91.81
496.008	115.81
496.225	87.81
496.442	101.81
496.66	96.81
496.877	82.81
497.094	91.81
497.312	102.81
497.529	78.81
497.746	90.81
497.963	84.81
498.181	90.81
498.398	98.81
498.615	97.81
498.832	79.81
499.049	66.81
499.267	87.81
499.484	70.81
499.701	80.81
499.918	104.81
500.135	89.81
500.352	84.81
500.569	78.81
500.786	97.81
501.003	88.81
501.22	93.81
501.437	100.81
501.654	92.81
501.871	76.81
502.088	83.81
502.305	83.81
502.522	85.81
502.739	99.81
502.956	88.81
503.172	99.81
503.389	85.81
503.606	74.81
503.823	95.81
504.04	118.81
504.256	135.81
504.473	112.81
504.69	93.81
504.907	95.81
505.123	78.81
505.34	95.81
505.557	91.81
505.773	90.81
505.99	96.81
506.207	100.81
506.423	91.81
506.64	90.81
506.856	106.81
507.073	94.81
507.289	93.81
507.506	87.81
507.722	69.81
507.939	88.81
508.155	95.81
508.372	83.81
508.588	79.81
508.805	98.81
509.021	93.81
509.238	88.81
509.454	88.81
509.67	102.81
509.887	96.81
510.103	93.81
510.319	92.81
510.536	100.81
510.752	95.81
510.968	83.81
511.184	95.81
511.401	97.81
511.617	98.81
511.833	97.81
512.049	81.81
512.265	91.81
512.481	96.81
512.698	91.81
512.914	88.81
513.13	90.81
513.346	85.81
513.562	97.81
513.778	98.81
513.994	87.81
514.21	81.81
514.426	93.81
514.642	88.81
514.858	75.81
515.074	87.81
515.29	83.81
515.506	87.81
515.721	90.81
515.937	90.81
516.153	96.81
516.369	92.81
516.585	84.81
516.801	94.81
517.016	97.81
517.232	98.81
517.448	87.81
517.664	99.81
517.879	92.81
518.095	82.81
