Data from 10100_1_HRD10591_00035.txt Node
Date: Mon Jan 19 14:00:42 EST 2026
User: Yrep
Spectrometer: HR+D1059
Trigger mode: 1
Integration Time (sec): 1.000000E-1
Scans to average: 1
Electric dark correction enabled: true
Nonlinearity correction enabled: false
Boxcar width: 0
XAxis mode: Wavelengths
Number of Pixels in Spectrum: 2048
>>>>>Begin Spectral Data<<<<<
223.165	-22.38
223.4	-22.38
223.635	-22.38
223.869	-11.38
224.104	-18.38
224.338	-2.38
224.573	-22.38
224.808	-9.38
225.042	2.62
225.277	-11.38
225.511	-7.38
225.746	7.62
225.98	-2.38
226.215	2.62
226.449	15.62
226.683	27.62
226.918	20.62
227.152	30.62
227.387	18.62
227.621	49.62
227.856	43.62
228.09	42.62
228.324	47.62
228.559	45.62
228.793	62.62
229.027	69.62
229.262	59.62
229.496	57.62
229.73	72.62
229.964	58.62
230.199	66.62
230.433	81.62
230.667	73.62
230.901	66.62
231.136	70.62
231.37	78.62
231.604	78.62
231.838	63.62
232.072	80.62
232.306	68.62
232.541	90.62
232.775	79.62
233.009	77.62
233.243	82.62
233.477	73.62
233.711	80.62
233.945	71.62
234.179	73.62
234.413	82.62
234.647	62.62
234.881	76.62
235.115	84.62
235.349	66.62
235.583	66.62
235.817	56.62
236.051	67.62
236.285	64.62
236.519	89.62
236.753	79.62
236.987	64.62
237.221	84.62
237.455	92.62
237.689	67.62
237.922	70.62
238.156	73.62
238.39	68.62
238.624	70.62
238.858	74.62
239.091	73.62
239.325	63.62
239.559	65.62
239.793	65.62
240.027	70.62
240.26	69.62
240.494	76.62
240.728	62.62
240.961	72.62
241.195	80.62
241.429	58.62
241.662	73.62
241.896	60.62
242.13	74.62
242.363	60.62
242.597	73.62
242.83	80.62
243.064	80.62
243.298	79.62
243.531	68.62
243.765	67.62
243.998	80.62
244.232	59.62
244.465	71.62
244.699	74.62
244.932	69.62
245.166	70.62
245.399	79.62
245.633	71.62
245.866	81.62
246.099	55.62
246.333	68.62
246.566	62.62
246.8	67.62
247.033	69.62
247.266	70.62
247.5	64.62
247.733	80.62
247.966	61.62
248.2	83.62
248.433	102.62
248.666	64.62
248.899	75.62
249.133	81.62
249.366	78.62
249.599	78.62
249.832	59.62
250.066	79.62
250.299	56.62
250.532	73.62
250.765	73.62
250.998	70.62
251.231	83.62
251.465	76.62
251.698	63.62
251.931	74.62
252.164	66.62
252.397	80.62
252.63	84.62
252.863	76.62
253.096	70.62
253.329	86.62
253.562	76.62
253.795	76.62
254.028	74.62
254.261	73.62
254.494	74.62
254.727	76.62
254.96	86.62
255.193	84.62
255.426	70.62
255.659	76.62
255.892	76.62
256.124	61.62
256.357	79.62
256.59	77.62
256.823	63.62
257.056	67.62
257.289	65.62
257.521	64.62
257.754	65.62
257.987	84.62
258.22	77.62
258.452	81.62
258.685	73.62
258.918	62.62
259.151	80.62
259.383	78.62
259.616	72.62
259.849	76.62
260.081	62.62
260.314	84.62
260.547	66.62
260.779	76.62
261.012	73.62
261.244	77.62
261.477	70.62
261.71	67.62
261.942	75.62
262.175	76.62
262.407	78.62
262.64	77.62
262.872	69.62
263.105	70.62
263.337	68.62
263.57	67.62
263.802	70.62
264.035	84.62
264.267	90.62
264.499	83.62
264.732	85.62
264.964	84.62
265.197	79.62
265.429	70.62
265.661	70.62
265.894	74.62
266.126	71.62
266.358	81.62
266.591	70.62
266.823	78.62
267.055	75.62
267.287	88.62
267.52	74.62
267.752	79.62
267.984	80.62
268.216	68.62
268.448	77.62
268.681	82.62
268.913	73.62
269.145	88.62
269.377	79.62
269.609	68.62
269.841	66.62
270.073	78.62
270.306	100.62
270.538	79.62
270.77	70.62
271.002	76.62
271.234	72.62
271.466	84.62
271.698	76.62
271.93	70.62
272.162	86.62
272.394	69.62
272.626	69.62
272.858	65.62
273.09	84.62
273.322	76.62
273.553	71.62
273.785	89.62
274.017	82.62
274.249	61.62
274.481	80.62
274.713	90.62
274.945	75.62
275.176	72.62
275.408	90.62
275.64	80.62
275.872	81.62
276.104	76.62
276.335	88.62
276.567	81.62
276.799	66.62
277.031	90.62
277.262	82.62
277.494	66.62
277.726	73.62
277.957	51.62
278.189	83.62
278.421	78.62
278.652	84.62
278.884	78.62
279.115	89.62
279.347	76.62
279.579	78.62
279.81	78.62
280.042	65.62
280.273	76.62
280.505	64.62
280.736	78.62
280.968	71.62
281.199	79.62
281.431	77.62
281.662	82.62
281.894	77.62
282.125	76.62
282.356	70.62
282.588	85.62
282.819	74.62
283.051	75.62
283.282	80.62
283.513	88.62
283.745	88.62
283.976	86.62
284.207	100.62
284.439	70.62
284.67	93.62
284.901	81.62
285.132	87.62
285.364	82.62
285.595	73.62
285.826	85.62
286.057	67.62
286.288	70.62
286.52	64.62
286.751	74.62
286.982	97.62
287.213	59.62
287.444	88.62
287.675	68.62
287.906	81.62
288.138	87.62
288.369	91.62
288.6	78.62
288.831	73.62
289.062	82.62
289.293	79.62
289.524	90.62
289.755	74.62
289.986	89.62
290.217	71.62
290.448	81.62
290.679	71.62
290.91	72.62
291.141	81.62
291.371	78.62
291.602	90.62
291.833	66.62
292.064	82.62
292.295	90.62
292.526	86.62
292.757	80.62
292.987	78.62
293.218	69.62
293.449	98.62
293.68	79.62
293.91	77.62
294.141	86.62
294.372	89.62
294.603	79.62
294.833	84.62
295.064	77.62
295.295	83.62
295.525	84.62
295.756	85.62
295.987	82.62
296.217	59.62
296.448	84.62
296.679	84.62
296.909	76.62
297.14	71.62
297.37	81.62
297.601	95.62
297.831	68.62
298.062	81.62
298.292	92.62
298.523	78.62
298.753	79.62
298.984	84.62
299.214	86.62
299.445	88.62
299.675	96.62
299.905	71.62
300.136	83.62
300.366	76.62
300.597	83.62
300.827	76.62
301.057	85.62
301.288	88.62
301.518	75.62
301.748	83.62
301.979	92.62
302.209	89.62
302.439	85.62
302.669	81.62
302.9	73.62
303.13	72.62
303.36	84.62
303.59	81.62
303.82	84.62
304.051	76.62
304.281	82.62
304.511	76.62
304.741	74.62
304.971	75.62
305.201	88.62
305.431	101.62
305.661	88.62
305.891	76.62
306.121	75.62
306.352	86.62
306.582	78.62
306.812	73.62
307.042	76.62
307.272	94.62
307.502	91.62
307.731	93.62
307.961	94.62
308.191	97.62
308.421	80.62
308.651	97.62
308.881	85.62
309.111	88.62
309.341	97.62
309.571	76.62
309.8	67.62
310.03	80.62
310.26	77.62
310.49	76.62
310.72	92.62
310.949	84.62
311.179	81.62
311.409	82.62
311.639	82.62
311.868	78.62
312.098	77.62
312.328	85.62
312.557	81.62
312.787	78.62
313.017	81.62
313.246	92.62
313.476	83.62
313.706	70.62
313.935	76.62
314.165	80.62
314.394	76.62
314.624	75.62
314.853	93.62
315.083	82.62
315.312	88.62
315.542	86.62
315.771	82.62
316.001	77.62
316.23	79.62
316.46	65.62
316.689	76.62
316.919	76.62
317.148	85.62
317.377	85.62
317.607	86.62
317.836	93.62
318.065	99.62
318.295	80.62
318.524	84.62
318.753	81.62
318.983	93.62
319.212	79.62
319.441	78.62
319.67	82.62
319.9	68.62
320.129	76.62
320.358	86.62
320.587	71.62
320.816	88.62
321.046	82.62
321.275	88.62
321.504	71.62
321.733	82.62
321.962	73.62
322.191	83.62
322.42	75.62
322.649	75.62
322.878	88.62
323.108	77.62
323.337	80.62
323.566	76.62
323.795	87.62
324.024	80.62
324.253	99.62
324.482	89.62
324.71	93.62
324.939	87.62
325.168	86.62
325.397	64.62
325.626	76.62
325.855	78.62
326.084	69.62
326.313	70.62
326.542	69.62
326.77	88.62
326.999	90.62
327.228	89.62
327.457	76.62
327.686	88.62
327.914	89.62
328.143	76.62
328.372	89.62
328.6	83.62
328.829	84.62
329.058	78.62
329.287	67.62
329.515	81.62
329.744	88.62
329.972	83.62
330.201	65.62
330.43	84.62
330.658	80.62
330.887	89.62
331.115	84.62
331.344	65.62
331.572	73.62
331.801	83.62
332.03	73.62
332.258	83.62
332.486	82.62
332.715	82.62
332.943	83.62
333.172	94.62
333.4	95.62
333.629	82.62
333.857	70.62
334.085	85.62
334.314	62.62
334.542	79.62
334.771	76.62
334.999	77.62
335.227	78.62
335.455	93.62
335.684	94.62
335.912	87.62
336.14	94.62
336.369	87.62
336.597	72.62
336.825	82.62
337.053	75.62
337.281	82.62
337.51	83.62
337.738	99.62
337.966	76.62
338.194	91.62
338.422	84.62
338.65	96.62
338.878	64.62
339.106	77.62
339.334	93.62
339.562	93.62
339.79	83.62
340.018	67.62
340.246	77.62
340.474	64.62
340.702	76.62
340.93	80.62
341.158	78.62
341.386	77.62
341.614	84.62
341.842	79.62
342.07	87.62
342.298	69.62
342.526	88.62
342.754	67.62
342.981	74.62
343.209	77.62
343.437	98.62
343.665	83.62
343.893	76.62
344.12	77.62
344.348	83.62
344.576	94.62
344.804	88.62
345.031	77.62
345.259	83.62
345.487	74.62
345.714	76.62
345.942	83.62
346.17	81.62
346.397	69.62
346.625	61.62
346.853	84.62
347.08	70.62
347.308	76.62
347.535	85.62
347.763	85.62
347.99	82.62
348.218	97.62
348.445	76.62
348.673	81.62
348.9	85.62
349.128	65.62
349.355	90.62
349.583	71.62
349.81	81.62
350.037	69.62
350.265	61.62
350.492	62.62
350.72	91.62
350.947	84.62
351.174	73.62
351.402	77.62
351.629	81.62
351.856	78.62
352.083	80.62
352.311	84.62
352.538	80.62
352.765	81.62
352.992	72.62
353.22	68.62
353.447	73.62
353.674	79.62
353.901	80.62
354.128	94.62
354.355	73.62
354.583	81.62
354.81	82.62
355.037	86.62
355.264	92.62
355.491	91.62
355.718	76.62
355.945	88.62
356.172	94.62
356.399	74.62
356.626	88.62
356.853	79.62
357.08	89.62
357.307	79.62
357.534	79.62
357.761	77.62
357.988	95.62
358.215	88.62
358.441	96.62
358.668	71.62
358.895	97.62
359.122	86.62
359.349	74.62
359.576	80.62
359.802	77.62
360.029	60.62
360.256	91.62
360.483	93.62
360.709	93.62
360.936	89.62
361.163	86.62
361.39	81.62
361.616	93.62
361.843	93.62
362.07	86.62
362.296	88.62
362.523	90.62
362.749	111.62
362.976	104.62
363.203	110.62
363.429	76.62
363.656	87.62
363.882	83.62
364.109	97.62
364.335	116.62
364.562	123.62
364.788	117.62
365.015	93.62
365.241	73.62
365.468	70.62
365.694	82.62
365.92	91.62
366.147	71.62
366.373	75.62
366.599	72.62
366.826	68.62
367.052	80.62
367.278	86.62
367.505	83.62
367.731	82.62
367.957	77.62
368.184	71.62
368.41	101.62
368.636	90.62
368.862	92.62
369.089	82.62
369.315	78.62
369.541	75.62
369.767	85.62
369.993	76.62
370.219	73.62
370.445	83.62
370.672	95.62
370.898	65.62
371.124	88.62
371.35	93.62
371.576	89.62
371.802	89.62
372.028	90.62
372.254	85.62
372.48	83.62
372.706	90.62
372.932	89.62
373.158	81.62
373.384	89.62
373.61	107.62
373.835	96.62
374.061	83.62
374.287	94.62
374.513	88.62
374.739	82.62
374.965	95.62
375.191	85.62
375.416	85.62
375.642	80.62
375.868	86.62
376.094	72.62
376.319	78.62
376.545	88.62
376.771	81.62
376.997	77.62
377.222	96.62
377.448	78.62
377.674	64.62
377.899	96.62
378.125	74.62
378.35	84.62
378.576	81.62
378.802	93.62
379.027	87.62
379.253	86.62
379.478	78.62
379.704	67.62
379.929	67.62
380.155	89.62
380.38	68.62
380.606	85.62
380.831	92.62
381.057	88.62
381.282	90.62
381.507	82.62
381.733	78.62
381.958	92.62
382.184	84.62
382.409	74.62
382.634	92.62
382.86	94.62
383.085	89.62
383.31	99.62
383.535	92.62
383.761	97.62
383.986	78.62
384.211	77.62
384.436	79.62
384.662	67.62
384.887	80.62
385.112	82.62
385.337	78.62
385.562	72.62
385.787	75.62
386.013	100.62
386.238	85.62
386.463	88.62
386.688	102.62
386.913	90.62
387.138	80.62
387.363	83.62
387.588	96.62
387.813	82.62
388.038	98.62
388.263	67.62
388.488	85.62
388.713	94.62
388.938	92.62
389.163	82.62
389.387	94.62
389.612	82.62
389.837	91.62
390.062	81.62
390.287	90.62
390.512	78.62
390.736	100.62
390.961	81.62
391.186	90.62
391.411	82.62
391.636	85.62
391.86	91.62
392.085	70.62
392.31	86.62
392.534	105.62
392.759	114.62
392.984	140.62
393.208	245.62
393.433	347.62
393.658	279.62
393.882	149.62
394.107	110.62
394.331	105.62
394.556	119.62
394.78	113.62
395.005	93.62
395.229	96.62
395.454	94.62
395.678	106.62
395.903	118.62
396.127	124.62
396.352	131.62
396.576	160.62
396.801	239.62
397.025	289.62
397.249	153.62
397.474	113.62
397.698	96.62
397.922	94.62
398.147	85.62
398.371	81.62
398.595	82.62
398.82	79.62
399.044	77.62
399.268	89.62
399.492	82.62
399.717	78.62
399.941	77.62
400.165	85.62
400.389	80.62
400.613	88.62
400.837	91.62
401.062	72.62
401.286	77.62
401.51	84.62
401.734	76.62
401.958	76.62
402.182	65.62
402.406	73.62
402.63	80.62
402.854	76.62
403.078	71.62
403.302	70.62
403.526	104.62
403.75	73.62
403.974	80.62
404.198	91.62
404.422	84.62
404.645	88.62
404.869	83.62
405.093	76.62
405.317	79.62
405.541	82.62
405.765	65.62
405.988	74.62
406.212	82.62
406.436	74.62
406.66	90.62
406.883	77.62
407.107	86.62
407.331	86.62
407.555	92.62
407.778	94.62
408.002	104.62
408.226	76.62
408.449	71.62
408.673	65.62
408.896	83.62
409.12	83.62
409.344	87.62
409.567	101.62
409.791	85.62
410.014	95.62
410.238	93.62
410.461	76.62
410.685	75.62
410.908	67.62
411.132	100.62
411.355	66.62
411.578	92.62
411.802	81.62
412.025	94.62
412.249	69.62
412.472	79.62
412.695	69.62
412.919	76.62
413.142	91.62
413.365	71.62
413.589	85.62
413.812	81.62
414.035	73.62
414.258	82.62
414.482	88.62
414.705	76.62
414.928	82.62
415.151	77.62
415.374	78.62
415.597	82.62
415.821	69.62
416.044	70.62
416.267	88.62
416.49	80.62
416.713	74.62
416.936	82.62
417.159	85.62
417.382	82.62
417.605	71.62
417.828	70.62
418.051	76.62
418.274	86.62
418.497	66.62
418.72	67.62
418.943	91.62
419.166	81.62
419.389	83.62
419.611	85.62
419.834	77.62
420.057	94.62
420.28	88.62
420.503	81.62
420.726	78.62
420.948	90.62
421.171	89.62
421.394	92.62
421.617	119.62
421.839	106.62
422.062	118.62
422.285	158.62
422.507	253.62
422.73	385.62
422.953	349.62
423.175	179.62
423.398	110.62
423.621	105.62
423.843	87.62
424.066	94.62
424.288	98.62
424.511	92.62
424.733	91.62
424.956	84.62
425.178	90.62
425.401	78.62
425.623	76.62
425.846	80.62
426.068	88.62
426.291	86.62
426.513	78.62
426.735	80.62
426.958	70.62
427.18	82.62
427.402	88.62
427.625	92.62
427.847	84.62
428.069	85.62
428.292	112.62
428.514	136.62
428.736	84.62
428.958	110.62
429.181	133.62
429.403	101.62
429.625	86.62
429.847	123.62
430.069	149.62
430.292	174.62
430.514	163.62
430.736	116.62
430.958	121.62
431.18	86.62
431.402	80.62
431.624	89.62
431.846	118.62
432.068	104.62
432.29	92.62
432.512	72.62
432.734	86.62
432.956	75.62
433.178	85.62
433.4	76.62
433.622	69.62
433.844	83.62
434.066	84.62
434.287	68.62
434.509	81.62
434.731	71.62
434.953	74.62
435.175	78.62
435.397	77.62
435.618	81.62
435.84	72.62
436.062	71.62
436.284	71.62
436.505	83.62
436.727	89.62
436.949	83.62
437.17	79.62
437.392	89.62
437.614	88.62
437.835	81.62
438.057	70.62
438.278	94.62
438.5	75.62
438.721	83.62
438.943	62.62
439.165	78.62
439.386	72.62
439.608	92.62
439.829	81.62
440.05	84.62
440.272	82.62
440.493	92.62
440.715	77.62
440.936	70.62
441.158	78.62
441.379	75.62
441.6	74.62
441.822	90.62
442.043	84.62
442.264	85.62
442.486	118.62
442.707	138.62
442.928	103.62
443.149	107.62
443.371	139.62
443.592	227.62
443.813	206.62
444.034	108.62
444.255	77.62
444.476	89.62
444.698	86.62
444.919	75.62
445.14	161.62
445.361	182.62
445.582	269.62
445.803	241.62
446.024	104.62
446.245	76.62
446.466	79.62
446.687	65.62
446.908	68.62
447.129	74.62
447.35	74.62
447.571	86.62
447.792	90.62
448.013	79.62
448.234	82.62
448.455	84.62
448.675	61.62
448.896	78.62
449.117	73.62
449.338	67.62
449.559	76.62
449.779	80.62
450	77.62
450.221	82.62
450.442	77.62
450.662	71.62
450.883	84.62
451.104	89.62
451.324	66.62
451.545	86.62
451.766	76.62
451.986	65.62
452.207	70.62
452.428	77.62
452.648	88.62
452.869	107.62
453.089	84.62
453.31	76.62
453.53	74.62
453.751	69.62
453.971	104.62
454.192	78.62
454.412	80.62
454.633	82.62
454.853	84.62
455.073	67.62
455.294	89.62
455.514	95.62
455.734	81.62
455.955	73.62
456.175	68.62
456.395	77.62
456.616	91.62
456.836	69.62
457.056	76.62
457.276	62.62
457.497	94.62
457.717	91.62
457.937	89.62
458.157	110.62
458.377	113.62
458.598	100.62
458.818	129.62
459.038	90.62
459.258	74.62
459.478	78.62
459.698	78.62
459.918	85.62
460.138	71.62
460.358	75.62
460.578	90.62
460.798	101.62
461.018	108.62
461.238	75.62
461.458	82.62
461.678	71.62
461.898	78.62
462.118	81.62
462.338	82.62
462.558	82.62
462.777	76.62
462.997	65.62
463.217	85.62
463.437	76.62
463.657	83.62
463.876	80.62
464.096	84.62
464.316	77.62
464.536	93.62
464.755	86.62
464.975	77.62
465.195	89.62
465.414	91.62
465.634	90.62
465.854	80.62
466.073	88.62
466.293	81.62
466.512	80.62
466.732	84.62
466.951	84.62
467.171	75.62
467.391	74.62
467.61	88.62
467.829	91.62
468.049	79.62
468.268	85.62
468.488	92.62
468.707	89.62
468.927	75.62
469.146	64.62
469.365	67.62
469.585	85.62
469.804	94.62
470.023	75.62
470.243	83.62
470.462	83.62
470.681	78.62
470.901	91.62
471.12	67.62
471.339	83.62
471.558	73.62
471.777	83.62
471.997	84.62
472.216	91.62
472.435	89.62
472.654	82.62
472.873	76.62
473.092	67.62
473.311	82.62
473.53	62.62
473.749	90.62
473.968	76.62
474.187	73.62
474.406	89.62
474.625	83.62
474.844	87.62
475.063	73.62
475.282	76.62
475.501	76.62
475.72	69.62
475.939	82.62
476.158	74.62
476.377	83.62
476.596	76.62
476.814	71.62
477.033	92.62
477.252	93.62
477.471	77.62
477.69	93.62
477.908	75.62
478.127	84.62
478.346	83.62
478.564	88.62
478.783	88.62
479.002	69.62
479.22	80.62
479.439	88.62
479.658	77.62
479.876	73.62
480.095	75.62
480.313	74.62
480.532	94.62
480.751	86.62
480.969	82.62
481.188	85.62
481.406	77.62
481.624	84.62
481.843	73.62
482.061	83.62
482.28	88.62
482.498	84.62
482.717	88.62
482.935	76.62
483.153	92.62
483.372	75.62
483.59	92.62
483.808	85.62
484.027	90.62
484.245	88.62
484.463	66.62
484.681	66.62
484.9	90.62
485.118	93.62
485.336	77.62
485.554	87.62
485.772	80.62
485.99	80.62
486.209	82.62
486.427	80.62
486.645	86.62
486.863	88.62
487.081	73.62
487.299	89.62
487.517	93.62
487.735	100.62
487.953	154.62
488.171	129.62
488.389	104.62
488.607	80.62
488.825	79.62
489.043	89.62
489.261	96.62
489.479	77.62
489.696	73.62
489.914	78.62
490.132	88.62
490.35	89.62
490.568	92.62
490.786	78.62
491.003	83.62
491.221	61.62
491.439	93.62
491.657	83.62
491.874	78.62
492.092	80.62
492.31	74.62
492.527	90.62
492.745	76.62
492.963	90.62
493.18	87.62
493.398	78.62
493.615	86.62
493.833	74.62
494.05	90.62
494.268	90.62
494.485	87.62
494.703	75.62
494.92	83.62
495.138	82.62
495.355	86.62
495.573	83.62
495.79	80.62
496.008	80.62
496.225	79.62
496.442	70.62
496.66	89.62
496.877	82.62
497.094	89.62
497.312	90.62
497.529	74.62
497.746	91.62
497.963	85.62
498.181	78.62
498.398	86.62
498.615	86.62
498.832	81.62
499.049	74.62
499.267	92.62
499.484	81.62
499.701	67.62
499.918	87.62
500.135	82.62
500.352	85.62
500.569	82.62
500.786	78.62
501.003	83.62
501.22	79.62
501.437	84.62
501.654	75.62
501.871	85.62
502.088	88.62
502.305	92.62
502.522	80.62
502.739	78.62
502.956	77.62
503.172	92.62
503.389	80.62
503.606	95.62
503.823	87.62
504.04	91.62
504.256	121.62
504.473	114.62
504.69	87.62
504.907	81.62
505.123	88.62
505.34	86.62
505.557	80.62
505.773	102.62
505.99	90.62
506.207	88.62
506.423	82.62
506.64	77.62
506.856	85.62
507.073	81.62
507.289	90.62
507.506	81.62
507.722	81.62
507.939	78.62
508.155	78.62
508.372	83.62
508.588	90.62
508.805	76.62
509.021	78.62
509.238	78.62
509.454	73.62
509.67	81.62
509.887	82.62
510.103	97.62
510.319	81.62
510.536	82.62
510.752	82.62
510.968	67.62
511.184	88.62
511.401	77.62
511.617	85.62
511.833	81.62
512.049	83.62
512.265	76.62
512.481	89.62
512.698	93.62
512.914	88.62
513.13	86.62
513.346	85.62
513.562	107.62
513.778	91.62
513.994	85.62
514.21	72.62
514.426	84.62
514.642	81.62
514.858	84.62
515.074	73.62
515.29	80.62
515.506	95.62
515.721	83.62
515.937	92.62
516.153	77.62
516.369	93.62
516.585	93.62
516.801	82.62
517.016	89.62
517.232	84.62
517.448	88.62
517.664	86.62
517.879	94.62
518.095	86.62
518.311	78.62
518.527	104.62
518.742	118.62
518.958	144.62
