Data from 10100_1_HRD10591_00047.txt Node
Date: Mon Jan 19 14:00:48 EST 2026
User: Yrep
Spectrometer: HR+D1059
Trigger mode: 1
Integration Time (sec): 1.000000E-1
Scans to average: 1
Electric dark correction enabled: true
Nonlinearity correction enabled: false
Boxcar width: 0
XAxis mode: Wavelengths
Number of Pixels in Spectrum: 2048
>>>>>Begin Spectral Data<<<<<
223.165	-29.75
223.4	-29.75
223.635	-29.75
223.869	-14.75
224.104	-27.75
224.338	-20.75
224.573	-18.75
224.808	-7.75
225.042	-8.75
225.277	-11.75
225.511	-2.75
225.746	9.25
225.98	12.25
226.215	-2.75
226.449	20.25
226.683	29.25
226.918	35.25
227.152	39.25
227.387	24.25
227.621	39.25
227.856	44.25
228.09	53.25
228.324	55.25
228.559	57.25
228.793	47.25
229.027	53.25
229.262	61.25
229.496	63.25
229.73	74.25
229.964	82.25
230.199	79.25
230.433	81.25
230.667	84.25
230.901	79.25
231.136	83.25
231.37	88.25
231.604	77.25
231.838	69.25
232.072	74.25
232.306	91.25
232.541	68.25
232.775	84.25
233.009	84.25
233.243	91.25
233.477	81.25
233.711	80.25
233.945	68.25
234.179	72.25
234.413	88.25
234.647	71.25
234.881	71.25
235.115	81.25
235.349	76.25
235.583	91.25
235.817	79.25
236.051	72.25
236.285	63.25
236.519	80.25
236.753	82.25
236.987	64.25
237.221	79.25
237.455	78.25
237.689	68.25
237.922	73.25
238.156	66.25
238.39	74.25
238.624	71.25
238.858	77.25
239.091	79.25
239.325	70.25
239.559	77.25
239.793	86.25
240.027	84.25
240.26	84.25
240.494	78.25
240.728	68.25
240.961	73.25
241.195	64.25
241.429	81.25
241.662	79.25
241.896	89.25
242.13	81.25
242.363	88.25
242.597	71.25
242.83	75.25
243.064	79.25
243.298	89.25
243.531	87.25
243.765	71.25
243.998	82.25
244.232	87.25
244.465	73.25
244.699	93.25
244.932	73.25
245.166	69.25
245.399	76.25
245.633	80.25
245.866	90.25
246.099	69.25
246.333	79.25
246.566	72.25
246.8	71.25
247.033	86.25
247.266	79.25
247.5	77.25
247.733	74.25
247.966	85.25
248.2	87.25
248.433	81.25
248.666	67.25
248.899	74.25
249.133	88.25
249.366	83.25
249.599	84.25
249.832	81.25
250.066	83.25
250.299	77.25
250.532	74.25
250.765	78.25
250.998	72.25
251.231	74.25
251.465	83.25
251.698	74.25
251.931	80.25
252.164	84.25
252.397	68.25
252.63	77.25
252.863	88.25
253.096	79.25
253.329	79.25
253.562	80.25
253.795	89.25
254.028	83.25
254.261	78.25
254.494	81.25
254.727	87.25
254.96	78.25
255.193	76.25
255.426	69.25
255.659	93.25
255.892	81.25
256.124	77.25
256.357	82.25
256.59	81.25
256.823	75.25
257.056	81.25
257.289	75.25
257.521	72.25
257.754	76.25
257.987	61.25
258.22	79.25
258.452	72.25
258.685	81.25
258.918	71.25
259.151	79.25
259.383	83.25
259.616	73.25
259.849	77.25
260.081	73.25
260.314	88.25
260.547	71.25
260.779	84.25
261.012	85.25
261.244	85.25
261.477	87.25
261.71	100.25
261.942	84.25
262.175	89.25
262.407	82.25
262.64	72.25
262.872	96.25
263.105	77.25
263.337	81.25
263.57	82.25
263.802	74.25
264.035	85.25
264.267	83.25
264.499	88.25
264.732	74.25
264.964	68.25
265.197	83.25
265.429	78.25
265.661	83.25
265.894	88.25
266.126	81.25
266.358	90.25
266.591	75.25
266.823	79.25
267.055	63.25
267.287	76.25
267.52	73.25
267.752	79.25
267.984	85.25
268.216	91.25
268.448	78.25
268.681	88.25
268.913	87.25
269.145	80.25
269.377	73.25
269.609	76.25
269.841	84.25
270.073	75.25
270.306	92.25
270.538	81.25
270.77	62.25
271.002	71.25
271.234	76.25
271.466	80.25
271.698	97.25
271.93	84.25
272.162	79.25
272.394	95.25
272.626	86.25
272.858	64.25
273.09	66.25
273.322	83.25
273.553	73.25
273.785	84.25
274.017	80.25
274.249	86.25
274.481	87.25
274.713	69.25
274.945	81.25
275.176	85.25
275.408	78.25
275.64	74.25
275.872	80.25
276.104	81.25
276.335	72.25
276.567	80.25
276.799	69.25
277.031	83.25
277.262	84.25
277.494	81.25
277.726	103.25
277.957	96.25
278.189	78.25
278.421	77.25
278.652	84.25
278.884	78.25
279.115	89.25
279.347	94.25
279.579	72.25
279.81	92.25
280.042	85.25
280.273	84.25
280.505	86.25
280.736	87.25
280.968	81.25
281.199	83.25
281.431	92.25
281.662	77.25
281.894	82.25
282.125	87.25
282.356	73.25
282.588	95.25
282.819	92.25
283.051	85.25
283.282	111.25
283.513	73.25
283.745	83.25
283.976	82.25
284.207	80.25
284.439	81.25
284.67	82.25
284.901	83.25
285.132	96.25
285.364	79.25
285.595	95.25
285.826	71.25
286.057	76.25
286.288	81.25
286.52	90.25
286.751	78.25
286.982	82.25
287.213	73.25
287.444	96.25
287.675	76.25
287.906	92.25
288.138	84.25
288.369	94.25
288.6	88.25
288.831	78.25
289.062	97.25
289.293	82.25
289.524	87.25
289.755	84.25
289.986	76.25
290.217	88.25
290.448	87.25
290.679	96.25
290.91	91.25
291.141	74.25
291.371	84.25
291.602	74.25
291.833	72.25
292.064	91.25
292.295	81.25
292.526	71.25
292.757	83.25
292.987	88.25
293.218	90.25
293.449	69.25
293.68	81.25
293.91	77.25
294.141	87.25
294.372	85.25
294.603	87.25
294.833	73.25
295.064	89.25
295.295	75.25
295.525	79.25
295.756	84.25
295.987	75.25
296.217	79.25
296.448	99.25
296.679	85.25
296.909	99.25
297.14	87.25
297.37	85.25
297.601	82.25
297.831	84.25
298.062	89.25
298.292	81.25
298.523	88.25
298.753	72.25
298.984	85.25
299.214	89.25
299.445	91.25
299.675	78.25
299.905	83.25
300.136	90.25
300.366	91.25
300.597	83.25
300.827	87.25
301.057	87.25
301.288	99.25
301.518	88.25
301.748	76.25
301.979	96.25
302.209	91.25
302.439	79.25
302.669	88.25
302.9	81.25
303.13	79.25
303.36	87.25
303.59	87.25
303.82	75.25
304.051	79.25
304.281	91.25
304.511	81.25
304.741	93.25
304.971	87.25
305.201	91.25
305.431	90.25
305.661	82.25
305.891	88.25
306.121	81.25
306.352	88.25
306.582	85.25
306.812	91.25
307.042	91.25
307.272	101.25
307.502	81.25
307.731	78.25
307.961	81.25
308.191	84.25
308.421	91.25
308.651	99.25
308.881	89.25
309.111	89.25
309.341	92.25
309.571	91.25
309.8	85.25
310.03	84.25
310.26	88.25
310.49	87.25
310.72	69.25
310.949	86.25
311.179	82.25
311.409	74.25
311.639	78.25
311.868	84.25
312.098	79.25
312.328	95.25
312.557	81.25
312.787	81.25
313.017	81.25
313.246	83.25
313.476	81.25
313.706	96.25
313.935	86.25
314.165	79.25
314.394	81.25
314.624	72.25
314.853	85.25
315.083	87.25
315.312	88.25
315.542	99.25
315.771	88.25
316.001	94.25
316.23	100.25
316.46	85.25
316.689	74.25
316.919	81.25
317.148	83.25
317.377	100.25
317.607	80.25
317.836	110.25
318.065	123.25
318.295	97.25
318.524	93.25
318.753	87.25
318.983	80.25
319.212	87.25
319.441	87.25
319.67	84.25
319.9	87.25
320.129	89.25
320.358	72.25
320.587	85.25
320.816	74.25
321.046	80.25
321.275	94.25
321.504	99.25
321.733	82.25
321.962	77.25
322.191	82.25
322.42	87.25
322.649	89.25
322.878	93.25
323.108	95.25
323.337	83.25
323.566	74.25
323.795	85.25
324.024	85.25
324.253	91.25
324.482	93.25
324.71	98.25
324.939	84.25
325.168	92.25
325.397	85.25
325.626	83.25
325.855	91.25
326.084	89.25
326.313	99.25
326.542	73.25
326.77	96.25
326.999	76.25
327.228	84.25
327.457	80.25
327.686	83.25
327.914	89.25
328.143	75.25
328.372	95.25
328.6	87.25
328.829	80.25
329.058	93.25
329.287	81.25
329.515	93.25
329.744	80.25
329.972	83.25
330.201	85.25
330.43	88.25
330.658	82.25
330.887	81.25
331.115	83.25
331.344	81.25
331.572	81.25
331.801	78.25
332.03	77.25
332.258	74.25
332.486	85.25
332.715	77.25
332.943	82.25
333.172	89.25
333.4	89.25
333.629	101.25
333.857	95.25
334.085	93.25
334.314	93.25
334.542	103.25
334.771	103.25
334.999	100.25
335.227	97.25
335.455	80.25
335.684	91.25
335.912	99.25
336.14	100.25
336.369	90.25
336.597	81.25
336.825	96.25
337.053	102.25
337.281	89.25
337.51	75.25
337.738	87.25
337.966	92.25
338.194	84.25
338.422	86.25
338.65	85.25
338.878	78.25
339.106	81.25
339.334	80.25
339.562	89.25
339.79	86.25
340.018	91.25
340.246	92.25
340.474	78.25
340.702	86.25
340.93	99.25
341.158	85.25
341.386	88.25
341.614	76.25
341.842	94.25
342.07	87.25
342.298	88.25
342.526	90.25
342.754	105.25
342.981	96.25
343.209	79.25
343.437	89.25
343.665	92.25
343.893	89.25
344.12	93.25
344.348	98.25
344.576	96.25
344.804	88.25
345.031	91.25
345.259	86.25
345.487	76.25
345.714	90.25
345.942	86.25
346.17	83.25
346.397	89.25
346.625	81.25
346.853	81.25
347.08	96.25
347.308	93.25
347.535	100.25
347.763	90.25
347.99	81.25
348.218	87.25
348.445	80.25
348.673	102.25
348.9	92.25
349.128	87.25
349.355	92.25
349.583	71.25
349.81	76.25
350.037	88.25
350.265	84.25
350.492	91.25
350.72	79.25
350.947	95.25
351.174	98.25
351.402	93.25
351.629	77.25
351.856	63.25
352.083	75.25
352.311	79.25
352.538	72.25
352.765	81.25
352.992	83.25
353.22	88.25
353.447	89.25
353.674	86.25
353.901	99.25
354.128	82.25
354.355	80.25
354.583	76.25
354.81	80.25
355.037	96.25
355.264	88.25
355.491	89.25
355.718	98.25
355.945	97.25
356.172	77.25
356.399	73.25
356.626	93.25
356.853	75.25
357.08	83.25
357.307	80.25
357.534	93.25
357.761	86.25
357.988	104.25
358.215	94.25
358.441	101.25
358.668	92.25
358.895	89.25
359.122	100.25
359.349	92.25
359.576	80.25
359.802	94.25
360.029	73.25
360.256	80.25
360.483	98.25
360.709	97.25
360.936	95.25
361.163	101.25
361.39	92.25
361.616	96.25
361.843	101.25
362.07	86.25
362.296	95.25
362.523	115.25
362.749	113.25
362.976	109.25
363.203	139.25
363.429	95.25
363.656	93.25
363.882	101.25
364.109	103.25
364.335	117.25
364.562	144.25
364.788	114.25
365.015	107.25
365.241	94.25
365.468	97.25
365.694	91.25
365.92	84.25
366.147	88.25
366.373	97.25
366.599	91.25
366.826	84.25
367.052	72.25
367.278	109.25
367.505	88.25
367.731	91.25
367.957	68.25
368.184	91.25
368.41	83.25
368.636	76.25
368.862	96.25
369.089	83.25
369.315	99.25
369.541	84.25
369.767	89.25
369.993	76.25
370.219	87.25
370.445	79.25
370.672	104.25
370.898	79.25
371.124	105.25
371.35	101.25
371.576	89.25
371.802	89.25
372.028	96.25
372.254	89.25
372.48	88.25
372.706	83.25
372.932	84.25
373.158	92.25
373.384	111.25
373.61	136.25
373.835	135.25
374.061	109.25
374.287	83.25
374.513	95.25
374.739	113.25
374.965	107.25
375.191	100.25
375.416	88.25
375.642	104.25
375.868	94.25
376.094	96.25
376.319	101.25
376.545	87.25
376.771	95.25
376.997	100.25
377.222	83.25
377.448	83.25
377.674	82.25
377.899	84.25
378.125	85.25
378.35	80.25
378.576	74.25
378.802	78.25
379.027	79.25
379.253	99.25
379.478	96.25
379.704	99.25
379.929	83.25
380.155	87.25
380.38	90.25
380.606	93.25
380.831	84.25
381.057	80.25
381.282	94.25
381.507	97.25
381.733	92.25
381.958	92.25
382.184	101.25
382.409	103.25
382.634	108.25
382.86	111.25
383.085	97.25
383.31	87.25
383.535	98.25
383.761	87.25
383.986	116.25
384.211	111.25
384.436	113.25
384.662	93.25
384.887	95.25
385.112	91.25
385.337	109.25
385.562	100.25
385.787	98.25
386.013	115.25
386.238	107.25
386.463	88.25
386.688	123.25
386.913	109.25
387.138	92.25
387.363	99.25
387.588	101.25
387.813	95.25
388.038	88.25
388.263	118.25
388.488	105.25
388.713	91.25
388.938	97.25
389.163	78.25
389.387	84.25
389.612	95.25
389.837	92.25
390.062	113.25
390.287	96.25
390.512	91.25
390.736	72.25
390.961	90.25
391.186	99.25
391.411	89.25
391.636	88.25
391.86	89.25
392.085	103.25
392.31	109.25
392.534	125.25
392.759	144.25
392.984	229.25
393.208	389.25
393.433	612.25
393.658	476.25
393.882	184.25
394.107	129.25
394.331	137.25
394.556	143.25
394.78	101.25
395.005	106.25
395.229	100.25
395.454	116.25
395.678	111.25
395.903	129.25
396.127	157.25
396.352	191.25
396.576	235.25
396.801	440.25
397.025	486.25
397.249	257.25
397.474	151.25
397.698	109.25
397.922	106.25
398.147	92.25
398.371	94.25
398.595	95.25
398.82	108.25
399.044	85.25
399.268	72.25
399.492	82.25
399.717	80.25
399.941	99.25
400.165	87.25
400.389	101.25
400.613	85.25
400.837	88.25
401.062	79.25
401.286	72.25
401.51	89.25
401.734	78.25
401.958	93.25
402.182	87.25
402.406	88.25
402.63	80.25
402.854	84.25
403.078	96.25
403.302	87.25
403.526	90.25
403.75	78.25
403.974	93.25
404.198	103.25
404.422	98.25
404.645	91.25
404.869	102.25
405.093	95.25
405.317	74.25
405.541	84.25
405.765	96.25
405.988	87.25
406.212	93.25
406.436	81.25
406.66	85.25
406.883	104.25
407.107	82.25
407.331	94.25
407.555	103.25
407.778	111.25
408.002	133.25
408.226	92.25
408.449	97.25
408.673	103.25
408.896	86.25
409.12	92.25
409.344	83.25
409.567	101.25
409.791	103.25
410.014	115.25
410.238	94.25
410.461	93.25
410.685	103.25
410.908	95.25
411.132	84.25
411.355	87.25
411.578	103.25
411.802	79.25
412.025	83.25
412.249	90.25
412.472	83.25
412.695	75.25
412.919	97.25
413.142	104.25
413.365	91.25
413.589	95.25
413.812	75.25
414.035	83.25
414.258	98.25
414.482	90.25
414.705	93.25
414.928	92.25
415.151	88.25
415.374	99.25
415.597	79.25
415.821	91.25
416.044	91.25
416.267	93.25
416.49	87.25
416.713	84.25
416.936	75.25
417.159	100.25
417.382	86.25
417.605	87.25
417.828	80.25
418.051	87.25
418.274	88.25
418.497	83.25
418.72	83.25
418.943	86.25
419.166	81.25
419.389	94.25
419.611	87.25
419.834	78.25
420.057	62.25
420.28	84.25
420.503	109.25
420.726	98.25
420.948	99.25
421.171	105.25
421.394	112.25
421.617	141.25
421.839	149.25
422.062	133.25
422.285	192.25
422.507	337.25
422.73	575.25
422.953	529.25
423.175	247.25
423.398	134.25
423.621	123.25
423.843	90.25
424.066	82.25
424.288	95.25
424.511	99.25
424.733	97.25
424.956	100.25
425.178	101.25
425.401	94.25
425.623	87.25
425.846	84.25
426.068	85.25
426.291	84.25
426.513	75.25
426.735	94.25
426.958	81.25
427.18	100.25
427.402	103.25
427.625	104.25
427.847	89.25
428.069	89.25
428.292	142.25
428.514	148.25
428.736	117.25
428.958	136.25
429.181	142.25
429.403	110.25
429.625	112.25
429.847	118.25
430.069	205.25
430.292	237.25
430.514	191.25
430.736	156.25
430.958	182.25
431.18	119.25
431.402	97.25
431.624	117.25
431.846	133.25
432.068	171.25
432.29	88.25
432.512	96.25
432.734	107.25
432.956	85.25
433.178	84.25
433.4	88.25
433.622	93.25
433.844	95.25
434.066	86.25
434.287	93.25
434.509	89.25
434.731	83.25
434.953	94.25
435.175	91.25
435.397	78.25
435.618	94.25
435.84	102.25
436.062	104.25
436.284	80.25
436.505	79.25
436.727	80.25
436.949	78.25
437.17	79.25
437.392	94.25
437.614	94.25
437.835	91.25
438.057	92.25
438.278	101.25
438.5	96.25
438.721	80.25
438.943	95.25
439.165	90.25
439.386	89.25
439.608	79.25
439.829	67.25
440.05	77.25
440.272	89.25
440.493	83.25
440.715	89.25
440.936	92.25
441.158	97.25
441.379	92.25
441.6	87.25
441.822	88.25
442.043	83.25
442.264	100.25
442.486	151.25
442.707	196.25
442.928	135.25
443.149	120.25
443.371	183.25
443.592	313.25
443.813	264.25
444.034	123.25
444.255	99.25
444.476	99.25
444.698	94.25
444.919	94.25
445.14	175.25
445.361	229.25
445.582	367.25
445.803	310.25
446.024	145.25
446.245	90.25
446.466	89.25
446.687	79.25
446.908	74.25
447.129	91.25
447.35	91.25
447.571	88.25
447.792	84.25
448.013	77.25
448.234	97.25
448.455	100.25
448.675	103.25
448.896	89.25
449.117	84.25
449.338	85.25
449.559	88.25
449.779	88.25
450	74.25
450.221	69.25
450.442	87.25
450.662	96.25
450.883	88.25
451.104	79.25
451.324	92.25
451.545	95.25
451.766	85.25
451.986	86.25
452.207	88.25
452.428	89.25
452.648	104.25
452.869	103.25
453.089	88.25
453.31	94.25
453.53	81.25
453.751	94.25
453.971	87.25
454.192	88.25
454.412	88.25
454.633	80.25
454.853	77.25
455.073	93.25
455.294	93.25
455.514	100.25
455.734	83.25
455.955	76.25
456.175	82.25
456.395	86.25
456.616	82.25
456.836	76.25
457.056	79.25
457.276	77.25
457.497	86.25
457.717	100.25
457.937	112.25
458.157	134.25
458.377	137.25
458.598	136.25
458.818	142.25
459.038	119.25
459.258	89.25
459.478	93.25
459.698	77.25
459.918	91.25
460.138	84.25
460.358	84.25
460.578	100.25
460.798	127.25
461.018	110.25
461.238	86.25
461.458	108.25
461.678	70.25
461.898	83.25
462.118	79.25
462.338	75.25
462.558	83.25
462.777	80.25
462.997	96.25
463.217	82.25
463.437	80.25
463.657	85.25
463.876	77.25
464.096	80.25
464.316	69.25
464.536	97.25
464.755	100.25
464.975	83.25
465.195	98.25
465.414	92.25
465.634	78.25
465.854	83.25
466.073	78.25
466.293	91.25
466.512	81.25
466.732	91.25
466.951	88.25
467.171	74.25
467.391	81.25
467.61	84.25
467.829	83.25
468.049	83.25
468.268	83.25
468.488	95.25
468.707	92.25
468.927	85.25
469.146	85.25
469.365	93.25
469.585	80.25
469.804	83.25
470.023	80.25
470.243	90.25
470.462	89.25
470.681	68.25
470.901	85.25
471.12	83.25
471.339	78.25
471.558	86.25
471.777	91.25
471.997	81.25
472.216	85.25
472.435	99.25
472.654	91.25
472.873	85.25
473.092	75.25
473.311	86.25
473.53	99.25
473.749	85.25
473.968	89.25
474.187	86.25
474.406	76.25
474.625	87.25
474.844	82.25
475.063	88.25
475.282	91.25
475.501	81.25
475.72	70.25
475.939	71.25
476.158	87.25
476.377	83.25
476.596	94.25
476.814	95.25
477.033	86.25
477.252	88.25
477.471	87.25
477.69	87.25
477.908	87.25
478.127	88.25
478.346	85.25
478.564	91.25
478.783	98.25
479.002	88.25
479.22	94.25
479.439	87.25
479.658	86.25
479.876	88.25
480.095	78.25
480.313	96.25
480.532	92.25
480.751	94.25
480.969	86.25
481.188	96.25
481.406	107.25
481.624	88.25
481.843	85.25
482.061	80.25
482.28	100.25
482.498	86.25
482.717	94.25
482.935	101.25
483.153	101.25
483.372	95.25
483.59	93.25
483.808	83.25
484.027	100.25
484.245	77.25
484.463	74.25
484.681	93.25
484.9	98.25
485.118	92.25
485.336	91.25
485.554	99.25
485.772	82.25
485.99	92.25
486.209	92.25
486.427	95.25
486.645	76.25
486.863	81.25
487.081	94.25
487.299	87.25
487.517	98.25
487.735	124.25
487.953	187.25
488.171	152.25
488.389	95.25
488.607	90.25
488.825	80.25
489.043	80.25
489.261	109.25
489.479	97.25
489.696	95.25
489.914	90.25
490.132	82.25
490.35	91.25
490.568	84.25
490.786	83.25
491.003	89.25
491.221	87.25
491.439	79.25
491.657	99.25
491.874	95.25
492.092	103.25
492.31	86.25
492.527	94.25
492.745	91.25
492.963	95.25
493.18	80.25
493.398	94.25
493.615	110.25
493.833	101.25
494.05	77.25
494.268	89.25
494.485	93.25
494.703	88.25
494.92	94.25
495.138	81.25
495.355	82.25
495.573	78.25
495.79	87.25
496.008	100.25
496.225	93.25
496.442	84.25
496.66	84.25
496.877	83.25
497.094	95.25
497.312	98.25
497.529	97.25
497.746	94.25
497.963	93.25
498.181	83.25
498.398	99.25
498.615	92.25
498.832	85.25
499.049	84.25
499.267	101.25
499.484	77.25
499.701	103.25
499.918	96.25
500.135	82.25
500.352	89.25
500.569	96.25
500.786	102.25
501.003	96.25
501.22	97.25
501.437	103.25
501.654	101.25
501.871	89.25
502.088	81.25
502.305	105.25
502.522	93.25
502.739	88.25
502.956	98.25
503.172	95.25
503.389	87.25
503.606	91.25
503.823	104.25
504.04	104.25
504.256	155.25
504.473	157.25
504.69	106.25
504.907	99.25
505.123	96.25
505.34	104.25
505.557	102.25
505.773	86.25
505.99	92.25
506.207	89.25
506.423	73.25
506.64	105.25
506.856	87.25
507.073	83.25
507.289	91.25
507.506	78.25
507.722	79.25
507.939	95.25
508.155	85.25
508.372	89.25
508.588	99.25
508.805	79.25
509.021	85.25
509.238	90.25
509.454	74.25
509.67	81.25
509.887	70.25
510.103	95.25
510.319	79.25
510.536	89.25
510.752	87.25
510.968	84.25
511.184	84.25
511.401	81.25
511.617	85.25
511.833	86.25
512.049	88.25
512.265	99.25
512.481	106.25
512.698	93.25
512.914	99.25
513.13	83.25
513.346	99.25
513.562	94.25
513.778	92.25
513.994	80.25
514.21	84.25
514.426	91.25
514.642	98.25
514.858	94.25
515.074	104.25
515.29	92.25
515.506	87.25
515.721	91.25
515.937	102.25
516.153	96.25
516.369	91.25
516.585	79.25
516.801	95.25
517.016	100.25
517.232	87.25
