Data from 10100_1_HRD10591_00014.txt Node
Date: Mon Jan 19 14:00:31 EST 2026
User: Yrep
Spectrometer: HR+D1059
Trigger mode: 1
Integration Time (sec): 1.000000E-1
Scans to average: 1
Electric dark correction enabled: true
Nonlinearity correction enabled: false
Boxcar width: 0
XAxis mode: Wavelengths
Number of Pixels in Spectrum: 2048
>>>>>Begin Spectral Data<<<<<
223.165	-13.5
223.4	-13.5
223.635	-13.5
223.869	-16.5
224.104	-30.5
224.338	-17.5
224.573	-6.5
224.808	-18.5
225.042	2.5
225.277	-1.5
225.511	-15.5
225.746	16.5
225.98	5.5
226.215	9.5
226.449	2.5
226.683	24.5
226.918	30.5
227.152	28.5
227.387	28.5
227.621	36.5
227.856	46.5
228.09	39.5
228.324	50.5
228.559	58.5
228.793	50.5
229.027	54.5
229.262	56.5
229.496	59.5
229.73	60.5
229.964	64.5
230.199	76.5
230.433	61.5
230.667	69.5
230.901	73.5
231.136	71.5
231.37	93.5
231.604	80.5
231.838	78.5
232.072	70.5
232.306	78.5
232.541	69.5
232.775	86.5
233.009	75.5
233.243	79.5
233.477	70.5
233.711	68.5
233.945	79.5
234.179	79.5
234.413	75.5
234.647	78.5
234.881	81.5
235.115	82.5
235.349	81.5
235.583	80.5
235.817	75.5
236.051	68.5
236.285	67.5
236.519	69.5
236.753	73.5
236.987	80.5
237.221	83.5
237.455	80.5
237.689	62.5
237.922	64.5
238.156	58.5
238.39	78.5
238.624	78.5
238.858	70.5
239.091	76.5
239.325	61.5
239.559	74.5
239.793	66.5
240.027	92.5
240.26	82.5
240.494	75.5
240.728	69.5
240.961	70.5
241.195	84.5
241.429	82.5
241.662	72.5
241.896	66.5
242.13	75.5
242.363	68.5
242.597	67.5
242.83	76.5
243.064	82.5
243.298	78.5
243.531	72.5
243.765	78.5
243.998	90.5
244.232	83.5
244.465	73.5
244.699	69.5
244.932	78.5
245.166	70.5
245.399	74.5
245.633	70.5
245.866	82.5
246.099	80.5
246.333	70.5
246.566	69.5
246.8	75.5
247.033	84.5
247.266	64.5
247.5	70.5
247.733	99.5
247.966	69.5
248.2	62.5
248.433	69.5
248.666	57.5
248.899	73.5
249.133	78.5
249.366	79.5
249.599	72.5
249.832	78.5
250.066	60.5
250.299	64.5
250.532	75.5
250.765	63.5
250.998	78.5
251.231	74.5
251.465	82.5
251.698	76.5
251.931	88.5
252.164	91.5
252.397	82.5
252.63	78.5
252.863	86.5
253.096	81.5
253.329	74.5
253.562	70.5
253.795	72.5
254.028	84.5
254.261	60.5
254.494	62.5
254.727	77.5
254.96	71.5
255.193	88.5
255.426	86.5
255.659	85.5
255.892	75.5
256.124	88.5
256.357	92.5
256.59	91.5
256.823	85.5
257.056	72.5
257.289	71.5
257.521	77.5
257.754	92.5
257.987	85.5
258.22	70.5
258.452	97.5
258.685	55.5
258.918	64.5
259.151	76.5
259.383	73.5
259.616	87.5
259.849	76.5
260.081	75.5
260.314	87.5
260.547	76.5
260.779	62.5
261.012	70.5
261.244	80.5
261.477	70.5
261.71	69.5
261.942	71.5
262.175	90.5
262.407	94.5
262.64	66.5
262.872	92.5
263.105	69.5
263.337	73.5
263.57	73.5
263.802	89.5
264.035	86.5
264.267	67.5
264.499	87.5
264.732	76.5
264.964	66.5
265.197	78.5
265.429	73.5
265.661	70.5
265.894	86.5
266.126	79.5
266.358	78.5
266.591	74.5
266.823	79.5
267.055	78.5
267.287	84.5
267.52	86.5
267.752	81.5
267.984	85.5
268.216	87.5
268.448	84.5
268.681	78.5
268.913	76.5
269.145	78.5
269.377	74.5
269.609	79.5
269.841	73.5
270.073	80.5
270.306	81.5
270.538	86.5
270.77	88.5
271.002	75.5
271.234	78.5
271.466	87.5
271.698	82.5
271.93	78.5
272.162	83.5
272.394	85.5
272.626	81.5
272.858	85.5
273.09	84.5
273.322	85.5
273.553	82.5
273.785	72.5
274.017	80.5
274.249	78.5
274.481	86.5
274.713	86.5
274.945	69.5
275.176	73.5
275.408	80.5
275.64	79.5
275.872	90.5
276.104	81.5
276.335	80.5
276.567	76.5
276.799	84.5
277.031	80.5
277.262	74.5
277.494	95.5
277.726	73.5
277.957	81.5
278.189	73.5
278.421	79.5
278.652	80.5
278.884	75.5
279.115	78.5
279.347	82.5
279.579	93.5
279.81	90.5
280.042	63.5
280.273	88.5
280.505	84.5
280.736	81.5
280.968	83.5
281.199	90.5
281.431	88.5
281.662	94.5
281.894	89.5
282.125	76.5
282.356	87.5
282.588	85.5
282.819	75.5
283.051	79.5
283.282	90.5
283.513	90.5
283.745	74.5
283.976	84.5
284.207	80.5
284.439	80.5
284.67	84.5
284.901	84.5
285.132	83.5
285.364	73.5
285.595	87.5
285.826	84.5
286.057	91.5
286.288	79.5
286.52	87.5
286.751	78.5
286.982	92.5
287.213	78.5
287.444	93.5
287.675	69.5
287.906	71.5
288.138	81.5
288.369	78.5
288.6	89.5
288.831	75.5
289.062	83.5
289.293	78.5
289.524	84.5
289.755	99.5
289.986	92.5
290.217	88.5
290.448	73.5
290.679	78.5
290.91	90.5
291.141	94.5
291.371	92.5
291.602	74.5
291.833	85.5
292.064	80.5
292.295	87.5
292.526	77.5
292.757	88.5
292.987	96.5
293.218	89.5
293.449	90.5
293.68	86.5
293.91	83.5
294.141	78.5
294.372	82.5
294.603	83.5
294.833	95.5
295.064	71.5
295.295	73.5
295.525	85.5
295.756	80.5
295.987	74.5
296.217	86.5
296.448	92.5
296.679	85.5
296.909	93.5
297.14	75.5
297.37	82.5
297.601	84.5
297.831	82.5
298.062	94.5
298.292	78.5
298.523	94.5
298.753	78.5
298.984	90.5
299.214	89.5
299.445	83.5
299.675	93.5
299.905	82.5
300.136	89.5
300.366	85.5
300.597	81.5
300.827	88.5
301.057	67.5
301.288	84.5
301.518	67.5
301.748	81.5
301.979	102.5
302.209	86.5
302.439	101.5
302.669	88.5
302.9	84.5
303.13	93.5
303.36	81.5
303.59	85.5
303.82	83.5
304.051	79.5
304.281	90.5
304.511	87.5
304.741	97.5
304.971	66.5
305.201	80.5
305.431	75.5
305.661	81.5
305.891	92.5
306.121	92.5
306.352	88.5
306.582	82.5
306.812	88.5
307.042	88.5
307.272	81.5
307.502	85.5
307.731	71.5
307.961	79.5
308.191	93.5
308.421	90.5
308.651	94.5
308.881	90.5
309.111	79.5
309.341	83.5
309.571	75.5
309.8	82.5
310.03	89.5
310.26	91.5
310.49	86.5
310.72	78.5
310.949	68.5
311.179	72.5
311.409	79.5
311.639	88.5
311.868	81.5
312.098	92.5
312.328	86.5
312.557	96.5
312.787	82.5
313.017	79.5
313.246	70.5
313.476	87.5
313.706	86.5
313.935	82.5
314.165	76.5
314.394	78.5
314.624	78.5
314.853	80.5
315.083	91.5
315.312	85.5
315.542	78.5
315.771	98.5
316.001	87.5
316.23	87.5
316.46	78.5
316.689	89.5
316.919	98.5
317.148	64.5
317.377	88.5
317.607	75.5
317.836	88.5
318.065	95.5
318.295	79.5
318.524	80.5
318.753	90.5
318.983	83.5
319.212	87.5
319.441	84.5
319.67	94.5
319.9	91.5
320.129	84.5
320.358	76.5
320.587	72.5
320.816	74.5
321.046	83.5
321.275	97.5
321.504	94.5
321.733	87.5
321.962	73.5
322.191	82.5
322.42	88.5
322.649	91.5
322.878	82.5
323.108	90.5
323.337	82.5
323.566	81.5
323.795	88.5
324.024	80.5
324.253	86.5
324.482	82.5
324.71	84.5
324.939	89.5
325.168	74.5
325.397	70.5
325.626	67.5
325.855	74.5
326.084	78.5
326.313	78.5
326.542	82.5
326.77	89.5
326.999	75.5
327.228	78.5
327.457	70.5
327.686	100.5
327.914	98.5
328.143	94.5
328.372	83.5
328.6	90.5
328.829	82.5
329.058	89.5
329.287	92.5
329.515	96.5
329.744	88.5
329.972	80.5
330.201	87.5
330.43	88.5
330.658	87.5
330.887	94.5
331.115	85.5
331.344	85.5
331.572	83.5
331.801	93.5
332.03	77.5
332.258	78.5
332.486	79.5
332.715	87.5
332.943	92.5
333.172	84.5
333.4	84.5
333.629	67.5
333.857	92.5
334.085	77.5
334.314	82.5
334.542	91.5
334.771	84.5
334.999	94.5
335.227	108.5
335.455	88.5
335.684	74.5
335.912	97.5
336.14	100.5
336.369	83.5
336.597	88.5
336.825	92.5
337.053	90.5
337.281	91.5
337.51	70.5
337.738	95.5
337.966	84.5
338.194	71.5
338.422	100.5
338.65	90.5
338.878	85.5
339.106	96.5
339.334	81.5
339.562	83.5
339.79	84.5
340.018	77.5
340.246	74.5
340.474	78.5
340.702	76.5
340.93	67.5
341.158	80.5
341.386	86.5
341.614	88.5
341.842	76.5
342.07	80.5
342.298	82.5
342.526	68.5
342.754	94.5
342.981	78.5
343.209	90.5
343.437	97.5
343.665	85.5
343.893	98.5
344.12	97.5
344.348	89.5
344.576	92.5
344.804	78.5
345.031	82.5
345.259	79.5
345.487	84.5
345.714	95.5
345.942	80.5
346.17	92.5
346.397	96.5
346.625	86.5
346.853	90.5
347.08	73.5
347.308	88.5
347.535	92.5
347.763	101.5
347.99	78.5
348.218	90.5
348.445	81.5
348.673	98.5
348.9	88.5
349.128	65.5
349.355	95.5
349.583	96.5
349.81	83.5
350.037	80.5
350.265	82.5
350.492	79.5
350.72	98.5
350.947	93.5
351.174	94.5
351.402	67.5
351.629	82.5
351.856	88.5
352.083	89.5
352.311	83.5
352.538	95.5
352.765	84.5
352.992	92.5
353.22	85.5
353.447	79.5
353.674	90.5
353.901	80.5
354.128	82.5
354.355	91.5
354.583	87.5
354.81	98.5
355.037	85.5
355.264	96.5
355.491	107.5
355.718	80.5
355.945	89.5
356.172	80.5
356.399	86.5
356.626	86.5
356.853	97.5
357.08	83.5
357.307	83.5
357.534	70.5
357.761	80.5
357.988	99.5
358.215	104.5
358.441	108.5
358.668	86.5
358.895	78.5
359.122	96.5
359.349	89.5
359.576	80.5
359.802	76.5
360.029	89.5
360.256	82.5
360.483	89.5
360.709	79.5
360.936	100.5
361.163	87.5
361.39	79.5
361.616	86.5
361.843	92.5
362.07	110.5
362.296	78.5
362.523	111.5
362.749	102.5
362.976	116.5
363.203	133.5
363.429	120.5
363.656	85.5
363.882	97.5
364.109	107.5
364.335	113.5
364.562	133.5
364.788	107.5
365.015	106.5
365.241	91.5
365.468	84.5
365.694	92.5
365.92	82.5
366.147	83.5
366.373	80.5
366.599	87.5
366.826	87.5
367.052	89.5
367.278	100.5
367.505	80.5
367.731	92.5
367.957	86.5
368.184	87.5
368.41	78.5
368.636	91.5
368.862	90.5
369.089	90.5
369.315	88.5
369.541	94.5
369.767	85.5
369.993	92.5
370.219	82.5
370.445	95.5
370.672	80.5
370.898	96.5
371.124	95.5
371.35	83.5
371.576	76.5
371.802	94.5
372.028	84.5
372.254	100.5
372.48	103.5
372.706	91.5
372.932	77.5
373.158	108.5
373.384	101.5
373.61	101.5
373.835	112.5
374.061	86.5
374.287	95.5
374.513	106.5
374.739	99.5
374.965	101.5
375.191	100.5
375.416	102.5
375.642	91.5
375.868	103.5
376.094	91.5
376.319	80.5
376.545	94.5
376.771	102.5
376.997	76.5
377.222	89.5
377.448	73.5
377.674	76.5
377.899	79.5
378.125	76.5
378.35	83.5
378.576	76.5
378.802	87.5
379.027	84.5
379.253	88.5
379.478	88.5
379.704	88.5
379.929	88.5
380.155	90.5
380.38	83.5
380.606	85.5
380.831	77.5
381.057	93.5
381.282	97.5
381.507	77.5
381.733	94.5
381.958	92.5
382.184	97.5
382.409	88.5
382.634	94.5
382.86	88.5
383.085	111.5
383.31	96.5
383.535	96.5
383.761	93.5
383.986	103.5
384.211	89.5
384.436	84.5
384.662	105.5
384.887	87.5
385.112	91.5
385.337	94.5
385.562	90.5
385.787	94.5
386.013	88.5
386.238	87.5
386.463	84.5
386.688	102.5
386.913	102.5
387.138	95.5
387.363	97.5
387.588	112.5
387.813	90.5
388.038	81.5
388.263	108.5
388.488	81.5
388.713	98.5
388.938	106.5
389.163	98.5
389.387	84.5
389.612	85.5
389.837	93.5
390.062	84.5
390.287	92.5
390.512	85.5
390.736	90.5
390.961	76.5
391.186	100.5
391.411	86.5
391.636	96.5
391.86	95.5
392.085	90.5
392.31	77.5
392.534	112.5
392.759	93.5
392.984	147.5
393.208	230.5
393.433	318.5
393.658	257.5
393.882	132.5
394.107	107.5
394.331	102.5
394.556	99.5
394.78	101.5
395.005	89.5
395.229	108.5
395.454	99.5
395.678	106.5
395.903	110.5
396.127	125.5
396.352	133.5
396.576	145.5
396.801	219.5
397.025	250.5
397.249	146.5
397.474	119.5
397.698	102.5
397.922	95.5
398.147	90.5
398.371	81.5
398.595	90.5
398.82	73.5
399.044	88.5
399.268	86.5
399.492	101.5
399.717	92.5
399.941	91.5
400.165	88.5
400.389	89.5
400.613	79.5
400.837	80.5
401.062	97.5
401.286	84.5
401.51	83.5
401.734	83.5
401.958	86.5
402.182	91.5
402.406	82.5
402.63	83.5
402.854	92.5
403.078	93.5
403.302	85.5
403.526	85.5
403.75	105.5
403.974	99.5
404.198	89.5
404.422	108.5
404.645	95.5
404.869	93.5
405.093	92.5
405.317	89.5
405.541	86.5
405.765	79.5
405.988	79.5
406.212	86.5
406.436	91.5
406.66	86.5
406.883	84.5
407.107	96.5
407.331	79.5
407.555	84.5
407.778	104.5
408.002	107.5
408.226	93.5
408.449	90.5
408.673	97.5
408.896	87.5
409.12	94.5
409.344	94.5
409.567	96.5
409.791	102.5
410.014	104.5
410.238	103.5
410.461	83.5
410.685	93.5
410.908	81.5
411.132	99.5
411.355	71.5
411.578	79.5
411.802	88.5
412.025	87.5
412.249	84.5
412.472	89.5
412.695	102.5
412.919	83.5
413.142	79.5
413.365	84.5
413.589	93.5
413.812	83.5
414.035	84.5
414.258	91.5
414.482	91.5
414.705	79.5
414.928	81.5
415.151	76.5
415.374	87.5
415.597	94.5
415.821	78.5
416.044	103.5
416.267	81.5
416.49	79.5
416.713	94.5
416.936	86.5
417.159	84.5
417.382	80.5
417.605	79.5
417.828	84.5
418.051	74.5
418.274	73.5
418.497	75.5
418.72	98.5
418.943	88.5
419.166	83.5
419.389	95.5
419.611	92.5
419.834	86.5
420.057	86.5
420.28	86.5
420.503	99.5
420.726	87.5
420.948	84.5
421.171	100.5
421.394	107.5
421.617	113.5
421.839	130.5
422.062	141.5
422.285	186.5
422.507	273.5
422.73	383.5
422.953	342.5
423.175	218.5
423.398	151.5
423.621	122.5
423.843	104.5
424.066	102.5
424.288	94.5
424.511	89.5
424.733	101.5
424.956	98.5
425.178	89.5
425.401	92.5
425.623	89.5
425.846	101.5
426.068	93.5
426.291	99.5
426.513	88.5
426.735	81.5
426.958	78.5
427.18	92.5
427.402	97.5
427.625	90.5
427.847	90.5
428.069	106.5
428.292	129.5
428.514	139.5
428.736	106.5
428.958	131.5
429.181	121.5
429.403	103.5
429.625	101.5
429.847	116.5
430.069	155.5
430.292	189.5
430.514	158.5
430.736	147.5
430.958	147.5
431.18	78.5
431.402	73.5
431.624	83.5
431.846	114.5
432.068	134.5
432.29	92.5
432.512	98.5
432.734	91.5
432.956	83.5
433.178	86.5
433.4	86.5
433.622	67.5
433.844	96.5
434.066	91.5
434.287	86.5
434.509	80.5
434.731	86.5
434.953	75.5
435.175	80.5
435.397	84.5
435.618	79.5
435.84	93.5
436.062	90.5
436.284	80.5
436.505	97.5
436.727	86.5
436.949	76.5
437.17	80.5
437.392	88.5
437.614	96.5
437.835	102.5
438.057	87.5
438.278	82.5
438.5	91.5
438.721	88.5
438.943	77.5
439.165	82.5
439.386	82.5
439.608	93.5
439.829	60.5
440.05	80.5
440.272	85.5
440.493	93.5
440.715	95.5
440.936	86.5
441.158	78.5
441.379	85.5
441.6	92.5
441.822	94.5
442.043	84.5
442.264	110.5
442.486	148.5
442.707	185.5
442.928	114.5
443.149	109.5
443.371	145.5
443.592	251.5
443.813	197.5
444.034	106.5
444.255	100.5
444.476	92.5
444.698	100.5
444.919	87.5
445.14	170.5
445.361	189.5
445.582	289.5
445.803	253.5
446.024	129.5
446.245	100.5
446.466	77.5
446.687	98.5
446.908	81.5
447.129	96.5
447.35	66.5
447.571	93.5
447.792	90.5
448.013	84.5
448.234	91.5
448.455	81.5
448.675	80.5
448.896	83.5
449.117	85.5
449.338	78.5
449.559	91.5
449.779	78.5
450	89.5
450.221	82.5
450.442	96.5
450.662	71.5
450.883	87.5
451.104	98.5
451.324	81.5
451.545	94.5
451.766	88.5
451.986	84.5
452.207	100.5
452.428	99.5
452.648	99.5
452.869	106.5
453.089	102.5
453.31	84.5
453.53	100.5
453.751	92.5
453.971	110.5
454.192	104.5
454.412	89.5
454.633	80.5
454.853	74.5
455.073	83.5
455.294	84.5
455.514	87.5
455.734	91.5
455.955	85.5
456.175	78.5
456.395	97.5
456.616	85.5
456.836	85.5
457.056	85.5
457.276	85.5
457.497	81.5
457.717	99.5
457.937	117.5
458.157	124.5
458.377	139.5
458.598	133.5
458.818	142.5
459.038	90.5
459.258	81.5
459.478	94.5
459.698	98.5
459.918	97.5
460.138	85.5
460.358	97.5
460.578	96.5
460.798	119.5
461.018	122.5
461.238	93.5
461.458	88.5
461.678	75.5
461.898	74.5
462.118	83.5
462.338	93.5
462.558	79.5
462.777	72.5
462.997	87.5
463.217	80.5
463.437	79.5
463.657	83.5
463.876	80.5
464.096	89.5
464.316	80.5
464.536	74.5
464.755	97.5
464.975	91.5
465.195	67.5
465.414	84.5
465.634	89.5
465.854	82.5
466.073	88.5
466.293	86.5
466.512	88.5
466.732	88.5
466.951	88.5
467.171	81.5
467.391	95.5
467.61	85.5
467.829	83.5
468.049	95.5
468.268	88.5
468.488	99.5
468.707	90.5
468.927	75.5
469.146	69.5
469.365	90.5
469.585	78.5
469.804	88.5
470.023	86.5
470.243	88.5
470.462	83.5
470.681	84.5
470.901	82.5
471.12	91.5
471.339	87.5
471.558	80.5
471.777	80.5
471.997	96.5
472.216	91.5
472.435	84.5
472.654	88.5
472.873	97.5
473.092	76.5
473.311	98.5
473.53	94.5
473.749	76.5
473.968	85.5
474.187	92.5
474.406	86.5
474.625	65.5
474.844	94.5
475.063	78.5
475.282	85.5
475.501	93.5
475.72	93.5
475.939	76.5
476.158	68.5
476.377	97.5
476.596	79.5
476.814	86.5
477.033	69.5
477.252	84.5
477.471	83.5
477.69	85.5
477.908	97.5
478.127	103.5
478.346	91.5
478.564	93.5
478.783	89.5
479.002	81.5
479.22	90.5
479.439	72.5
479.658	76.5
479.876	95.5
480.095	86.5
480.313	92.5
480.532	82.5
480.751	80.5
480.969	88.5
481.188	87.5
481.406	91.5
481.624	91.5
481.843	83.5
482.061	98.5
482.28	89.5
482.498	87.5
482.717	88.5
482.935	84.5
483.153	90.5
483.372	96.5
483.59	78.5
483.808	88.5
484.027	96.5
484.245	101.5
484.463	89.5
484.681	99.5
484.9	92.5
485.118	87.5
485.336	98.5
485.554	86.5
485.772	110.5
485.99	95.5
486.209	83.5
486.427	82.5
486.645	102.5
486.863	94.5
487.081	91.5
487.299	91.5
487.517	98.5
487.735	124.5
487.953	188.5
488.171	166.5
488.389	110.5
488.607	91.5
488.825	96.5
489.043	100.5
489.261	86.5
489.479	81.5
489.696	90.5
489.914	94.5
490.132	90.5
490.35	84.5
490.568	82.5
490.786	86.5
491.003	95.5
491.221	98.5
491.439	84.5
491.657	97.5
491.874	108.5
492.092	90.5
492.31	107.5
492.527	82.5
492.745	100.5
492.963	93.5
493.18	92.5
493.398	106.5
493.615	101.5
493.833	95.5
494.05	90.5
494.268	92.5
494.485	88.5
494.703	75.5
494.92	77.5
495.138	75.5
495.355	97.5
495.573	94.5
495.79	89.5
496.008	87.5
496.225	74.5
496.442	92.5
496.66	94.5
496.877	86.5
497.094	80.5
497.312	99.5
497.529	99.5
497.746	111.5
497.963	108.5
498.181	110.5
498.398	99.5
498.615	100.5
498.832	98.5
499.049	77.5
499.267	97.5
499.484	93.5
499.701	98.5
499.918	90.5
500.135	93.5
500.352	83.5
500.569	93.5
500.786	73.5
501.003	93.5
501.22	91.5
501.437	100.5
501.654	89.5
501.871	99.5
502.088	94.5
502.305	98.5
502.522	91.5
502.739	107.5
502.956	83.5
503.172	85.5
503.389	78.5
503.606	93.5
503.823	111.5
504.04	124.5
504.256	152.5
504.473	144.5
504.69	95.5
504.907	108.5
505.123	92.5
505.34	98.5
505.557	95.5
505.773	104.5
505.99	76.5
506.207	86.5
506.423	80.5
506.64	100.5
506.856	84.5
507.073	100.5
507.289	87.5
507.506	101.5
507.722	86.5
507.939	95.5
508.155	76.5
508.372	80.5
508.588	90.5
508.805	80.5
509.021	89.5
509.238	96.5
509.454	85.5
509.67	92.5
509.887	92.5
510.103	92.5
510.319	91.5
510.536	102.5
510.752	90.5
510.968	86.5
511.184	102.5
511.401	83.5
511.617	94.5
511.833	103.5
512.049	99.5
512.265	89.5
512.481	89.5
512.698	93.5
512.914	90.5
513.13	91.5
513.346	69.5
513.562	98.5
513.778	99.5
513.994	95.5
514.21	95.5
514.426	81.5
514.642	98.5
514.858	101.5
515.074	82.5
515.29	96.5
515.506	84.5
515.721	93.5
515.937	88.5
516.153	98.5
516.369	96.5
516.585	106.5
516.801	85.5
517.016	87.5
517.232	88.5
517.448	110.5
517.664	116.5
517.879	95.5
518.095	100.5
518.311	90.5
518.527	111.5
518.742	115.5
518.958	162.5
519.173	206.5
519.389	114.5
519.605	91.5
519.82	90.5
520.036	109.5
520.251	108.5
520.467	98.5
520.682	101.5
520.898	85.5
521.113	108.5
521.329	97.5
521.544	88.5
521.76	86.5
521.975	81.5
522.19	80.5
522.406	86.5
522.621	94.5
522.836	91.5
523.052	94.5
523.267	101.5
523.482	91.5
523.698	81.5
523.913	98.5
524.128	81.5
524.343	85.5
524.559	103.5
524.774	76.5
524.989	103.5
525.204	98.5
525.419	86.5
525.634	87.5
525.849	120.5
526.064	122.5
526.28	257.5
526.495	336.5
526.71	346.5
526.925	222.5
527.14	304.5
527.355	270.5
527.57	124.5
527.785	106.5
527.999	100.5
528.214	102.5
528.429	113.5
528.644	93.5
528.859	94.5
529.074	90.5
529.289	97.5
529.503	112.5
529.718	90.5
529.933	86.5
530.148	103.5
530.363	86.5
530.577	102.5
530.792	94.5
531.007	108.5
531.221	103.5
531.436	94.5
531.651	103.5
531.865	114.5
532.08	101.5
532.295	90.5
532.509	99.5
532.724	90.5
532.938	108.5
533.153	113.5
533.367	112.5
533.582	107.5
533.796	114.5
534.011	98.5
534.225	96.5
534.44	120.5
534.654	118.5
534.868	135.5
535.083	192.5
535.297	174.5
535.511	134.5
535.726	110.5
535.94	111.5
536.154	94.5
536.369	104.5
536.583	119.5
536.797	112.5
537.011	96.5
537.225	124.5
