Data from 10100_1_HRD10591_00037.txt Node
Date: Mon Jan 19 14:00:43 EST 2026
User: Yrep
Spectrometer: HR+D1059
Trigger mode: 1
Integration Time (sec): 1.000000E-1
Scans to average: 1
Electric dark correction enabled: true
Nonlinearity correction enabled: false
Boxcar width: 0
XAxis mode: Wavelengths
Number of Pixels in Spectrum: 2048
>>>>>Begin Spectral Data<<<<<
223.165	4.81
223.4	4.81
223.635	4.81
223.869	-17.19
224.104	-17.19
224.338	-22.19
224.573	-8.19
224.808	-7.19
225.042	-2.19
225.277	3.81
225.511	0.81
225.746	9.81
225.98	6.81
226.215	7.81
226.449	7.81
226.683	12.81
226.918	3.81
227.152	15.81
227.387	32.81
227.621	41.81
227.856	52.81
228.09	39.81
228.324	59.81
228.559	53.81
228.793	51.81
229.027	56.81
229.262	67.81
229.496	69.81
229.73	71.81
229.964	79.81
230.199	73.81
230.433	71.81
230.667	68.81
230.901	63.81
231.136	91.81
231.37	71.81
231.604	80.81
231.838	78.81
232.072	70.81
232.306	99.81
232.541	74.81
232.775	67.81
233.009	94.81
233.243	85.81
233.477	78.81
233.711	66.81
233.945	67.81
234.179	87.81
234.413	71.81
234.647	83.81
234.881	82.81
235.115	67.81
235.349	71.81
235.583	79.81
235.817	87.81
236.051	77.81
236.285	74.81
236.519	79.81
236.753	68.81
236.987	69.81
237.221	71.81
237.455	73.81
237.689	76.81
237.922	78.81
238.156	79.81
238.39	76.81
238.624	81.81
238.858	69.81
239.091	67.81
239.325	78.81
239.559	87.81
239.793	66.81
240.027	77.81
240.26	64.81
240.494	93.81
240.728	79.81
240.961	81.81
241.195	79.81
241.429	72.81
241.662	78.81
241.896	77.81
242.13	78.81
242.363	74.81
242.597	84.81
242.83	90.81
243.064	88.81
243.298	78.81
243.531	78.81
243.765	72.81
243.998	94.81
244.232	79.81
244.465	81.81
244.699	77.81
244.932	87.81
245.166	79.81
245.399	70.81
245.633	83.81
245.866	66.81
246.099	67.81
246.333	77.81
246.566	68.81
246.8	86.81
247.033	93.81
247.266	77.81
247.5	73.81
247.733	84.81
247.966	80.81
248.2	75.81
248.433	79.81
248.666	77.81
248.899	75.81
249.133	87.81
249.366	86.81
249.599	84.81
249.832	69.81
250.066	86.81
250.299	75.81
250.532	80.81
250.765	74.81
250.998	79.81
251.231	71.81
251.465	73.81
251.698	93.81
251.931	73.81
252.164	63.81
252.397	72.81
252.63	78.81
252.863	70.81
253.096	85.81
253.329	75.81
253.562	81.81
253.795	69.81
254.028	82.81
254.261	78.81
254.494	87.81
254.727	78.81
254.96	79.81
255.193	73.81
255.426	82.81
255.659	71.81
255.892	89.81
256.124	73.81
256.357	86.81
256.59	84.81
256.823	66.81
257.056	73.81
257.289	87.81
257.521	85.81
257.754	78.81
257.987	67.81
258.22	79.81
258.452	70.81
258.685	86.81
258.918	95.81
259.151	83.81
259.383	89.81
259.616	86.81
259.849	84.81
260.081	85.81
260.314	79.81
260.547	77.81
260.779	69.81
261.012	79.81
261.244	69.81
261.477	91.81
261.71	87.81
261.942	75.81
262.175	77.81
262.407	64.81
262.64	68.81
262.872	83.81
263.105	73.81
263.337	69.81
263.57	79.81
263.802	81.81
264.035	68.81
264.267	68.81
264.499	84.81
264.732	81.81
264.964	70.81
265.197	85.81
265.429	85.81
265.661	89.81
265.894	86.81
266.126	86.81
266.358	77.81
266.591	88.81
266.823	80.81
267.055	81.81
267.287	70.81
267.52	71.81
267.752	75.81
267.984	81.81
268.216	70.81
268.448	59.81
268.681	75.81
268.913	64.81
269.145	89.81
269.377	83.81
269.609	77.81
269.841	78.81
270.073	85.81
270.306	84.81
270.538	90.81
270.77	92.81
271.002	67.81
271.234	81.81
271.466	72.81
271.698	91.81
271.93	89.81
272.162	92.81
272.394	87.81
272.626	89.81
272.858	78.81
273.09	87.81
273.322	83.81
273.553	75.81
273.785	77.81
274.017	100.81
274.249	75.81
274.481	80.81
274.713	63.81
274.945	81.81
275.176	70.81
275.408	88.81
275.64	83.81
275.872	85.81
276.104	80.81
276.335	84.81
276.567	96.81
276.799	91.81
277.031	83.81
277.262	90.81
277.494	79.81
277.726	87.81
277.957	90.81
278.189	71.81
278.421	79.81
278.652	90.81
278.884	92.81
279.115	86.81
279.347	82.81
279.579	91.81
279.81	92.81
280.042	75.81
280.273	94.81
280.505	70.81
280.736	90.81
280.968	78.81
281.199	76.81
281.431	79.81
281.662	71.81
281.894	75.81
282.125	77.81
282.356	98.81
282.588	79.81
282.819	97.81
283.051	85.81
283.282	89.81
283.513	73.81
283.745	85.81
283.976	88.81
284.207	94.81
284.439	83.81
284.67	79.81
284.901	92.81
285.132	75.81
285.364	92.81
285.595	88.81
285.826	94.81
286.057	78.81
286.288	86.81
286.52	81.81
286.751	79.81
286.982	85.81
287.213	80.81
287.444	73.81
287.675	83.81
287.906	78.81
288.138	87.81
288.369	81.81
288.6	88.81
288.831	91.81
289.062	81.81
289.293	83.81
289.524	103.81
289.755	79.81
289.986	70.81
290.217	71.81
290.448	70.81
290.679	76.81
290.91	92.81
291.141	101.81
291.371	72.81
291.602	78.81
291.833	84.81
292.064	85.81
292.295	76.81
292.526	75.81
292.757	80.81
292.987	87.81
293.218	75.81
293.449	91.81
293.68	80.81
293.91	96.81
294.141	94.81
294.372	77.81
294.603	83.81
294.833	78.81
295.064	82.81
295.295	93.81
295.525	84.81
295.756	88.81
295.987	73.81
296.217	80.81
296.448	89.81
296.679	82.81
296.909	98.81
297.14	73.81
297.37	90.81
297.601	93.81
297.831	93.81
298.062	91.81
298.292	92.81
298.523	81.81
298.753	76.81
298.984	96.81
299.214	83.81
299.445	83.81
299.675	81.81
299.905	79.81
300.136	88.81
300.366	83.81
300.597	92.81
300.827	79.81
301.057	98.81
301.288	95.81
301.518	84.81
301.748	91.81
301.979	98.81
302.209	97.81
302.439	86.81
302.669	75.81
302.9	77.81
303.13	77.81
303.36	76.81
303.59	88.81
303.82	79.81
304.051	82.81
304.281	93.81
304.511	90.81
304.741	88.81
304.971	76.81
305.201	92.81
305.431	98.81
305.661	86.81
305.891	91.81
306.121	82.81
306.352	82.81
306.582	94.81
306.812	84.81
307.042	76.81
307.272	76.81
307.502	98.81
307.731	99.81
307.961	92.81
308.191	87.81
308.421	93.81
308.651	86.81
308.881	81.81
309.111	88.81
309.341	86.81
309.571	89.81
309.8	84.81
310.03	86.81
310.26	88.81
310.49	85.81
310.72	91.81
310.949	87.81
311.179	97.81
311.409	79.81
311.639	80.81
311.868	91.81
312.098	91.81
312.328	92.81
312.557	92.81
312.787	69.81
313.017	89.81
313.246	101.81
313.476	95.81
313.706	87.81
313.935	103.81
314.165	85.81
314.394	86.81
314.624	81.81
314.853	85.81
315.083	91.81
315.312	70.81
315.542	71.81
315.771	82.81
316.001	83.81
316.23	80.81
316.46	70.81
316.689	84.81
316.919	79.81
317.148	87.81
317.377	101.81
317.607	95.81
317.836	94.81
318.065	100.81
318.295	76.81
318.524	72.81
318.753	86.81
318.983	94.81
319.212	85.81
319.441	87.81
319.67	89.81
319.9	96.81
320.129	83.81
320.358	83.81
320.587	81.81
320.816	84.81
321.046	93.81
321.275	84.81
321.504	95.81
321.733	81.81
321.962	76.81
322.191	95.81
322.42	85.81
322.649	91.81
322.878	94.81
323.108	79.81
323.337	83.81
323.566	79.81
323.795	87.81
324.024	78.81
324.253	81.81
324.482	92.81
324.71	72.81
324.939	100.81
325.168	91.81
325.397	76.81
325.626	79.81
325.855	82.81
326.084	72.81
326.313	103.81
326.542	90.81
326.77	79.81
326.999	93.81
327.228	97.81
327.457	82.81
327.686	85.81
327.914	95.81
328.143	79.81
328.372	84.81
328.6	87.81
328.829	77.81
329.058	75.81
329.287	82.81
329.515	83.81
329.744	85.81
329.972	81.81
330.201	75.81
330.43	94.81
330.658	82.81
330.887	86.81
331.115	94.81
331.344	87.81
331.572	85.81
331.801	87.81
332.03	82.81
332.258	93.81
332.486	83.81
332.715	84.81
332.943	82.81
333.172	81.81
333.4	93.81
333.629	88.81
333.857	92.81
334.085	96.81
334.314	88.81
334.542	85.81
334.771	98.81
334.999	85.81
335.227	96.81
335.455	96.81
335.684	89.81
335.912	95.81
336.14	95.81
336.369	102.81
336.597	93.81
336.825	88.81
337.053	65.81
337.281	91.81
337.51	87.81
337.738	83.81
337.966	77.81
338.194	75.81
338.422	74.81
338.65	77.81
338.878	73.81
339.106	90.81
339.334	84.81
339.562	76.81
339.79	87.81
340.018	94.81
340.246	81.81
340.474	81.81
340.702	79.81
340.93	79.81
341.158	86.81
341.386	102.81
341.614	87.81
341.842	88.81
342.07	98.81
342.298	72.81
342.526	83.81
342.754	76.81
342.981	96.81
343.209	85.81
343.437	91.81
343.665	91.81
343.893	91.81
344.12	87.81
344.348	91.81
344.576	89.81
344.804	85.81
345.031	88.81
345.259	95.81
345.487	82.81
345.714	76.81
345.942	86.81
346.17	86.81
346.397	79.81
346.625	87.81
346.853	89.81
347.08	80.81
347.308	81.81
347.535	95.81
347.763	82.81
347.99	93.81
348.218	85.81
348.445	80.81
348.673	87.81
348.9	83.81
349.128	91.81
349.355	98.81
349.583	77.81
349.81	86.81
350.037	80.81
350.265	91.81
350.492	89.81
350.72	85.81
350.947	86.81
351.174	89.81
351.402	92.81
351.629	71.81
351.856	78.81
352.083	81.81
352.311	86.81
352.538	87.81
352.765	79.81
352.992	85.81
353.22	83.81
353.447	77.81
353.674	88.81
353.901	91.81
354.128	95.81
354.355	77.81
354.583	79.81
354.81	96.81
355.037	87.81
355.264	94.81
355.491	82.81
355.718	83.81
355.945	96.81
356.172	103.81
356.399	86.81
356.626	86.81
356.853	90.81
357.08	85.81
357.307	91.81
357.534	102.81
357.761	67.81
357.988	102.81
358.215	99.81
358.441	78.81
358.668	79.81
358.895	85.81
359.122	75.81
359.349	77.81
359.576	80.81
359.802	75.81
360.029	98.81
360.256	94.81
360.483	94.81
360.709	91.81
360.936	92.81
361.163	99.81
361.39	85.81
361.616	93.81
361.843	82.81
362.07	81.81
362.296	86.81
362.523	93.81
362.749	89.81
362.976	91.81
363.203	100.81
363.429	98.81
363.656	87.81
363.882	68.81
364.109	99.81
364.335	125.81
364.562	120.81
364.788	110.81
365.015	109.81
365.241	88.81
365.468	93.81
365.694	98.81
365.92	89.81
366.147	91.81
366.373	77.81
366.599	81.81
366.826	91.81
367.052	87.81
367.278	88.81
367.505	98.81
367.731	76.81
367.957	74.81
368.184	82.81
368.41	87.81
368.636	83.81
368.862	83.81
369.089	86.81
369.315	65.81
369.541	85.81
369.767	84.81
369.993	90.81
370.219	88.81
370.445	87.81
370.672	82.81
370.898	84.81
371.124	85.81
371.35	88.81
371.576	88.81
371.802	92.81
372.028	105.81
372.254	81.81
372.48	88.81
372.706	77.81
372.932	85.81
373.158	79.81
373.384	105.81
373.61	110.81
373.835	93.81
374.061	97.81
374.287	60.81
374.513	87.81
374.739	89.81
374.965	93.81
375.191	90.81
375.416	91.81
375.642	91.81
375.868	92.81
376.094	93.81
376.319	84.81
376.545	97.81
376.771	93.81
376.997	90.81
377.222	90.81
377.448	70.81
377.674	94.81
377.899	100.81
378.125	93.81
378.35	87.81
378.576	67.81
378.802	84.81
379.027	68.81
379.253	87.81
379.478	89.81
379.704	87.81
379.929	82.81
380.155	93.81
380.38	99.81
380.606	91.81
380.831	93.81
381.057	80.81
381.282	77.81
381.507	82.81
381.733	97.81
381.958	94.81
382.184	93.81
382.409	86.81
382.634	97.81
382.86	83.81
383.085	84.81
383.31	104.81
383.535	96.81
383.761	100.81
383.986	108.81
384.211	83.81
384.436	80.81
384.662	69.81
384.887	87.81
385.112	89.81
385.337	93.81
385.562	80.81
385.787	98.81
386.013	93.81
386.238	94.81
386.463	85.81
386.688	98.81
386.913	97.81
387.138	87.81
387.363	83.81
387.588	90.81
387.813	98.81
388.038	99.81
388.263	100.81
388.488	77.81
388.713	92.81
388.938	83.81
389.163	85.81
389.387	86.81
389.612	90.81
389.837	74.81
390.062	79.81
390.287	90.81
390.512	96.81
390.736	71.81
390.961	86.81
391.186	83.81
391.411	83.81
391.636	95.81
391.86	93.81
392.085	85.81
392.31	93.81
392.534	103.81
392.759	116.81
392.984	132.81
393.208	207.81
393.433	275.81
393.658	222.81
393.882	119.81
394.107	101.81
394.331	99.81
394.556	99.81
394.78	109.81
395.005	102.81
395.229	85.81
395.454	95.81
395.678	104.81
395.903	101.81
396.127	118.81
396.352	115.81
396.576	143.81
396.801	211.81
397.025	245.81
397.249	148.81
397.474	115.81
397.698	91.81
397.922	90.81
398.147	89.81
398.371	93.81
398.595	78.81
398.82	83.81
399.044	78.81
399.268	73.81
399.492	77.81
399.717	85.81
399.941	83.81
400.165	91.81
400.389	79.81
400.613	85.81
400.837	101.81
401.062	78.81
401.286	76.81
401.51	86.81
401.734	83.81
401.958	89.81
402.182	91.81
402.406	91.81
402.63	88.81
402.854	78.81
403.078	92.81
403.302	88.81
403.526	84.81
403.75	74.81
403.974	86.81
404.198	99.81
404.422	71.81
404.645	105.81
404.869	91.81
405.093	77.81
405.317	93.81
405.541	84.81
405.765	68.81
405.988	84.81
406.212	93.81
406.436	74.81
406.66	95.81
406.883	98.81
407.107	90.81
407.331	102.81
407.555	84.81
407.778	97.81
408.002	102.81
408.226	90.81
408.449	74.81
408.673	83.81
408.896	93.81
409.12	82.81
409.344	91.81
409.567	87.81
409.791	95.81
410.014	103.81
410.238	82.81
410.461	91.81
410.685	89.81
410.908	82.81
411.132	101.81
411.355	98.81
411.578	80.81
411.802	78.81
412.025	94.81
412.249	84.81
412.472	89.81
412.695	71.81
412.919	92.81
413.142	79.81
413.365	87.81
413.589	77.81
413.812	85.81
414.035	93.81
414.258	97.81
414.482	81.81
414.705	95.81
414.928	100.81
415.151	79.81
415.374	83.81
415.597	89.81
415.821	78.81
416.044	79.81
416.267	76.81
416.49	81.81
416.713	86.81
416.936	81.81
417.159	87.81
417.382	81.81
417.605	85.81
417.828	84.81
418.051	84.81
418.274	96.81
418.497	68.81
418.72	77.81
418.943	83.81
419.166	86.81
419.389	95.81
419.611	86.81
419.834	87.81
420.057	83.81
420.28	78.81
420.503	84.81
420.726	79.81
420.948	75.81
421.171	96.81
421.394	105.81
421.617	100.81
421.839	103.81
422.062	113.81
422.285	131.81
422.507	229.81
422.73	342.81
422.953	309.81
423.175	178.81
423.398	119.81
423.621	103.81
423.843	87.81
424.066	100.81
424.288	81.81
424.511	100.81
424.733	79.81
424.956	81.81
425.178	88.81
425.401	67.81
425.623	85.81
425.846	103.81
426.068	90.81
426.291	97.81
426.513	99.81
426.735	87.81
426.958	75.81
427.18	92.81
427.402	88.81
427.625	100.81
427.847	84.81
428.069	87.81
428.292	105.81
428.514	120.81
428.736	109.81
428.958	112.81
429.181	125.81
429.403	89.81
429.625	87.81
429.847	123.81
430.069	126.81
430.292	148.81
430.514	145.81
430.736	116.81
430.958	127.81
431.18	83.81
431.402	87.81
431.624	87.81
431.846	118.81
432.068	104.81
432.29	96.81
432.512	87.81
432.734	75.81
432.956	79.81
433.178	85.81
433.4	78.81
433.622	96.81
433.844	79.81
434.066	84.81
434.287	69.81
434.509	92.81
434.731	77.81
434.953	84.81
435.175	90.81
435.397	94.81
435.618	88.81
435.84	81.81
436.062	82.81
436.284	89.81
436.505	80.81
436.727	84.81
436.949	93.81
437.17	83.81
437.392	86.81
437.614	99.81
437.835	79.81
438.057	91.81
438.278	80.81
438.5	78.81
438.721	90.81
438.943	104.81
439.165	83.81
439.386	89.81
439.608	89.81
439.829	86.81
440.05	74.81
440.272	92.81
440.493	88.81
440.715	81.81
440.936	83.81
441.158	86.81
441.379	85.81
441.6	87.81
441.822	91.81
442.043	81.81
442.264	85.81
442.486	134.81
442.707	133.81
442.928	107.81
443.149	98.81
443.371	144.81
443.592	179.81
443.813	183.81
444.034	105.81
444.255	90.81
444.476	88.81
444.698	78.81
444.919	84.81
445.14	157.81
445.361	146.81
445.582	225.81
445.803	187.81
446.024	116.81
446.245	107.81
446.466	89.81
446.687	77.81
446.908	86.81
447.129	80.81
447.35	81.81
447.571	82.81
447.792	77.81
448.013	85.81
448.234	71.81
448.455	73.81
448.675	62.81
448.896	82.81
449.117	85.81
449.338	87.81
449.559	91.81
449.779	91.81
450	86.81
450.221	83.81
450.442	92.81
450.662	85.81
450.883	77.81
451.104	93.81
451.324	108.81
451.545	82.81
451.766	83.81
451.986	84.81
452.207	76.81
452.428	90.81
452.648	97.81
452.869	86.81
453.089	102.81
453.31	80.81
453.53	98.81
453.751	81.81
453.971	82.81
454.192	64.81
454.412	83.81
454.633	69.81
454.853	85.81
455.073	72.81
455.294	89.81
455.514	77.81
455.734	83.81
455.955	90.81
456.175	87.81
456.395	87.81
456.616	82.81
456.836	80.81
457.056	88.81
457.276	87.81
457.497	94.81
457.717	94.81
457.937	95.81
458.157	105.81
458.377	110.81
458.598	115.81
458.818	115.81
459.038	88.81
459.258	86.81
459.478	89.81
459.698	69.81
459.918	87.81
460.138	72.81
460.358	94.81
460.578	93.81
460.798	111.81
461.018	112.81
461.238	104.81
461.458	71.81
461.678	82.81
461.898	87.81
462.118	76.81
462.338	70.81
462.558	84.81
462.777	90.81
462.997	83.81
463.217	86.81
463.437	79.81
463.657	79.81
463.876	79.81
464.096	82.81
464.316	89.81
464.536	81.81
464.755	97.81
464.975	82.81
465.195	73.81
465.414	86.81
465.634	81.81
465.854	81.81
466.073	82.81
466.293	88.81
466.512	76.81
466.732	88.81
466.951	83.81
467.171	95.81
467.391	81.81
467.61	96.81
467.829	79.81
468.049	79.81
468.268	80.81
468.488	84.81
468.707	85.81
468.927	78.81
469.146	93.81
469.365	88.81
469.585	86.81
469.804	95.81
470.023	89.81
470.243	95.81
470.462	83.81
470.681	83.81
470.901	80.81
471.12	85.81
471.339	84.81
471.558	86.81
471.777	87.81
471.997	85.81
472.216	77.81
472.435	82.81
472.654	70.81
472.873	87.81
473.092	95.81
473.311	87.81
473.53	79.81
473.749	86.81
473.968	89.81
474.187	80.81
474.406	90.81
474.625	85.81
474.844	93.81
475.063	90.81
475.282	71.81
475.501	86.81
475.72	79.81
475.939	74.81
476.158	82.81
476.377	87.81
476.596	87.81
476.814	83.81
477.033	77.81
477.252	65.81
477.471	81.81
477.69	74.81
477.908	83.81
478.127	79.81
478.346	94.81
478.564	70.81
478.783	96.81
479.002	88.81
479.22	96.81
479.439	100.81
479.658	88.81
479.876	83.81
480.095	89.81
480.313	91.81
480.532	105.81
480.751	92.81
480.969	85.81
481.188	88.81
481.406	83.81
481.624	79.81
481.843	86.81
482.061	84.81
482.28	89.81
482.498	92.81
482.717	87.81
482.935	101.81
483.153	78.81
483.372	92.81
483.59	84.81
483.808	93.81
484.027	86.81
484.245	79.81
484.463	86.81
484.681	90.81
484.9	93.81
485.118	92.81
485.336	83.81
485.554	95.81
485.772	92.81
485.99	79.81
486.209	96.81
486.427	83.81
486.645	70.81
486.863	95.81
487.081	99.81
487.299	95.81
487.517	81.81
487.735	107.81
487.953	137.81
488.171	129.81
488.389	96.81
488.607	63.81
488.825	91.81
489.043	86.81
489.261	84.81
489.479	85.81
489.696	72.81
489.914	84.81
490.132	87.81
490.35	85.81
490.568	88.81
490.786	81.81
491.003	81.81
491.221	88.81
491.439	100.81
491.657	77.81
491.874	82.81
492.092	95.81
492.31	94.81
492.527	91.81
492.745	82.81
492.963	80.81
493.18	85.81
493.398	97.81
493.615	86.81
493.833	84.81
494.05	86.81
494.268	85.81
494.485	89.81
494.703	84.81
494.92	88.81
495.138	91.81
495.355	97.81
495.573	82.81
495.79	86.81
496.008	86.81
496.225	109.81
496.442	83.81
496.66	99.81
496.877	72.81
497.094	89.81
497.312	92.81
497.529	86.81
497.746	76.81
497.963	92.81
498.181	94.81
498.398	96.81
498.615	77.81
498.832	90.81
499.049	90.81
499.267	101.81
499.484	97.81
499.701	79.81
499.918	85.81
500.135	96.81
500.352	84.81
500.569	83.81
500.786	76.81
501.003	82.81
501.22	92.81
501.437	96.81
501.654	83.81
501.871	112.81
502.088	81.81
502.305	89.81
502.522	91.81
502.739	97.81
502.956	88.81
503.172	93.81
503.389	100.81
503.606	93.81
503.823	102.81
504.04	112.81
504.256	108.81
504.473	112.81
504.69	98.81
504.907	87.81
505.123	85.81
505.34	104.81
505.557	84.81
505.773	97.81
505.99	81.81
506.207	86.81
506.423	85.81
506.64	86.81
506.856	85.81
507.073	88.81
507.289	81.81
507.506	85.81
507.722	95.81
507.939	87.81
508.155	67.81
508.372	76.81
508.588	83.81
508.805	95.81
509.021	91.81
509.238	85.81
509.454	101.81
509.67	92.81
509.887	88.81
510.103	94.81
510.319	80.81
510.536	90.81
510.752	87.81
510.968	84.81
511.184	82.81
511.401	88.81
511.617	99.81
511.833	75.81
512.049	92.81
512.265	81.81
512.481	81.81
512.698	75.81
512.914	96.81
513.13	93.81
513.346	97.81
513.562	95.81
513.778	79.81
513.994	86.81
514.21	86.81
514.426	86.81
514.642	87.81
514.858	95.81
515.074	90.81
515.29	98.81
515.506	114.81
515.721	101.81
515.937	95.81
516.153	79.81
516.369	71.81
516.585	79.81
516.801	77.81
517.016	90.81
517.232	78.81
517.448	83.81
517.664	87.81
517.879	77.81
518.095	86.81
518.311	83.81
518.527	100.81
518.742	93.81
