Data from 10100_1_HRD10591_00016.txt Node
Date: Mon Jan 19 14:00:32 EST 2026
User: Yrep
Spectrometer: HR+D1059
Trigger mode: 1
Integration Time (sec): 1.000000E-1
Scans to average: 1
Electric dark correction enabled: true
Nonlinearity correction enabled: false
Boxcar width: 0
XAxis mode: Wavelengths
Number of Pixels in Spectrum: 2048
>>>>>Begin Spectral Data<<<<<
223.165	-19.69
223.4	-19.69
223.635	-19.69
223.869	-23.69
224.104	-28.69
224.338	-10.69
224.573	-9.69
224.808	-10.69
225.042	2.31
225.277	-9.69
225.511	-3.69
225.746	6.31
225.98	17.31
226.215	12.31
226.449	4.31
226.683	22.31
226.918	22.31
227.152	29.31
227.387	38.31
227.621	42.31
227.856	26.31
228.09	40.31
228.324	42.31
228.559	51.31
228.793	57.31
229.027	49.31
229.262	51.31
229.496	63.31
229.73	50.31
229.964	68.31
230.199	77.31
230.433	71.31
230.667	77.31
230.901	72.31
231.136	73.31
231.37	63.31
231.604	66.31
231.838	68.31
232.072	78.31
232.306	74.31
232.541	68.31
232.775	83.31
233.009	61.31
233.243	61.31
233.477	81.31
233.711	76.31
233.945	73.31
234.179	66.31
234.413	87.31
234.647	63.31
234.881	66.31
235.115	68.31
235.349	79.31
235.583	70.31
235.817	81.31
236.051	72.31
236.285	82.31
236.519	78.31
236.753	77.31
236.987	75.31
237.221	67.31
237.455	77.31
237.689	69.31
237.922	71.31
238.156	70.31
238.39	66.31
238.624	80.31
238.858	56.31
239.091	67.31
239.325	74.31
239.559	59.31
239.793	70.31
240.027	69.31
240.26	62.31
240.494	69.31
240.728	72.31
240.961	68.31
241.195	78.31
241.429	79.31
241.662	77.31
241.896	79.31
242.13	69.31
242.363	61.31
242.597	73.31
242.83	72.31
243.064	74.31
243.298	66.31
243.531	84.31
243.765	77.31
243.998	85.31
244.232	78.31
244.465	65.31
244.699	72.31
244.932	88.31
245.166	86.31
245.399	76.31
245.633	70.31
245.866	64.31
246.099	67.31
246.333	85.31
246.566	76.31
246.8	75.31
247.033	73.31
247.266	75.31
247.5	80.31
247.733	74.31
247.966	74.31
248.2	76.31
248.433	76.31
248.666	81.31
248.899	74.31
249.133	62.31
249.366	63.31
249.599	77.31
249.832	80.31
250.066	65.31
250.299	68.31
250.532	81.31
250.765	73.31
250.998	75.31
251.231	67.31
251.465	81.31
251.698	87.31
251.931	62.31
252.164	60.31
252.397	76.31
252.63	74.31
252.863	61.31
253.096	83.31
253.329	74.31
253.562	70.31
253.795	77.31
254.028	91.31
254.261	79.31
254.494	74.31
254.727	84.31
254.96	71.31
255.193	88.31
255.426	77.31
255.659	72.31
255.892	69.31
256.124	84.31
256.357	73.31
256.59	88.31
256.823	73.31
257.056	79.31
257.289	89.31
257.521	70.31
257.754	77.31
257.987	80.31
258.22	76.31
258.452	66.31
258.685	80.31
258.918	74.31
259.151	70.31
259.383	79.31
259.616	82.31
259.849	76.31
260.081	76.31
260.314	78.31
260.547	65.31
260.779	71.31
261.012	80.31
261.244	86.31
261.477	80.31
261.71	68.31
261.942	73.31
262.175	76.31
262.407	80.31
262.64	68.31
262.872	84.31
263.105	76.31
263.337	90.31
263.57	73.31
263.802	79.31
264.035	73.31
264.267	85.31
264.499	68.31
264.732	84.31
264.964	71.31
265.197	72.31
265.429	81.31
265.661	75.31
265.894	82.31
266.126	67.31
266.358	72.31
266.591	82.31
266.823	93.31
267.055	69.31
267.287	73.31
267.52	80.31
267.752	79.31
267.984	88.31
268.216	86.31
268.448	86.31
268.681	71.31
268.913	89.31
269.145	96.31
269.377	90.31
269.609	76.31
269.841	91.31
270.073	72.31
270.306	81.31
270.538	69.31
270.77	86.31
271.002	80.31
271.234	70.31
271.466	82.31
271.698	76.31
271.93	76.31
272.162	86.31
272.394	92.31
272.626	84.31
272.858	84.31
273.09	86.31
273.322	78.31
273.553	78.31
273.785	78.31
274.017	78.31
274.249	83.31
274.481	78.31
274.713	76.31
274.945	80.31
275.176	70.31
275.408	85.31
275.64	96.31
275.872	88.31
276.104	80.31
276.335	74.31
276.567	84.31
276.799	76.31
277.031	79.31
277.262	76.31
277.494	69.31
277.726	67.31
277.957	77.31
278.189	86.31
278.421	83.31
278.652	68.31
278.884	72.31
279.115	78.31
279.347	85.31
279.579	84.31
279.81	84.31
280.042	86.31
280.273	64.31
280.505	78.31
280.736	71.31
280.968	80.31
281.199	70.31
281.431	81.31
281.662	77.31
281.894	86.31
282.125	87.31
282.356	81.31
282.588	80.31
282.819	82.31
283.051	69.31
283.282	82.31
283.513	78.31
283.745	74.31
283.976	73.31
284.207	80.31
284.439	85.31
284.67	83.31
284.901	90.31
285.132	68.31
285.364	79.31
285.595	76.31
285.826	76.31
286.057	90.31
286.288	92.31
286.52	83.31
286.751	85.31
286.982	80.31
287.213	70.31
287.444	68.31
287.675	69.31
287.906	84.31
288.138	86.31
288.369	85.31
288.6	85.31
288.831	66.31
289.062	84.31
289.293	82.31
289.524	83.31
289.755	84.31
289.986	75.31
290.217	90.31
290.448	85.31
290.679	88.31
290.91	84.31
291.141	71.31
291.371	78.31
291.602	98.31
291.833	81.31
292.064	79.31
292.295	81.31
292.526	77.31
292.757	73.31
292.987	79.31
293.218	71.31
293.449	78.31
293.68	74.31
293.91	78.31
294.141	78.31
294.372	79.31
294.603	81.31
294.833	104.31
295.064	86.31
295.295	83.31
295.525	78.31
295.756	91.31
295.987	91.31
296.217	88.31
296.448	92.31
296.679	89.31
296.909	80.31
297.14	91.31
297.37	92.31
297.601	98.31
297.831	84.31
298.062	77.31
298.292	90.31
298.523	84.31
298.753	91.31
298.984	90.31
299.214	80.31
299.445	78.31
299.675	84.31
299.905	83.31
300.136	86.31
300.366	72.31
300.597	85.31
300.827	65.31
301.057	84.31
301.288	82.31
301.518	68.31
301.748	79.31
301.979	96.31
302.209	92.31
302.439	71.31
302.669	92.31
302.9	73.31
303.13	77.31
303.36	85.31
303.59	90.31
303.82	77.31
304.051	83.31
304.281	84.31
304.511	82.31
304.741	74.31
304.971	82.31
305.201	91.31
305.431	84.31
305.661	86.31
305.891	88.31
306.121	68.31
306.352	84.31
306.582	69.31
306.812	86.31
307.042	82.31
307.272	73.31
307.502	90.31
307.731	76.31
307.961	78.31
308.191	97.31
308.421	92.31
308.651	72.31
308.881	81.31
309.111	86.31
309.341	84.31
309.571	76.31
309.8	84.31
310.03	69.31
310.26	81.31
310.49	102.31
310.72	87.31
310.949	88.31
311.179	82.31
311.409	80.31
311.639	78.31
311.868	83.31
312.098	86.31
312.328	63.31
312.557	88.31
312.787	74.31
313.017	82.31
313.246	79.31
313.476	92.31
313.706	78.31
313.935	74.31
314.165	88.31
314.394	92.31
314.624	76.31
314.853	73.31
315.083	76.31
315.312	80.31
315.542	69.31
315.771	87.31
316.001	90.31
316.23	77.31
316.46	82.31
316.689	89.31
316.919	78.31
317.148	82.31
317.377	73.31
317.607	89.31
317.836	89.31
318.065	94.31
318.295	78.31
318.524	89.31
318.753	88.31
318.983	72.31
319.212	77.31
319.441	82.31
319.67	79.31
319.9	90.31
320.129	83.31
320.358	90.31
320.587	84.31
320.816	94.31
321.046	84.31
321.275	88.31
321.504	88.31
321.733	74.31
321.962	79.31
322.191	80.31
322.42	76.31
322.649	84.31
322.878	82.31
323.108	95.31
323.337	83.31
323.566	87.31
323.795	94.31
324.024	96.31
324.253	87.31
324.482	76.31
324.71	79.31
324.939	75.31
325.168	83.31
325.397	63.31
325.626	94.31
325.855	82.31
326.084	78.31
326.313	75.31
326.542	85.31
326.77	80.31
326.999	88.31
327.228	74.31
327.457	86.31
327.686	78.31
327.914	83.31
328.143	66.31
328.372	72.31
328.6	79.31
328.829	91.31
329.058	85.31
329.287	82.31
329.515	87.31
329.744	76.31
329.972	94.31
330.201	83.31
330.43	90.31
330.658	74.31
330.887	100.31
331.115	90.31
331.344	89.31
331.572	84.31
331.801	76.31
332.03	67.31
332.258	86.31
332.486	92.31
332.715	96.31
332.943	96.31
333.172	76.31
333.4	76.31
333.629	83.31
333.857	79.31
334.085	78.31
334.314	80.31
334.542	85.31
334.771	98.31
334.999	106.31
335.227	83.31
335.455	76.31
335.684	86.31
335.912	77.31
336.14	84.31
336.369	92.31
336.597	80.31
336.825	93.31
337.053	88.31
337.281	91.31
337.51	76.31
337.738	74.31
337.966	78.31
338.194	77.31
338.422	91.31
338.65	82.31
338.878	70.31
339.106	92.31
339.334	99.31
339.562	82.31
339.79	85.31
340.018	61.31
340.246	62.31
340.474	98.31
340.702	83.31
340.93	85.31
341.158	88.31
341.386	77.31
341.614	70.31
341.842	91.31
342.07	90.31
342.298	83.31
342.526	89.31
342.754	89.31
342.981	69.31
343.209	84.31
343.437	76.31
343.665	66.31
343.893	74.31
344.12	100.31
344.348	79.31
344.576	81.31
344.804	93.31
345.031	86.31
345.259	93.31
345.487	86.31
345.714	74.31
345.942	74.31
346.17	78.31
346.397	101.31
346.625	92.31
346.853	92.31
347.08	86.31
347.308	82.31
347.535	98.31
347.763	81.31
347.99	89.31
348.218	84.31
348.445	92.31
348.673	76.31
348.9	74.31
349.128	97.31
349.355	79.31
349.583	79.31
349.81	90.31
350.037	70.31
350.265	98.31
350.492	76.31
350.72	93.31
350.947	80.31
351.174	102.31
351.402	83.31
351.629	84.31
351.856	90.31
352.083	82.31
352.311	76.31
352.538	76.31
352.765	83.31
352.992	76.31
353.22	85.31
353.447	78.31
353.674	85.31
353.901	76.31
354.128	84.31
354.355	90.31
354.583	76.31
354.81	79.31
355.037	88.31
355.264	91.31
355.491	92.31
355.718	72.31
355.945	88.31
356.172	81.31
356.399	73.31
356.626	73.31
356.853	95.31
357.08	88.31
357.307	76.31
357.534	89.31
357.761	86.31
357.988	84.31
358.215	83.31
358.441	88.31
358.668	67.31
358.895	78.31
359.122	82.31
359.349	86.31
359.576	67.31
359.802	89.31
360.029	88.31
360.256	77.31
360.483	82.31
360.709	89.31
360.936	75.31
361.163	88.31
361.39	90.31
361.616	90.31
361.843	93.31
362.07	96.31
362.296	78.31
362.523	98.31
362.749	94.31
362.976	91.31
363.203	102.31
363.429	97.31
363.656	80.31
363.882	70.31
364.109	107.31
364.335	110.31
364.562	97.31
364.788	97.31
365.015	90.31
365.241	76.31
365.468	83.31
365.694	82.31
365.92	87.31
366.147	92.31
366.373	89.31
366.599	87.31
366.826	75.31
367.052	84.31
367.278	92.31
367.505	72.31
367.731	95.31
367.957	93.31
368.184	76.31
368.41	85.31
368.636	66.31
368.862	78.31
369.089	77.31
369.315	90.31
369.541	86.31
369.767	76.31
369.993	78.31
370.219	91.31
370.445	84.31
370.672	71.31
370.898	90.31
371.124	104.31
371.35	90.31
371.576	86.31
371.802	78.31
372.028	88.31
372.254	91.31
372.48	88.31
372.706	92.31
372.932	86.31
373.158	80.31
373.384	93.31
373.61	94.31
373.835	94.31
374.061	80.31
374.287	80.31
374.513	95.31
374.739	92.31
374.965	78.31
375.191	100.31
375.416	89.31
375.642	84.31
375.868	86.31
376.094	97.31
376.319	96.31
376.545	82.31
376.771	72.31
376.997	74.31
377.222	84.31
377.448	62.31
377.674	83.31
377.899	78.31
378.125	88.31
378.35	93.31
378.576	83.31
378.802	88.31
379.027	79.31
379.253	68.31
379.478	82.31
379.704	70.31
379.929	92.31
380.155	69.31
380.38	93.31
380.606	93.31
380.831	79.31
381.057	80.31
381.282	74.31
381.507	77.31
381.733	96.31
381.958	88.31
382.184	92.31
382.409	93.31
382.634	105.31
382.86	84.31
383.085	85.31
383.31	76.31
383.535	92.31
383.761	89.31
383.986	92.31
384.211	88.31
384.436	87.31
384.662	89.31
384.887	72.31
385.112	76.31
385.337	79.31
385.562	83.31
385.787	92.31
386.013	80.31
386.238	80.31
386.463	88.31
386.688	99.31
386.913	85.31
387.138	84.31
387.363	88.31
387.588	87.31
387.813	92.31
388.038	78.31
388.263	77.31
388.488	78.31
388.713	90.31
388.938	83.31
389.163	96.31
389.387	74.31
389.612	70.31
389.837	84.31
390.062	82.31
390.287	79.31
390.512	84.31
390.736	86.31
390.961	84.31
391.186	77.31
391.411	76.31
391.636	79.31
391.86	80.31
392.085	102.31
392.31	80.31
392.534	94.31
392.759	98.31
392.984	127.31
393.208	173.31
393.433	235.31
393.658	196.31
393.882	114.31
394.107	84.31
394.331	92.31
394.556	104.31
394.78	96.31
395.005	99.31
395.229	84.31
395.454	94.31
395.678	88.31
395.903	102.31
396.127	106.31
396.352	112.31
396.576	123.31
396.801	153.31
397.025	192.31
397.249	130.31
397.474	108.31
397.698	83.31
397.922	82.31
398.147	85.31
398.371	93.31
398.595	84.31
398.82	84.31
399.044	101.31
399.268	97.31
399.492	91.31
399.717	89.31
399.941	76.31
400.165	78.31
400.389	82.31
400.613	85.31
400.837	97.31
401.062	92.31
401.286	77.31
401.51	73.31
401.734	75.31
401.958	81.31
402.182	88.31
402.406	86.31
402.63	76.31
402.854	95.31
403.078	86.31
403.302	77.31
403.526	84.31
403.75	80.31
403.974	88.31
404.198	88.31
404.422	90.31
404.645	80.31
404.869	92.31
405.093	65.31
405.317	70.31
405.541	86.31
405.765	79.31
405.988	94.31
406.212	88.31
406.436	84.31
406.66	84.31
406.883	89.31
407.107	86.31
407.331	81.31
407.555	84.31
407.778	92.31
408.002	92.31
408.226	77.31
408.449	84.31
408.673	69.31
408.896	78.31
409.12	84.31
409.344	90.31
409.567	84.31
409.791	93.31
410.014	88.31
410.238	89.31
410.461	91.31
410.685	85.31
410.908	93.31
411.132	81.31
411.355	75.31
411.578	85.31
411.802	86.31
412.025	89.31
412.249	83.31
412.472	82.31
412.695	85.31
412.919	82.31
413.142	72.31
413.365	82.31
413.589	84.31
413.812	84.31
414.035	87.31
414.258	105.31
414.482	82.31
414.705	69.31
414.928	81.31
415.151	87.31
415.374	83.31
415.597	78.31
415.821	78.31
416.044	89.31
416.267	91.31
416.49	97.31
416.713	84.31
416.936	68.31
417.159	82.31
417.382	80.31
417.605	80.31
417.828	83.31
418.051	73.31
418.274	82.31
418.497	77.31
418.72	71.31
418.943	74.31
419.166	106.31
419.389	79.31
419.611	78.31
419.834	88.31
420.057	88.31
420.28	93.31
420.503	98.31
420.726	76.31
420.948	93.31
421.171	88.31
421.394	92.31
421.617	107.31
421.839	112.31
422.062	100.31
422.285	150.31
422.507	234.31
422.73	346.31
422.953	314.31
423.175	186.31
423.398	106.31
423.621	112.31
423.843	92.31
424.066	100.31
424.288	86.31
424.511	80.31
424.733	104.31
424.956	74.31
425.178	85.31
425.401	85.31
425.623	86.31
425.846	67.31
426.068	76.31
426.291	88.31
426.513	98.31
426.735	89.31
426.958	80.31
427.18	90.31
427.402	86.31
427.625	93.31
427.847	76.31
428.069	92.31
428.292	112.31
428.514	132.31
428.736	90.31
428.958	111.31
429.181	114.31
429.403	87.31
429.625	91.31
429.847	99.31
430.069	129.31
430.292	146.31
430.514	134.31
430.736	114.31
430.958	125.31
431.18	92.31
431.402	82.31
431.624	79.31
431.846	109.31
432.068	120.31
432.29	94.31
432.512	89.31
432.734	72.31
432.956	93.31
433.178	85.31
433.4	84.31
433.622	70.31
433.844	89.31
434.066	77.31
434.287	87.31
434.509	96.31
434.731	88.31
434.953	94.31
435.175	98.31
435.397	90.31
435.618	93.31
435.84	86.31
436.062	87.31
436.284	84.31
436.505	87.31
436.727	87.31
436.949	76.31
437.17	78.31
437.392	84.31
437.614	88.31
437.835	90.31
438.057	93.31
438.278	88.31
438.5	75.31
438.721	96.31
438.943	88.31
439.165	89.31
439.386	83.31
439.608	91.31
439.829	78.31
440.05	83.31
440.272	82.31
440.493	81.31
440.715	87.31
440.936	85.31
441.158	84.31
441.379	92.31
441.6	76.31
441.822	86.31
442.043	77.31
442.264	107.31
442.486	116.31
442.707	144.31
442.928	106.31
443.149	104.31
443.371	128.31
443.592	186.31
443.813	158.31
444.034	80.31
444.255	87.31
444.476	90.31
444.698	94.31
444.919	90.31
445.14	144.31
445.361	160.31
445.582	213.31
445.803	187.31
446.024	124.31
446.245	89.31
446.466	78.31
446.687	93.31
446.908	79.31
447.129	91.31
447.35	88.31
447.571	84.31
447.792	86.31
448.013	81.31
448.234	88.31
448.455	80.31
448.675	84.31
448.896	73.31
449.117	82.31
449.338	74.31
449.559	68.31
449.779	78.31
450	74.31
450.221	86.31
450.442	92.31
450.662	71.31
450.883	96.31
451.104	90.31
451.324	68.31
451.545	85.31
451.766	83.31
451.986	82.31
452.207	89.31
452.428	79.31
452.648	96.31
452.869	91.31
453.089	95.31
453.31	86.31
453.53	91.31
453.751	80.31
453.971	82.31
454.192	92.31
454.412	84.31
454.633	81.31
454.853	83.31
455.073	80.31
455.294	84.31
455.514	76.31
455.734	86.31
455.955	90.31
456.175	71.31
456.395	54.31
456.616	83.31
456.836	82.31
457.056	76.31
457.276	84.31
457.497	86.31
457.717	69.31
457.937	99.31
458.157	114.31
458.377	104.31
458.598	99.31
458.818	106.31
459.038	98.31
459.258	73.31
459.478	75.31
459.698	88.31
459.918	92.31
460.138	84.31
460.358	80.31
460.578	84.31
460.798	96.31
461.018	101.31
461.238	95.31
461.458	86.31
461.678	75.31
461.898	93.31
462.118	91.31
462.338	90.31
462.558	77.31
462.777	87.31
462.997	82.31
463.217	90.31
463.437	90.31
463.657	78.31
463.876	86.31
464.096	72.31
464.316	83.31
464.536	76.31
464.755	72.31
464.975	82.31
465.195	81.31
465.414	84.31
465.634	93.31
465.854	79.31
466.073	74.31
466.293	91.31
466.512	80.31
466.732	82.31
466.951	71.31
467.171	88.31
467.391	77.31
467.61	89.31
467.829	78.31
468.049	90.31
468.268	86.31
468.488	76.31
468.707	84.31
468.927	80.31
469.146	87.31
469.365	82.31
469.585	89.31
469.804	91.31
470.023	88.31
470.243	82.31
470.462	89.31
470.681	73.31
470.901	95.31
471.12	85.31
471.339	85.31
471.558	89.31
471.777	80.31
471.997	70.31
472.216	88.31
472.435	88.31
472.654	78.31
472.873	81.31
473.092	93.31
473.311	93.31
473.53	97.31
473.749	81.31
473.968	77.31
474.187	103.31
474.406	77.31
474.625	88.31
474.844	92.31
475.063	88.31
475.282	97.31
475.501	68.31
475.72	90.31
475.939	75.31
476.158	66.31
476.377	88.31
476.596	81.31
476.814	68.31
477.033	76.31
477.252	88.31
477.471	80.31
477.69	94.31
477.908	80.31
478.127	84.31
478.346	78.31
478.564	86.31
478.783	84.31
479.002	85.31
479.22	89.31
479.439	84.31
479.658	88.31
479.876	89.31
480.095	90.31
480.313	86.31
480.532	92.31
480.751	108.31
480.969	85.31
481.188	88.31
481.406	74.31
481.624	81.31
481.843	82.31
482.061	91.31
482.28	80.31
482.498	90.31
482.717	76.31
482.935	94.31
483.153	89.31
483.372	96.31
483.59	92.31
483.808	88.31
484.027	84.31
484.245	94.31
484.463	66.31
484.681	77.31
484.9	90.31
485.118	89.31
485.336	85.31
485.554	86.31
485.772	90.31
485.99	110.31
486.209	91.31
486.427	80.31
486.645	69.31
486.863	71.31
487.081	98.31
487.299	91.31
487.517	95.31
487.735	89.31
487.953	154.31
488.171	130.31
488.389	83.31
488.607	94.31
488.825	78.31
489.043	90.31
489.261	101.31
489.479	89.31
489.696	86.31
489.914	84.31
490.132	79.31
490.35	86.31
490.568	91.31
490.786	91.31
491.003	85.31
491.221	90.31
491.439	92.31
491.657	81.31
491.874	88.31
492.092	89.31
492.31	88.31
492.527	80.31
492.745	104.31
492.963	78.31
493.18	88.31
493.398	86.31
493.615	90.31
493.833	86.31
494.05	79.31
494.268	77.31
494.485	84.31
494.703	69.31
494.92	85.31
495.138	84.31
495.355	101.31
495.573	81.31
495.79	89.31
496.008	96.31
496.225	82.31
496.442	93.31
496.66	95.31
496.877	102.31
497.094	68.31
497.312	84.31
497.529	99.31
497.746	90.31
497.963	81.31
498.181	94.31
498.398	96.31
498.615	80.31
498.832	76.31
499.049	95.31
499.267	89.31
499.484	88.31
499.701	89.31
499.918	86.31
500.135	91.31
500.352	93.31
500.569	91.31
500.786	93.31
501.003	102.31
501.22	86.31
501.437	95.31
501.654	84.31
501.871	91.31
502.088	77.31
502.305	80.31
502.522	93.31
502.739	88.31
502.956	81.31
503.172	88.31
503.389	87.31
503.606	99.31
503.823	90.31
504.04	103.31
504.256	121.31
504.473	109.31
504.69	81.31
504.907	86.31
505.123	90.31
505.34	91.31
505.557	91.31
505.773	78.31
505.99	82.31
506.207	81.31
506.423	84.31
506.64	78.31
506.856	96.31
507.073	95.31
507.289	76.31
507.506	82.31
507.722	85.31
507.939	93.31
508.155	83.31
508.372	82.31
508.588	79.31
508.805	85.31
509.021	99.31
509.238	81.31
509.454	78.31
509.67	92.31
509.887	94.31
510.103	84.31
510.319	84.31
510.536	92.31
510.752	83.31
510.968	90.31
511.184	85.31
511.401	99.31
511.617	89.31
511.833	83.31
512.049	78.31
512.265	79.31
512.481	89.31
512.698	94.31
512.914	94.31
513.13	83.31
513.346	95.31
513.562	88.31
513.778	97.31
513.994	91.31
514.21	83.31
514.426	88.31
514.642	92.31
514.858	92.31
515.074	83.31
515.29	83.31
515.506	94.31
515.721	83.31
515.937	77.31
516.153	92.31
516.369	91.31
516.585	84.31
516.801	100.31
517.016	99.31
517.232	90.31
517.448	74.31
517.664	76.31
517.879	89.31
518.095	78.31
518.311	75.31
518.527	93.31
518.742	100.31
518.958	124.31
