Data from 10100_1_HRD10591_00046.txt Node
Date: Mon Jan 19 14:00:47 EST 2026
User: Yrep
Spectrometer: HR+D1059
Trigger mode: 1
Integration Time (sec): 1.000000E-1
Scans to average: 1
Electric dark correction enabled: true
Nonlinearity correction enabled: false
Boxcar width: 0
XAxis mode: Wavelengths
Number of Pixels in Spectrum: 2048
>>>>>Begin Spectral Data<<<<<
223.165	-3.12
223.4	-3.12
223.635	-3.12
223.869	-23.12
224.104	-26.12
224.338	-27.12
224.573	-19.12
224.808	-7.12
225.042	-12.12
225.277	-4.12
225.511	9.88
225.746	-12.12
225.98	18.88
226.215	9.88
226.449	14.88
226.683	22.88
226.918	17.88
227.152	39.88
227.387	40.88
227.621	56.88
227.856	39.88
228.09	40.88
228.324	53.88
228.559	58.88
228.793	66.88
229.027	73.88
229.262	84.88
229.496	69.88
229.73	79.88
229.964	73.88
230.199	82.88
230.433	80.88
230.667	87.88
230.901	83.88
231.136	87.88
231.37	77.88
231.604	90.88
231.838	76.88
232.072	82.88
232.306	87.88
232.541	86.88
232.775	86.88
233.009	90.88
233.243	74.88
233.477	91.88
233.711	90.88
233.945	83.88
234.179	79.88
234.413	75.88
234.647	95.88
234.881	89.88
235.115	84.88
235.349	68.88
235.583	85.88
235.817	87.88
236.051	88.88
236.285	78.88
236.519	78.88
236.753	74.88
236.987	82.88
237.221	92.88
237.455	96.88
237.689	86.88
237.922	96.88
238.156	65.88
238.39	78.88
238.624	65.88
238.858	80.88
239.091	89.88
239.325	80.88
239.559	84.88
239.793	75.88
240.027	84.88
240.26	85.88
240.494	76.88
240.728	82.88
240.961	65.88
241.195	94.88
241.429	90.88
241.662	88.88
241.896	90.88
242.13	87.88
242.363	91.88
242.597	71.88
242.83	72.88
243.064	76.88
243.298	75.88
243.531	77.88
243.765	91.88
243.998	85.88
244.232	84.88
244.465	74.88
244.699	91.88
244.932	87.88
245.166	88.88
245.399	94.88
245.633	79.88
245.866	73.88
246.099	77.88
246.333	77.88
246.566	81.88
246.8	72.88
247.033	100.88
247.266	80.88
247.5	74.88
247.733	92.88
247.966	73.88
248.2	79.88
248.433	77.88
248.666	78.88
248.899	82.88
249.133	72.88
249.366	73.88
249.599	90.88
249.832	76.88
250.066	81.88
250.299	91.88
250.532	94.88
250.765	86.88
250.998	64.88
251.231	90.88
251.465	81.88
251.698	83.88
251.931	75.88
252.164	67.88
252.397	82.88
252.63	80.88
252.863	92.88
253.096	64.88
253.329	68.88
253.562	95.88
253.795	74.88
254.028	86.88
254.261	71.88
254.494	78.88
254.727	90.88
254.96	86.88
255.193	77.88
255.426	74.88
255.659	73.88
255.892	90.88
256.124	82.88
256.357	86.88
256.59	91.88
256.823	86.88
257.056	89.88
257.289	86.88
257.521	90.88
257.754	79.88
257.987	68.88
258.22	92.88
258.452	88.88
258.685	81.88
258.918	74.88
259.151	91.88
259.383	84.88
259.616	77.88
259.849	80.88
260.081	86.88
260.314	97.88
260.547	82.88
260.779	98.88
261.012	85.88
261.244	76.88
261.477	71.88
261.71	78.88
261.942	74.88
262.175	76.88
262.407	89.88
262.64	88.88
262.872	81.88
263.105	82.88
263.337	69.88
263.57	73.88
263.802	99.88
264.035	89.88
264.267	90.88
264.499	83.88
264.732	100.88
264.964	89.88
265.197	82.88
265.429	88.88
265.661	66.88
265.894	96.88
266.126	90.88
266.358	90.88
266.591	97.88
266.823	89.88
267.055	79.88
267.287	79.88
267.52	79.88
267.752	84.88
267.984	90.88
268.216	86.88
268.448	84.88
268.681	89.88
268.913	95.88
269.145	83.88
269.377	84.88
269.609	78.88
269.841	74.88
270.073	91.88
270.306	85.88
270.538	78.88
270.77	90.88
271.002	68.88
271.234	79.88
271.466	83.88
271.698	91.88
271.93	79.88
272.162	81.88
272.394	82.88
272.626	86.88
272.858	89.88
273.09	83.88
273.322	87.88
273.553	90.88
273.785	88.88
274.017	84.88
274.249	94.88
274.481	88.88
274.713	78.88
274.945	87.88
275.176	84.88
275.408	89.88
275.64	82.88
275.872	76.88
276.104	87.88
276.335	96.88
276.567	76.88
276.799	79.88
277.031	90.88
277.262	78.88
277.494	86.88
277.726	96.88
277.957	91.88
278.189	82.88
278.421	85.88
278.652	94.88
278.884	92.88
279.115	95.88
279.347	75.88
279.579	100.88
279.81	93.88
280.042	73.88
280.273	74.88
280.505	87.88
280.736	88.88
280.968	83.88
281.199	81.88
281.431	93.88
281.662	69.88
281.894	100.88
282.125	96.88
282.356	89.88
282.588	89.88
282.819	82.88
283.051	77.88
283.282	73.88
283.513	81.88
283.745	93.88
283.976	98.88
284.207	85.88
284.439	79.88
284.67	93.88
284.901	92.88
285.132	83.88
285.364	85.88
285.595	92.88
285.826	98.88
286.057	97.88
286.288	90.88
286.52	80.88
286.751	83.88
286.982	82.88
287.213	92.88
287.444	90.88
287.675	98.88
287.906	84.88
288.138	88.88
288.369	73.88
288.6	76.88
288.831	104.88
289.062	77.88
289.293	89.88
289.524	84.88
289.755	90.88
289.986	88.88
290.217	77.88
290.448	76.88
290.679	84.88
290.91	89.88
291.141	88.88
291.371	91.88
291.602	97.88
291.833	94.88
292.064	86.88
292.295	82.88
292.526	79.88
292.757	83.88
292.987	87.88
293.218	78.88
293.449	83.88
293.68	78.88
293.91	107.88
294.141	95.88
294.372	89.88
294.603	87.88
294.833	88.88
295.064	77.88
295.295	89.88
295.525	96.88
295.756	92.88
295.987	85.88
296.217	86.88
296.448	93.88
296.679	100.88
296.909	90.88
297.14	82.88
297.37	86.88
297.601	78.88
297.831	61.88
298.062	84.88
298.292	85.88
298.523	84.88
298.753	105.88
298.984	92.88
299.214	93.88
299.445	85.88
299.675	86.88
299.905	91.88
300.136	82.88
300.366	88.88
300.597	92.88
300.827	79.88
301.057	73.88
301.288	82.88
301.518	101.88
301.748	93.88
301.979	96.88
302.209	99.88
302.439	87.88
302.669	84.88
302.9	76.88
303.13	93.88
303.36	93.88
303.59	101.88
303.82	92.88
304.051	82.88
304.281	79.88
304.511	68.88
304.741	93.88
304.971	86.88
305.201	89.88
305.431	84.88
305.661	96.88
305.891	77.88
306.121	76.88
306.352	82.88
306.582	72.88
306.812	93.88
307.042	82.88
307.272	85.88
307.502	88.88
307.731	86.88
307.961	101.88
308.191	80.88
308.421	89.88
308.651	90.88
308.881	91.88
309.111	107.88
309.341	104.88
309.571	91.88
309.8	77.88
310.03	83.88
310.26	93.88
310.49	84.88
310.72	77.88
310.949	69.88
311.179	84.88
311.409	89.88
311.639	91.88
311.868	91.88
312.098	89.88
312.328	92.88
312.557	104.88
312.787	91.88
313.017	88.88
313.246	94.88
313.476	90.88
313.706	89.88
313.935	91.88
314.165	93.88
314.394	78.88
314.624	95.88
314.853	85.88
315.083	82.88
315.312	75.88
315.542	88.88
315.771	86.88
316.001	92.88
316.23	96.88
316.46	77.88
316.689	78.88
316.919	102.88
317.148	84.88
317.377	90.88
317.607	97.88
317.836	91.88
318.065	93.88
318.295	83.88
318.524	92.88
318.753	83.88
318.983	86.88
319.212	77.88
319.441	75.88
319.67	81.88
319.9	98.88
320.129	78.88
320.358	82.88
320.587	79.88
320.816	89.88
321.046	89.88
321.275	88.88
321.504	98.88
321.733	84.88
321.962	86.88
322.191	96.88
322.42	93.88
322.649	91.88
322.878	89.88
323.108	93.88
323.337	68.88
323.566	96.88
323.795	79.88
324.024	86.88
324.253	90.88
324.482	81.88
324.71	84.88
324.939	89.88
325.168	75.88
325.397	78.88
325.626	82.88
325.855	92.88
326.084	96.88
326.313	80.88
326.542	78.88
326.77	84.88
326.999	92.88
327.228	92.88
327.457	95.88
327.686	96.88
327.914	76.88
328.143	99.88
328.372	78.88
328.6	97.88
328.829	73.88
329.058	76.88
329.287	84.88
329.515	71.88
329.744	99.88
329.972	96.88
330.201	76.88
330.43	86.88
330.658	92.88
330.887	87.88
331.115	77.88
331.344	103.88
331.572	99.88
331.801	91.88
332.03	92.88
332.258	96.88
332.486	88.88
332.715	88.88
332.943	81.88
333.172	88.88
333.4	90.88
333.629	90.88
333.857	85.88
334.085	98.88
334.314	98.88
334.542	91.88
334.771	96.88
334.999	90.88
335.227	85.88
335.455	96.88
335.684	93.88
335.912	95.88
336.14	91.88
336.369	92.88
336.597	90.88
336.825	91.88
337.053	82.88
337.281	88.88
337.51	102.88
337.738	94.88
337.966	87.88
338.194	85.88
338.422	102.88
338.65	95.88
338.878	103.88
339.106	93.88
339.334	83.88
339.562	91.88
339.79	75.88
340.018	86.88
340.246	86.88
340.474	81.88
340.702	92.88
340.93	90.88
341.158	76.88
341.386	82.88
341.614	88.88
341.842	74.88
342.07	80.88
342.298	85.88
342.526	80.88
342.754	82.88
342.981	89.88
343.209	90.88
343.437	99.88
343.665	89.88
343.893	76.88
344.12	90.88
344.348	85.88
344.576	90.88
344.804	86.88
345.031	88.88
345.259	85.88
345.487	84.88
345.714	89.88
345.942	87.88
346.17	92.88
346.397	99.88
346.625	94.88
346.853	72.88
347.08	96.88
347.308	80.88
347.535	91.88
347.763	80.88
347.99	99.88
348.218	97.88
348.445	98.88
348.673	88.88
348.9	99.88
349.128	85.88
349.355	88.88
349.583	78.88
349.81	91.88
350.037	99.88
350.265	93.88
350.492	73.88
350.72	92.88
350.947	102.88
351.174	74.88
351.402	71.88
351.629	87.88
351.856	86.88
352.083	82.88
352.311	86.88
352.538	91.88
352.765	92.88
352.992	99.88
353.22	94.88
353.447	101.88
353.674	77.88
353.901	90.88
354.128	79.88
354.355	82.88
354.583	69.88
354.81	92.88
355.037	93.88
355.264	88.88
355.491	87.88
355.718	71.88
355.945	79.88
356.172	89.88
356.399	84.88
356.626	71.88
356.853	91.88
357.08	79.88
357.307	82.88
357.534	100.88
357.761	82.88
357.988	98.88
358.215	103.88
358.441	84.88
358.668	83.88
358.895	80.88
359.122	93.88
359.349	93.88
359.576	97.88
359.802	74.88
360.029	78.88
360.256	84.88
360.483	97.88
360.709	95.88
360.936	105.88
361.163	81.88
361.39	91.88
361.616	86.88
361.843	102.88
362.07	90.88
362.296	91.88
362.523	86.88
362.749	94.88
362.976	91.88
363.203	110.88
363.429	105.88
363.656	97.88
363.882	89.88
364.109	92.88
364.335	98.88
364.562	104.88
364.788	92.88
365.015	94.88
365.241	95.88
365.468	78.88
365.694	86.88
365.92	73.88
366.147	87.88
366.373	88.88
366.599	86.88
366.826	90.88
367.052	104.88
367.278	104.88
367.505	83.88
367.731	90.88
367.957	89.88
368.184	89.88
368.41	82.88
368.636	87.88
368.862	96.88
369.089	76.88
369.315	87.88
369.541	87.88
369.767	90.88
369.993	93.88
370.219	82.88
370.445	84.88
370.672	92.88
370.898	101.88
371.124	95.88
371.35	78.88
371.576	76.88
371.802	110.88
372.028	100.88
372.254	93.88
372.48	96.88
372.706	89.88
372.932	84.88
373.158	96.88
373.384	94.88
373.61	101.88
373.835	103.88
374.061	86.88
374.287	90.88
374.513	93.88
374.739	97.88
374.965	83.88
375.191	92.88
375.416	81.88
375.642	79.88
375.868	91.88
376.094	76.88
376.319	84.88
376.545	109.88
376.771	90.88
376.997	90.88
377.222	87.88
377.448	90.88
377.674	89.88
377.899	98.88
378.125	95.88
378.35	85.88
378.576	74.88
378.802	93.88
379.027	74.88
379.253	82.88
379.478	78.88
379.704	91.88
379.929	95.88
380.155	83.88
380.38	89.88
380.606	94.88
380.831	93.88
381.057	84.88
381.282	95.88
381.507	94.88
381.733	89.88
381.958	90.88
382.184	98.88
382.409	84.88
382.634	86.88
382.86	87.88
383.085	92.88
383.31	89.88
383.535	93.88
383.761	97.88
383.986	102.88
384.211	94.88
384.436	92.88
384.662	89.88
384.887	77.88
385.112	84.88
385.337	75.88
385.562	92.88
385.787	87.88
386.013	93.88
386.238	85.88
386.463	93.88
386.688	91.88
386.913	83.88
387.138	74.88
387.363	90.88
387.588	97.88
387.813	80.88
388.038	92.88
388.263	84.88
388.488	91.88
388.713	86.88
388.938	84.88
389.163	79.88
389.387	86.88
389.612	88.88
389.837	97.88
390.062	105.88
390.287	101.88
390.512	92.88
390.736	102.88
390.961	94.88
391.186	92.88
391.411	91.88
391.636	94.88
391.86	86.88
392.085	101.88
392.31	78.88
392.534	94.88
392.759	99.88
392.984	118.88
393.208	210.88
393.433	270.88
393.658	211.88
393.882	137.88
394.107	103.88
394.331	117.88
394.556	101.88
394.78	99.88
395.005	76.88
395.229	98.88
395.454	95.88
395.678	86.88
395.903	108.88
396.127	91.88
396.352	107.88
396.576	135.88
396.801	180.88
397.025	204.88
397.249	137.88
397.474	116.88
397.698	93.88
397.922	101.88
398.147	77.88
398.371	86.88
398.595	88.88
398.82	85.88
399.044	88.88
399.268	80.88
399.492	94.88
399.717	95.88
399.941	92.88
400.165	98.88
400.389	84.88
400.613	83.88
400.837	86.88
401.062	96.88
401.286	88.88
401.51	100.88
401.734	104.88
401.958	89.88
402.182	85.88
402.406	82.88
402.63	89.88
402.854	70.88
403.078	97.88
403.302	94.88
403.526	91.88
403.75	81.88
403.974	87.88
404.198	102.88
404.422	88.88
404.645	82.88
404.869	84.88
405.093	87.88
405.317	89.88
405.541	92.88
405.765	79.88
405.988	94.88
406.212	85.88
406.436	95.88
406.66	88.88
406.883	81.88
407.107	96.88
407.331	91.88
407.555	92.88
407.778	108.88
408.002	109.88
408.226	94.88
408.449	84.88
408.673	89.88
408.896	82.88
409.12	87.88
409.344	98.88
409.567	93.88
409.791	90.88
410.014	87.88
410.238	100.88
410.461	97.88
410.685	90.88
410.908	78.88
411.132	77.88
411.355	82.88
411.578	88.88
411.802	91.88
412.025	81.88
412.249	75.88
412.472	86.88
412.695	89.88
412.919	82.88
413.142	89.88
413.365	86.88
413.589	92.88
413.812	74.88
414.035	76.88
414.258	96.88
414.482	100.88
414.705	90.88
414.928	89.88
415.151	80.88
415.374	73.88
415.597	71.88
415.821	78.88
416.044	81.88
416.267	88.88
416.49	82.88
416.713	79.88
416.936	90.88
417.159	73.88
417.382	82.88
417.605	80.88
417.828	89.88
418.051	77.88
418.274	106.88
418.497	90.88
418.72	90.88
418.943	88.88
419.166	80.88
419.389	84.88
419.611	87.88
419.834	88.88
420.057	88.88
420.28	72.88
420.503	71.88
420.726	89.88
420.948	94.88
421.171	100.88
421.394	90.88
421.617	96.88
421.839	102.88
422.062	107.88
422.285	131.88
422.507	182.88
422.73	287.88
422.953	256.88
423.175	142.88
423.398	106.88
423.621	92.88
423.843	81.88
424.066	102.88
424.288	89.88
424.511	85.88
424.733	96.88
424.956	90.88
425.178	88.88
425.401	73.88
425.623	78.88
425.846	94.88
426.068	90.88
426.291	95.88
426.513	76.88
426.735	86.88
426.958	91.88
427.18	96.88
427.402	101.88
427.625	97.88
427.847	89.88
428.069	98.88
428.292	112.88
428.514	114.88
428.736	102.88
428.958	117.88
429.181	124.88
429.403	82.88
429.625	87.88
429.847	93.88
430.069	135.88
430.292	135.88
430.514	150.88
430.736	122.88
430.958	117.88
431.18	88.88
431.402	103.88
431.624	88.88
431.846	114.88
432.068	96.88
432.29	98.88
432.512	87.88
432.734	88.88
432.956	88.88
433.178	109.88
433.4	95.88
433.622	64.88
433.844	84.88
434.066	87.88
434.287	73.88
434.509	92.88
434.731	84.88
434.953	84.88
435.175	78.88
435.397	90.88
435.618	92.88
435.84	85.88
436.062	84.88
436.284	73.88
436.505	86.88
436.727	86.88
436.949	85.88
437.17	81.88
437.392	76.88
437.614	81.88
437.835	82.88
438.057	68.88
438.278	77.88
438.5	79.88
438.721	85.88
438.943	84.88
439.165	91.88
439.386	81.88
439.608	85.88
439.829	96.88
440.05	94.88
440.272	68.88
440.493	92.88
440.715	81.88
440.936	87.88
441.158	91.88
441.379	87.88
441.6	96.88
441.822	89.88
442.043	84.88
442.264	94.88
442.486	109.88
442.707	126.88
442.928	96.88
443.149	101.88
443.371	124.88
443.592	167.88
443.813	140.88
444.034	96.88
444.255	79.88
444.476	88.88
444.698	88.88
444.919	83.88
445.14	164.88
445.361	149.88
445.582	188.88
445.803	172.88
446.024	110.88
446.245	92.88
446.466	94.88
446.687	83.88
446.908	81.88
447.129	85.88
447.35	84.88
447.571	83.88
447.792	88.88
448.013	99.88
448.234	79.88
448.455	76.88
448.675	85.88
448.896	80.88
449.117	91.88
449.338	86.88
449.559	76.88
449.779	72.88
450	84.88
450.221	72.88
450.442	104.88
450.662	92.88
450.883	89.88
451.104	83.88
451.324	79.88
451.545	78.88
451.766	72.88
451.986	74.88
452.207	81.88
452.428	86.88
452.648	87.88
452.869	84.88
453.089	94.88
453.31	85.88
453.53	88.88
453.751	97.88
453.971	89.88
454.192	94.88
454.412	108.88
454.633	101.88
454.853	82.88
455.073	86.88
455.294	79.88
455.514	91.88
455.734	92.88
455.955	84.88
456.175	90.88
456.395	91.88
456.616	85.88
456.836	88.88
457.056	85.88
457.276	96.88
457.497	90.88
457.717	83.88
457.937	93.88
458.157	108.88
458.377	106.88
458.598	90.88
458.818	109.88
459.038	89.88
459.258	71.88
459.478	85.88
459.698	90.88
459.918	82.88
460.138	93.88
460.358	89.88
460.578	90.88
460.798	106.88
461.018	110.88
461.238	92.88
461.458	89.88
461.678	74.88
461.898	85.88
462.118	78.88
462.338	77.88
462.558	79.88
462.777	80.88
462.997	81.88
463.217	95.88
463.437	81.88
463.657	94.88
463.876	90.88
464.096	86.88
464.316	94.88
464.536	93.88
464.755	86.88
464.975	77.88
465.195	79.88
465.414	86.88
465.634	92.88
465.854	82.88
466.073	93.88
466.293	94.88
466.512	84.88
466.732	82.88
466.951	84.88
467.171	84.88
467.391	97.88
467.61	81.88
467.829	77.88
468.049	81.88
468.268	76.88
468.488	98.88
468.707	86.88
468.927	84.88
469.146	90.88
469.365	105.88
469.585	78.88
469.804	74.88
470.023	84.88
470.243	90.88
470.462	89.88
470.681	93.88
470.901	82.88
471.12	84.88
471.339	96.88
471.558	84.88
471.777	82.88
471.997	90.88
472.216	91.88
472.435	89.88
472.654	92.88
472.873	86.88
473.092	86.88
473.311	86.88
473.53	78.88
473.749	80.88
473.968	106.88
474.187	93.88
474.406	84.88
474.625	82.88
474.844	76.88
475.063	66.88
475.282	86.88
475.501	74.88
475.72	100.88
475.939	80.88
476.158	81.88
476.377	79.88
476.596	90.88
476.814	98.88
477.033	86.88
477.252	88.88
477.471	84.88
477.69	94.88
477.908	83.88
478.127	88.88
478.346	103.88
478.564	93.88
478.783	84.88
479.002	88.88
479.22	87.88
479.439	83.88
479.658	89.88
479.876	75.88
480.095	86.88
480.313	93.88
480.532	89.88
480.751	79.88
480.969	86.88
481.188	84.88
481.406	88.88
481.624	81.88
481.843	92.88
482.061	89.88
482.28	85.88
482.498	96.88
482.717	86.88
482.935	88.88
483.153	80.88
483.372	89.88
483.59	86.88
483.808	99.88
484.027	76.88
484.245	93.88
484.463	92.88
484.681	96.88
484.9	98.88
485.118	90.88
485.336	85.88
485.554	89.88
485.772	93.88
485.99	76.88
486.209	96.88
486.427	92.88
486.645	81.88
486.863	91.88
487.081	105.88
487.299	86.88
487.517	84.88
487.735	95.88
487.953	130.88
488.171	102.88
488.389	99.88
488.607	90.88
488.825	67.88
489.043	104.88
489.261	106.88
489.479	98.88
489.696	94.88
489.914	78.88
490.132	84.88
490.35	89.88
490.568	72.88
490.786	94.88
491.003	99.88
491.221	72.88
491.439	85.88
491.657	93.88
491.874	91.88
492.092	94.88
492.31	88.88
492.527	83.88
492.745	93.88
492.963	77.88
493.18	92.88
493.398	90.88
493.615	87.88
493.833	75.88
494.05	83.88
494.268	89.88
494.485	75.88
494.703	95.88
494.92	82.88
495.138	86.88
495.355	90.88
495.573	96.88
495.79	83.88
496.008	90.88
496.225	90.88
496.442	93.88
496.66	98.88
496.877	96.88
497.094	97.88
497.312	92.88
497.529	99.88
497.746	88.88
497.963	86.88
498.181	89.88
498.398	84.88
498.615	93.88
498.832	99.88
499.049	88.88
499.267	96.88
499.484	82.88
499.701	89.88
499.918	93.88
500.135	87.88
500.352	88.88
500.569	78.88
500.786	96.88
501.003	92.88
501.22	75.88
501.437	80.88
501.654	86.88
501.871	91.88
502.088	106.88
502.305	96.88
502.522	88.88
502.739	85.88
502.956	84.88
503.172	117.88
503.389	94.88
503.606	99.88
503.823	93.88
504.04	108.88
504.256	120.88
504.473	119.88
504.69	90.88
504.907	92.88
505.123	84.88
505.34	85.88
505.557	73.88
505.773	88.88
505.99	89.88
506.207	94.88
506.423	90.88
506.64	85.88
506.856	91.88
507.073	85.88
507.289	88.88
507.506	86.88
507.722	86.88
507.939	77.88
508.155	89.88
508.372	83.88
508.588	84.88
508.805	93.88
509.021	90.88
509.238	78.88
509.454	89.88
509.67	85.88
509.887	94.88
510.103	88.88
510.319	88.88
510.536	85.88
510.752	86.88
510.968	89.88
511.184	97.88
511.401	76.88
511.617	82.88
511.833	83.88
512.049	95.88
512.265	89.88
512.481	85.88
512.698	87.88
512.914	98.88
513.13	82.88
513.346	72.88
513.562	91.88
513.778	87.88
513.994	85.88
514.21	90.88
514.426	88.88
514.642	101.88
514.858	106.88
515.074	90.88
515.29	78.88
515.506	91.88
515.721	87.88
515.937	89.88
516.153	92.88
516.369	89.88
516.585	81.88
516.801	76.88
517.016	81.88
517.232	90.88
517.448	89.88
517.664	79.88
517.879	105.88
518.095	82.88
518.311	82.88
518.527	101.88
