Data from 10100_1_HRD10591_00023.txt Node
Date: Mon Jan 19 14:00:36 EST 2026
User: Yrep
Spectrometer: HR+D1059
Trigger mode: 1
Integration Time (sec): 1.000000E-1
Scans to average: 1
Electric dark correction enabled: true
Nonlinearity correction enabled: false
Boxcar width: 0
XAxis mode: Wavelengths
Number of Pixels in Spectrum: 2048
>>>>>Begin Spectral Data<<<<<
223.165	-15.62
223.4	-15.62
223.635	-15.62
223.869	-8.62
224.104	-5.62
224.338	-21.62
224.573	-18.62
224.808	-7.62
225.042	2.38
225.277	-20.62
225.511	12.38
225.746	-10.62
225.98	0.38
226.215	9.38
226.449	26.38
226.683	16.38
226.918	26.38
227.152	15.38
227.387	37.38
227.621	35.38
227.856	50.38
228.09	65.38
228.324	46.38
228.559	47.38
228.793	59.38
229.027	56.38
229.262	70.38
229.496	70.38
229.73	79.38
229.964	59.38
230.199	86.38
230.433	75.38
230.667	84.38
230.901	89.38
231.136	84.38
231.37	104.38
231.604	79.38
231.838	99.38
232.072	85.38
232.306	79.38
232.541	71.38
232.775	74.38
233.009	79.38
233.243	86.38
233.477	80.38
233.711	75.38
233.945	79.38
234.179	73.38
234.413	87.38
234.647	83.38
234.881	79.38
235.115	87.38
235.349	79.38
235.583	69.38
235.817	77.38
236.051	72.38
236.285	72.38
236.519	79.38
236.753	82.38
236.987	78.38
237.221	80.38
237.455	89.38
237.689	83.38
237.922	72.38
238.156	75.38
238.39	72.38
238.624	73.38
238.858	81.38
239.091	69.38
239.325	71.38
239.559	90.38
239.793	63.38
240.027	85.38
240.26	62.38
240.494	73.38
240.728	71.38
240.961	65.38
241.195	85.38
241.429	82.38
241.662	74.38
241.896	81.38
242.13	77.38
242.363	77.38
242.597	70.38
242.83	87.38
243.064	71.38
243.298	82.38
243.531	82.38
243.765	71.38
243.998	67.38
244.232	75.38
244.465	91.38
244.699	79.38
244.932	84.38
245.166	82.38
245.399	78.38
245.633	73.38
245.866	73.38
246.099	82.38
246.333	77.38
246.566	85.38
246.8	80.38
247.033	74.38
247.266	84.38
247.5	87.38
247.733	82.38
247.966	87.38
248.2	76.38
248.433	73.38
248.666	87.38
248.899	78.38
249.133	79.38
249.366	82.38
249.599	71.38
249.832	85.38
250.066	74.38
250.299	79.38
250.532	73.38
250.765	75.38
250.998	96.38
251.231	90.38
251.465	85.38
251.698	84.38
251.931	91.38
252.164	75.38
252.397	86.38
252.63	81.38
252.863	83.38
253.096	69.38
253.329	65.38
253.562	91.38
253.795	79.38
254.028	86.38
254.261	80.38
254.494	94.38
254.727	81.38
254.96	78.38
255.193	68.38
255.426	75.38
255.659	87.38
255.892	86.38
256.124	81.38
256.357	82.38
256.59	94.38
256.823	82.38
257.056	90.38
257.289	82.38
257.521	86.38
257.754	87.38
257.987	78.38
258.22	82.38
258.452	84.38
258.685	83.38
258.918	74.38
259.151	83.38
259.383	79.38
259.616	70.38
259.849	71.38
260.081	90.38
260.314	96.38
260.547	83.38
260.779	81.38
261.012	75.38
261.244	79.38
261.477	98.38
261.71	79.38
261.942	82.38
262.175	75.38
262.407	69.38
262.64	69.38
262.872	86.38
263.105	82.38
263.337	73.38
263.57	94.38
263.802	83.38
264.035	68.38
264.267	61.38
264.499	83.38
264.732	90.38
264.964	88.38
265.197	77.38
265.429	75.38
265.661	87.38
265.894	81.38
266.126	76.38
266.358	82.38
266.591	53.38
266.823	81.38
267.055	79.38
267.287	84.38
267.52	80.38
267.752	71.38
267.984	74.38
268.216	87.38
268.448	81.38
268.681	79.38
268.913	82.38
269.145	83.38
269.377	85.38
269.609	79.38
269.841	80.38
270.073	74.38
270.306	69.38
270.538	79.38
270.77	83.38
271.002	90.38
271.234	84.38
271.466	78.38
271.698	93.38
271.93	78.38
272.162	85.38
272.394	85.38
272.626	92.38
272.858	75.38
273.09	75.38
273.322	85.38
273.553	79.38
273.785	89.38
274.017	75.38
274.249	87.38
274.481	77.38
274.713	73.38
274.945	81.38
275.176	70.38
275.408	88.38
275.64	83.38
275.872	85.38
276.104	75.38
276.335	91.38
276.567	87.38
276.799	95.38
277.031	79.38
277.262	91.38
277.494	89.38
277.726	89.38
277.957	91.38
278.189	96.38
278.421	83.38
278.652	83.38
278.884	88.38
279.115	79.38
279.347	87.38
279.579	95.38
279.81	81.38
280.042	72.38
280.273	79.38
280.505	94.38
280.736	91.38
280.968	89.38
281.199	95.38
281.431	73.38
281.662	85.38
281.894	85.38
282.125	78.38
282.356	75.38
282.588	82.38
282.819	81.38
283.051	78.38
283.282	93.38
283.513	82.38
283.745	81.38
283.976	83.38
284.207	68.38
284.439	79.38
284.67	96.38
284.901	87.38
285.132	85.38
285.364	78.38
285.595	86.38
285.826	85.38
286.057	93.38
286.288	85.38
286.52	73.38
286.751	74.38
286.982	90.38
287.213	95.38
287.444	77.38
287.675	86.38
287.906	81.38
288.138	96.38
288.369	81.38
288.6	77.38
288.831	74.38
289.062	94.38
289.293	85.38
289.524	82.38
289.755	75.38
289.986	93.38
290.217	89.38
290.448	93.38
290.679	74.38
290.91	80.38
291.141	101.38
291.371	76.38
291.602	94.38
291.833	90.38
292.064	94.38
292.295	85.38
292.526	93.38
292.757	80.38
292.987	89.38
293.218	92.38
293.449	75.38
293.68	88.38
293.91	83.38
294.141	88.38
294.372	83.38
294.603	94.38
294.833	95.38
295.064	82.38
295.295	71.38
295.525	79.38
295.756	69.38
295.987	83.38
296.217	81.38
296.448	79.38
296.679	82.38
296.909	83.38
297.14	81.38
297.37	81.38
297.601	89.38
297.831	69.38
298.062	98.38
298.292	83.38
298.523	90.38
298.753	87.38
298.984	93.38
299.214	74.38
299.445	97.38
299.675	104.38
299.905	77.38
300.136	93.38
300.366	97.38
300.597	111.38
300.827	100.38
301.057	94.38
301.288	97.38
301.518	83.38
301.748	77.38
301.979	91.38
302.209	90.38
302.439	98.38
302.669	104.38
302.9	79.38
303.13	88.38
303.36	75.38
303.59	76.38
303.82	87.38
304.051	95.38
304.281	86.38
304.511	83.38
304.741	81.38
304.971	96.38
305.201	87.38
305.431	91.38
305.661	91.38
305.891	90.38
306.121	72.38
306.352	80.38
306.582	78.38
306.812	88.38
307.042	78.38
307.272	76.38
307.502	97.38
307.731	99.38
307.961	88.38
308.191	104.38
308.421	97.38
308.651	77.38
308.881	81.38
309.111	100.38
309.341	93.38
309.571	79.38
309.8	93.38
310.03	83.38
310.26	84.38
310.49	87.38
310.72	96.38
310.949	73.38
311.179	91.38
311.409	82.38
311.639	91.38
311.868	101.38
312.098	84.38
312.328	89.38
312.557	59.38
312.787	77.38
313.017	67.38
313.246	84.38
313.476	95.38
313.706	96.38
313.935	79.38
314.165	95.38
314.394	85.38
314.624	89.38
314.853	86.38
315.083	73.38
315.312	95.38
315.542	88.38
315.771	92.38
316.001	93.38
316.23	97.38
316.46	85.38
316.689	87.38
316.919	80.38
317.148	93.38
317.377	87.38
317.607	95.38
317.836	92.38
318.065	105.38
318.295	94.38
318.524	93.38
318.753	98.38
318.983	91.38
319.212	85.38
319.441	91.38
319.67	93.38
319.9	90.38
320.129	96.38
320.358	88.38
320.587	81.38
320.816	83.38
321.046	97.38
321.275	90.38
321.504	94.38
321.733	84.38
321.962	89.38
322.191	92.38
322.42	95.38
322.649	93.38
322.878	92.38
323.108	75.38
323.337	87.38
323.566	82.38
323.795	79.38
324.024	85.38
324.253	92.38
324.482	78.38
324.71	87.38
324.939	94.38
325.168	84.38
325.397	85.38
325.626	101.38
325.855	87.38
326.084	99.38
326.313	85.38
326.542	89.38
326.77	94.38
326.999	87.38
327.228	86.38
327.457	97.38
327.686	77.38
327.914	96.38
328.143	91.38
328.372	87.38
328.6	100.38
328.829	100.38
329.058	83.38
329.287	67.38
329.515	83.38
329.744	99.38
329.972	90.38
330.201	99.38
330.43	87.38
330.658	88.38
330.887	87.38
331.115	98.38
331.344	95.38
331.572	94.38
331.801	98.38
332.03	90.38
332.258	103.38
332.486	88.38
332.715	95.38
332.943	87.38
333.172	96.38
333.4	83.38
333.629	84.38
333.857	82.38
334.085	90.38
334.314	99.38
334.542	104.38
334.771	95.38
334.999	102.38
335.227	85.38
335.455	87.38
335.684	116.38
335.912	109.38
336.14	99.38
336.369	91.38
336.597	97.38
336.825	84.38
337.053	91.38
337.281	82.38
337.51	81.38
337.738	91.38
337.966	88.38
338.194	88.38
338.422	87.38
338.65	85.38
338.878	93.38
339.106	105.38
339.334	93.38
339.562	99.38
339.79	82.38
340.018	74.38
340.246	85.38
340.474	73.38
340.702	87.38
340.93	87.38
341.158	83.38
341.386	78.38
341.614	88.38
341.842	94.38
342.07	80.38
342.298	89.38
342.526	91.38
342.754	81.38
342.981	92.38
343.209	74.38
343.437	97.38
343.665	90.38
343.893	86.38
344.12	89.38
344.348	102.38
344.576	96.38
344.804	79.38
345.031	91.38
345.259	99.38
345.487	85.38
345.714	99.38
345.942	85.38
346.17	77.38
346.397	94.38
346.625	83.38
346.853	101.38
347.08	85.38
347.308	84.38
347.535	84.38
347.763	81.38
347.99	91.38
348.218	89.38
348.445	93.38
348.673	81.38
348.9	94.38
349.128	100.38
349.355	100.38
349.583	94.38
349.81	80.38
350.037	100.38
350.265	83.38
350.492	89.38
350.72	106.38
350.947	98.38
351.174	95.38
351.402	98.38
351.629	90.38
351.856	83.38
352.083	91.38
352.311	86.38
352.538	85.38
352.765	98.38
352.992	107.38
353.22	88.38
353.447	87.38
353.674	100.38
353.901	97.38
354.128	90.38
354.355	100.38
354.583	91.38
354.81	91.38
355.037	80.38
355.264	73.38
355.491	107.38
355.718	89.38
355.945	89.38
356.172	97.38
356.399	100.38
356.626	89.38
356.853	87.38
357.08	105.38
357.307	100.38
357.534	90.38
357.761	103.38
357.988	90.38
358.215	97.38
358.441	102.38
358.668	83.38
358.895	90.38
359.122	94.38
359.349	93.38
359.576	79.38
359.802	94.38
360.029	101.38
360.256	95.38
360.483	104.38
360.709	119.38
360.936	104.38
361.163	110.38
361.39	95.38
361.616	86.38
361.843	113.38
362.07	83.38
362.296	103.38
362.523	113.38
362.749	125.38
362.976	114.38
363.203	133.38
363.429	101.38
363.656	98.38
363.882	92.38
364.109	124.38
364.335	145.38
364.562	143.38
364.788	130.38
365.015	95.38
365.241	89.38
365.468	95.38
365.694	90.38
365.92	87.38
366.147	89.38
366.373	83.38
366.599	77.38
366.826	83.38
367.052	102.38
367.278	100.38
367.505	100.38
367.731	90.38
367.957	92.38
368.184	93.38
368.41	85.38
368.636	81.38
368.862	104.38
369.089	75.38
369.315	78.38
369.541	102.38
369.767	91.38
369.993	85.38
370.219	99.38
370.445	107.38
370.672	102.38
370.898	94.38
371.124	87.38
371.35	94.38
371.576	95.38
371.802	102.38
372.028	100.38
372.254	97.38
372.48	99.38
372.706	102.38
372.932	93.38
373.158	112.38
373.384	121.38
373.61	117.38
373.835	129.38
374.061	93.38
374.287	94.38
374.513	106.38
374.739	108.38
374.965	113.38
375.191	105.38
375.416	100.38
375.642	93.38
375.868	103.38
376.094	81.38
376.319	93.38
376.545	95.38
376.771	103.38
376.997	104.38
377.222	85.38
377.448	93.38
377.674	92.38
377.899	103.38
378.125	70.38
378.35	93.38
378.576	85.38
378.802	81.38
379.027	105.38
379.253	96.38
379.478	82.38
379.704	91.38
379.929	94.38
380.155	79.38
380.38	109.38
380.606	101.38
380.831	89.38
381.057	87.38
381.282	95.38
381.507	88.38
381.733	102.38
381.958	114.38
382.184	93.38
382.409	93.38
382.634	100.38
382.86	109.38
383.085	93.38
383.31	98.38
383.535	106.38
383.761	112.38
383.986	117.38
384.211	112.38
384.436	100.38
384.662	113.38
384.887	85.38
385.112	113.38
385.337	93.38
385.562	97.38
385.787	97.38
386.013	102.38
386.238	100.38
386.463	89.38
386.688	111.38
386.913	85.38
387.138	95.38
387.363	106.38
387.588	107.38
387.813	98.38
388.038	92.38
388.263	106.38
388.488	98.38
388.713	95.38
388.938	79.38
389.163	88.38
389.387	103.38
389.612	103.38
389.837	94.38
390.062	94.38
390.287	98.38
390.512	89.38
390.736	101.38
390.961	104.38
391.186	89.38
391.411	97.38
391.636	94.38
391.86	95.38
392.085	106.38
392.31	114.38
392.534	100.38
392.759	129.38
392.984	209.38
393.208	343.38
393.433	504.38
393.658	394.38
393.882	186.38
394.107	129.38
394.331	127.38
394.556	139.38
394.78	122.38
395.005	102.38
395.229	105.38
395.454	113.38
395.678	101.38
395.903	140.38
396.127	150.38
396.352	174.38
396.576	230.38
396.801	365.38
397.025	421.38
397.249	245.38
397.474	147.38
397.698	119.38
397.922	94.38
398.147	98.38
398.371	96.38
398.595	92.38
398.82	80.38
399.044	87.38
399.268	96.38
399.492	92.38
399.717	97.38
399.941	94.38
400.165	94.38
400.389	103.38
400.613	91.38
400.837	90.38
401.062	79.38
401.286	89.38
401.51	80.38
401.734	81.38
401.958	101.38
402.182	93.38
402.406	80.38
402.63	97.38
402.854	78.38
403.078	94.38
403.302	100.38
403.526	81.38
403.75	91.38
403.974	87.38
404.198	97.38
404.422	90.38
404.645	98.38
404.869	92.38
405.093	83.38
405.317	85.38
405.541	87.38
405.765	91.38
405.988	82.38
406.212	85.38
406.436	100.38
406.66	98.38
406.883	87.38
407.107	84.38
407.331	99.38
407.555	104.38
407.778	145.38
408.002	129.38
408.226	87.38
408.449	100.38
408.673	86.38
408.896	93.38
409.12	109.38
409.344	104.38
409.567	113.38
409.791	129.38
410.014	113.38
410.238	98.38
410.461	96.38
410.685	85.38
410.908	86.38
411.132	98.38
411.355	101.38
411.578	89.38
411.802	84.38
412.025	78.38
412.249	88.38
412.472	93.38
412.695	90.38
412.919	90.38
413.142	93.38
413.365	102.38
413.589	85.38
413.812	89.38
414.035	82.38
414.258	91.38
414.482	93.38
414.705	91.38
414.928	100.38
415.151	92.38
415.374	100.38
415.597	74.38
415.821	94.38
416.044	99.38
416.267	92.38
416.49	83.38
416.713	97.38
416.936	89.38
417.159	92.38
417.382	95.38
417.605	91.38
417.828	95.38
418.051	96.38
418.274	98.38
418.497	98.38
418.72	87.38
418.943	96.38
419.166	98.38
419.389	90.38
419.611	102.38
419.834	74.38
420.057	94.38
420.28	93.38
420.503	101.38
420.726	95.38
420.948	102.38
421.171	109.38
421.394	111.38
421.617	136.38
421.839	142.38
422.062	158.38
422.285	208.38
422.507	369.38
422.73	563.38
422.953	513.38
423.175	264.38
423.398	171.38
423.621	127.38
423.843	119.38
424.066	105.38
424.288	99.38
424.511	103.38
424.733	102.38
424.956	103.38
425.178	99.38
425.401	97.38
425.623	95.38
425.846	97.38
426.068	88.38
426.291	103.38
426.513	100.38
426.735	109.38
426.958	114.38
427.18	106.38
427.402	94.38
427.625	86.38
427.847	88.38
428.069	115.38
428.292	141.38
428.514	169.38
428.736	139.38
428.958	156.38
429.181	159.38
429.403	101.38
429.625	102.38
429.847	155.38
430.069	211.38
430.292	222.38
430.514	201.38
430.736	151.38
430.958	176.38
431.18	119.38
431.402	101.38
431.624	103.38
431.846	147.38
432.068	163.38
432.29	103.38
432.512	99.38
432.734	85.38
432.956	86.38
433.178	96.38
433.4	91.38
433.622	97.38
433.844	83.38
434.066	91.38
434.287	94.38
434.509	71.38
434.731	81.38
434.953	90.38
435.175	96.38
435.397	91.38
435.618	97.38
435.84	94.38
436.062	80.38
436.284	93.38
436.505	91.38
436.727	95.38
436.949	89.38
437.17	85.38
437.392	85.38
437.614	89.38
437.835	89.38
438.057	87.38
438.278	102.38
438.5	99.38
438.721	91.38
438.943	87.38
439.165	91.38
439.386	83.38
439.608	80.38
439.829	86.38
440.05	91.38
440.272	94.38
440.493	97.38
440.715	93.38
440.936	104.38
441.158	102.38
441.379	94.38
441.6	93.38
441.822	98.38
442.043	82.38
442.264	117.38
442.486	163.38
442.707	202.38
442.928	150.38
443.149	115.38
443.371	190.38
443.592	299.38
443.813	270.38
444.034	138.38
444.255	106.38
444.476	104.38
444.698	109.38
444.919	105.38
445.14	177.38
445.361	248.38
445.582	376.38
445.803	317.38
446.024	150.38
446.245	109.38
446.466	79.38
446.687	88.38
446.908	103.38
447.129	102.38
447.35	92.38
447.571	85.38
447.792	85.38
448.013	95.38
448.234	73.38
448.455	97.38
448.675	83.38
448.896	83.38
449.117	88.38
449.338	101.38
449.559	97.38
449.779	88.38
450	86.38
450.221	89.38
450.442	89.38
450.662	85.38
450.883	86.38
451.104	94.38
451.324	83.38
451.545	83.38
451.766	82.38
451.986	80.38
452.207	88.38
452.428	100.38
452.648	87.38
452.869	114.38
453.089	99.38
453.31	93.38
453.53	117.38
453.751	107.38
453.971	97.38
454.192	81.38
454.412	81.38
454.633	85.38
454.853	93.38
455.073	101.38
455.294	99.38
455.514	86.38
455.734	92.38
455.955	85.38
456.175	96.38
456.395	93.38
456.616	80.38
456.836	94.38
457.056	100.38
457.276	76.38
457.497	88.38
457.717	110.38
457.937	133.38
458.157	134.38
458.377	154.38
458.598	129.38
458.818	156.38
459.038	99.38
459.258	89.38
459.478	105.38
459.698	83.38
459.918	97.38
460.138	98.38
460.358	87.38
460.578	105.38
460.798	147.38
461.018	142.38
461.238	89.38
461.458	99.38
461.678	84.38
461.898	75.38
462.118	77.38
462.338	88.38
462.558	87.38
462.777	90.38
462.997	94.38
463.217	78.38
463.437	88.38
463.657	97.38
463.876	90.38
464.096	95.38
464.316	87.38
464.536	84.38
464.755	97.38
464.975	87.38
465.195	89.38
465.414	78.38
465.634	96.38
465.854	92.38
466.073	80.38
466.293	74.38
466.512	87.38
466.732	88.38
466.951	84.38
467.171	98.38
467.391	99.38
467.61	96.38
467.829	88.38
468.049	99.38
468.268	83.38
468.488	99.38
468.707	106.38
468.927	99.38
469.146	99.38
469.365	88.38
469.585	70.38
469.804	91.38
470.023	95.38
470.243	91.38
470.462	94.38
470.681	100.38
470.901	87.38
471.12	96.38
471.339	88.38
471.558	100.38
471.777	82.38
471.997	102.38
472.216	94.38
472.435	86.38
472.654	96.38
472.873	102.38
473.092	95.38
473.311	93.38
473.53	89.38
473.749	97.38
473.968	90.38
474.187	79.38
474.406	93.38
474.625	80.38
474.844	90.38
475.063	103.38
475.282	98.38
475.501	91.38
475.72	81.38
475.939	76.38
476.158	80.38
476.377	112.38
476.596	99.38
476.814	83.38
477.033	87.38
477.252	112.38
477.471	88.38
477.69	83.38
477.908	82.38
478.127	97.38
478.346	89.38
478.564	98.38
478.783	89.38
479.002	86.38
479.22	87.38
479.439	94.38
479.658	93.38
479.876	86.38
480.095	77.38
480.313	102.38
480.532	83.38
480.751	101.38
480.969	85.38
481.188	89.38
481.406	93.38
481.624	85.38
481.843	94.38
482.061	93.38
482.28	97.38
482.498	92.38
482.717	77.38
482.935	76.38
483.153	99.38
483.372	113.38
483.59	102.38
483.808	90.38
484.027	84.38
484.245	105.38
484.463	87.38
484.681	101.38
484.9	111.38
485.118	91.38
485.336	101.38
485.554	93.38
485.772	92.38
485.99	90.38
486.209	85.38
486.427	98.38
486.645	95.38
486.863	99.38
487.081	91.38
487.299	105.38
487.517	109.38
487.735	132.38
487.953	224.38
488.171	171.38
488.389	115.38
488.607	91.38
488.825	98.38
489.043	98.38
489.261	102.38
489.479	90.38
489.696	73.38
489.914	90.38
490.132	98.38
490.35	94.38
490.568	92.38
490.786	96.38
491.003	78.38
491.221	80.38
491.439	89.38
491.657	88.38
491.874	89.38
492.092	88.38
492.31	96.38
492.527	89.38
492.745	90.38
492.963	99.38
493.18	95.38
493.398	106.38
493.615	97.38
493.833	126.38
494.05	98.38
494.268	83.38
494.485	98.38
494.703	84.38
494.92	94.38
495.138	103.38
495.355	85.38
495.573	88.38
495.79	81.38
496.008	107.38
496.225	103.38
496.442	97.38
496.66	86.38
496.877	90.38
497.094	89.38
497.312	98.38
497.529	103.38
497.746	98.38
497.963	102.38
498.181	77.38
498.398	103.38
498.615	99.38
498.832	92.38
499.049	88.38
499.267	111.38
499.484	103.38
499.701	111.38
499.918	98.38
500.135	89.38
500.352	100.38
500.569	93.38
500.786	96.38
501.003	95.38
501.22	104.38
501.437	93.38
501.654	91.38
501.871	100.38
502.088	104.38
502.305	107.38
502.522	100.38
502.739	93.38
502.956	102.38
503.172	86.38
503.389	79.38
503.606	101.38
503.823	101.38
504.04	121.38
504.256	157.38
504.473	174.38
504.69	111.38
504.907	98.38
505.123	96.38
505.34	100.38
505.557	94.38
505.773	106.38
505.99	86.38
506.207	90.38
506.423	74.38
506.64	81.38
506.856	98.38
507.073	87.38
507.289	105.38
507.506	95.38
507.722	93.38
507.939	90.38
508.155	86.38
508.372	97.38
508.588	101.38
508.805	88.38
509.021	87.38
509.238	89.38
509.454	98.38
509.67	91.38
509.887	98.38
510.103	97.38
510.319	102.38
510.536	102.38
510.752	105.38
510.968	104.38
511.184	94.38
511.401	105.38
511.617	107.38
511.833	95.38
512.049	96.38
512.265	110.38
512.481	83.38
512.698	96.38
512.914	89.38
513.13	106.38
513.346	91.38
513.562	90.38
513.778	96.38
513.994	99.38
514.21	89.38
514.426	97.38
514.642	96.38
514.858	100.38
515.074	103.38
515.29	93.38
515.506	95.38
515.721	93.38
515.937	92.38
516.153	102.38
