Data from 10100_1_HRD10591_00033.txt Node
Date: Mon Jan 19 14:00:41 EST 2026
User: Yrep
Spectrometer: HR+D1059
Trigger mode: 1
Integration Time (sec): 1.000000E-1
Scans to average: 1
Electric dark correction enabled: true
Nonlinearity correction enabled: false
Boxcar width: 0
XAxis mode: Wavelengths
Number of Pixels in Spectrum: 2048
>>>>>Begin Spectral Data<<<<<
223.165	-8.06
223.4	-8.06
223.635	-8.06
223.869	-23.06
224.104	-25.06
224.338	-6.06
224.573	-13.06
224.808	-17.06
225.042	-2.06
225.277	-11.06
225.511	-3.06
225.746	0.94
225.98	-5.06
226.215	5.94
226.449	21.94
226.683	17.94
226.918	31.94
227.152	34.94
227.387	44.94
227.621	32.94
227.856	47.94
228.09	41.94
228.324	46.94
228.559	50.94
228.793	62.94
229.027	57.94
229.262	57.94
229.496	57.94
229.73	67.94
229.964	74.94
230.199	94.94
230.433	76.94
230.667	78.94
230.901	69.94
231.136	82.94
231.37	75.94
231.604	88.94
231.838	88.94
232.072	77.94
232.306	79.94
232.541	68.94
232.775	82.94
233.009	85.94
233.243	79.94
233.477	82.94
233.711	70.94
233.945	90.94
234.179	80.94
234.413	85.94
234.647	72.94
234.881	74.94
235.115	66.94
235.349	66.94
235.583	70.94
235.817	69.94
236.051	73.94
236.285	95.94
236.519	77.94
236.753	66.94
236.987	86.94
237.221	62.94
237.455	71.94
237.689	71.94
237.922	64.94
238.156	74.94
238.39	66.94
238.624	70.94
238.858	80.94
239.091	70.94
239.325	64.94
239.559	77.94
239.793	73.94
240.027	64.94
240.26	75.94
240.494	82.94
240.728	61.94
240.961	80.94
241.195	68.94
241.429	72.94
241.662	75.94
241.896	84.94
242.13	79.94
242.363	69.94
242.597	72.94
242.83	100.94
243.064	79.94
243.298	69.94
243.531	67.94
243.765	94.94
243.998	65.94
244.232	77.94
244.465	60.94
244.699	65.94
244.932	69.94
245.166	68.94
245.399	65.94
245.633	64.94
245.866	74.94
246.099	77.94
246.333	80.94
246.566	75.94
246.8	69.94
247.033	81.94
247.266	70.94
247.5	70.94
247.733	75.94
247.966	79.94
248.2	79.94
248.433	67.94
248.666	88.94
248.899	62.94
249.133	86.94
249.366	83.94
249.599	62.94
249.832	80.94
250.066	88.94
250.299	72.94
250.532	83.94
250.765	66.94
250.998	77.94
251.231	86.94
251.465	80.94
251.698	71.94
251.931	89.94
252.164	88.94
252.397	68.94
252.63	68.94
252.863	64.94
253.096	71.94
253.329	60.94
253.562	77.94
253.795	77.94
254.028	73.94
254.261	80.94
254.494	80.94
254.727	84.94
254.96	65.94
255.193	70.94
255.426	78.94
255.659	73.94
255.892	83.94
256.124	70.94
256.357	79.94
256.59	76.94
256.823	85.94
257.056	73.94
257.289	75.94
257.521	84.94
257.754	85.94
257.987	87.94
258.22	88.94
258.452	83.94
258.685	84.94
258.918	69.94
259.151	73.94
259.383	80.94
259.616	87.94
259.849	70.94
260.081	71.94
260.314	73.94
260.547	71.94
260.779	85.94
261.012	71.94
261.244	94.94
261.477	77.94
261.71	76.94
261.942	81.94
262.175	76.94
262.407	67.94
262.64	74.94
262.872	73.94
263.105	78.94
263.337	84.94
263.57	72.94
263.802	85.94
264.035	79.94
264.267	77.94
264.499	95.94
264.732	87.94
264.964	76.94
265.197	85.94
265.429	75.94
265.661	74.94
265.894	75.94
266.126	68.94
266.358	82.94
266.591	84.94
266.823	58.94
267.055	82.94
267.287	67.94
267.52	75.94
267.752	77.94
267.984	90.94
268.216	70.94
268.448	73.94
268.681	83.94
268.913	77.94
269.145	79.94
269.377	62.94
269.609	70.94
269.841	65.94
270.073	89.94
270.306	64.94
270.538	70.94
270.77	85.94
271.002	84.94
271.234	78.94
271.466	83.94
271.698	88.94
271.93	69.94
272.162	89.94
272.394	84.94
272.626	77.94
272.858	80.94
273.09	58.94
273.322	68.94
273.553	83.94
273.785	76.94
274.017	73.94
274.249	86.94
274.481	75.94
274.713	80.94
274.945	80.94
275.176	81.94
275.408	92.94
275.64	83.94
275.872	80.94
276.104	93.94
276.335	88.94
276.567	92.94
276.799	80.94
277.031	91.94
277.262	88.94
277.494	74.94
277.726	74.94
277.957	81.94
278.189	70.94
278.421	90.94
278.652	81.94
278.884	84.94
279.115	88.94
279.347	69.94
279.579	77.94
279.81	91.94
280.042	74.94
280.273	89.94
280.505	68.94
280.736	86.94
280.968	82.94
281.199	78.94
281.431	86.94
281.662	86.94
281.894	69.94
282.125	85.94
282.356	73.94
282.588	69.94
282.819	78.94
283.051	78.94
283.282	77.94
283.513	89.94
283.745	76.94
283.976	90.94
284.207	85.94
284.439	82.94
284.67	92.94
284.901	86.94
285.132	86.94
285.364	81.94
285.595	76.94
285.826	78.94
286.057	85.94
286.288	85.94
286.52	83.94
286.751	81.94
286.982	69.94
287.213	78.94
287.444	77.94
287.675	98.94
287.906	77.94
288.138	101.94
288.369	93.94
288.6	92.94
288.831	75.94
289.062	72.94
289.293	90.94
289.524	87.94
289.755	63.94
289.986	79.94
290.217	87.94
290.448	82.94
290.679	80.94
290.91	84.94
291.141	87.94
291.371	86.94
291.602	78.94
291.833	84.94
292.064	88.94
292.295	71.94
292.526	86.94
292.757	92.94
292.987	85.94
293.218	86.94
293.449	71.94
293.68	75.94
293.91	96.94
294.141	78.94
294.372	71.94
294.603	89.94
294.833	98.94
295.064	95.94
295.295	84.94
295.525	84.94
295.756	79.94
295.987	97.94
296.217	76.94
296.448	72.94
296.679	96.94
296.909	92.94
297.14	88.94
297.37	76.94
297.601	81.94
297.831	76.94
298.062	85.94
298.292	82.94
298.523	78.94
298.753	75.94
298.984	81.94
299.214	74.94
299.445	100.94
299.675	80.94
299.905	77.94
300.136	79.94
300.366	81.94
300.597	79.94
300.827	81.94
301.057	75.94
301.288	87.94
301.518	92.94
301.748	82.94
301.979	104.94
302.209	86.94
302.439	90.94
302.669	73.94
302.9	85.94
303.13	79.94
303.36	90.94
303.59	84.94
303.82	99.94
304.051	72.94
304.281	74.94
304.511	80.94
304.741	80.94
304.971	94.94
305.201	102.94
305.431	83.94
305.661	72.94
305.891	84.94
306.121	82.94
306.352	85.94
306.582	81.94
306.812	85.94
307.042	82.94
307.272	89.94
307.502	86.94
307.731	83.94
307.961	83.94
308.191	74.94
308.421	81.94
308.651	97.94
308.881	85.94
309.111	88.94
309.341	90.94
309.571	76.94
309.8	97.94
310.03	95.94
310.26	96.94
310.49	86.94
310.72	76.94
310.949	80.94
311.179	85.94
311.409	89.94
311.639	82.94
311.868	76.94
312.098	88.94
312.328	82.94
312.557	81.94
312.787	85.94
313.017	81.94
313.246	81.94
313.476	71.94
313.706	89.94
313.935	72.94
314.165	96.94
314.394	70.94
314.624	82.94
314.853	87.94
315.083	87.94
315.312	74.94
315.542	69.94
315.771	90.94
316.001	86.94
316.23	88.94
316.46	64.94
316.689	88.94
316.919	79.94
317.148	82.94
317.377	83.94
317.607	80.94
317.836	84.94
318.065	92.94
318.295	92.94
318.524	88.94
318.753	78.94
318.983	64.94
319.212	90.94
319.441	84.94
319.67	87.94
319.9	82.94
320.129	93.94
320.358	94.94
320.587	80.94
320.816	86.94
321.046	94.94
321.275	95.94
321.504	91.94
321.733	80.94
321.962	86.94
322.191	96.94
322.42	88.94
322.649	87.94
322.878	93.94
323.108	85.94
323.337	84.94
323.566	85.94
323.795	92.94
324.024	93.94
324.253	93.94
324.482	85.94
324.71	78.94
324.939	92.94
325.168	73.94
325.397	90.94
325.626	82.94
325.855	79.94
326.084	72.94
326.313	69.94
326.542	82.94
326.77	94.94
326.999	93.94
327.228	64.94
327.457	86.94
327.686	81.94
327.914	78.94
328.143	94.94
328.372	79.94
328.6	71.94
328.829	80.94
329.058	84.94
329.287	75.94
329.515	81.94
329.744	77.94
329.972	77.94
330.201	98.94
330.43	84.94
330.658	76.94
330.887	84.94
331.115	75.94
331.344	82.94
331.572	81.94
331.801	90.94
332.03	91.94
332.258	106.94
332.486	86.94
332.715	66.94
332.943	84.94
333.172	83.94
333.4	84.94
333.629	83.94
333.857	90.94
334.085	79.94
334.314	86.94
334.542	100.94
334.771	79.94
334.999	73.94
335.227	85.94
335.455	89.94
335.684	96.94
335.912	92.94
336.14	90.94
336.369	94.94
336.597	84.94
336.825	76.94
337.053	70.94
337.281	88.94
337.51	84.94
337.738	86.94
337.966	88.94
338.194	86.94
338.422	83.94
338.65	84.94
338.878	85.94
339.106	86.94
339.334	89.94
339.562	82.94
339.79	70.94
340.018	76.94
340.246	91.94
340.474	89.94
340.702	74.94
340.93	76.94
341.158	80.94
341.386	82.94
341.614	81.94
341.842	80.94
342.07	85.94
342.298	81.94
342.526	79.94
342.754	97.94
342.981	78.94
343.209	83.94
343.437	80.94
343.665	94.94
343.893	93.94
344.12	88.94
344.348	79.94
344.576	88.94
344.804	85.94
345.031	85.94
345.259	81.94
345.487	75.94
345.714	91.94
345.942	79.94
346.17	83.94
346.397	85.94
346.625	85.94
346.853	94.94
347.08	92.94
347.308	79.94
347.535	83.94
347.763	83.94
347.99	70.94
348.218	80.94
348.445	74.94
348.673	86.94
348.9	78.94
349.128	87.94
349.355	89.94
349.583	86.94
349.81	94.94
350.037	78.94
350.265	104.94
350.492	74.94
350.72	82.94
350.947	73.94
351.174	85.94
351.402	76.94
351.629	88.94
351.856	97.94
352.083	102.94
352.311	92.94
352.538	100.94
352.765	96.94
352.992	60.94
353.22	85.94
353.447	87.94
353.674	92.94
353.901	86.94
354.128	61.94
354.355	81.94
354.583	89.94
354.81	84.94
355.037	88.94
355.264	88.94
355.491	88.94
355.718	85.94
355.945	80.94
356.172	74.94
356.399	92.94
356.626	78.94
356.853	82.94
357.08	94.94
357.307	92.94
357.534	79.94
357.761	94.94
357.988	81.94
358.215	93.94
358.441	82.94
358.668	87.94
358.895	84.94
359.122	85.94
359.349	77.94
359.576	71.94
359.802	66.94
360.029	81.94
360.256	71.94
360.483	80.94
360.709	80.94
360.936	88.94
361.163	81.94
361.39	81.94
361.616	74.94
361.843	88.94
362.07	88.94
362.296	100.94
362.523	92.94
362.749	90.94
362.976	101.94
363.203	98.94
363.429	99.94
363.656	76.94
363.882	84.94
364.109	83.94
364.335	105.94
364.562	105.94
364.788	93.94
365.015	78.94
365.241	78.94
365.468	91.94
365.694	90.94
365.92	89.94
366.147	72.94
366.373	80.94
366.599	90.94
366.826	92.94
367.052	86.94
367.278	89.94
367.505	79.94
367.731	81.94
367.957	66.94
368.184	79.94
368.41	88.94
368.636	76.94
368.862	95.94
369.089	83.94
369.315	87.94
369.541	85.94
369.767	87.94
369.993	86.94
370.219	71.94
370.445	83.94
370.672	80.94
370.898	94.94
371.124	80.94
371.35	70.94
371.576	87.94
371.802	82.94
372.028	94.94
372.254	82.94
372.48	70.94
372.706	82.94
372.932	71.94
373.158	78.94
373.384	85.94
373.61	87.94
373.835	98.94
374.061	77.94
374.287	97.94
374.513	93.94
374.739	102.94
374.965	91.94
375.191	90.94
375.416	84.94
375.642	88.94
375.868	100.94
376.094	82.94
376.319	82.94
376.545	98.94
376.771	87.94
376.997	81.94
377.222	79.94
377.448	92.94
377.674	91.94
377.899	80.94
378.125	70.94
378.35	81.94
378.576	84.94
378.802	74.94
379.027	79.94
379.253	96.94
379.478	80.94
379.704	83.94
379.929	88.94
380.155	86.94
380.38	92.94
380.606	82.94
380.831	80.94
381.057	83.94
381.282	89.94
381.507	86.94
381.733	79.94
381.958	70.94
382.184	74.94
382.409	85.94
382.634	102.94
382.86	88.94
383.085	84.94
383.31	77.94
383.535	99.94
383.761	85.94
383.986	74.94
384.211	86.94
384.436	98.94
384.662	89.94
384.887	84.94
385.112	84.94
385.337	89.94
385.562	81.94
385.787	66.94
386.013	88.94
386.238	87.94
386.463	90.94
386.688	86.94
386.913	81.94
387.138	84.94
387.363	100.94
387.588	95.94
387.813	101.94
388.038	90.94
388.263	90.94
388.488	89.94
388.713	87.94
388.938	98.94
389.163	89.94
389.387	86.94
389.612	88.94
389.837	91.94
390.062	78.94
390.287	69.94
390.512	82.94
390.736	70.94
390.961	85.94
391.186	77.94
391.411	83.94
391.636	83.94
391.86	83.94
392.085	81.94
392.31	86.94
392.534	96.94
392.759	81.94
392.984	114.94
393.208	154.94
393.433	209.94
393.658	169.94
393.882	106.94
394.107	92.94
394.331	87.94
394.556	95.94
394.78	83.94
395.005	82.94
395.229	67.94
395.454	90.94
395.678	90.94
395.903	100.94
396.127	98.94
396.352	116.94
396.576	132.94
396.801	150.94
397.025	185.94
397.249	122.94
397.474	105.94
397.698	100.94
397.922	86.94
398.147	82.94
398.371	81.94
398.595	78.94
398.82	67.94
399.044	78.94
399.268	99.94
399.492	97.94
399.717	94.94
399.941	86.94
400.165	88.94
400.389	78.94
400.613	89.94
400.837	85.94
401.062	81.94
401.286	92.94
401.51	79.94
401.734	83.94
401.958	72.94
402.182	80.94
402.406	87.94
402.63	88.94
402.854	72.94
403.078	78.94
403.302	81.94
403.526	92.94
403.75	82.94
403.974	82.94
404.198	85.94
404.422	83.94
404.645	80.94
404.869	83.94
405.093	70.94
405.317	92.94
405.541	78.94
405.765	92.94
405.988	75.94
406.212	75.94
406.436	89.94
406.66	86.94
406.883	68.94
407.107	69.94
407.331	96.94
407.555	87.94
407.778	108.94
408.002	104.94
408.226	89.94
408.449	90.94
408.673	90.94
408.896	66.94
409.12	78.94
409.344	74.94
409.567	95.94
409.791	90.94
410.014	85.94
410.238	96.94
410.461	76.94
410.685	80.94
410.908	84.94
411.132	73.94
411.355	70.94
411.578	98.94
411.802	78.94
412.025	85.94
412.249	51.94
412.472	76.94
412.695	80.94
412.919	80.94
413.142	83.94
413.365	81.94
413.589	79.94
413.812	82.94
414.035	87.94
414.258	79.94
414.482	83.94
414.705	82.94
414.928	75.94
415.151	86.94
415.374	83.94
415.597	65.94
415.821	77.94
416.044	84.94
416.267	77.94
416.49	89.94
416.713	81.94
416.936	82.94
417.159	89.94
417.382	77.94
417.605	80.94
417.828	72.94
418.051	95.94
418.274	92.94
418.497	71.94
418.72	84.94
418.943	82.94
419.166	73.94
419.389	82.94
419.611	80.94
419.834	71.94
420.057	90.94
420.28	92.94
420.503	72.94
420.726	81.94
420.948	72.94
421.171	76.94
421.394	103.94
421.617	89.94
421.839	82.94
422.062	96.94
422.285	115.94
422.507	155.94
422.73	214.94
422.953	189.94
423.175	118.94
423.398	94.94
423.621	89.94
423.843	94.94
424.066	96.94
424.288	66.94
424.511	91.94
424.733	86.94
424.956	80.94
425.178	88.94
425.401	92.94
425.623	88.94
425.846	73.94
426.068	68.94
426.291	72.94
426.513	101.94
426.735	82.94
426.958	80.94
427.18	85.94
427.402	84.94
427.625	84.94
427.847	72.94
428.069	74.94
428.292	89.94
428.514	115.94
428.736	94.94
428.958	103.94
429.181	93.94
429.403	76.94
429.625	92.94
429.847	95.94
430.069	113.94
430.292	119.94
430.514	128.94
430.736	95.94
430.958	122.94
431.18	87.94
431.402	80.94
431.624	96.94
431.846	103.94
432.068	109.94
432.29	94.94
432.512	89.94
432.734	76.94
432.956	96.94
433.178	85.94
433.4	74.94
433.622	94.94
433.844	71.94
434.066	78.94
434.287	81.94
434.509	86.94
434.731	80.94
434.953	87.94
435.175	84.94
435.397	81.94
435.618	83.94
435.84	103.94
436.062	89.94
436.284	81.94
436.505	82.94
436.727	84.94
436.949	84.94
437.17	74.94
437.392	73.94
437.614	88.94
437.835	89.94
438.057	79.94
438.278	91.94
438.5	86.94
438.721	77.94
438.943	86.94
439.165	86.94
439.386	82.94
439.608	90.94
439.829	90.94
440.05	79.94
440.272	79.94
440.493	73.94
440.715	85.94
440.936	76.94
441.158	80.94
441.379	81.94
441.6	85.94
441.822	75.94
442.043	82.94
442.264	81.94
442.486	102.94
442.707	112.94
442.928	99.94
443.149	94.94
443.371	108.94
443.592	140.94
443.813	136.94
444.034	100.94
444.255	103.94
444.476	87.94
444.698	89.94
444.919	81.94
445.14	138.94
445.361	146.94
445.582	151.94
445.803	153.94
446.024	98.94
446.245	102.94
446.466	82.94
446.687	99.94
446.908	68.94
447.129	89.94
447.35	86.94
447.571	84.94
447.792	86.94
448.013	70.94
448.234	84.94
448.455	87.94
448.675	87.94
448.896	86.94
449.117	77.94
449.338	86.94
449.559	84.94
449.779	67.94
450	93.94
450.221	89.94
450.442	87.94
450.662	90.94
450.883	70.94
451.104	91.94
451.324	80.94
451.545	73.94
451.766	83.94
451.986	77.94
452.207	82.94
452.428	87.94
452.648	73.94
452.869	78.94
453.089	88.94
453.31	78.94
453.53	86.94
453.751	82.94
453.971	79.94
454.192	85.94
454.412	71.94
454.633	80.94
454.853	64.94
455.073	86.94
455.294	81.94
455.514	95.94
455.734	84.94
455.955	96.94
456.175	88.94
456.395	85.94
456.616	92.94
456.836	85.94
457.056	78.94
457.276	83.94
457.497	95.94
457.717	90.94
457.937	88.94
458.157	109.94
458.377	96.94
458.598	98.94
458.818	104.94
459.038	93.94
459.258	84.94
459.478	78.94
459.698	83.94
459.918	91.94
460.138	80.94
460.358	87.94
460.578	89.94
460.798	103.94
461.018	97.94
461.238	70.94
461.458	86.94
461.678	90.94
461.898	88.94
462.118	80.94
462.338	75.94
462.558	78.94
462.777	85.94
462.997	82.94
463.217	80.94
463.437	78.94
463.657	71.94
463.876	84.94
464.096	72.94
464.316	77.94
464.536	94.94
464.755	83.94
464.975	77.94
465.195	86.94
465.414	79.94
465.634	86.94
465.854	81.94
466.073	89.94
466.293	100.94
466.512	73.94
466.732	90.94
466.951	87.94
467.171	86.94
467.391	84.94
467.61	79.94
467.829	76.94
468.049	71.94
468.268	82.94
468.488	84.94
468.707	83.94
468.927	97.94
469.146	88.94
469.365	94.94
469.585	82.94
469.804	76.94
470.023	89.94
470.243	78.94
470.462	100.94
470.681	95.94
470.901	80.94
471.12	73.94
471.339	88.94
471.558	73.94
471.777	68.94
471.997	76.94
472.216	77.94
472.435	72.94
472.654	84.94
472.873	86.94
473.092	86.94
473.311	86.94
473.53	66.94
473.749	67.94
473.968	80.94
474.187	79.94
474.406	96.94
474.625	75.94
474.844	100.94
475.063	73.94
475.282	80.94
475.501	72.94
475.72	90.94
475.939	94.94
476.158	99.94
476.377	87.94
476.596	82.94
476.814	76.94
477.033	85.94
477.252	78.94
477.471	81.94
477.69	91.94
477.908	85.94
478.127	84.94
478.346	77.94
478.564	82.94
478.783	74.94
479.002	91.94
479.22	78.94
479.439	102.94
479.658	94.94
479.876	80.94
480.095	90.94
480.313	95.94
480.532	88.94
480.751	86.94
480.969	68.94
481.188	88.94
481.406	88.94
481.624	90.94
481.843	78.94
482.061	74.94
482.28	93.94
482.498	82.94
482.717	81.94
482.935	78.94
483.153	77.94
483.372	81.94
483.59	88.94
483.808	85.94
484.027	83.94
484.245	84.94
484.463	86.94
484.681	87.94
484.9	94.94
485.118	108.94
485.336	93.94
485.554	66.94
485.772	74.94
485.99	93.94
486.209	83.94
486.427	75.94
486.645	85.94
486.863	90.94
487.081	100.94
487.299	78.94
487.517	86.94
487.735	93.94
487.953	119.94
488.171	100.94
488.389	89.94
488.607	87.94
488.825	83.94
489.043	67.94
489.261	68.94
489.479	92.94
489.696	83.94
489.914	86.94
490.132	94.94
490.35	73.94
490.568	92.94
490.786	86.94
491.003	75.94
491.221	80.94
491.439	95.94
491.657	80.94
491.874	77.94
492.092	82.94
492.31	86.94
492.527	93.94
492.745	105.94
492.963	86.94
493.18	78.94
493.398	93.94
493.615	77.94
493.833	81.94
494.05	78.94
494.268	80.94
494.485	78.94
494.703	84.94
494.92	95.94
495.138	89.94
495.355	88.94
495.573	83.94
495.79	78.94
496.008	83.94
496.225	70.94
496.442	88.94
496.66	83.94
496.877	76.94
497.094	87.94
497.312	81.94
497.529	74.94
497.746	82.94
497.963	70.94
498.181	91.94
498.398	80.94
498.615	92.94
498.832	86.94
499.049	79.94
499.267	94.94
499.484	89.94
499.701	82.94
499.918	94.94
500.135	85.94
500.352	88.94
500.569	81.94
500.786	101.94
501.003	78.94
501.22	85.94
501.437	81.94
501.654	81.94
501.871	83.94
502.088	62.94
502.305	78.94
502.522	92.94
502.739	93.94
502.956	95.94
503.172	92.94
503.389	72.94
503.606	86.94
503.823	93.94
504.04	96.94
504.256	105.94
504.473	104.94
504.69	79.94
504.907	90.94
505.123	80.94
505.34	76.94
505.557	77.94
505.773	71.94
505.99	89.94
506.207	92.94
506.423	94.94
506.64	85.94
506.856	95.94
507.073	82.94
507.289	87.94
507.506	88.94
507.722	91.94
507.939	77.94
508.155	75.94
508.372	84.94
508.588	84.94
508.805	81.94
509.021	79.94
509.238	85.94
509.454	75.94
509.67	91.94
509.887	87.94
510.103	76.94
510.319	87.94
510.536	99.94
510.752	81.94
510.968	96.94
511.184	84.94
511.401	89.94
511.617	87.94
511.833	87.94
512.049	96.94
512.265	93.94
512.481	76.94
512.698	87.94
512.914	80.94
513.13	80.94
513.346	79.94
513.562	99.94
513.778	101.94
513.994	93.94
514.21	86.94
514.426	84.94
514.642	88.94
514.858	82.94
515.074	85.94
515.29	94.94
515.506	91.94
515.721	96.94
515.937	86.94
516.153	77.94
516.369	92.94
516.585	89.94
516.801	83.94
517.016	77.94
517.232	81.94
517.448	87.94
517.664	81.94
517.879	89.94
518.095	85.94
518.311	93.94
518.527	80.94
518.742	86.94
518.958	109.94
519.173	117.94
