Data from 10100_1_HRD10591_00027.txt Node
Date: Mon Jan 19 14:00:38 EST 2026
User: Yrep
Spectrometer: HR+D1059
Trigger mode: 1
Integration Time (sec): 1.000000E-1
Scans to average: 1
Electric dark correction enabled: true
Nonlinearity correction enabled: false
Boxcar width: 0
XAxis mode: Wavelengths
Number of Pixels in Spectrum: 2048
>>>>>Begin Spectral Data<<<<<
223.165	-12.31
223.4	-12.31
223.635	-12.31
223.869	-24.31
224.104	-5.31
224.338	-11.31
224.573	-4.31
224.808	-19.31
225.042	-8.31
225.277	-5.31
225.511	-9.31
225.746	-2.31
225.98	-6.31
226.215	-1.31
226.449	15.69
226.683	29.69
226.918	31.69
227.152	32.69
227.387	47.69
227.621	32.69
227.856	35.69
228.09	43.69
228.324	41.69
228.559	60.69
228.793	58.69
229.027	52.69
229.262	63.69
229.496	61.69
229.73	67.69
229.964	69.69
230.199	62.69
230.433	78.69
230.667	84.69
230.901	79.69
231.136	67.69
231.37	75.69
231.604	90.69
231.838	82.69
232.072	81.69
232.306	73.69
232.541	60.69
232.775	80.69
233.009	78.69
233.243	84.69
233.477	79.69
233.711	75.69
233.945	83.69
234.179	82.69
234.413	96.69
234.647	75.69
234.881	78.69
235.115	73.69
235.349	77.69
235.583	71.69
235.817	60.69
236.051	71.69
236.285	64.69
236.519	69.69
236.753	66.69
236.987	64.69
237.221	75.69
237.455	72.69
237.689	78.69
237.922	77.69
238.156	78.69
238.39	56.69
238.624	67.69
238.858	58.69
239.091	86.69
239.325	86.69
239.559	56.69
239.793	89.69
240.027	68.69
240.26	67.69
240.494	73.69
240.728	78.69
240.961	63.69
241.195	80.69
241.429	62.69
241.662	61.69
241.896	73.69
242.13	73.69
242.363	59.69
242.597	74.69
242.83	71.69
243.064	77.69
243.298	78.69
243.531	65.69
243.765	76.69
243.998	82.69
244.232	65.69
244.465	75.69
244.699	73.69
244.932	83.69
245.166	65.69
245.399	67.69
245.633	72.69
245.866	75.69
246.099	73.69
246.333	65.69
246.566	73.69
246.8	71.69
247.033	77.69
247.266	65.69
247.5	65.69
247.733	72.69
247.966	71.69
248.2	76.69
248.433	72.69
248.666	62.69
248.899	96.69
249.133	76.69
249.366	79.69
249.599	82.69
249.832	65.69
250.066	70.69
250.299	80.69
250.532	80.69
250.765	75.69
250.998	76.69
251.231	73.69
251.465	78.69
251.698	86.69
251.931	75.69
252.164	55.69
252.397	69.69
252.63	82.69
252.863	109.69
253.096	68.69
253.329	73.69
253.562	80.69
253.795	68.69
254.028	73.69
254.261	78.69
254.494	73.69
254.727	69.69
254.96	76.69
255.193	84.69
255.426	73.69
255.659	84.69
255.892	80.69
256.124	72.69
256.357	77.69
256.59	67.69
256.823	84.69
257.056	76.69
257.289	75.69
257.521	89.69
257.754	69.69
257.987	96.69
258.22	72.69
258.452	84.69
258.685	74.69
258.918	66.69
259.151	56.69
259.383	84.69
259.616	81.69
259.849	66.69
260.081	95.69
260.314	62.69
260.547	86.69
260.779	89.69
261.012	71.69
261.244	79.69
261.477	85.69
261.71	67.69
261.942	73.69
262.175	79.69
262.407	71.69
262.64	80.69
262.872	74.69
263.105	86.69
263.337	96.69
263.57	72.69
263.802	84.69
264.035	74.69
264.267	83.69
264.499	73.69
264.732	84.69
264.964	86.69
265.197	91.69
265.429	86.69
265.661	79.69
265.894	92.69
266.126	80.69
266.358	65.69
266.591	70.69
266.823	87.69
267.055	82.69
267.287	75.69
267.52	74.69
267.752	83.69
267.984	88.69
268.216	75.69
268.448	79.69
268.681	71.69
268.913	70.69
269.145	87.69
269.377	82.69
269.609	88.69
269.841	84.69
270.073	70.69
270.306	71.69
270.538	82.69
270.77	87.69
271.002	76.69
271.234	69.69
271.466	86.69
271.698	66.69
271.93	79.69
272.162	86.69
272.394	77.69
272.626	82.69
272.858	68.69
273.09	89.69
273.322	85.69
273.553	86.69
273.785	88.69
274.017	82.69
274.249	74.69
274.481	76.69
274.713	75.69
274.945	80.69
275.176	78.69
275.408	73.69
275.64	77.69
275.872	76.69
276.104	81.69
276.335	83.69
276.567	74.69
276.799	78.69
277.031	75.69
277.262	82.69
277.494	84.69
277.726	75.69
277.957	85.69
278.189	76.69
278.421	76.69
278.652	70.69
278.884	72.69
279.115	79.69
279.347	79.69
279.579	84.69
279.81	79.69
280.042	88.69
280.273	62.69
280.505	71.69
280.736	71.69
280.968	77.69
281.199	89.69
281.431	89.69
281.662	82.69
281.894	93.69
282.125	92.69
282.356	88.69
282.588	85.69
282.819	95.69
283.051	90.69
283.282	83.69
283.513	86.69
283.745	90.69
283.976	73.69
284.207	76.69
284.439	86.69
284.67	90.69
284.901	71.69
285.132	92.69
285.364	84.69
285.595	94.69
285.826	87.69
286.057	83.69
286.288	72.69
286.52	79.69
286.751	74.69
286.982	96.69
287.213	82.69
287.444	76.69
287.675	72.69
287.906	82.69
288.138	72.69
288.369	85.69
288.6	88.69
288.831	72.69
289.062	79.69
289.293	80.69
289.524	76.69
289.755	69.69
289.986	78.69
290.217	89.69
290.448	82.69
290.679	78.69
290.91	83.69
291.141	78.69
291.371	80.69
291.602	75.69
291.833	76.69
292.064	65.69
292.295	90.69
292.526	81.69
292.757	83.69
292.987	79.69
293.218	94.69
293.449	69.69
293.68	86.69
293.91	80.69
294.141	66.69
294.372	84.69
294.603	68.69
294.833	86.69
295.064	84.69
295.295	86.69
295.525	87.69
295.756	79.69
295.987	96.69
296.217	81.69
296.448	85.69
296.679	79.69
296.909	84.69
297.14	88.69
297.37	76.69
297.601	85.69
297.831	78.69
298.062	75.69
298.292	80.69
298.523	81.69
298.753	76.69
298.984	76.69
299.214	82.69
299.445	82.69
299.675	84.69
299.905	81.69
300.136	94.69
300.366	78.69
300.597	89.69
300.827	93.69
301.057	99.69
301.288	81.69
301.518	79.69
301.748	85.69
301.979	107.69
302.209	82.69
302.439	78.69
302.669	75.69
302.9	96.69
303.13	76.69
303.36	87.69
303.59	91.69
303.82	79.69
304.051	92.69
304.281	78.69
304.511	87.69
304.741	86.69
304.971	79.69
305.201	76.69
305.431	70.69
305.661	67.69
305.891	86.69
306.121	84.69
306.352	78.69
306.582	87.69
306.812	82.69
307.042	83.69
307.272	81.69
307.502	80.69
307.731	81.69
307.961	85.69
308.191	80.69
308.421	86.69
308.651	76.69
308.881	85.69
309.111	87.69
309.341	92.69
309.571	97.69
309.8	80.69
310.03	76.69
310.26	88.69
310.49	82.69
310.72	93.69
310.949	84.69
311.179	79.69
311.409	80.69
311.639	75.69
311.868	83.69
312.098	80.69
312.328	94.69
312.557	90.69
312.787	67.69
313.017	95.69
313.246	88.69
313.476	91.69
313.706	92.69
313.935	85.69
314.165	94.69
314.394	67.69
314.624	86.69
314.853	86.69
315.083	75.69
315.312	92.69
315.542	84.69
315.771	93.69
316.001	91.69
316.23	79.69
316.46	79.69
316.689	81.69
316.919	76.69
317.148	91.69
317.377	83.69
317.607	85.69
317.836	72.69
318.065	83.69
318.295	88.69
318.524	79.69
318.753	62.69
318.983	74.69
319.212	60.69
319.441	83.69
319.67	82.69
319.9	71.69
320.129	79.69
320.358	93.69
320.587	97.69
320.816	67.69
321.046	72.69
321.275	78.69
321.504	80.69
321.733	90.69
321.962	76.69
322.191	83.69
322.42	73.69
322.649	101.69
322.878	93.69
323.108	69.69
323.337	75.69
323.566	72.69
323.795	68.69
324.024	86.69
324.253	86.69
324.482	78.69
324.71	85.69
324.939	82.69
325.168	75.69
325.397	93.69
325.626	71.69
325.855	81.69
326.084	85.69
326.313	84.69
326.542	78.69
326.77	93.69
326.999	90.69
327.228	79.69
327.457	94.69
327.686	91.69
327.914	79.69
328.143	82.69
328.372	64.69
328.6	77.69
328.829	95.69
329.058	103.69
329.287	87.69
329.515	86.69
329.744	83.69
329.972	78.69
330.201	90.69
330.43	86.69
330.658	78.69
330.887	81.69
331.115	73.69
331.344	79.69
331.572	84.69
331.801	95.69
332.03	85.69
332.258	80.69
332.486	86.69
332.715	83.69
332.943	90.69
333.172	78.69
333.4	80.69
333.629	78.69
333.857	83.69
334.085	84.69
334.314	76.69
334.542	87.69
334.771	92.69
334.999	95.69
335.227	93.69
335.455	84.69
335.684	84.69
335.912	65.69
336.14	85.69
336.369	84.69
336.597	84.69
336.825	87.69
337.053	86.69
337.281	72.69
337.51	92.69
337.738	77.69
337.966	80.69
338.194	76.69
338.422	93.69
338.65	76.69
338.878	93.69
339.106	77.69
339.334	91.69
339.562	100.69
339.79	82.69
340.018	80.69
340.246	76.69
340.474	79.69
340.702	87.69
340.93	90.69
341.158	73.69
341.386	83.69
341.614	81.69
341.842	90.69
342.07	77.69
342.298	81.69
342.526	83.69
342.754	80.69
342.981	85.69
343.209	80.69
343.437	95.69
343.665	91.69
343.893	90.69
344.12	88.69
344.348	88.69
344.576	98.69
344.804	85.69
345.031	72.69
345.259	83.69
345.487	77.69
345.714	77.69
345.942	84.69
346.17	87.69
346.397	94.69
346.625	78.69
346.853	83.69
347.08	72.69
347.308	75.69
347.535	78.69
347.763	89.69
347.99	79.69
348.218	91.69
348.445	76.69
348.673	92.69
348.9	80.69
349.128	99.69
349.355	92.69
349.583	82.69
349.81	86.69
350.037	84.69
350.265	95.69
350.492	104.69
350.72	87.69
350.947	78.69
351.174	96.69
351.402	94.69
351.629	86.69
351.856	80.69
352.083	76.69
352.311	81.69
352.538	82.69
352.765	78.69
352.992	87.69
353.22	76.69
353.447	84.69
353.674	79.69
353.901	67.69
354.128	86.69
354.355	75.69
354.583	82.69
354.81	79.69
355.037	85.69
355.264	79.69
355.491	83.69
355.718	86.69
355.945	99.69
356.172	72.69
356.399	90.69
356.626	62.69
356.853	77.69
357.08	79.69
357.307	83.69
357.534	90.69
357.761	88.69
357.988	101.69
358.215	89.69
358.441	101.69
358.668	81.69
358.895	72.69
359.122	80.69
359.349	71.69
359.576	94.69
359.802	94.69
360.029	86.69
360.256	98.69
360.483	79.69
360.709	78.69
360.936	84.69
361.163	86.69
361.39	86.69
361.616	63.69
361.843	82.69
362.07	96.69
362.296	88.69
362.523	82.69
362.749	76.69
362.976	86.69
363.203	92.69
363.429	88.69
363.656	78.69
363.882	87.69
364.109	94.69
364.335	98.69
364.562	88.69
364.788	107.69
365.015	92.69
365.241	69.69
365.468	76.69
365.694	72.69
365.92	71.69
366.147	87.69
366.373	92.69
366.599	79.69
366.826	89.69
367.052	75.69
367.278	66.69
367.505	82.69
367.731	92.69
367.957	87.69
368.184	86.69
368.41	80.69
368.636	86.69
368.862	81.69
369.089	82.69
369.315	87.69
369.541	69.69
369.767	76.69
369.993	87.69
370.219	80.69
370.445	90.69
370.672	84.69
370.898	72.69
371.124	69.69
371.35	67.69
371.576	80.69
371.802	82.69
372.028	87.69
372.254	97.69
372.48	84.69
372.706	85.69
372.932	77.69
373.158	83.69
373.384	84.69
373.61	94.69
373.835	95.69
374.061	85.69
374.287	73.69
374.513	82.69
374.739	98.69
374.965	81.69
375.191	68.69
375.416	76.69
375.642	88.69
375.868	96.69
376.094	88.69
376.319	88.69
376.545	86.69
376.771	70.69
376.997	73.69
377.222	68.69
377.448	82.69
377.674	92.69
377.899	81.69
378.125	80.69
378.35	84.69
378.576	88.69
378.802	77.69
379.027	93.69
379.253	80.69
379.478	80.69
379.704	90.69
379.929	81.69
380.155	93.69
380.38	76.69
380.606	68.69
380.831	74.69
381.057	88.69
381.282	82.69
381.507	92.69
381.733	87.69
381.958	77.69
382.184	94.69
382.409	84.69
382.634	90.69
382.86	110.69
383.085	75.69
383.31	81.69
383.535	89.69
383.761	84.69
383.986	87.69
384.211	79.69
384.436	80.69
384.662	93.69
384.887	88.69
385.112	74.69
385.337	78.69
385.562	96.69
385.787	80.69
386.013	90.69
386.238	84.69
386.463	100.69
386.688	90.69
386.913	74.69
387.138	90.69
387.363	83.69
387.588	89.69
387.813	80.69
388.038	87.69
388.263	82.69
388.488	72.69
388.713	87.69
388.938	77.69
389.163	82.69
389.387	80.69
389.612	84.69
389.837	78.69
390.062	87.69
390.287	85.69
390.512	81.69
390.736	86.69
390.961	92.69
391.186	101.69
391.411	90.69
391.636	81.69
391.86	88.69
392.085	93.69
392.31	80.69
392.534	92.69
392.759	92.69
392.984	119.69
393.208	149.69
393.433	230.69
393.658	156.69
393.882	94.69
394.107	106.69
394.331	94.69
394.556	104.69
394.78	95.69
395.005	79.69
395.229	69.69
395.454	72.69
395.678	91.69
395.903	100.69
396.127	95.69
396.352	109.69
396.576	116.69
396.801	162.69
397.025	166.69
397.249	127.69
397.474	99.69
397.698	83.69
397.922	79.69
398.147	87.69
398.371	77.69
398.595	85.69
398.82	97.69
399.044	93.69
399.268	84.69
399.492	82.69
399.717	86.69
399.941	83.69
400.165	90.69
400.389	68.69
400.613	78.69
400.837	73.69
401.062	81.69
401.286	82.69
401.51	73.69
401.734	78.69
401.958	79.69
402.182	88.69
402.406	82.69
402.63	79.69
402.854	81.69
403.078	100.69
403.302	88.69
403.526	82.69
403.75	77.69
403.974	81.69
404.198	85.69
404.422	82.69
404.645	93.69
404.869	85.69
405.093	93.69
405.317	95.69
405.541	104.69
405.765	70.69
405.988	85.69
406.212	81.69
406.436	83.69
406.66	86.69
406.883	85.69
407.107	90.69
407.331	78.69
407.555	90.69
407.778	87.69
408.002	84.69
408.226	75.69
408.449	88.69
408.673	91.69
408.896	79.69
409.12	76.69
409.344	94.69
409.567	81.69
409.791	95.69
410.014	78.69
410.238	75.69
410.461	96.69
410.685	77.69
410.908	85.69
411.132	66.69
411.355	83.69
411.578	93.69
411.802	88.69
412.025	90.69
412.249	80.69
412.472	79.69
412.695	81.69
412.919	79.69
413.142	79.69
413.365	87.69
413.589	85.69
413.812	73.69
414.035	95.69
414.258	87.69
414.482	80.69
414.705	80.69
414.928	97.69
415.151	71.69
415.374	89.69
415.597	98.69
415.821	82.69
416.044	84.69
416.267	83.69
416.49	76.69
416.713	86.69
416.936	75.69
417.159	80.69
417.382	67.69
417.605	62.69
417.828	87.69
418.051	68.69
418.274	83.69
418.497	79.69
418.72	81.69
418.943	86.69
419.166	85.69
419.389	78.69
419.611	80.69
419.834	79.69
420.057	69.69
420.28	84.69
420.503	79.69
420.726	80.69
420.948	75.69
421.171	84.69
421.394	91.69
421.617	88.69
421.839	98.69
422.062	104.69
422.285	114.69
422.507	175.69
422.73	246.69
422.953	246.69
423.175	124.69
423.398	99.69
423.621	93.69
423.843	81.69
424.066	85.69
424.288	91.69
424.511	82.69
424.733	74.69
424.956	87.69
425.178	75.69
425.401	77.69
425.623	93.69
425.846	69.69
426.068	72.69
426.291	88.69
426.513	74.69
426.735	77.69
426.958	82.69
427.18	100.69
427.402	96.69
427.625	87.69
427.847	81.69
428.069	81.69
428.292	100.69
428.514	113.69
428.736	87.69
428.958	99.69
429.181	103.69
429.403	88.69
429.625	80.69
429.847	94.69
430.069	95.69
430.292	123.69
430.514	111.69
430.736	100.69
430.958	99.69
431.18	92.69
431.402	83.69
431.624	81.69
431.846	97.69
432.068	100.69
432.29	86.69
432.512	80.69
432.734	75.69
432.956	85.69
433.178	104.69
433.4	88.69
433.622	94.69
433.844	80.69
434.066	82.69
434.287	75.69
434.509	79.69
434.731	82.69
434.953	72.69
435.175	91.69
435.397	89.69
435.618	75.69
435.84	88.69
436.062	85.69
436.284	83.69
436.505	84.69
436.727	92.69
436.949	76.69
437.17	87.69
437.392	86.69
437.614	65.69
437.835	72.69
438.057	79.69
438.278	88.69
438.5	72.69
438.721	91.69
438.943	78.69
439.165	77.69
439.386	61.69
439.608	79.69
439.829	77.69
440.05	76.69
440.272	86.69
440.493	75.69
440.715	85.69
440.936	94.69
441.158	99.69
441.379	80.69
441.6	93.69
441.822	80.69
442.043	85.69
442.264	99.69
442.486	106.69
442.707	113.69
442.928	104.69
443.149	97.69
443.371	106.69
443.592	158.69
443.813	124.69
444.034	88.69
444.255	79.69
444.476	71.69
444.698	95.69
444.919	81.69
445.14	160.69
445.361	146.69
445.582	177.69
445.803	160.69
446.024	96.69
446.245	86.69
446.466	92.69
446.687	80.69
446.908	76.69
447.129	79.69
447.35	80.69
447.571	85.69
447.792	67.69
448.013	72.69
448.234	93.69
448.455	63.69
448.675	80.69
448.896	80.69
449.117	70.69
449.338	78.69
449.559	83.69
449.779	84.69
450	100.69
450.221	73.69
450.442	71.69
450.662	73.69
450.883	65.69
451.104	72.69
451.324	82.69
451.545	86.69
451.766	75.69
451.986	79.69
452.207	80.69
452.428	77.69
452.648	83.69
452.869	73.69
453.089	84.69
453.31	84.69
453.53	84.69
453.751	66.69
453.971	81.69
454.192	84.69
454.412	92.69
454.633	77.69
454.853	82.69
455.073	87.69
455.294	86.69
455.514	79.69
455.734	92.69
455.955	86.69
456.175	77.69
456.395	83.69
456.616	76.69
456.836	77.69
457.056	82.69
457.276	80.69
457.497	76.69
457.717	96.69
457.937	88.69
458.157	100.69
458.377	92.69
458.598	104.69
458.818	95.69
459.038	84.69
459.258	84.69
459.478	87.69
459.698	79.69
459.918	87.69
460.138	79.69
460.358	78.69
460.578	95.69
460.798	91.69
461.018	99.69
461.238	81.69
461.458	67.69
461.678	82.69
461.898	76.69
462.118	82.69
462.338	78.69
462.558	83.69
462.777	67.69
462.997	82.69
463.217	95.69
463.437	74.69
463.657	76.69
463.876	90.69
464.096	88.69
464.316	78.69
464.536	67.69
464.755	81.69
464.975	94.69
465.195	90.69
465.414	68.69
465.634	78.69
465.854	83.69
466.073	83.69
466.293	72.69
466.512	80.69
466.732	64.69
466.951	78.69
467.171	71.69
467.391	92.69
467.61	80.69
467.829	78.69
468.049	76.69
468.268	90.69
468.488	93.69
468.707	83.69
468.927	87.69
469.146	78.69
469.365	69.69
469.585	66.69
469.804	76.69
470.023	71.69
470.243	80.69
470.462	97.69
470.681	78.69
470.901	79.69
471.12	69.69
471.339	81.69
471.558	76.69
471.777	84.69
471.997	83.69
472.216	91.69
472.435	72.69
472.654	85.69
472.873	84.69
473.092	77.69
473.311	80.69
473.53	82.69
473.749	86.69
473.968	90.69
474.187	73.69
474.406	65.69
474.625	84.69
474.844	84.69
475.063	81.69
475.282	86.69
475.501	70.69
475.72	87.69
475.939	82.69
476.158	58.69
476.377	79.69
476.596	98.69
476.814	76.69
477.033	84.69
477.252	88.69
477.471	84.69
477.69	95.69
477.908	91.69
478.127	68.69
478.346	93.69
478.564	77.69
478.783	68.69
479.002	72.69
479.22	85.69
479.439	84.69
479.658	80.69
479.876	75.69
480.095	79.69
480.313	82.69
480.532	78.69
480.751	92.69
480.969	85.69
481.188	107.69
481.406	93.69
481.624	97.69
481.843	84.69
482.061	75.69
482.28	78.69
482.498	83.69
482.717	86.69
482.935	74.69
483.153	69.69
483.372	85.69
483.59	84.69
483.808	63.69
484.027	78.69
484.245	80.69
484.463	90.69
484.681	76.69
484.9	71.69
485.118	80.69
485.336	82.69
485.554	91.69
485.772	85.69
485.99	79.69
486.209	78.69
486.427	74.69
486.645	90.69
486.863	71.69
487.081	84.69
487.299	86.69
487.517	86.69
487.735	96.69
487.953	99.69
488.171	107.69
488.389	85.69
488.607	88.69
488.825	86.69
489.043	72.69
489.261	88.69
489.479	103.69
489.696	96.69
489.914	86.69
490.132	90.69
490.35	93.69
490.568	83.69
490.786	77.69
491.003	83.69
491.221	78.69
491.439	68.69
491.657	68.69
491.874	73.69
492.092	98.69
492.31	82.69
492.527	83.69
492.745	77.69
492.963	84.69
493.18	99.69
493.398	97.69
493.615	83.69
493.833	78.69
494.05	90.69
494.268	92.69
494.485	83.69
494.703	84.69
494.92	81.69
495.138	86.69
495.355	94.69
495.573	90.69
495.79	71.69
496.008	100.69
496.225	73.69
496.442	108.69
496.66	101.69
496.877	87.69
497.094	94.69
497.312	91.69
497.529	94.69
497.746	99.69
497.963	88.69
498.181	110.69
498.398	93.69
498.615	82.69
498.832	70.69
499.049	91.69
499.267	102.69
499.484	76.69
499.701	84.69
499.918	91.69
500.135	88.69
500.352	85.69
500.569	88.69
500.786	70.69
501.003	86.69
501.22	78.69
501.437	85.69
501.654	91.69
501.871	90.69
502.088	74.69
502.305	83.69
502.522	92.69
502.739	93.69
502.956	100.69
503.172	82.69
503.389	89.69
503.606	94.69
503.823	82.69
504.04	82.69
504.256	95.69
504.473	92.69
504.69	94.69
504.907	92.69
505.123	77.69
505.34	82.69
505.557	87.69
505.773	84.69
505.99	93.69
506.207	81.69
506.423	66.69
506.64	69.69
506.856	82.69
507.073	88.69
507.289	77.69
507.506	83.69
507.722	88.69
507.939	84.69
508.155	85.69
508.372	70.69
508.588	80.69
508.805	84.69
509.021	83.69
509.238	84.69
509.454	79.69
509.67	90.69
509.887	74.69
510.103	86.69
510.319	90.69
510.536	86.69
510.752	88.69
510.968	84.69
511.184	92.69
511.401	87.69
511.617	75.69
511.833	72.69
512.049	84.69
512.265	77.69
512.481	81.69
512.698	87.69
512.914	103.69
513.13	90.69
513.346	94.69
513.562	80.69
513.778	79.69
513.994	84.69
514.21	85.69
514.426	91.69
514.642	72.69
514.858	75.69
515.074	87.69
515.29	95.69
515.506	80.69
515.721	82.69
515.937	97.69
516.153	82.69
516.369	76.69
516.585	91.69
516.801	92.69
517.016	91.69
517.232	86.69
517.448	81.69
517.664	94.69
517.879	79.69
518.095	96.69
518.311	77.69
518.527	88.69
518.742	95.69
518.958	106.69
519.173	123.69
519.389	99.69
