Data from 10100_1_HRD10591_00034.txt Node
Date: Mon Jan 19 14:00:41 EST 2026
User: Yrep
Spectrometer: HR+D1059
Trigger mode: 1
Integration Time (sec): 1.000000E-1
Scans to average: 1
Electric dark correction enabled: true
Nonlinearity correction enabled: false
Boxcar width: 0
XAxis mode: Wavelengths
Number of Pixels in Spectrum: 2048
>>>>>Begin Spectral Data<<<<<
223.165	-23.44
223.4	-23.44
223.635	-23.44
223.869	-28.44
224.104	-28.44
224.338	-10.44
224.573	-6.44
224.808	-11.44
225.042	-4.44
225.277	4.56
225.511	-3.44
225.746	0.56
225.98	5.56
226.215	-1.44
226.449	9.56
226.683	22.56
226.918	27.56
227.152	47.56
227.387	41.56
227.621	36.56
227.856	52.56
228.09	58.56
228.324	48.56
228.559	54.56
228.793	66.56
229.027	64.56
229.262	75.56
229.496	74.56
229.73	59.56
229.964	79.56
230.199	78.56
230.433	72.56
230.667	70.56
230.901	77.56
231.136	85.56
231.37	90.56
231.604	68.56
231.838	70.56
232.072	77.56
232.306	79.56
232.541	87.56
232.775	69.56
233.009	81.56
233.243	82.56
233.477	81.56
233.711	90.56
233.945	85.56
234.179	80.56
234.413	77.56
234.647	77.56
234.881	89.56
235.115	84.56
235.349	78.56
235.583	67.56
235.817	86.56
236.051	80.56
236.285	80.56
236.519	76.56
236.753	99.56
236.987	70.56
237.221	72.56
237.455	83.56
237.689	82.56
237.922	66.56
238.156	60.56
238.39	77.56
238.624	78.56
238.858	83.56
239.091	83.56
239.325	57.56
239.559	82.56
239.793	64.56
240.027	76.56
240.26	64.56
240.494	72.56
240.728	84.56
240.961	88.56
241.195	95.56
241.429	71.56
241.662	74.56
241.896	75.56
242.13	82.56
242.363	87.56
242.597	80.56
242.83	86.56
243.064	72.56
243.298	82.56
243.531	82.56
243.765	79.56
243.998	82.56
244.232	83.56
244.465	80.56
244.699	83.56
244.932	74.56
245.166	82.56
245.399	87.56
245.633	70.56
245.866	70.56
246.099	93.56
246.333	76.56
246.566	75.56
246.8	95.56
247.033	82.56
247.266	90.56
247.5	70.56
247.733	86.56
247.966	82.56
248.2	86.56
248.433	94.56
248.666	73.56
248.899	81.56
249.133	87.56
249.366	79.56
249.599	89.56
249.832	83.56
250.066	79.56
250.299	79.56
250.532	79.56
250.765	90.56
250.998	86.56
251.231	84.56
251.465	74.56
251.698	77.56
251.931	79.56
252.164	74.56
252.397	72.56
252.63	87.56
252.863	70.56
253.096	78.56
253.329	88.56
253.562	76.56
253.795	75.56
254.028	85.56
254.261	71.56
254.494	71.56
254.727	81.56
254.96	66.56
255.193	78.56
255.426	83.56
255.659	89.56
255.892	102.56
256.124	84.56
256.357	83.56
256.59	70.56
256.823	69.56
257.056	80.56
257.289	85.56
257.521	93.56
257.754	83.56
257.987	96.56
258.22	96.56
258.452	94.56
258.685	79.56
258.918	74.56
259.151	85.56
259.383	82.56
259.616	82.56
259.849	74.56
260.081	75.56
260.314	74.56
260.547	92.56
260.779	84.56
261.012	84.56
261.244	67.56
261.477	86.56
261.71	88.56
261.942	87.56
262.175	96.56
262.407	66.56
262.64	86.56
262.872	88.56
263.105	86.56
263.337	85.56
263.57	85.56
263.802	73.56
264.035	81.56
264.267	80.56
264.499	85.56
264.732	77.56
264.964	86.56
265.197	74.56
265.429	82.56
265.661	87.56
265.894	87.56
266.126	88.56
266.358	74.56
266.591	81.56
266.823	87.56
267.055	78.56
267.287	82.56
267.52	81.56
267.752	88.56
267.984	72.56
268.216	82.56
268.448	93.56
268.681	90.56
268.913	82.56
269.145	73.56
269.377	96.56
269.609	97.56
269.841	84.56
270.073	82.56
270.306	87.56
270.538	79.56
270.77	82.56
271.002	96.56
271.234	68.56
271.466	78.56
271.698	90.56
271.93	80.56
272.162	87.56
272.394	85.56
272.626	91.56
272.858	77.56
273.09	83.56
273.322	86.56
273.553	72.56
273.785	76.56
274.017	90.56
274.249	100.56
274.481	79.56
274.713	83.56
274.945	87.56
275.176	99.56
275.408	89.56
275.64	81.56
275.872	83.56
276.104	77.56
276.335	95.56
276.567	85.56
276.799	71.56
277.031	89.56
277.262	82.56
277.494	93.56
277.726	87.56
277.957	91.56
278.189	93.56
278.421	79.56
278.652	81.56
278.884	94.56
279.115	90.56
279.347	84.56
279.579	86.56
279.81	81.56
280.042	83.56
280.273	73.56
280.505	97.56
280.736	75.56
280.968	93.56
281.199	93.56
281.431	94.56
281.662	91.56
281.894	89.56
282.125	77.56
282.356	82.56
282.588	87.56
282.819	99.56
283.051	83.56
283.282	89.56
283.513	74.56
283.745	70.56
283.976	82.56
284.207	90.56
284.439	81.56
284.67	80.56
284.901	90.56
285.132	86.56
285.364	90.56
285.595	86.56
285.826	81.56
286.057	81.56
286.288	82.56
286.52	94.56
286.751	96.56
286.982	91.56
287.213	71.56
287.444	74.56
287.675	72.56
287.906	88.56
288.138	94.56
288.369	79.56
288.6	84.56
288.831	88.56
289.062	86.56
289.293	87.56
289.524	84.56
289.755	81.56
289.986	81.56
290.217	97.56
290.448	79.56
290.679	71.56
290.91	82.56
291.141	86.56
291.371	84.56
291.602	86.56
291.833	85.56
292.064	82.56
292.295	83.56
292.526	78.56
292.757	89.56
292.987	86.56
293.218	91.56
293.449	85.56
293.68	86.56
293.91	77.56
294.141	81.56
294.372	89.56
294.603	82.56
294.833	91.56
295.064	92.56
295.295	96.56
295.525	93.56
295.756	87.56
295.987	86.56
296.217	84.56
296.448	94.56
296.679	93.56
296.909	84.56
297.14	82.56
297.37	90.56
297.601	97.56
297.831	92.56
298.062	89.56
298.292	98.56
298.523	79.56
298.753	81.56
298.984	95.56
299.214	81.56
299.445	90.56
299.675	86.56
299.905	89.56
300.136	87.56
300.366	95.56
300.597	94.56
300.827	87.56
301.057	96.56
301.288	84.56
301.518	96.56
301.748	84.56
301.979	107.56
302.209	95.56
302.439	76.56
302.669	96.56
302.9	82.56
303.13	79.56
303.36	98.56
303.59	80.56
303.82	75.56
304.051	98.56
304.281	83.56
304.511	72.56
304.741	100.56
304.971	92.56
305.201	78.56
305.431	84.56
305.661	84.56
305.891	89.56
306.121	98.56
306.352	96.56
306.582	73.56
306.812	86.56
307.042	100.56
307.272	100.56
307.502	90.56
307.731	101.56
307.961	91.56
308.191	98.56
308.421	85.56
308.651	99.56
308.881	93.56
309.111	98.56
309.341	106.56
309.571	108.56
309.8	92.56
310.03	74.56
310.26	75.56
310.49	79.56
310.72	100.56
310.949	90.56
311.179	81.56
311.409	90.56
311.639	89.56
311.868	76.56
312.098	88.56
312.328	93.56
312.557	84.56
312.787	92.56
313.017	100.56
313.246	80.56
313.476	74.56
313.706	89.56
313.935	95.56
314.165	82.56
314.394	90.56
314.624	81.56
314.853	87.56
315.083	64.56
315.312	95.56
315.542	100.56
315.771	97.56
316.001	110.56
316.23	85.56
316.46	96.56
316.689	89.56
316.919	91.56
317.148	91.56
317.377	99.56
317.607	94.56
317.836	104.56
318.065	108.56
318.295	101.56
318.524	104.56
318.753	97.56
318.983	88.56
319.212	101.56
319.441	97.56
319.67	82.56
319.9	86.56
320.129	88.56
320.358	95.56
320.587	84.56
320.816	101.56
321.046	87.56
321.275	83.56
321.504	98.56
321.733	91.56
321.962	97.56
322.191	97.56
322.42	79.56
322.649	87.56
322.878	102.56
323.108	103.56
323.337	89.56
323.566	81.56
323.795	98.56
324.024	107.56
324.253	101.56
324.482	96.56
324.71	80.56
324.939	86.56
325.168	84.56
325.397	82.56
325.626	90.56
325.855	74.56
326.084	85.56
326.313	83.56
326.542	81.56
326.77	96.56
326.999	78.56
327.228	96.56
327.457	76.56
327.686	81.56
327.914	92.56
328.143	90.56
328.372	85.56
328.6	86.56
328.829	80.56
329.058	88.56
329.287	78.56
329.515	88.56
329.744	94.56
329.972	80.56
330.201	92.56
330.43	79.56
330.658	82.56
330.887	90.56
331.115	95.56
331.344	91.56
331.572	100.56
331.801	66.56
332.03	79.56
332.258	96.56
332.486	84.56
332.715	90.56
332.943	103.56
333.172	94.56
333.4	92.56
333.629	89.56
333.857	88.56
334.085	89.56
334.314	93.56
334.542	100.56
334.771	109.56
334.999	97.56
335.227	91.56
335.455	78.56
335.684	83.56
335.912	89.56
336.14	98.56
336.369	105.56
336.597	97.56
336.825	83.56
337.053	87.56
337.281	90.56
337.51	74.56
337.738	95.56
337.966	82.56
338.194	80.56
338.422	93.56
338.65	93.56
338.878	94.56
339.106	91.56
339.334	88.56
339.562	85.56
339.79	73.56
340.018	97.56
340.246	96.56
340.474	78.56
340.702	79.56
340.93	89.56
341.158	94.56
341.386	90.56
341.614	92.56
341.842	79.56
342.07	75.56
342.298	84.56
342.526	89.56
342.754	83.56
342.981	96.56
343.209	87.56
343.437	98.56
343.665	80.56
343.893	84.56
344.12	100.56
344.348	96.56
344.576	85.56
344.804	85.56
345.031	88.56
345.259	83.56
345.487	80.56
345.714	87.56
345.942	92.56
346.17	82.56
346.397	91.56
346.625	71.56
346.853	88.56
347.08	85.56
347.308	84.56
347.535	81.56
347.763	86.56
347.99	89.56
348.218	95.56
348.445	84.56
348.673	82.56
348.9	102.56
349.128	91.56
349.355	87.56
349.583	93.56
349.81	92.56
350.037	96.56
350.265	93.56
350.492	95.56
350.72	85.56
350.947	83.56
351.174	92.56
351.402	90.56
351.629	96.56
351.856	87.56
352.083	79.56
352.311	89.56
352.538	85.56
352.765	100.56
352.992	98.56
353.22	98.56
353.447	92.56
353.674	84.56
353.901	82.56
354.128	86.56
354.355	80.56
354.583	77.56
354.81	96.56
355.037	87.56
355.264	89.56
355.491	86.56
355.718	87.56
355.945	92.56
356.172	84.56
356.399	84.56
356.626	87.56
356.853	88.56
357.08	94.56
357.307	99.56
357.534	93.56
357.761	91.56
357.988	104.56
358.215	99.56
358.441	110.56
358.668	95.56
358.895	95.56
359.122	87.56
359.349	78.56
359.576	78.56
359.802	78.56
360.029	89.56
360.256	94.56
360.483	86.56
360.709	88.56
360.936	93.56
361.163	85.56
361.39	79.56
361.616	99.56
361.843	89.56
362.07	94.56
362.296	104.56
362.523	107.56
362.749	107.56
362.976	116.56
363.203	125.56
363.429	96.56
363.656	82.56
363.882	97.56
364.109	117.56
364.335	126.56
364.562	143.56
364.788	105.56
365.015	96.56
365.241	83.56
365.468	88.56
365.694	83.56
365.92	98.56
366.147	96.56
366.373	86.56
366.599	77.56
366.826	84.56
367.052	87.56
367.278	96.56
367.505	91.56
367.731	89.56
367.957	102.56
368.184	89.56
368.41	71.56
368.636	105.56
368.862	94.56
369.089	92.56
369.315	84.56
369.541	75.56
369.767	82.56
369.993	102.56
370.219	105.56
370.445	91.56
370.672	95.56
370.898	90.56
371.124	83.56
371.35	85.56
371.576	82.56
371.802	87.56
372.028	107.56
372.254	89.56
372.48	82.56
372.706	84.56
372.932	87.56
373.158	84.56
373.384	112.56
373.61	124.56
373.835	127.56
374.061	90.56
374.287	82.56
374.513	99.56
374.739	95.56
374.965	98.56
375.191	105.56
375.416	105.56
375.642	95.56
375.868	87.56
376.094	103.56
376.319	96.56
376.545	91.56
376.771	90.56
376.997	92.56
377.222	92.56
377.448	91.56
377.674	88.56
377.899	85.56
378.125	80.56
378.35	80.56
378.576	87.56
378.802	84.56
379.027	96.56
379.253	101.56
379.478	94.56
379.704	85.56
379.929	81.56
380.155	89.56
380.38	84.56
380.606	85.56
380.831	98.56
381.057	97.56
381.282	99.56
381.507	94.56
381.733	91.56
381.958	111.56
382.184	111.56
382.409	89.56
382.634	112.56
382.86	104.56
383.085	119.56
383.31	95.56
383.535	117.56
383.761	107.56
383.986	96.56
384.211	127.56
384.436	101.56
384.662	96.56
384.887	92.56
385.112	100.56
385.337	95.56
385.562	99.56
385.787	94.56
386.013	105.56
386.238	105.56
386.463	98.56
386.688	94.56
386.913	86.56
387.138	116.56
387.363	103.56
387.588	90.56
387.813	87.56
388.038	110.56
388.263	103.56
388.488	96.56
388.713	106.56
388.938	96.56
389.163	90.56
389.387	95.56
389.612	98.56
389.837	79.56
390.062	98.56
390.287	87.56
390.512	100.56
390.736	88.56
390.961	88.56
391.186	100.56
391.411	85.56
391.636	72.56
391.86	96.56
392.085	80.56
392.31	95.56
392.534	95.56
392.759	128.56
392.984	175.56
393.208	305.56
393.433	486.56
393.658	374.56
393.882	164.56
394.107	118.56
394.331	120.56
394.556	137.56
394.78	110.56
395.005	110.56
395.229	105.56
395.454	103.56
395.678	113.56
395.903	118.56
396.127	145.56
396.352	172.56
396.576	217.56
396.801	323.56
397.025	399.56
397.249	211.56
397.474	140.56
397.698	106.56
397.922	97.56
398.147	82.56
398.371	94.56
398.595	90.56
398.82	94.56
399.044	90.56
399.268	97.56
399.492	82.56
399.717	88.56
399.941	98.56
400.165	88.56
400.389	75.56
400.613	97.56
400.837	71.56
401.062	84.56
401.286	76.56
401.51	83.56
401.734	101.56
401.958	80.56
402.182	91.56
402.406	88.56
402.63	68.56
402.854	86.56
403.078	97.56
403.302	89.56
403.526	90.56
403.75	88.56
403.974	102.56
404.198	83.56
404.422	90.56
404.645	83.56
404.869	99.56
405.093	90.56
405.317	84.56
405.541	92.56
405.765	86.56
405.988	97.56
406.212	103.56
406.436	86.56
406.66	81.56
406.883	100.56
407.107	88.56
407.331	104.56
407.555	87.56
407.778	121.56
408.002	107.56
408.226	88.56
408.449	96.56
408.673	93.56
408.896	98.56
409.12	94.56
409.344	93.56
409.567	97.56
409.791	102.56
410.014	96.56
410.238	93.56
410.461	95.56
410.685	82.56
410.908	79.56
411.132	91.56
411.355	85.56
411.578	83.56
411.802	80.56
412.025	71.56
412.249	79.56
412.472	82.56
412.695	90.56
412.919	100.56
413.142	99.56
413.365	95.56
413.589	86.56
413.812	72.56
414.035	78.56
414.258	80.56
414.482	97.56
414.705	91.56
414.928	91.56
415.151	91.56
415.374	94.56
415.597	81.56
415.821	92.56
416.044	98.56
416.267	99.56
416.49	99.56
416.713	86.56
416.936	91.56
417.159	79.56
417.382	80.56
417.605	87.56
417.828	76.56
418.051	90.56
418.274	107.56
418.497	90.56
418.72	91.56
418.943	97.56
419.166	84.56
419.389	80.56
419.611	80.56
419.834	102.56
420.057	94.56
420.28	91.56
420.503	82.56
420.726	89.56
420.948	85.56
421.171	82.56
421.394	104.56
421.617	122.56
421.839	137.56
422.062	139.56
422.285	187.56
422.507	364.56
422.73	571.56
422.953	520.56
423.175	260.56
423.398	143.56
423.621	119.56
423.843	111.56
424.066	89.56
424.288	104.56
424.511	94.56
424.733	79.56
424.956	111.56
425.178	80.56
425.401	91.56
425.623	100.56
425.846	89.56
426.068	100.56
426.291	90.56
426.513	98.56
426.735	86.56
426.958	90.56
427.18	88.56
427.402	97.56
427.625	102.56
427.847	88.56
428.069	96.56
428.292	151.56
428.514	153.56
428.736	136.56
428.958	141.56
429.181	158.56
429.403	114.56
429.625	114.56
429.847	123.56
430.069	176.56
430.292	218.56
430.514	205.56
430.736	149.56
430.958	161.56
431.18	125.56
431.402	100.56
431.624	108.56
431.846	135.56
432.068	151.56
432.29	100.56
432.512	78.56
432.734	92.56
432.956	94.56
433.178	94.56
433.4	95.56
433.622	95.56
433.844	83.56
434.066	88.56
434.287	90.56
434.509	80.56
434.731	86.56
434.953	74.56
435.175	87.56
435.397	87.56
435.618	94.56
435.84	95.56
436.062	96.56
436.284	97.56
436.505	77.56
436.727	82.56
436.949	92.56
437.17	87.56
437.392	90.56
437.614	91.56
437.835	98.56
438.057	90.56
438.278	90.56
438.5	95.56
438.721	94.56
438.943	93.56
439.165	73.56
439.386	75.56
439.608	95.56
439.829	88.56
440.05	74.56
440.272	84.56
440.493	96.56
440.715	93.56
440.936	100.56
441.158	84.56
441.379	81.56
441.6	70.56
441.822	92.56
442.043	94.56
442.264	98.56
442.486	160.56
442.707	178.56
442.928	137.56
443.149	114.56
443.371	180.56
443.592	304.56
443.813	257.56
444.034	118.56
444.255	83.56
444.476	96.56
444.698	84.56
444.919	103.56
445.14	163.56
445.361	218.56
445.582	358.56
445.803	315.56
446.024	130.56
446.245	102.56
446.466	82.56
446.687	99.56
446.908	90.56
447.129	80.56
447.35	93.56
447.571	89.56
447.792	87.56
448.013	84.56
448.234	88.56
448.455	88.56
448.675	77.56
448.896	94.56
449.117	86.56
449.338	94.56
449.559	85.56
449.779	87.56
450	83.56
450.221	85.56
450.442	92.56
450.662	74.56
450.883	79.56
451.104	84.56
451.324	98.56
451.545	92.56
451.766	90.56
451.986	88.56
452.207	96.56
452.428	93.56
452.648	103.56
452.869	99.56
453.089	106.56
453.31	82.56
453.53	85.56
453.751	97.56
453.971	95.56
454.192	81.56
454.412	90.56
454.633	90.56
454.853	85.56
455.073	80.56
455.294	90.56
455.514	91.56
455.734	96.56
455.955	98.56
456.175	89.56
456.395	106.56
456.616	83.56
456.836	93.56
457.056	87.56
457.276	100.56
457.497	91.56
457.717	99.56
457.937	127.56
458.157	129.56
458.377	130.56
458.598	135.56
458.818	149.56
459.038	99.56
459.258	77.56
459.478	90.56
459.698	83.56
459.918	81.56
460.138	76.56
460.358	98.56
460.578	102.56
460.798	122.56
461.018	134.56
461.238	107.56
461.458	92.56
461.678	90.56
461.898	83.56
462.118	92.56
462.338	80.56
462.558	94.56
462.777	78.56
462.997	91.56
463.217	89.56
463.437	88.56
463.657	79.56
463.876	86.56
464.096	89.56
464.316	86.56
464.536	99.56
464.755	84.56
464.975	87.56
465.195	75.56
465.414	91.56
465.634	94.56
465.854	97.56
466.073	94.56
466.293	98.56
466.512	66.56
466.732	79.56
466.951	80.56
467.171	79.56
467.391	88.56
467.61	101.56
467.829	83.56
468.049	90.56
468.268	84.56
468.488	100.56
468.707	85.56
468.927	90.56
469.146	77.56
469.365	88.56
469.585	89.56
469.804	88.56
470.023	87.56
470.243	90.56
470.462	84.56
470.681	100.56
470.901	86.56
471.12	90.56
471.339	87.56
471.558	98.56
471.777	83.56
471.997	85.56
472.216	102.56
472.435	92.56
472.654	88.56
472.873	89.56
473.092	79.56
473.311	85.56
473.53	97.56
473.749	78.56
473.968	94.56
474.187	92.56
474.406	107.56
474.625	88.56
474.844	97.56
475.063	86.56
475.282	90.56
475.501	96.56
475.72	83.56
475.939	101.56
476.158	92.56
476.377	86.56
476.596	76.56
476.814	84.56
477.033	90.56
477.252	88.56
477.471	95.56
477.69	88.56
477.908	94.56
478.127	86.56
478.346	81.56
478.564	86.56
478.783	86.56
479.002	91.56
479.22	85.56
479.439	91.56
479.658	99.56
479.876	91.56
480.095	90.56
480.313	91.56
480.532	87.56
480.751	91.56
480.969	99.56
481.188	98.56
481.406	103.56
481.624	87.56
481.843	96.56
482.061	104.56
482.28	95.56
482.498	95.56
482.717	98.56
482.935	80.56
483.153	84.56
483.372	104.56
483.59	99.56
483.808	88.56
484.027	102.56
484.245	79.56
484.463	97.56
484.681	80.56
484.9	83.56
485.118	90.56
485.336	87.56
485.554	89.56
485.772	83.56
485.99	82.56
486.209	94.56
486.427	95.56
486.645	106.56
486.863	86.56
487.081	84.56
487.299	90.56
487.517	104.56
487.735	140.56
487.953	192.56
488.171	153.56
488.389	100.56
488.607	99.56
488.825	92.56
489.043	91.56
489.261	87.56
489.479	90.56
489.696	93.56
489.914	98.56
490.132	92.56
490.35	110.56
490.568	89.56
490.786	86.56
491.003	96.56
491.221	103.56
491.439	85.56
491.657	84.56
491.874	95.56
492.092	86.56
492.31	99.56
492.527	81.56
492.745	93.56
492.963	93.56
493.18	93.56
493.398	105.56
493.615	108.56
493.833	98.56
494.05	91.56
494.268	101.56
494.485	97.56
494.703	74.56
494.92	94.56
495.138	94.56
495.355	88.56
495.573	94.56
495.79	96.56
496.008	90.56
496.225	84.56
496.442	98.56
496.66	90.56
496.877	98.56
497.094	94.56
497.312	86.56
497.529	100.56
497.746	93.56
497.963	90.56
498.181	96.56
498.398	128.56
498.615	101.56
498.832	88.56
499.049	110.56
499.267	113.56
499.484	101.56
499.701	99.56
499.918	102.56
500.135	103.56
500.352	106.56
500.569	88.56
500.786	95.56
501.003	99.56
501.22	94.56
501.437	92.56
501.654	97.56
501.871	97.56
502.088	91.56
502.305	96.56
502.522	101.56
502.739	99.56
502.956	94.56
503.172	86.56
503.389	84.56
503.606	104.56
503.823	94.56
504.04	120.56
504.256	155.56
504.473	142.56
504.69	96.56
504.907	92.56
505.123	83.56
505.34	96.56
505.557	87.56
505.773	82.56
505.99	96.56
506.207	107.56
506.423	90.56
506.64	98.56
506.856	98.56
507.073	111.56
507.289	89.56
507.506	90.56
507.722	86.56
507.939	97.56
508.155	101.56
508.372	112.56
508.588	86.56
508.805	95.56
509.021	86.56
509.238	100.56
509.454	94.56
509.67	95.56
509.887	96.56
510.103	91.56
510.319	86.56
510.536	82.56
510.752	87.56
510.968	85.56
511.184	85.56
511.401	99.56
511.617	84.56
511.833	89.56
512.049	94.56
512.265	90.56
512.481	98.56
512.698	93.56
512.914	87.56
513.13	106.56
513.346	108.56
513.562	99.56
513.778	105.56
513.994	98.56
514.21	77.56
514.426	102.56
514.642	89.56
514.858	102.56
515.074	74.56
515.29	99.56
515.506	100.56
515.721	102.56
515.937	94.56
516.153	79.56
516.369	89.56
516.585	99.56
516.801	96.56
517.016	90.56
517.232	102.56
