Data from 10100_1_HRD10591_00004.txt Node
Date: Mon Jan 19 14:00:26 EST 2026
User: Yrep
Spectrometer: HR+D1059
Trigger mode: 1
Integration Time (sec): 1.000000E-1
Scans to average: 1
Electric dark correction enabled: true
Nonlinearity correction enabled: false
Boxcar width: 0
XAxis mode: Wavelengths
Number of Pixels in Spectrum: 2048
>>>>>Begin Spectral Data<<<<<
223.165	-24.06
223.4	-24.06
223.635	-24.06
223.869	-22.06
224.104	-11.06
224.338	-10.06
224.573	-11.06
224.808	-16.06
225.042	-9.06
225.277	-10.06
225.511	-5.06
225.746	1.94
225.98	10.94
226.215	15.94
226.449	23.94
226.683	18.94
226.918	18.94
227.152	27.94
227.387	29.94
227.621	19.94
227.856	42.94
228.09	42.94
228.324	58.94
228.559	60.94
228.793	65.94
229.027	60.94
229.262	66.94
229.496	56.94
229.73	69.94
229.964	78.94
230.199	74.94
230.433	78.94
230.667	68.94
230.901	70.94
231.136	71.94
231.37	71.94
231.604	78.94
231.838	85.94
232.072	82.94
232.306	71.94
232.541	79.94
232.775	75.94
233.009	84.94
233.243	84.94
233.477	68.94
233.711	96.94
233.945	84.94
234.179	77.94
234.413	79.94
234.647	78.94
234.881	95.94
235.115	70.94
235.349	78.94
235.583	79.94
235.817	76.94
236.051	62.94
236.285	64.94
236.519	86.94
236.753	80.94
236.987	69.94
237.221	69.94
237.455	74.94
237.689	76.94
237.922	73.94
238.156	68.94
238.39	72.94
238.624	62.94
238.858	67.94
239.091	80.94
239.325	76.94
239.559	66.94
239.793	72.94
240.027	84.94
240.26	63.94
240.494	67.94
240.728	68.94
240.961	62.94
241.195	70.94
241.429	76.94
241.662	65.94
241.896	72.94
242.13	82.94
242.363	71.94
242.597	78.94
242.83	75.94
243.064	62.94
243.298	72.94
243.531	79.94
243.765	67.94
243.998	70.94
244.232	78.94
244.465	72.94
244.699	77.94
244.932	87.94
245.166	74.94
245.399	67.94
245.633	92.94
245.866	88.94
246.099	67.94
246.333	72.94
246.566	61.94
246.8	85.94
247.033	75.94
247.266	70.94
247.5	67.94
247.733	86.94
247.966	69.94
248.2	86.94
248.433	71.94
248.666	71.94
248.899	70.94
249.133	94.94
249.366	80.94
249.599	71.94
249.832	80.94
250.066	84.94
250.299	76.94
250.532	62.94
250.765	68.94
250.998	80.94
251.231	87.94
251.465	80.94
251.698	79.94
251.931	80.94
252.164	88.94
252.397	73.94
252.63	88.94
252.863	68.94
253.096	80.94
253.329	86.94
253.562	63.94
253.795	73.94
254.028	77.94
254.261	73.94
254.494	85.94
254.727	76.94
254.96	86.94
255.193	76.94
255.426	77.94
255.659	77.94
255.892	95.94
256.124	86.94
256.357	78.94
256.59	70.94
256.823	71.94
257.056	79.94
257.289	78.94
257.521	84.94
257.754	75.94
257.987	86.94
258.22	79.94
258.452	60.94
258.685	69.94
258.918	74.94
259.151	84.94
259.383	69.94
259.616	69.94
259.849	92.94
260.081	76.94
260.314	88.94
260.547	76.94
260.779	73.94
261.012	81.94
261.244	74.94
261.477	80.94
261.71	66.94
261.942	80.94
262.175	77.94
262.407	93.94
262.64	67.94
262.872	82.94
263.105	77.94
263.337	86.94
263.57	79.94
263.802	82.94
264.035	76.94
264.267	83.94
264.499	77.94
264.732	87.94
264.964	86.94
265.197	69.94
265.429	68.94
265.661	82.94
265.894	82.94
266.126	79.94
266.358	84.94
266.591	75.94
266.823	78.94
267.055	81.94
267.287	84.94
267.52	82.94
267.752	83.94
267.984	69.94
268.216	82.94
268.448	76.94
268.681	88.94
268.913	97.94
269.145	90.94
269.377	70.94
269.609	90.94
269.841	80.94
270.073	72.94
270.306	66.94
270.538	95.94
270.77	82.94
271.002	90.94
271.234	80.94
271.466	82.94
271.698	71.94
271.93	72.94
272.162	89.94
272.394	90.94
272.626	82.94
272.858	75.94
273.09	83.94
273.322	87.94
273.553	73.94
273.785	66.94
274.017	92.94
274.249	83.94
274.481	86.94
274.713	72.94
274.945	104.94
275.176	86.94
275.408	88.94
275.64	72.94
275.872	84.94
276.104	78.94
276.335	85.94
276.567	80.94
276.799	83.94
277.031	84.94
277.262	81.94
277.494	90.94
277.726	91.94
277.957	93.94
278.189	64.94
278.421	94.94
278.652	78.94
278.884	84.94
279.115	89.94
279.347	87.94
279.579	84.94
279.81	78.94
280.042	67.94
280.273	76.94
280.505	72.94
280.736	67.94
280.968	81.94
281.199	83.94
281.431	80.94
281.662	88.94
281.894	71.94
282.125	85.94
282.356	88.94
282.588	81.94
282.819	86.94
283.051	96.94
283.282	79.94
283.513	82.94
283.745	88.94
283.976	86.94
284.207	85.94
284.439	83.94
284.67	78.94
284.901	78.94
285.132	80.94
285.364	94.94
285.595	88.94
285.826	78.94
286.057	80.94
286.288	75.94
286.52	85.94
286.751	82.94
286.982	87.94
287.213	72.94
287.444	75.94
287.675	58.94
287.906	81.94
288.138	78.94
288.369	76.94
288.6	78.94
288.831	76.94
289.062	87.94
289.293	79.94
289.524	82.94
289.755	68.94
289.986	83.94
290.217	79.94
290.448	79.94
290.679	76.94
290.91	83.94
291.141	85.94
291.371	92.94
291.602	79.94
291.833	89.94
292.064	79.94
292.295	95.94
292.526	78.94
292.757	84.94
292.987	88.94
293.218	68.94
293.449	84.94
293.68	95.94
293.91	92.94
294.141	92.94
294.372	87.94
294.603	88.94
294.833	86.94
295.064	82.94
295.295	73.94
295.525	80.94
295.756	84.94
295.987	84.94
296.217	82.94
296.448	79.94
296.679	88.94
296.909	80.94
297.14	88.94
297.37	85.94
297.601	76.94
297.831	86.94
298.062	85.94
298.292	82.94
298.523	93.94
298.753	90.94
298.984	88.94
299.214	86.94
299.445	78.94
299.675	95.94
299.905	88.94
300.136	86.94
300.366	88.94
300.597	103.94
300.827	87.94
301.057	85.94
301.288	67.94
301.518	73.94
301.748	77.94
301.979	91.94
302.209	91.94
302.439	74.94
302.669	88.94
302.9	106.94
303.13	78.94
303.36	80.94
303.59	72.94
303.82	84.94
304.051	86.94
304.281	85.94
304.511	83.94
304.741	84.94
304.971	85.94
305.201	84.94
305.431	79.94
305.661	80.94
305.891	94.94
306.121	79.94
306.352	80.94
306.582	83.94
306.812	84.94
307.042	83.94
307.272	93.94
307.502	73.94
307.731	88.94
307.961	70.94
308.191	82.94
308.421	95.94
308.651	86.94
308.881	94.94
309.111	95.94
309.341	97.94
309.571	95.94
309.8	85.94
310.03	82.94
310.26	81.94
310.49	85.94
310.72	87.94
310.949	81.94
311.179	85.94
311.409	80.94
311.639	76.94
311.868	84.94
312.098	81.94
312.328	88.94
312.557	84.94
312.787	70.94
313.017	83.94
313.246	76.94
313.476	77.94
313.706	70.94
313.935	88.94
314.165	74.94
314.394	92.94
314.624	85.94
314.853	85.94
315.083	83.94
315.312	95.94
315.542	80.94
315.771	92.94
316.001	94.94
316.23	88.94
316.46	84.94
316.689	100.94
316.919	88.94
317.148	86.94
317.377	85.94
317.607	67.94
317.836	93.94
318.065	104.94
318.295	89.94
318.524	82.94
318.753	83.94
318.983	93.94
319.212	90.94
319.441	72.94
319.67	75.94
319.9	87.94
320.129	97.94
320.358	73.94
320.587	75.94
320.816	84.94
321.046	83.94
321.275	98.94
321.504	88.94
321.733	94.94
321.962	79.94
322.191	83.94
322.42	100.94
322.649	92.94
322.878	79.94
323.108	85.94
323.337	90.94
323.566	88.94
323.795	70.94
324.024	82.94
324.253	68.94
324.482	92.94
324.71	82.94
324.939	91.94
325.168	93.94
325.397	84.94
325.626	77.94
325.855	82.94
326.084	67.94
326.313	83.94
326.542	71.94
326.77	84.94
326.999	99.94
327.228	81.94
327.457	80.94
327.686	90.94
327.914	85.94
328.143	84.94
328.372	85.94
328.6	73.94
328.829	95.94
329.058	75.94
329.287	86.94
329.515	85.94
329.744	79.94
329.972	93.94
330.201	96.94
330.43	99.94
330.658	69.94
330.887	78.94
331.115	78.94
331.344	81.94
331.572	96.94
331.801	85.94
332.03	72.94
332.258	95.94
332.486	76.94
332.715	72.94
332.943	95.94
333.172	98.94
333.4	76.94
333.629	86.94
333.857	81.94
334.085	80.94
334.314	83.94
334.542	96.94
334.771	99.94
334.999	99.94
335.227	93.94
335.455	94.94
335.684	103.94
335.912	107.94
336.14	92.94
336.369	99.94
336.597	86.94
336.825	75.94
337.053	91.94
337.281	98.94
337.51	76.94
337.738	90.94
337.966	80.94
338.194	83.94
338.422	79.94
338.65	90.94
338.878	78.94
339.106	80.94
339.334	79.94
339.562	81.94
339.79	81.94
340.018	84.94
340.246	82.94
340.474	82.94
340.702	84.94
340.93	80.94
341.158	80.94
341.386	78.94
341.614	80.94
341.842	83.94
342.07	77.94
342.298	88.94
342.526	80.94
342.754	91.94
342.981	72.94
343.209	86.94
343.437	96.94
343.665	76.94
343.893	97.94
344.12	91.94
344.348	82.94
344.576	86.94
344.804	83.94
345.031	82.94
345.259	90.94
345.487	80.94
345.714	78.94
345.942	75.94
346.17	76.94
346.397	87.94
346.625	82.94
346.853	84.94
347.08	84.94
347.308	91.94
347.535	82.94
347.763	84.94
347.99	103.94
348.218	95.94
348.445	94.94
348.673	82.94
348.9	80.94
349.128	92.94
349.355	91.94
349.583	79.94
349.81	83.94
350.037	79.94
350.265	92.94
350.492	71.94
350.72	93.94
350.947	78.94
351.174	87.94
351.402	86.94
351.629	79.94
351.856	79.94
352.083	89.94
352.311	83.94
352.538	76.94
352.765	76.94
352.992	91.94
353.22	75.94
353.447	89.94
353.674	100.94
353.901	91.94
354.128	71.94
354.355	93.94
354.583	100.94
354.81	85.94
355.037	90.94
355.264	100.94
355.491	92.94
355.718	80.94
355.945	80.94
356.172	92.94
356.399	95.94
356.626	86.94
356.853	93.94
357.08	97.94
357.307	92.94
357.534	96.94
357.761	89.94
357.988	97.94
358.215	114.94
358.441	93.94
358.668	85.94
358.895	84.94
359.122	84.94
359.349	78.94
359.576	88.94
359.802	82.94
360.029	83.94
360.256	84.94
360.483	91.94
360.709	78.94
360.936	101.94
361.163	93.94
361.39	85.94
361.616	84.94
361.843	98.94
362.07	90.94
362.296	117.94
362.523	115.94
362.749	113.94
362.976	124.94
363.203	139.94
363.429	122.94
363.656	93.94
363.882	93.94
364.109	119.94
364.335	148.94
364.562	160.94
364.788	129.94
365.015	119.94
365.241	95.94
365.468	91.94
365.694	78.94
365.92	83.94
366.147	90.94
366.373	76.94
366.599	76.94
366.826	98.94
367.052	77.94
367.278	90.94
367.505	78.94
367.731	96.94
367.957	102.94
368.184	101.94
368.41	85.94
368.636	94.94
368.862	90.94
369.089	88.94
369.315	84.94
369.541	95.94
369.767	78.94
369.993	90.94
370.219	90.94
370.445	96.94
370.672	88.94
370.898	86.94
371.124	96.94
371.35	77.94
371.576	80.94
371.802	83.94
372.028	110.94
372.254	100.94
372.48	89.94
372.706	87.94
372.932	97.94
373.158	103.94
373.384	108.94
373.61	112.94
373.835	98.94
374.061	79.94
374.287	96.94
374.513	94.94
374.739	125.94
374.965	101.94
375.191	89.94
375.416	75.94
375.642	87.94
375.868	97.94
376.094	83.94
376.319	84.94
376.545	88.94
376.771	103.94
376.997	103.94
377.222	94.94
377.448	89.94
377.674	81.94
377.899	95.94
378.125	88.94
378.35	94.94
378.576	84.94
378.802	94.94
379.027	94.94
379.253	92.94
379.478	90.94
379.704	94.94
379.929	78.94
380.155	91.94
380.38	86.94
380.606	84.94
380.831	80.94
381.057	103.94
381.282	91.94
381.507	88.94
381.733	97.94
381.958	92.94
382.184	104.94
382.409	104.94
382.634	108.94
382.86	98.94
383.085	99.94
383.31	92.94
383.535	107.94
383.761	112.94
383.986	104.94
384.211	96.94
384.436	92.94
384.662	97.94
384.887	85.94
385.112	90.94
385.337	91.94
385.562	88.94
385.787	106.94
386.013	94.94
386.238	108.94
386.463	80.94
386.688	110.94
386.913	98.94
387.138	89.94
387.363	107.94
387.588	95.94
387.813	111.94
388.038	104.94
388.263	84.94
388.488	86.94
388.713	98.94
388.938	102.94
389.163	99.94
389.387	98.94
389.612	83.94
389.837	78.94
390.062	90.94
390.287	98.94
390.512	107.94
390.736	82.94
390.961	83.94
391.186	103.94
391.411	86.94
391.636	89.94
391.86	90.94
392.085	107.94
392.31	114.94
392.534	117.94
392.759	116.94
392.984	172.94
393.208	291.94
393.433	384.94
393.658	310.94
393.882	160.94
394.107	125.94
394.331	138.94
394.556	120.94
394.78	108.94
395.005	112.94
395.229	99.94
395.454	97.94
395.678	106.94
395.903	133.94
396.127	140.94
396.352	173.94
396.576	188.94
396.801	280.94
397.025	311.94
397.249	191.94
397.474	136.94
397.698	115.94
397.922	100.94
398.147	97.94
398.371	89.94
398.595	90.94
398.82	83.94
399.044	92.94
399.268	86.94
399.492	88.94
399.717	81.94
399.941	94.94
400.165	96.94
400.389	97.94
400.613	100.94
400.837	78.94
401.062	88.94
401.286	100.94
401.51	92.94
401.734	86.94
401.958	87.94
402.182	89.94
402.406	92.94
402.63	95.94
402.854	77.94
403.078	78.94
403.302	83.94
403.526	89.94
403.75	89.94
403.974	92.94
404.198	90.94
404.422	119.94
404.645	126.94
404.869	106.94
405.093	99.94
405.317	99.94
405.541	82.94
405.765	86.94
405.988	90.94
406.212	96.94
406.436	87.94
406.66	88.94
406.883	109.94
407.107	82.94
407.331	103.94
407.555	90.94
407.778	104.94
408.002	120.94
408.226	104.94
408.449	86.94
408.673	90.94
408.896	96.94
409.12	102.94
409.344	96.94
409.567	115.94
409.791	108.94
410.014	103.94
410.238	92.94
410.461	100.94
410.685	94.94
410.908	86.94
411.132	95.94
411.355	80.94
411.578	79.94
411.802	81.94
412.025	94.94
412.249	84.94
412.472	97.94
412.695	83.94
412.919	84.94
413.142	86.94
413.365	94.94
413.589	95.94
413.812	94.94
414.035	95.94
414.258	82.94
414.482	77.94
414.705	88.94
414.928	72.94
415.151	90.94
415.374	85.94
415.597	86.94
415.821	89.94
416.044	82.94
416.267	70.94
416.49	100.94
416.713	88.94
416.936	77.94
417.159	92.94
417.382	87.94
417.605	86.94
417.828	87.94
418.051	78.94
418.274	81.94
418.497	104.94
418.72	96.94
418.943	99.94
419.166	94.94
419.389	86.94
419.611	92.94
419.834	89.94
420.057	84.94
420.28	94.94
420.503	90.94
420.726	93.94
420.948	107.94
421.171	103.94
421.394	114.94
421.617	134.94
421.839	150.94
422.062	156.94
422.285	199.94
422.507	332.94
422.73	466.94
422.953	428.94
423.175	260.94
423.398	172.94
423.621	120.94
423.843	113.94
424.066	108.94
424.288	100.94
424.511	96.94
424.733	94.94
424.956	94.94
425.178	102.94
425.401	91.94
425.623	96.94
425.846	88.94
426.068	81.94
426.291	94.94
426.513	72.94
426.735	74.94
426.958	86.94
427.18	100.94
427.402	106.94
427.625	85.94
427.847	107.94
428.069	109.94
428.292	134.94
428.514	167.94
428.736	122.94
428.958	140.94
429.181	144.94
429.403	113.94
429.625	94.94
429.847	134.94
430.069	190.94
430.292	229.94
430.514	207.94
430.736	168.94
430.958	156.94
431.18	116.94
431.402	90.94
431.624	109.94
431.846	134.94
432.068	153.94
432.29	98.94
432.512	91.94
432.734	101.94
432.956	84.94
433.178	92.94
433.4	88.94
433.622	97.94
433.844	96.94
434.066	79.94
434.287	86.94
434.509	80.94
434.731	81.94
434.953	96.94
435.175	87.94
435.397	82.94
435.618	91.94
435.84	110.94
436.062	98.94
436.284	81.94
436.505	88.94
436.727	84.94
436.949	93.94
437.17	96.94
437.392	88.94
437.614	92.94
437.835	76.94
438.057	79.94
438.278	94.94
438.5	101.94
438.721	82.94
438.943	83.94
439.165	79.94
439.386	80.94
439.608	86.94
439.829	84.94
440.05	80.94
440.272	77.94
440.493	93.94
440.715	96.94
440.936	78.94
441.158	98.94
441.379	91.94
441.6	91.94
441.822	91.94
442.043	90.94
442.264	106.94
442.486	149.94
442.707	206.94
442.928	139.94
443.149	120.94
443.371	196.94
443.592	305.94
443.813	275.94
444.034	125.94
444.255	106.94
444.476	102.94
444.698	94.94
444.919	113.94
445.14	194.94
445.361	252.94
445.582	375.94
445.803	322.94
446.024	149.94
446.245	111.94
446.466	99.94
446.687	98.94
446.908	83.94
447.129	85.94
447.35	92.94
447.571	84.94
447.792	89.94
448.013	84.94
448.234	89.94
448.455	95.94
448.675	76.94
448.896	100.94
449.117	78.94
449.338	80.94
449.559	80.94
449.779	77.94
450	77.94
450.221	90.94
450.442	93.94
450.662	88.94
450.883	93.94
451.104	71.94
451.324	84.94
451.545	87.94
451.766	78.94
451.986	91.94
452.207	94.94
452.428	102.94
452.648	102.94
452.869	106.94
453.089	108.94
453.31	111.94
453.53	106.94
453.751	102.94
453.971	86.94
454.192	79.94
454.412	72.94
454.633	87.94
454.853	90.94
455.073	85.94
455.294	83.94
455.514	87.94
455.734	106.94
455.955	90.94
456.175	85.94
456.395	77.94
456.616	97.94
456.836	82.94
457.056	86.94
457.276	83.94
457.497	78.94
457.717	108.94
457.937	110.94
458.157	149.94
458.377	158.94
458.598	157.94
458.818	155.94
459.038	118.94
459.258	93.94
459.478	85.94
459.698	82.94
459.918	78.94
460.138	82.94
460.358	94.94
460.578	97.94
460.798	130.94
461.018	123.94
461.238	106.94
461.458	78.94
461.678	76.94
461.898	86.94
462.118	76.94
462.338	77.94
462.558	82.94
462.777	79.94
462.997	72.94
463.217	89.94
463.437	84.94
463.657	82.94
463.876	80.94
464.096	81.94
464.316	100.94
464.536	85.94
464.755	70.94
464.975	79.94
465.195	81.94
465.414	85.94
465.634	78.94
465.854	87.94
466.073	92.94
466.293	96.94
466.512	89.94
466.732	91.94
466.951	79.94
467.171	83.94
467.391	80.94
467.61	70.94
467.829	95.94
468.049	73.94
468.268	89.94
468.488	100.94
468.707	95.94
468.927	90.94
469.146	98.94
469.365	82.94
469.585	78.94
469.804	85.94
470.023	85.94
470.243	91.94
470.462	94.94
470.681	83.94
470.901	92.94
471.12	95.94
471.339	71.94
471.558	78.94
471.777	90.94
471.997	98.94
472.216	87.94
472.435	86.94
472.654	85.94
472.873	108.94
473.092	72.94
473.311	85.94
473.53	75.94
473.749	97.94
473.968	92.94
474.187	103.94
474.406	98.94
474.625	88.94
474.844	77.94
475.063	76.94
475.282	92.94
475.501	75.94
475.72	92.94
475.939	93.94
476.158	92.94
476.377	90.94
476.596	86.94
476.814	96.94
477.033	100.94
477.252	95.94
477.471	89.94
477.69	80.94
477.908	92.94
478.127	84.94
478.346	74.94
478.564	86.94
478.783	94.94
479.002	84.94
479.22	91.94
479.439	88.94
479.658	94.94
479.876	87.94
480.095	98.94
480.313	90.94
480.532	99.94
480.751	106.94
480.969	83.94
481.188	82.94
481.406	98.94
481.624	89.94
481.843	104.94
482.061	93.94
482.28	78.94
482.498	103.94
482.717	79.94
482.935	83.94
483.153	73.94
483.372	96.94
483.59	94.94
483.808	95.94
484.027	94.94
484.245	89.94
484.463	85.94
484.681	99.94
484.9	102.94
485.118	100.94
485.336	87.94
485.554	103.94
485.772	93.94
485.99	108.94
486.209	84.94
486.427	79.94
486.645	82.94
486.863	100.94
487.081	97.94
487.299	94.94
487.517	110.94
487.735	139.94
487.953	235.94
488.171	195.94
488.389	122.94
488.607	97.94
488.825	99.94
489.043	96.94
489.261	102.94
489.479	93.94
489.696	79.94
489.914	94.94
490.132	103.94
490.35	94.94
490.568	69.94
490.786	79.94
491.003	90.94
491.221	80.94
491.439	82.94
491.657	91.94
491.874	86.94
492.092	82.94
492.31	90.94
492.527	100.94
492.745	93.94
492.963	95.94
493.18	98.94
493.398	93.94
493.615	94.94
493.833	109.94
494.05	94.94
494.268	96.94
494.485	99.94
494.703	92.94
494.92	101.94
495.138	85.94
495.355	114.94
495.573	92.94
495.79	97.94
496.008	94.94
496.225	101.94
496.442	107.94
496.66	101.94
496.877	94.94
497.094	98.94
497.312	95.94
497.529	87.94
497.746	92.94
497.963	100.94
498.181	103.94
498.398	88.94
498.615	84.94
498.832	96.94
499.049	95.94
499.267	95.94
499.484	94.94
499.701	91.94
499.918	72.94
500.135	91.94
500.352	76.94
500.569	98.94
500.786	94.94
501.003	98.94
501.22	88.94
501.437	90.94
501.654	102.94
501.871	100.94
502.088	91.94
502.305	91.94
502.522	89.94
502.739	93.94
502.956	91.94
503.172	96.94
503.389	99.94
503.606	86.94
503.823	111.94
504.04	129.94
504.256	170.94
504.473	184.94
504.69	125.94
504.907	106.94
505.123	109.94
505.34	99.94
505.557	102.94
505.773	91.94
505.99	94.94
506.207	85.94
506.423	79.94
506.64	95.94
506.856	103.94
507.073	91.94
507.289	84.94
507.506	91.94
507.722	95.94
507.939	79.94
508.155	81.94
508.372	93.94
508.588	105.94
508.805	86.94
509.021	85.94
509.238	90.94
509.454	84.94
509.67	89.94
509.887	86.94
510.103	84.94
510.319	100.94
510.536	84.94
510.752	83.94
510.968	82.94
511.184	73.94
511.401	91.94
511.617	108.94
511.833	99.94
512.049	86.94
512.265	89.94
512.481	86.94
512.698	96.94
512.914	87.94
513.13	85.94
513.346	83.94
513.562	90.94
513.778	80.94
513.994	96.94
514.21	91.94
514.426	84.94
514.642	90.94
514.858	97.94
515.074	73.94
515.29	82.94
515.506	92.94
515.721	97.94
515.937	87.94
516.153	100.94
516.369	92.94
516.585	94.94
516.801	93.94
517.016	102.94
517.232	96.94
