Data from 10100_1_HRD10591_00013.txt Node
Date: Mon Jan 19 14:00:31 EST 2026
User: Yrep
Spectrometer: HR+D1059
Trigger mode: 1
Integration Time (sec): 1.000000E-1
Scans to average: 1
Electric dark correction enabled: true
Nonlinearity correction enabled: false
Boxcar width: 0
XAxis mode: Wavelengths
Number of Pixels in Spectrum: 2048
>>>>>Begin Spectral Data<<<<<
223.165	-22.19
223.4	-22.19
223.635	-22.19
223.869	-9.19
224.104	-5.19
224.338	-15.19
224.573	-16.19
224.808	-23.19
225.042	-18.19
225.277	-13.19
225.511	5.81
225.746	8.81
225.98	10.81
226.215	0.81
226.449	21.81
226.683	26.81
226.918	15.81
227.152	31.81
227.387	29.81
227.621	58.81
227.856	46.81
228.09	49.81
228.324	47.81
228.559	53.81
228.793	55.81
229.027	52.81
229.262	64.81
229.496	77.81
229.73	71.81
229.964	63.81
230.199	77.81
230.433	73.81
230.667	77.81
230.901	68.81
231.136	71.81
231.37	58.81
231.604	69.81
231.838	75.81
232.072	78.81
232.306	85.81
232.541	89.81
232.775	92.81
233.009	89.81
233.243	76.81
233.477	95.81
233.711	85.81
233.945	82.81
234.179	85.81
234.413	89.81
234.647	88.81
234.881	74.81
235.115	91.81
235.349	78.81
235.583	73.81
235.817	89.81
236.051	69.81
236.285	86.81
236.519	83.81
236.753	76.81
236.987	70.81
237.221	79.81
237.455	94.81
237.689	71.81
237.922	77.81
238.156	80.81
238.39	71.81
238.624	61.81
238.858	90.81
239.091	67.81
239.325	76.81
239.559	77.81
239.793	76.81
240.027	71.81
240.26	71.81
240.494	78.81
240.728	93.81
240.961	82.81
241.195	81.81
241.429	61.81
241.662	76.81
241.896	73.81
242.13	61.81
242.363	68.81
242.597	96.81
242.83	61.81
243.064	87.81
243.298	71.81
243.531	75.81
243.765	66.81
243.998	69.81
244.232	75.81
244.465	81.81
244.699	87.81
244.932	79.81
245.166	71.81
245.399	85.81
245.633	87.81
245.866	63.81
246.099	81.81
246.333	63.81
246.566	75.81
246.8	80.81
247.033	83.81
247.266	67.81
247.5	79.81
247.733	77.81
247.966	72.81
248.2	81.81
248.433	67.81
248.666	78.81
248.899	75.81
249.133	77.81
249.366	86.81
249.599	85.81
249.832	83.81
250.066	85.81
250.299	66.81
250.532	80.81
250.765	80.81
250.998	94.81
251.231	67.81
251.465	85.81
251.698	90.81
251.931	90.81
252.164	74.81
252.397	85.81
252.63	95.81
252.863	74.81
253.096	88.81
253.329	95.81
253.562	75.81
253.795	85.81
254.028	85.81
254.261	78.81
254.494	87.81
254.727	86.81
254.96	65.81
255.193	85.81
255.426	71.81
255.659	74.81
255.892	93.81
256.124	93.81
256.357	70.81
256.59	78.81
256.823	64.81
257.056	71.81
257.289	88.81
257.521	85.81
257.754	88.81
257.987	83.81
258.22	82.81
258.452	81.81
258.685	80.81
258.918	74.81
259.151	80.81
259.383	85.81
259.616	72.81
259.849	79.81
260.081	79.81
260.314	92.81
260.547	81.81
260.779	69.81
261.012	77.81
261.244	70.81
261.477	87.81
261.71	82.81
261.942	74.81
262.175	98.81
262.407	89.81
262.64	79.81
262.872	82.81
263.105	86.81
263.337	82.81
263.57	77.81
263.802	73.81
264.035	76.81
264.267	80.81
264.499	81.81
264.732	85.81
264.964	74.81
265.197	89.81
265.429	76.81
265.661	88.81
265.894	78.81
266.126	75.81
266.358	67.81
266.591	93.81
266.823	85.81
267.055	75.81
267.287	89.81
267.52	72.81
267.752	78.81
267.984	79.81
268.216	80.81
268.448	76.81
268.681	73.81
268.913	70.81
269.145	70.81
269.377	71.81
269.609	81.81
269.841	90.81
270.073	77.81
270.306	90.81
270.538	81.81
270.77	84.81
271.002	74.81
271.234	83.81
271.466	85.81
271.698	92.81
271.93	73.81
272.162	72.81
272.394	96.81
272.626	83.81
272.858	66.81
273.09	77.81
273.322	81.81
273.553	79.81
273.785	79.81
274.017	87.81
274.249	78.81
274.481	79.81
274.713	91.81
274.945	82.81
275.176	99.81
275.408	80.81
275.64	75.81
275.872	80.81
276.104	85.81
276.335	88.81
276.567	93.81
276.799	85.81
277.031	93.81
277.262	81.81
277.494	84.81
277.726	95.81
277.957	90.81
278.189	75.81
278.421	89.81
278.652	82.81
278.884	98.81
279.115	89.81
279.347	86.81
279.579	84.81
279.81	66.81
280.042	87.81
280.273	82.81
280.505	87.81
280.736	84.81
280.968	86.81
281.199	90.81
281.431	73.81
281.662	93.81
281.894	81.81
282.125	87.81
282.356	83.81
282.588	71.81
282.819	86.81
283.051	90.81
283.282	80.81
283.513	83.81
283.745	91.81
283.976	67.81
284.207	77.81
284.439	85.81
284.67	92.81
284.901	89.81
285.132	70.81
285.364	81.81
285.595	83.81
285.826	86.81
286.057	83.81
286.288	83.81
286.52	93.81
286.751	82.81
286.982	86.81
287.213	86.81
287.444	71.81
287.675	83.81
287.906	93.81
288.138	70.81
288.369	85.81
288.6	84.81
288.831	83.81
289.062	88.81
289.293	55.81
289.524	86.81
289.755	78.81
289.986	83.81
290.217	79.81
290.448	90.81
290.679	74.81
290.91	90.81
291.141	98.81
291.371	86.81
291.602	81.81
291.833	81.81
292.064	93.81
292.295	89.81
292.526	81.81
292.757	84.81
292.987	71.81
293.218	90.81
293.449	84.81
293.68	89.81
293.91	77.81
294.141	83.81
294.372	72.81
294.603	86.81
294.833	84.81
295.064	86.81
295.295	90.81
295.525	88.81
295.756	85.81
295.987	76.81
296.217	86.81
296.448	89.81
296.679	89.81
296.909	85.81
297.14	85.81
297.37	78.81
297.601	96.81
297.831	77.81
298.062	101.81
298.292	96.81
298.523	85.81
298.753	88.81
298.984	100.81
299.214	86.81
299.445	75.81
299.675	81.81
299.905	96.81
300.136	94.81
300.366	77.81
300.597	84.81
300.827	94.81
301.057	102.81
301.288	75.81
301.518	81.81
301.748	76.81
301.979	99.81
302.209	90.81
302.439	90.81
302.669	86.81
302.9	82.81
303.13	91.81
303.36	89.81
303.59	82.81
303.82	91.81
304.051	94.81
304.281	89.81
304.511	87.81
304.741	85.81
304.971	93.81
305.201	81.81
305.431	90.81
305.661	93.81
305.891	90.81
306.121	87.81
306.352	82.81
306.582	76.81
306.812	83.81
307.042	90.81
307.272	87.81
307.502	85.81
307.731	80.81
307.961	75.81
308.191	88.81
308.421	86.81
308.651	88.81
308.881	86.81
309.111	83.81
309.341	81.81
309.571	85.81
309.8	89.81
310.03	75.81
310.26	86.81
310.49	94.81
310.72	98.81
310.949	74.81
311.179	77.81
311.409	76.81
311.639	79.81
311.868	85.81
312.098	87.81
312.328	94.81
312.557	93.81
312.787	79.81
313.017	101.81
313.246	87.81
313.476	85.81
313.706	91.81
313.935	83.81
314.165	96.81
314.394	85.81
314.624	79.81
314.853	90.81
315.083	93.81
315.312	85.81
315.542	82.81
315.771	73.81
316.001	85.81
316.23	99.81
316.46	91.81
316.689	78.81
316.919	81.81
317.148	90.81
317.377	83.81
317.607	92.81
317.836	75.81
318.065	103.81
318.295	85.81
318.524	82.81
318.753	80.81
318.983	94.81
319.212	87.81
319.441	80.81
319.67	74.81
319.9	83.81
320.129	82.81
320.358	74.81
320.587	76.81
320.816	76.81
321.046	92.81
321.275	88.81
321.504	78.81
321.733	85.81
321.962	86.81
322.191	91.81
322.42	97.81
322.649	84.81
322.878	90.81
323.108	89.81
323.337	93.81
323.566	79.81
323.795	89.81
324.024	81.81
324.253	76.81
324.482	80.81
324.71	97.81
324.939	73.81
325.168	101.81
325.397	83.81
325.626	87.81
325.855	73.81
326.084	77.81
326.313	89.81
326.542	87.81
326.77	94.81
326.999	72.81
327.228	91.81
327.457	92.81
327.686	90.81
327.914	81.81
328.143	78.81
328.372	84.81
328.6	85.81
328.829	82.81
329.058	81.81
329.287	81.81
329.515	83.81
329.744	87.81
329.972	83.81
330.201	87.81
330.43	87.81
330.658	78.81
330.887	83.81
331.115	85.81
331.344	80.81
331.572	97.81
331.801	79.81
332.03	88.81
332.258	95.81
332.486	94.81
332.715	93.81
332.943	89.81
333.172	82.81
333.4	77.81
333.629	92.81
333.857	84.81
334.085	76.81
334.314	93.81
334.542	101.81
334.771	94.81
334.999	89.81
335.227	95.81
335.455	90.81
335.684	87.81
335.912	82.81
336.14	91.81
336.369	90.81
336.597	65.81
336.825	82.81
337.053	77.81
337.281	87.81
337.51	83.81
337.738	93.81
337.966	84.81
338.194	86.81
338.422	83.81
338.65	81.81
338.878	84.81
339.106	87.81
339.334	82.81
339.562	83.81
339.79	85.81
340.018	81.81
340.246	76.81
340.474	79.81
340.702	97.81
340.93	93.81
341.158	87.81
341.386	84.81
341.614	73.81
341.842	93.81
342.07	81.81
342.298	91.81
342.526	93.81
342.754	75.81
342.981	83.81
343.209	96.81
343.437	88.81
343.665	81.81
343.893	90.81
344.12	86.81
344.348	92.81
344.576	82.81
344.804	84.81
345.031	95.81
345.259	70.81
345.487	87.81
345.714	74.81
345.942	83.81
346.17	104.81
346.397	77.81
346.625	84.81
346.853	78.81
347.08	76.81
347.308	85.81
347.535	89.81
347.763	93.81
347.99	87.81
348.218	76.81
348.445	85.81
348.673	87.81
348.9	93.81
349.128	85.81
349.355	90.81
349.583	90.81
349.81	79.81
350.037	77.81
350.265	75.81
350.492	81.81
350.72	80.81
350.947	74.81
351.174	69.81
351.402	90.81
351.629	86.81
351.856	82.81
352.083	74.81
352.311	84.81
352.538	86.81
352.765	89.81
352.992	90.81
353.22	89.81
353.447	84.81
353.674	81.81
353.901	87.81
354.128	86.81
354.355	86.81
354.583	90.81
354.81	95.81
355.037	77.81
355.264	100.81
355.491	96.81
355.718	76.81
355.945	89.81
356.172	85.81
356.399	80.81
356.626	91.81
356.853	97.81
357.08	99.81
357.307	83.81
357.534	90.81
357.761	90.81
357.988	97.81
358.215	85.81
358.441	82.81
358.668	86.81
358.895	92.81
359.122	85.81
359.349	74.81
359.576	81.81
359.802	95.81
360.029	83.81
360.256	70.81
360.483	75.81
360.709	69.81
360.936	89.81
361.163	82.81
361.39	79.81
361.616	83.81
361.843	88.81
362.07	87.81
362.296	83.81
362.523	87.81
362.749	102.81
362.976	97.81
363.203	87.81
363.429	110.81
363.656	96.81
363.882	97.81
364.109	95.81
364.335	112.81
364.562	107.81
364.788	95.81
365.015	98.81
365.241	105.81
365.468	91.81
365.694	80.81
365.92	89.81
366.147	90.81
366.373	81.81
366.599	74.81
366.826	85.81
367.052	93.81
367.278	101.81
367.505	82.81
367.731	85.81
367.957	92.81
368.184	86.81
368.41	87.81
368.636	85.81
368.862	104.81
369.089	90.81
369.315	91.81
369.541	92.81
369.767	82.81
369.993	98.81
370.219	82.81
370.445	71.81
370.672	89.81
370.898	96.81
371.124	77.81
371.35	78.81
371.576	95.81
371.802	98.81
372.028	103.81
372.254	89.81
372.48	102.81
372.706	89.81
372.932	97.81
373.158	87.81
373.384	90.81
373.61	95.81
373.835	99.81
374.061	104.81
374.287	93.81
374.513	93.81
374.739	73.81
374.965	75.81
375.191	102.81
375.416	93.81
375.642	103.81
375.868	89.81
376.094	87.81
376.319	78.81
376.545	86.81
376.771	75.81
376.997	102.81
377.222	67.81
377.448	94.81
377.674	97.81
377.899	77.81
378.125	82.81
378.35	87.81
378.576	86.81
378.802	85.81
379.027	88.81
379.253	94.81
379.478	85.81
379.704	88.81
379.929	79.81
380.155	82.81
380.38	85.81
380.606	81.81
380.831	95.81
381.057	98.81
381.282	85.81
381.507	87.81
381.733	97.81
381.958	88.81
382.184	98.81
382.409	94.81
382.634	92.81
382.86	88.81
383.085	93.81
383.31	81.81
383.535	95.81
383.761	84.81
383.986	84.81
384.211	97.81
384.436	98.81
384.662	82.81
384.887	90.81
385.112	83.81
385.337	81.81
385.562	90.81
385.787	81.81
386.013	82.81
386.238	97.81
386.463	87.81
386.688	90.81
386.913	74.81
387.138	103.81
387.363	73.81
387.588	89.81
387.813	89.81
388.038	82.81
388.263	74.81
388.488	97.81
388.713	82.81
388.938	75.81
389.163	79.81
389.387	80.81
389.612	86.81
389.837	84.81
390.062	77.81
390.287	84.81
390.512	82.81
390.736	88.81
390.961	97.81
391.186	89.81
391.411	81.81
391.636	104.81
391.86	85.81
392.085	109.81
392.31	99.81
392.534	88.81
392.759	86.81
392.984	115.81
393.208	187.81
393.433	226.81
393.658	160.81
393.882	105.81
394.107	93.81
394.331	99.81
394.556	98.81
394.78	99.81
395.005	90.81
395.229	100.81
395.454	89.81
395.678	96.81
395.903	100.81
396.127	115.81
396.352	125.81
396.576	133.81
396.801	180.81
397.025	199.81
397.249	136.81
397.474	97.81
397.698	104.81
397.922	87.81
398.147	89.81
398.371	88.81
398.595	78.81
398.82	84.81
399.044	82.81
399.268	93.81
399.492	82.81
399.717	82.81
399.941	81.81
400.165	86.81
400.389	79.81
400.613	94.81
400.837	70.81
401.062	97.81
401.286	92.81
401.51	78.81
401.734	88.81
401.958	81.81
402.182	80.81
402.406	82.81
402.63	76.81
402.854	96.81
403.078	95.81
403.302	97.81
403.526	90.81
403.75	91.81
403.974	87.81
404.198	80.81
404.422	95.81
404.645	97.81
404.869	96.81
405.093	95.81
405.317	100.81
405.541	96.81
405.765	90.81
405.988	81.81
406.212	74.81
406.436	76.81
406.66	80.81
406.883	90.81
407.107	63.81
407.331	91.81
407.555	89.81
407.778	87.81
408.002	91.81
408.226	73.81
408.449	84.81
408.673	89.81
408.896	93.81
409.12	81.81
409.344	85.81
409.567	100.81
409.791	101.81
410.014	106.81
410.238	86.81
410.461	74.81
410.685	84.81
410.908	79.81
411.132	79.81
411.355	79.81
411.578	82.81
411.802	88.81
412.025	79.81
412.249	88.81
412.472	83.81
412.695	84.81
412.919	85.81
413.142	65.81
413.365	81.81
413.589	88.81
413.812	82.81
414.035	93.81
414.258	70.81
414.482	82.81
414.705	76.81
414.928	91.81
415.151	96.81
415.374	92.81
415.597	83.81
415.821	85.81
416.044	82.81
416.267	81.81
416.49	84.81
416.713	87.81
416.936	73.81
417.159	85.81
417.382	85.81
417.605	74.81
417.828	91.81
418.051	90.81
418.274	88.81
418.497	83.81
418.72	92.81
418.943	79.81
419.166	91.81
419.389	89.81
419.611	94.81
419.834	100.81
420.057	72.81
420.28	93.81
420.503	78.81
420.726	74.81
420.948	91.81
421.171	86.81
421.394	97.81
421.617	112.81
421.839	105.81
422.062	104.81
422.285	146.81
422.507	229.81
422.73	325.81
422.953	303.81
423.175	181.81
423.398	122.81
423.621	97.81
423.843	104.81
424.066	99.81
424.288	97.81
424.511	95.81
424.733	102.81
424.956	106.81
425.178	82.81
425.401	68.81
425.623	77.81
425.846	88.81
426.068	87.81
426.291	97.81
426.513	91.81
426.735	89.81
426.958	87.81
427.18	79.81
427.402	89.81
427.625	83.81
427.847	86.81
428.069	99.81
428.292	119.81
428.514	114.81
428.736	115.81
428.958	119.81
429.181	120.81
429.403	96.81
429.625	106.81
429.847	111.81
430.069	136.81
430.292	136.81
430.514	133.81
430.736	113.81
430.958	112.81
431.18	101.81
431.402	114.81
431.624	89.81
431.846	118.81
432.068	111.81
432.29	94.81
432.512	84.81
432.734	86.81
432.956	87.81
433.178	82.81
433.4	84.81
433.622	89.81
433.844	90.81
434.066	92.81
434.287	82.81
434.509	79.81
434.731	94.81
434.953	91.81
435.175	97.81
435.397	90.81
435.618	109.81
435.84	105.81
436.062	89.81
436.284	93.81
436.505	77.81
436.727	70.81
436.949	79.81
437.17	89.81
437.392	85.81
437.614	92.81
437.835	90.81
438.057	87.81
438.278	101.81
438.5	76.81
438.721	100.81
438.943	81.81
439.165	100.81
439.386	88.81
439.608	85.81
439.829	81.81
440.05	98.81
440.272	84.81
440.493	94.81
440.715	86.81
440.936	94.81
441.158	91.81
441.379	93.81
441.6	83.81
441.822	77.81
442.043	85.81
442.264	104.81
442.486	132.81
442.707	139.81
442.928	112.81
443.149	103.81
443.371	113.81
443.592	181.81
443.813	181.81
444.034	104.81
444.255	81.81
444.476	89.81
444.698	93.81
444.919	93.81
445.14	156.81
445.361	162.81
445.582	224.81
445.803	197.81
446.024	109.81
446.245	98.81
446.466	79.81
446.687	83.81
446.908	85.81
447.129	82.81
447.35	93.81
447.571	99.81
447.792	81.81
448.013	78.81
448.234	66.81
448.455	80.81
448.675	99.81
448.896	101.81
449.117	75.81
449.338	86.81
449.559	81.81
449.779	97.81
450	74.81
450.221	104.81
450.442	91.81
450.662	81.81
450.883	89.81
451.104	87.81
451.324	96.81
451.545	86.81
451.766	81.81
451.986	85.81
452.207	83.81
452.428	82.81
452.648	79.81
452.869	90.81
453.089	100.81
453.31	76.81
453.53	93.81
453.751	86.81
453.971	76.81
454.192	86.81
454.412	91.81
454.633	85.81
454.853	83.81
455.073	78.81
455.294	86.81
455.514	98.81
455.734	93.81
455.955	85.81
456.175	100.81
456.395	79.81
456.616	75.81
456.836	95.81
457.056	87.81
457.276	99.81
457.497	87.81
457.717	85.81
457.937	90.81
458.157	122.81
458.377	114.81
458.598	103.81
458.818	116.81
459.038	81.81
459.258	100.81
459.478	73.81
459.698	84.81
459.918	76.81
460.138	79.81
460.358	72.81
460.578	104.81
460.798	102.81
461.018	110.81
461.238	97.81
461.458	90.81
461.678	69.81
461.898	75.81
462.118	85.81
462.338	94.81
462.558	89.81
462.777	90.81
462.997	75.81
463.217	73.81
463.437	81.81
463.657	69.81
463.876	79.81
464.096	96.81
464.316	89.81
464.536	83.81
464.755	83.81
464.975	81.81
465.195	90.81
465.414	93.81
465.634	90.81
465.854	100.81
466.073	78.81
466.293	68.81
466.512	90.81
466.732	85.81
466.951	66.81
467.171	71.81
467.391	78.81
467.61	96.81
467.829	83.81
468.049	90.81
468.268	90.81
468.488	90.81
468.707	83.81
468.927	96.81
469.146	94.81
469.365	88.81
469.585	100.81
469.804	93.81
470.023	82.81
470.243	81.81
470.462	94.81
470.681	90.81
470.901	96.81
471.12	99.81
471.339	85.81
471.558	89.81
471.777	84.81
471.997	86.81
472.216	92.81
472.435	81.81
472.654	86.81
472.873	85.81
473.092	84.81
473.311	85.81
473.53	82.81
473.749	95.81
473.968	90.81
474.187	91.81
474.406	74.81
474.625	74.81
474.844	86.81
475.063	93.81
475.282	95.81
475.501	89.81
475.72	98.81
475.939	104.81
476.158	85.81
476.377	97.81
476.596	85.81
476.814	94.81
477.033	81.81
477.252	94.81
477.471	74.81
477.69	93.81
477.908	84.81
478.127	85.81
478.346	75.81
478.564	89.81
478.783	71.81
479.002	87.81
479.22	81.81
479.439	90.81
479.658	99.81
479.876	96.81
480.095	95.81
480.313	103.81
480.532	85.81
480.751	100.81
480.969	93.81
481.188	86.81
481.406	85.81
481.624	93.81
481.843	75.81
482.061	91.81
482.28	88.81
482.498	82.81
482.717	72.81
482.935	95.81
483.153	93.81
483.372	100.81
483.59	81.81
483.808	87.81
484.027	92.81
484.245	103.81
484.463	102.81
484.681	89.81
484.9	81.81
485.118	94.81
485.336	93.81
485.554	89.81
485.772	96.81
485.99	88.81
486.209	93.81
486.427	86.81
486.645	98.81
486.863	84.81
487.081	94.81
487.299	91.81
487.517	103.81
487.735	120.81
487.953	161.81
488.171	121.81
488.389	104.81
488.607	104.81
488.825	86.81
489.043	83.81
489.261	70.81
489.479	75.81
489.696	83.81
489.914	97.81
490.132	79.81
490.35	89.81
490.568	103.81
490.786	75.81
491.003	95.81
491.221	104.81
491.439	85.81
491.657	102.81
491.874	98.81
492.092	85.81
492.31	105.81
492.527	95.81
492.745	91.81
492.963	100.81
493.18	98.81
493.398	94.81
493.615	89.81
493.833	87.81
494.05	98.81
494.268	85.81
494.485	102.81
494.703	89.81
494.92	93.81
495.138	91.81
495.355	86.81
495.573	92.81
495.79	92.81
496.008	96.81
496.225	97.81
496.442	98.81
496.66	88.81
496.877	97.81
497.094	86.81
497.312	86.81
497.529	92.81
497.746	114.81
497.963	86.81
498.181	83.81
498.398	109.81
498.615	96.81
498.832	79.81
499.049	89.81
499.267	99.81
499.484	82.81
499.701	84.81
499.918	85.81
500.135	93.81
500.352	78.81
500.569	98.81
500.786	86.81
501.003	98.81
501.22	85.81
501.437	85.81
501.654	106.81
501.871	83.81
502.088	82.81
502.305	97.81
502.522	104.81
502.739	86.81
502.956	97.81
503.172	100.81
503.389	94.81
503.606	82.81
503.823	98.81
504.04	105.81
504.256	135.81
504.473	113.81
504.69	85.81
504.907	99.81
505.123	94.81
505.34	91.81
505.557	79.81
505.773	102.81
505.99	87.81
506.207	94.81
506.423	93.81
506.64	69.81
506.856	90.81
507.073	96.81
507.289	85.81
507.506	86.81
507.722	79.81
507.939	113.81
508.155	90.81
508.372	95.81
508.588	81.81
508.805	91.81
509.021	86.81
509.238	80.81
509.454	76.81
509.67	87.81
509.887	85.81
510.103	91.81
510.319	97.81
510.536	87.81
510.752	99.81
510.968	94.81
511.184	87.81
511.401	93.81
511.617	93.81
511.833	92.81
512.049	86.81
512.265	71.81
512.481	95.81
512.698	88.81
512.914	88.81
513.13	109.81
513.346	88.81
513.562	105.81
513.778	91.81
513.994	97.81
514.21	95.81
514.426	101.81
514.642	86.81
514.858	86.81
515.074	89.81
515.29	96.81
515.506	95.81
515.721	82.81
515.937	95.81
516.153	81.81
516.369	82.81
516.585	93.81
516.801	96.81
517.016	98.81
517.232	94.81
517.448	105.81
517.664	99.81
517.879	82.81
518.095	97.81
518.311	100.81
