Data from 10100_1_HRD10591_00015.txt Node
Date: Mon Jan 19 14:00:32 EST 2026
User: Yrep
Spectrometer: HR+D1059
Trigger mode: 1
Integration Time (sec): 1.000000E-1
Scans to average: 1
Electric dark correction enabled: true
Nonlinearity correction enabled: false
Boxcar width: 0
XAxis mode: Wavelengths
Number of Pixels in Spectrum: 2048
>>>>>Begin Spectral Data<<<<<
223.165	-13.81
223.4	-13.81
223.635	-13.81
223.869	-21.81
224.104	-31.81
224.338	-15.81
224.573	-20.81
224.808	-8.81
225.042	-10.81
225.277	-1.81
225.511	3.19
225.746	5.19
225.98	18.19
226.215	11.19
226.449	15.19
226.683	27.19
226.918	23.19
227.152	22.19
227.387	32.19
227.621	38.19
227.856	45.19
228.09	55.19
228.324	62.19
228.559	56.19
228.793	64.19
229.027	56.19
229.262	52.19
229.496	50.19
229.73	82.19
229.964	65.19
230.199	74.19
230.433	66.19
230.667	96.19
230.901	71.19
231.136	76.19
231.37	75.19
231.604	66.19
231.838	79.19
232.072	81.19
232.306	73.19
232.541	66.19
232.775	78.19
233.009	79.19
233.243	78.19
233.477	82.19
233.711	76.19
233.945	80.19
234.179	80.19
234.413	76.19
234.647	84.19
234.881	82.19
235.115	67.19
235.349	83.19
235.583	80.19
235.817	87.19
236.051	96.19
236.285	62.19
236.519	84.19
236.753	87.19
236.987	86.19
237.221	78.19
237.455	64.19
237.689	82.19
237.922	82.19
238.156	80.19
238.39	80.19
238.624	82.19
238.858	87.19
239.091	70.19
239.325	77.19
239.559	76.19
239.793	67.19
240.027	90.19
240.26	82.19
240.494	74.19
240.728	70.19
240.961	97.19
241.195	57.19
241.429	77.19
241.662	64.19
241.896	79.19
242.13	60.19
242.363	86.19
242.597	94.19
242.83	64.19
243.064	84.19
243.298	78.19
243.531	74.19
243.765	70.19
243.998	68.19
244.232	87.19
244.465	86.19
244.699	74.19
244.932	78.19
245.166	66.19
245.399	73.19
245.633	95.19
245.866	80.19
246.099	83.19
246.333	84.19
246.566	74.19
246.8	95.19
247.033	92.19
247.266	90.19
247.5	85.19
247.733	97.19
247.966	71.19
248.2	94.19
248.433	77.19
248.666	69.19
248.899	78.19
249.133	75.19
249.366	93.19
249.599	73.19
249.832	81.19
250.066	86.19
250.299	73.19
250.532	80.19
250.765	81.19
250.998	73.19
251.231	80.19
251.465	80.19
251.698	82.19
251.931	85.19
252.164	79.19
252.397	68.19
252.63	94.19
252.863	81.19
253.096	84.19
253.329	88.19
253.562	87.19
253.795	77.19
254.028	77.19
254.261	79.19
254.494	84.19
254.727	92.19
254.96	88.19
255.193	88.19
255.426	77.19
255.659	61.19
255.892	77.19
256.124	82.19
256.357	82.19
256.59	73.19
256.823	85.19
257.056	80.19
257.289	82.19
257.521	87.19
257.754	81.19
257.987	89.19
258.22	88.19
258.452	66.19
258.685	78.19
258.918	85.19
259.151	93.19
259.383	87.19
259.616	80.19
259.849	72.19
260.081	84.19
260.314	87.19
260.547	80.19
260.779	96.19
261.012	71.19
261.244	77.19
261.477	86.19
261.71	68.19
261.942	86.19
262.175	77.19
262.407	82.19
262.64	86.19
262.872	84.19
263.105	78.19
263.337	84.19
263.57	75.19
263.802	71.19
264.035	90.19
264.267	84.19
264.499	82.19
264.732	80.19
264.964	75.19
265.197	76.19
265.429	98.19
265.661	83.19
265.894	82.19
266.126	94.19
266.358	77.19
266.591	73.19
266.823	82.19
267.055	84.19
267.287	82.19
267.52	83.19
267.752	75.19
267.984	87.19
268.216	73.19
268.448	95.19
268.681	77.19
268.913	86.19
269.145	92.19
269.377	78.19
269.609	83.19
269.841	86.19
270.073	90.19
270.306	86.19
270.538	88.19
270.77	86.19
271.002	83.19
271.234	82.19
271.466	85.19
271.698	90.19
271.93	74.19
272.162	74.19
272.394	76.19
272.626	77.19
272.858	71.19
273.09	76.19
273.322	89.19
273.553	81.19
273.785	74.19
274.017	88.19
274.249	93.19
274.481	97.19
274.713	88.19
274.945	88.19
275.176	74.19
275.408	89.19
275.64	95.19
275.872	92.19
276.104	74.19
276.335	70.19
276.567	87.19
276.799	74.19
277.031	80.19
277.262	90.19
277.494	82.19
277.726	85.19
277.957	77.19
278.189	70.19
278.421	80.19
278.652	86.19
278.884	69.19
279.115	76.19
279.347	80.19
279.579	77.19
279.81	70.19
280.042	78.19
280.273	66.19
280.505	71.19
280.736	87.19
280.968	78.19
281.199	81.19
281.431	93.19
281.662	81.19
281.894	73.19
282.125	75.19
282.356	76.19
282.588	73.19
282.819	86.19
283.051	88.19
283.282	84.19
283.513	80.19
283.745	80.19
283.976	83.19
284.207	82.19
284.439	81.19
284.67	81.19
284.901	90.19
285.132	80.19
285.364	84.19
285.595	94.19
285.826	74.19
286.057	84.19
286.288	90.19
286.52	69.19
286.751	86.19
286.982	81.19
287.213	85.19
287.444	93.19
287.675	88.19
287.906	91.19
288.138	87.19
288.369	84.19
288.6	71.19
288.831	73.19
289.062	70.19
289.293	72.19
289.524	81.19
289.755	94.19
289.986	74.19
290.217	102.19
290.448	76.19
290.679	77.19
290.91	87.19
291.141	92.19
291.371	101.19
291.602	82.19
291.833	89.19
292.064	99.19
292.295	85.19
292.526	80.19
292.757	80.19
292.987	89.19
293.218	80.19
293.449	88.19
293.68	84.19
293.91	86.19
294.141	93.19
294.372	87.19
294.603	79.19
294.833	94.19
295.064	93.19
295.295	70.19
295.525	85.19
295.756	96.19
295.987	80.19
296.217	75.19
296.448	81.19
296.679	87.19
296.909	94.19
297.14	97.19
297.37	93.19
297.601	80.19
297.831	80.19
298.062	89.19
298.292	86.19
298.523	88.19
298.753	80.19
298.984	89.19
299.214	92.19
299.445	86.19
299.675	82.19
299.905	76.19
300.136	73.19
300.366	78.19
300.597	96.19
300.827	84.19
301.057	72.19
301.288	78.19
301.518	80.19
301.748	79.19
301.979	94.19
302.209	90.19
302.439	89.19
302.669	94.19
302.9	84.19
303.13	91.19
303.36	80.19
303.59	80.19
303.82	85.19
304.051	90.19
304.281	81.19
304.511	96.19
304.741	77.19
304.971	73.19
305.201	78.19
305.431	78.19
305.661	83.19
305.891	89.19
306.121	83.19
306.352	74.19
306.582	90.19
306.812	75.19
307.042	80.19
307.272	80.19
307.502	81.19
307.731	86.19
307.961	96.19
308.191	82.19
308.421	92.19
308.651	76.19
308.881	81.19
309.111	93.19
309.341	89.19
309.571	80.19
309.8	97.19
310.03	83.19
310.26	82.19
310.49	78.19
310.72	77.19
310.949	87.19
311.179	86.19
311.409	80.19
311.639	86.19
311.868	85.19
312.098	75.19
312.328	77.19
312.557	90.19
312.787	78.19
313.017	77.19
313.246	73.19
313.476	64.19
313.706	86.19
313.935	71.19
314.165	72.19
314.394	89.19
314.624	92.19
314.853	89.19
315.083	70.19
315.312	89.19
315.542	85.19
315.771	88.19
316.001	82.19
316.23	83.19
316.46	96.19
316.689	100.19
316.919	86.19
317.148	81.19
317.377	99.19
317.607	105.19
317.836	81.19
318.065	82.19
318.295	100.19
318.524	80.19
318.753	92.19
318.983	96.19
319.212	103.19
319.441	87.19
319.67	94.19
319.9	80.19
320.129	98.19
320.358	95.19
320.587	86.19
320.816	70.19
321.046	94.19
321.275	85.19
321.504	95.19
321.733	88.19
321.962	90.19
322.191	88.19
322.42	80.19
322.649	94.19
322.878	81.19
323.108	88.19
323.337	83.19
323.566	77.19
323.795	68.19
324.024	76.19
324.253	88.19
324.482	74.19
324.71	94.19
324.939	84.19
325.168	99.19
325.397	73.19
325.626	100.19
325.855	91.19
326.084	82.19
326.313	84.19
326.542	86.19
326.77	92.19
326.999	89.19
327.228	84.19
327.457	92.19
327.686	88.19
327.914	80.19
328.143	82.19
328.372	79.19
328.6	74.19
328.829	92.19
329.058	82.19
329.287	85.19
329.515	86.19
329.744	89.19
329.972	82.19
330.201	85.19
330.43	81.19
330.658	86.19
330.887	85.19
331.115	85.19
331.344	69.19
331.572	70.19
331.801	80.19
332.03	80.19
332.258	91.19
332.486	76.19
332.715	93.19
332.943	77.19
333.172	80.19
333.4	66.19
333.629	88.19
333.857	79.19
334.085	96.19
334.314	92.19
334.542	88.19
334.771	79.19
334.999	80.19
335.227	89.19
335.455	80.19
335.684	96.19
335.912	86.19
336.14	87.19
336.369	98.19
336.597	94.19
336.825	81.19
337.053	74.19
337.281	86.19
337.51	92.19
337.738	96.19
337.966	94.19
338.194	95.19
338.422	84.19
338.65	89.19
338.878	72.19
339.106	75.19
339.334	84.19
339.562	90.19
339.79	85.19
340.018	82.19
340.246	99.19
340.474	90.19
340.702	82.19
340.93	76.19
341.158	81.19
341.386	85.19
341.614	87.19
341.842	75.19
342.07	104.19
342.298	101.19
342.526	82.19
342.754	75.19
342.981	81.19
343.209	80.19
343.437	100.19
343.665	96.19
343.893	77.19
344.12	81.19
344.348	88.19
344.576	92.19
344.804	79.19
345.031	96.19
345.259	71.19
345.487	77.19
345.714	89.19
345.942	83.19
346.17	90.19
346.397	99.19
346.625	86.19
346.853	75.19
347.08	86.19
347.308	82.19
347.535	92.19
347.763	82.19
347.99	93.19
348.218	92.19
348.445	81.19
348.673	90.19
348.9	86.19
349.128	81.19
349.355	78.19
349.583	79.19
349.81	89.19
350.037	83.19
350.265	87.19
350.492	78.19
350.72	73.19
350.947	86.19
351.174	78.19
351.402	83.19
351.629	96.19
351.856	76.19
352.083	82.19
352.311	76.19
352.538	82.19
352.765	83.19
352.992	92.19
353.22	93.19
353.447	72.19
353.674	101.19
353.901	84.19
354.128	95.19
354.355	89.19
354.583	81.19
354.81	86.19
355.037	80.19
355.264	77.19
355.491	58.19
355.718	74.19
355.945	80.19
356.172	82.19
356.399	95.19
356.626	79.19
356.853	111.19
357.08	85.19
357.307	76.19
357.534	83.19
357.761	88.19
357.988	94.19
358.215	88.19
358.441	71.19
358.668	84.19
358.895	96.19
359.122	94.19
359.349	83.19
359.576	81.19
359.802	73.19
360.029	78.19
360.256	86.19
360.483	87.19
360.709	80.19
360.936	96.19
361.163	91.19
361.39	84.19
361.616	64.19
361.843	80.19
362.07	85.19
362.296	89.19
362.523	100.19
362.749	88.19
362.976	90.19
363.203	99.19
363.429	88.19
363.656	78.19
363.882	86.19
364.109	103.19
364.335	108.19
364.562	120.19
364.788	85.19
365.015	104.19
365.241	83.19
365.468	90.19
365.694	76.19
365.92	82.19
366.147	74.19
366.373	81.19
366.599	81.19
366.826	84.19
367.052	92.19
367.278	102.19
367.505	77.19
367.731	93.19
367.957	93.19
368.184	79.19
368.41	74.19
368.636	80.19
368.862	90.19
369.089	94.19
369.315	90.19
369.541	80.19
369.767	86.19
369.993	82.19
370.219	84.19
370.445	92.19
370.672	98.19
370.898	81.19
371.124	84.19
371.35	85.19
371.576	92.19
371.802	84.19
372.028	73.19
372.254	98.19
372.48	88.19
372.706	78.19
372.932	70.19
373.158	95.19
373.384	93.19
373.61	93.19
373.835	85.19
374.061	88.19
374.287	95.19
374.513	91.19
374.739	84.19
374.965	80.19
375.191	87.19
375.416	86.19
375.642	90.19
375.868	83.19
376.094	107.19
376.319	90.19
376.545	88.19
376.771	88.19
376.997	93.19
377.222	80.19
377.448	97.19
377.674	81.19
377.899	88.19
378.125	78.19
378.35	96.19
378.576	93.19
378.802	100.19
379.027	86.19
379.253	89.19
379.478	86.19
379.704	80.19
379.929	77.19
380.155	82.19
380.38	68.19
380.606	78.19
380.831	92.19
381.057	74.19
381.282	85.19
381.507	99.19
381.733	93.19
381.958	96.19
382.184	109.19
382.409	95.19
382.634	99.19
382.86	97.19
383.085	90.19
383.31	93.19
383.535	93.19
383.761	98.19
383.986	101.19
384.211	89.19
384.436	80.19
384.662	90.19
384.887	92.19
385.112	88.19
385.337	95.19
385.562	96.19
385.787	94.19
386.013	99.19
386.238	78.19
386.463	81.19
386.688	102.19
386.913	88.19
387.138	80.19
387.363	95.19
387.588	90.19
387.813	95.19
388.038	93.19
388.263	82.19
388.488	102.19
388.713	99.19
388.938	95.19
389.163	93.19
389.387	80.19
389.612	97.19
389.837	84.19
390.062	90.19
390.287	84.19
390.512	85.19
390.736	84.19
390.961	73.19
391.186	87.19
391.411	97.19
391.636	87.19
391.86	84.19
392.085	83.19
392.31	103.19
392.534	85.19
392.759	116.19
392.984	130.19
393.208	177.19
393.433	215.19
393.658	193.19
393.882	108.19
394.107	100.19
394.331	116.19
394.556	101.19
394.78	101.19
395.005	86.19
395.229	92.19
395.454	86.19
395.678	108.19
395.903	109.19
396.127	129.19
396.352	112.19
396.576	130.19
396.801	170.19
397.025	203.19
397.249	144.19
397.474	104.19
397.698	102.19
397.922	91.19
398.147	92.19
398.371	82.19
398.595	100.19
398.82	72.19
399.044	91.19
399.268	96.19
399.492	94.19
399.717	98.19
399.941	85.19
400.165	91.19
400.389	79.19
400.613	71.19
400.837	76.19
401.062	86.19
401.286	81.19
401.51	82.19
401.734	88.19
401.958	77.19
402.182	88.19
402.406	78.19
402.63	86.19
402.854	74.19
403.078	68.19
403.302	76.19
403.526	88.19
403.75	93.19
403.974	78.19
404.198	78.19
404.422	90.19
404.645	82.19
404.869	79.19
405.093	95.19
405.317	89.19
405.541	92.19
405.765	80.19
405.988	81.19
406.212	74.19
406.436	96.19
406.66	81.19
406.883	78.19
407.107	94.19
407.331	75.19
407.555	89.19
407.778	97.19
408.002	82.19
408.226	87.19
408.449	81.19
408.673	75.19
408.896	78.19
409.12	95.19
409.344	82.19
409.567	86.19
409.791	92.19
410.014	84.19
410.238	83.19
410.461	90.19
410.685	101.19
410.908	85.19
411.132	103.19
411.355	90.19
411.578	84.19
411.802	79.19
412.025	74.19
412.249	96.19
412.472	97.19
412.695	96.19
412.919	92.19
413.142	80.19
413.365	85.19
413.589	98.19
413.812	74.19
414.035	77.19
414.258	88.19
414.482	94.19
414.705	76.19
414.928	92.19
415.151	75.19
415.374	75.19
415.597	75.19
415.821	99.19
416.044	80.19
416.267	92.19
416.49	80.19
416.713	93.19
416.936	64.19
417.159	84.19
417.382	92.19
417.605	82.19
417.828	83.19
418.051	77.19
418.274	80.19
418.497	92.19
418.72	96.19
418.943	84.19
419.166	78.19
419.389	84.19
419.611	85.19
419.834	83.19
420.057	81.19
420.28	84.19
420.503	95.19
420.726	97.19
420.948	94.19
421.171	80.19
421.394	98.19
421.617	103.19
421.839	95.19
422.062	113.19
422.285	120.19
422.507	194.19
422.73	268.19
422.953	256.19
423.175	155.19
423.398	120.19
423.621	93.19
423.843	102.19
424.066	94.19
424.288	88.19
424.511	89.19
424.733	90.19
424.956	93.19
425.178	76.19
425.401	88.19
425.623	90.19
425.846	87.19
426.068	95.19
426.291	88.19
426.513	98.19
426.735	74.19
426.958	86.19
427.18	87.19
427.402	88.19
427.625	90.19
427.847	91.19
428.069	86.19
428.292	102.19
428.514	111.19
428.736	104.19
428.958	98.19
429.181	113.19
429.403	92.19
429.625	103.19
429.847	112.19
430.069	119.19
430.292	142.19
430.514	136.19
430.736	127.19
430.958	126.19
431.18	103.19
431.402	94.19
431.624	88.19
431.846	105.19
432.068	119.19
432.29	92.19
432.512	91.19
432.734	77.19
432.956	88.19
433.178	81.19
433.4	78.19
433.622	87.19
433.844	96.19
434.066	86.19
434.287	76.19
434.509	78.19
434.731	87.19
434.953	98.19
435.175	93.19
435.397	95.19
435.618	85.19
435.84	85.19
436.062	94.19
436.284	88.19
436.505	80.19
436.727	92.19
436.949	85.19
437.17	87.19
437.392	83.19
437.614	74.19
437.835	81.19
438.057	89.19
438.278	83.19
438.5	103.19
438.721	95.19
438.943	95.19
439.165	88.19
439.386	80.19
439.608	97.19
439.829	89.19
440.05	97.19
440.272	88.19
440.493	82.19
440.715	96.19
440.936	102.19
441.158	100.19
441.379	90.19
441.6	88.19
441.822	84.19
442.043	86.19
442.264	97.19
442.486	110.19
442.707	118.19
442.928	112.19
443.149	115.19
443.371	126.19
443.592	186.19
443.813	144.19
444.034	104.19
444.255	99.19
444.476	80.19
444.698	91.19
444.919	91.19
445.14	165.19
445.361	154.19
445.582	185.19
445.803	186.19
446.024	109.19
446.245	74.19
446.466	87.19
446.687	97.19
446.908	83.19
447.129	85.19
447.35	58.19
447.571	87.19
447.792	82.19
448.013	84.19
448.234	78.19
448.455	80.19
448.675	80.19
448.896	83.19
449.117	88.19
449.338	82.19
449.559	78.19
449.779	96.19
450	88.19
450.221	85.19
450.442	80.19
450.662	84.19
450.883	84.19
451.104	88.19
451.324	88.19
451.545	87.19
451.766	82.19
451.986	78.19
452.207	96.19
452.428	98.19
452.648	101.19
452.869	101.19
453.089	94.19
453.31	87.19
453.53	92.19
453.751	80.19
453.971	75.19
454.192	89.19
454.412	93.19
454.633	88.19
454.853	86.19
455.073	105.19
455.294	101.19
455.514	110.19
455.734	84.19
455.955	80.19
456.175	90.19
456.395	88.19
456.616	91.19
456.836	98.19
457.056	90.19
457.276	80.19
457.497	82.19
457.717	101.19
457.937	110.19
458.157	103.19
458.377	93.19
458.598	123.19
458.818	116.19
459.038	102.19
459.258	84.19
459.478	80.19
459.698	84.19
459.918	80.19
460.138	86.19
460.358	92.19
460.578	96.19
460.798	94.19
461.018	104.19
461.238	90.19
461.458	80.19
461.678	85.19
461.898	80.19
462.118	90.19
462.338	88.19
462.558	78.19
462.777	94.19
462.997	80.19
463.217	81.19
463.437	94.19
463.657	89.19
463.876	86.19
464.096	76.19
464.316	88.19
464.536	80.19
464.755	87.19
464.975	85.19
465.195	78.19
465.414	92.19
465.634	86.19
465.854	77.19
466.073	98.19
466.293	80.19
466.512	81.19
466.732	78.19
466.951	94.19
467.171	95.19
467.391	85.19
467.61	82.19
467.829	92.19
468.049	74.19
468.268	80.19
468.488	79.19
468.707	84.19
468.927	98.19
469.146	84.19
469.365	88.19
469.585	98.19
469.804	92.19
470.023	90.19
470.243	96.19
470.462	78.19
470.681	85.19
470.901	93.19
471.12	92.19
471.339	82.19
471.558	94.19
471.777	92.19
471.997	95.19
472.216	87.19
472.435	93.19
472.654	85.19
472.873	92.19
473.092	89.19
473.311	94.19
473.53	89.19
473.749	97.19
473.968	82.19
474.187	85.19
474.406	94.19
474.625	82.19
474.844	80.19
475.063	90.19
475.282	90.19
475.501	89.19
475.72	91.19
475.939	87.19
476.158	84.19
476.377	69.19
476.596	89.19
476.814	71.19
477.033	101.19
477.252	97.19
477.471	76.19
477.69	87.19
477.908	90.19
478.127	98.19
478.346	86.19
478.564	90.19
478.783	86.19
479.002	80.19
479.22	86.19
479.439	82.19
479.658	80.19
479.876	90.19
480.095	95.19
480.313	94.19
480.532	79.19
480.751	88.19
480.969	80.19
481.188	97.19
481.406	102.19
481.624	81.19
481.843	89.19
482.061	98.19
482.28	87.19
482.498	85.19
482.717	94.19
482.935	105.19
483.153	96.19
483.372	88.19
483.59	90.19
483.808	89.19
484.027	94.19
484.245	92.19
484.463	93.19
484.681	92.19
484.9	85.19
485.118	101.19
485.336	89.19
485.554	94.19
485.772	84.19
485.99	70.19
486.209	91.19
486.427	74.19
486.645	85.19
486.863	94.19
487.081	84.19
487.299	93.19
487.517	96.19
487.735	101.19
487.953	136.19
488.171	123.19
488.389	102.19
488.607	73.19
488.825	81.19
489.043	102.19
489.261	75.19
489.479	90.19
489.696	100.19
489.914	91.19
490.132	97.19
490.35	102.19
490.568	87.19
490.786	96.19
491.003	99.19
491.221	94.19
491.439	82.19
491.657	87.19
491.874	96.19
492.092	86.19
492.31	96.19
492.527	103.19
492.745	73.19
492.963	88.19
493.18	94.19
493.398	97.19
493.615	80.19
493.833	89.19
494.05	92.19
494.268	85.19
494.485	91.19
494.703	92.19
494.92	71.19
495.138	90.19
495.355	87.19
495.573	91.19
495.79	80.19
496.008	86.19
496.225	103.19
496.442	88.19
496.66	94.19
496.877	78.19
497.094	86.19
497.312	103.19
497.529	87.19
497.746	93.19
497.963	90.19
498.181	95.19
498.398	82.19
498.615	90.19
498.832	104.19
499.049	96.19
499.267	85.19
499.484	89.19
499.701	80.19
499.918	87.19
500.135	83.19
500.352	98.19
500.569	83.19
500.786	94.19
501.003	90.19
501.22	85.19
501.437	99.19
501.654	90.19
501.871	96.19
502.088	90.19
502.305	82.19
502.522	110.19
502.739	96.19
502.956	91.19
503.172	89.19
503.389	89.19
503.606	94.19
503.823	92.19
504.04	90.19
504.256	124.19
504.473	119.19
504.69	104.19
504.907	102.19
505.123	89.19
505.34	96.19
505.557	86.19
505.773	95.19
505.99	88.19
506.207	86.19
506.423	79.19
506.64	93.19
506.856	104.19
507.073	96.19
507.289	87.19
507.506	87.19
507.722	89.19
507.939	85.19
508.155	88.19
508.372	94.19
508.588	82.19
508.805	89.19
509.021	92.19
509.238	80.19
509.454	74.19
509.67	74.19
509.887	79.19
510.103	84.19
510.319	105.19
510.536	101.19
510.752	94.19
510.968	96.19
511.184	74.19
511.401	86.19
511.617	87.19
511.833	99.19
512.049	80.19
512.265	86.19
512.481	95.19
512.698	104.19
512.914	100.19
513.13	85.19
513.346	84.19
513.562	92.19
513.778	91.19
513.994	79.19
514.21	85.19
514.426	95.19
514.642	100.19
514.858	88.19
515.074	99.19
515.29	91.19
515.506	92.19
515.721	95.19
515.937	78.19
516.153	97.19
516.369	94.19
516.585	97.19
516.801	101.19
517.016	90.19
517.232	68.19
517.448	86.19
517.664	97.19
517.879	109.19
518.095	104.19
518.311	101.19
518.527	99.19
