Data from 10100_1_HRD10591_00043.txt Node
Date: Mon Jan 19 14:00:46 EST 2026
User: Yrep
Spectrometer: HR+D1059
Trigger mode: 1
Integration Time (sec): 1.000000E-1
Scans to average: 1
Electric dark correction enabled: true
Nonlinearity correction enabled: false
Boxcar width: 0
XAxis mode: Wavelengths
Number of Pixels in Spectrum: 2048
>>>>>Begin Spectral Data<<<<<
223.165	-13.44
223.4	-13.44
223.635	-13.44
223.869	-15.44
224.104	-11.44
224.338	-19.44
224.573	-3.44
224.808	-2.44
225.042	-18.44
225.277	2.56
225.511	-3.44
225.746	2.56
225.98	4.56
226.215	13.56
226.449	11.56
226.683	14.56
226.918	9.56
227.152	28.56
227.387	40.56
227.621	44.56
227.856	50.56
228.09	36.56
228.324	43.56
228.559	69.56
228.793	63.56
229.027	65.56
229.262	63.56
229.496	66.56
229.73	64.56
229.964	65.56
230.199	70.56
230.433	77.56
230.667	70.56
230.901	73.56
231.136	74.56
231.37	98.56
231.604	85.56
231.838	74.56
232.072	68.56
232.306	70.56
232.541	68.56
232.775	74.56
233.009	72.56
233.243	82.56
233.477	74.56
233.711	81.56
233.945	79.56
234.179	84.56
234.413	86.56
234.647	66.56
234.881	72.56
235.115	83.56
235.349	81.56
235.583	77.56
235.817	83.56
236.051	82.56
236.285	80.56
236.519	68.56
236.753	76.56
236.987	61.56
237.221	70.56
237.455	83.56
237.689	66.56
237.922	66.56
238.156	85.56
238.39	76.56
238.624	60.56
238.858	80.56
239.091	84.56
239.325	60.56
239.559	63.56
239.793	87.56
240.027	78.56
240.26	81.56
240.494	70.56
240.728	59.56
240.961	62.56
241.195	76.56
241.429	79.56
241.662	77.56
241.896	82.56
242.13	76.56
242.363	90.56
242.597	83.56
242.83	72.56
243.064	64.56
243.298	66.56
243.531	79.56
243.765	70.56
243.998	66.56
244.232	75.56
244.465	66.56
244.699	74.56
244.932	78.56
245.166	67.56
245.399	71.56
245.633	83.56
245.866	77.56
246.099	76.56
246.333	90.56
246.566	81.56
246.8	83.56
247.033	75.56
247.266	80.56
247.5	65.56
247.733	65.56
247.966	78.56
248.2	78.56
248.433	79.56
248.666	89.56
248.899	68.56
249.133	78.56
249.366	91.56
249.599	68.56
249.832	76.56
250.066	73.56
250.299	96.56
250.532	81.56
250.765	91.56
250.998	74.56
251.231	70.56
251.465	74.56
251.698	72.56
251.931	74.56
252.164	81.56
252.397	99.56
252.63	75.56
252.863	66.56
253.096	91.56
253.329	78.56
253.562	84.56
253.795	86.56
254.028	71.56
254.261	66.56
254.494	64.56
254.727	78.56
254.96	76.56
255.193	67.56
255.426	68.56
255.659	76.56
255.892	80.56
256.124	75.56
256.357	81.56
256.59	82.56
256.823	78.56
257.056	71.56
257.289	70.56
257.521	89.56
257.754	73.56
257.987	76.56
258.22	78.56
258.452	80.56
258.685	85.56
258.918	84.56
259.151	86.56
259.383	87.56
259.616	69.56
259.849	86.56
260.081	68.56
260.314	82.56
260.547	68.56
260.779	68.56
261.012	70.56
261.244	82.56
261.477	87.56
261.71	88.56
261.942	78.56
262.175	92.56
262.407	75.56
262.64	79.56
262.872	81.56
263.105	74.56
263.337	89.56
263.57	77.56
263.802	63.56
264.035	75.56
264.267	79.56
264.499	70.56
264.732	79.56
264.964	84.56
265.197	82.56
265.429	80.56
265.661	71.56
265.894	77.56
266.126	86.56
266.358	81.56
266.591	78.56
266.823	86.56
267.055	82.56
267.287	80.56
267.52	69.56
267.752	77.56
267.984	83.56
268.216	78.56
268.448	82.56
268.681	81.56
268.913	81.56
269.145	69.56
269.377	69.56
269.609	71.56
269.841	85.56
270.073	73.56
270.306	83.56
270.538	92.56
270.77	80.56
271.002	70.56
271.234	100.56
271.466	77.56
271.698	90.56
271.93	78.56
272.162	72.56
272.394	85.56
272.626	81.56
272.858	94.56
273.09	88.56
273.322	79.56
273.553	70.56
273.785	74.56
274.017	95.56
274.249	88.56
274.481	80.56
274.713	86.56
274.945	83.56
275.176	82.56
275.408	77.56
275.64	88.56
275.872	85.56
276.104	88.56
276.335	80.56
276.567	67.56
276.799	62.56
277.031	80.56
277.262	75.56
277.494	87.56
277.726	92.56
277.957	79.56
278.189	71.56
278.421	90.56
278.652	87.56
278.884	75.56
279.115	73.56
279.347	87.56
279.579	91.56
279.81	89.56
280.042	93.56
280.273	73.56
280.505	74.56
280.736	82.56
280.968	82.56
281.199	75.56
281.431	72.56
281.662	86.56
281.894	82.56
282.125	71.56
282.356	89.56
282.588	86.56
282.819	66.56
283.051	85.56
283.282	76.56
283.513	72.56
283.745	72.56
283.976	86.56
284.207	82.56
284.439	94.56
284.67	94.56
284.901	90.56
285.132	89.56
285.364	72.56
285.595	74.56
285.826	72.56
286.057	86.56
286.288	79.56
286.52	85.56
286.751	94.56
286.982	88.56
287.213	78.56
287.444	78.56
287.675	63.56
287.906	76.56
288.138	90.56
288.369	87.56
288.6	84.56
288.831	85.56
289.062	88.56
289.293	84.56
289.524	87.56
289.755	87.56
289.986	77.56
290.217	76.56
290.448	86.56
290.679	89.56
290.91	68.56
291.141	87.56
291.371	77.56
291.602	77.56
291.833	77.56
292.064	77.56
292.295	72.56
292.526	57.56
292.757	70.56
292.987	74.56
293.218	86.56
293.449	81.56
293.68	86.56
293.91	71.56
294.141	67.56
294.372	84.56
294.603	72.56
294.833	80.56
295.064	99.56
295.295	88.56
295.525	72.56
295.756	94.56
295.987	84.56
296.217	83.56
296.448	82.56
296.679	87.56
296.909	83.56
297.14	75.56
297.37	91.56
297.601	103.56
297.831	80.56
298.062	91.56
298.292	76.56
298.523	75.56
298.753	82.56
298.984	82.56
299.214	72.56
299.445	86.56
299.675	80.56
299.905	82.56
300.136	84.56
300.366	76.56
300.597	86.56
300.827	88.56
301.057	72.56
301.288	79.56
301.518	87.56
301.748	85.56
301.979	101.56
302.209	79.56
302.439	76.56
302.669	76.56
302.9	89.56
303.13	85.56
303.36	84.56
303.59	86.56
303.82	91.56
304.051	80.56
304.281	78.56
304.511	75.56
304.741	95.56
304.971	92.56
305.201	84.56
305.431	63.56
305.661	81.56
305.891	103.56
306.121	93.56
306.352	88.56
306.582	90.56
306.812	78.56
307.042	84.56
307.272	90.56
307.502	81.56
307.731	74.56
307.961	83.56
308.191	80.56
308.421	82.56
308.651	84.56
308.881	79.56
309.111	100.56
309.341	72.56
309.571	79.56
309.8	80.56
310.03	80.56
310.26	81.56
310.49	74.56
310.72	71.56
310.949	90.56
311.179	86.56
311.409	78.56
311.639	80.56
311.868	89.56
312.098	70.56
312.328	73.56
312.557	79.56
312.787	86.56
313.017	83.56
313.246	96.56
313.476	93.56
313.706	83.56
313.935	76.56
314.165	90.56
314.394	80.56
314.624	88.56
314.853	82.56
315.083	79.56
315.312	95.56
315.542	98.56
315.771	95.56
316.001	92.56
316.23	85.56
316.46	85.56
316.689	81.56
316.919	85.56
317.148	87.56
317.377	84.56
317.607	94.56
317.836	93.56
318.065	100.56
318.295	87.56
318.524	89.56
318.753	78.56
318.983	78.56
319.212	82.56
319.441	87.56
319.67	86.56
319.9	82.56
320.129	80.56
320.358	87.56
320.587	79.56
320.816	87.56
321.046	75.56
321.275	77.56
321.504	81.56
321.733	82.56
321.962	91.56
322.191	64.56
322.42	63.56
322.649	80.56
322.878	86.56
323.108	94.56
323.337	84.56
323.566	77.56
323.795	72.56
324.024	83.56
324.253	70.56
324.482	106.56
324.71	83.56
324.939	86.56
325.168	82.56
325.397	91.56
325.626	92.56
325.855	85.56
326.084	88.56
326.313	84.56
326.542	81.56
326.77	80.56
326.999	78.56
327.228	95.56
327.457	80.56
327.686	78.56
327.914	85.56
328.143	95.56
328.372	82.56
328.6	90.56
328.829	75.56
329.058	77.56
329.287	86.56
329.515	95.56
329.744	95.56
329.972	83.56
330.201	89.56
330.43	82.56
330.658	82.56
330.887	84.56
331.115	74.56
331.344	92.56
331.572	87.56
331.801	66.56
332.03	68.56
332.258	78.56
332.486	78.56
332.715	80.56
332.943	78.56
333.172	102.56
333.4	84.56
333.629	74.56
333.857	77.56
334.085	85.56
334.314	97.56
334.542	82.56
334.771	82.56
334.999	94.56
335.227	90.56
335.455	68.56
335.684	80.56
335.912	90.56
336.14	74.56
336.369	92.56
336.597	71.56
336.825	67.56
337.053	74.56
337.281	82.56
337.51	67.56
337.738	90.56
337.966	80.56
338.194	82.56
338.422	87.56
338.65	86.56
338.878	76.56
339.106	75.56
339.334	74.56
339.562	81.56
339.79	85.56
340.018	81.56
340.246	70.56
340.474	84.56
340.702	89.56
340.93	81.56
341.158	88.56
341.386	80.56
341.614	74.56
341.842	78.56
342.07	87.56
342.298	78.56
342.526	73.56
342.754	83.56
342.981	63.56
343.209	90.56
343.437	92.56
343.665	76.56
343.893	77.56
344.12	102.56
344.348	81.56
344.576	78.56
344.804	64.56
345.031	93.56
345.259	95.56
345.487	83.56
345.714	91.56
345.942	65.56
346.17	83.56
346.397	78.56
346.625	64.56
346.853	95.56
347.08	74.56
347.308	86.56
347.535	68.56
347.763	81.56
347.99	87.56
348.218	77.56
348.445	92.56
348.673	65.56
348.9	58.56
349.128	82.56
349.355	72.56
349.583	87.56
349.81	92.56
350.037	86.56
350.265	84.56
350.492	85.56
350.72	67.56
350.947	82.56
351.174	86.56
351.402	84.56
351.629	75.56
351.856	76.56
352.083	75.56
352.311	78.56
352.538	106.56
352.765	88.56
352.992	88.56
353.22	79.56
353.447	80.56
353.674	93.56
353.901	95.56
354.128	88.56
354.355	89.56
354.583	81.56
354.81	82.56
355.037	86.56
355.264	102.56
355.491	79.56
355.718	79.56
355.945	84.56
356.172	74.56
356.399	73.56
356.626	80.56
356.853	91.56
357.08	78.56
357.307	72.56
357.534	68.56
357.761	82.56
357.988	82.56
358.215	90.56
358.441	78.56
358.668	85.56
358.895	81.56
359.122	86.56
359.349	83.56
359.576	83.56
359.802	72.56
360.029	80.56
360.256	65.56
360.483	90.56
360.709	78.56
360.936	85.56
361.163	69.56
361.39	91.56
361.616	73.56
361.843	68.56
362.07	101.56
362.296	87.56
362.523	76.56
362.749	92.56
362.976	75.56
363.203	91.56
363.429	72.56
363.656	87.56
363.882	76.56
364.109	84.56
364.335	85.56
364.562	101.56
364.788	91.56
365.015	82.56
365.241	81.56
365.468	92.56
365.694	95.56
365.92	80.56
366.147	83.56
366.373	70.56
366.599	79.56
366.826	83.56
367.052	77.56
367.278	84.56
367.505	86.56
367.731	76.56
367.957	82.56
368.184	83.56
368.41	96.56
368.636	80.56
368.862	86.56
369.089	92.56
369.315	80.56
369.541	85.56
369.767	88.56
369.993	89.56
370.219	80.56
370.445	78.56
370.672	99.56
370.898	81.56
371.124	74.56
371.35	86.56
371.576	72.56
371.802	71.56
372.028	84.56
372.254	81.56
372.48	72.56
372.706	80.56
372.932	70.56
373.158	91.56
373.384	96.56
373.61	97.56
373.835	92.56
374.061	69.56
374.287	90.56
374.513	78.56
374.739	75.56
374.965	94.56
375.191	90.56
375.416	75.56
375.642	86.56
375.868	89.56
376.094	75.56
376.319	65.56
376.545	82.56
376.771	82.56
376.997	95.56
377.222	84.56
377.448	80.56
377.674	89.56
377.899	88.56
378.125	91.56
378.35	81.56
378.576	77.56
378.802	71.56
379.027	80.56
379.253	100.56
379.478	87.56
379.704	75.56
379.929	84.56
380.155	85.56
380.38	84.56
380.606	83.56
380.831	83.56
381.057	78.56
381.282	87.56
381.507	70.56
381.733	85.56
381.958	87.56
382.184	86.56
382.409	86.56
382.634	96.56
382.86	88.56
383.085	76.56
383.31	81.56
383.535	89.56
383.761	79.56
383.986	90.56
384.211	86.56
384.436	76.56
384.662	83.56
384.887	79.56
385.112	79.56
385.337	86.56
385.562	96.56
385.787	92.56
386.013	91.56
386.238	78.56
386.463	76.56
386.688	78.56
386.913	85.56
387.138	86.56
387.363	83.56
387.588	90.56
387.813	81.56
388.038	74.56
388.263	97.56
388.488	90.56
388.713	80.56
388.938	81.56
389.163	79.56
389.387	77.56
389.612	81.56
389.837	80.56
390.062	82.56
390.287	85.56
390.512	75.56
390.736	82.56
390.961	72.56
391.186	82.56
391.411	78.56
391.636	87.56
391.86	76.56
392.085	85.56
392.31	74.56
392.534	72.56
392.759	95.56
392.984	98.56
393.208	158.56
393.433	219.56
393.658	184.56
393.882	101.56
394.107	80.56
394.331	99.56
394.556	83.56
394.78	99.56
395.005	83.56
395.229	78.56
395.454	100.56
395.678	80.56
395.903	84.56
396.127	94.56
396.352	106.56
396.576	119.56
396.801	174.56
397.025	210.56
397.249	119.56
397.474	90.56
397.698	89.56
397.922	80.56
398.147	98.56
398.371	94.56
398.595	81.56
398.82	62.56
399.044	74.56
399.268	83.56
399.492	84.56
399.717	90.56
399.941	84.56
400.165	105.56
400.389	93.56
400.613	85.56
400.837	97.56
401.062	80.56
401.286	64.56
401.51	77.56
401.734	87.56
401.958	76.56
402.182	74.56
402.406	76.56
402.63	87.56
402.854	68.56
403.078	80.56
403.302	72.56
403.526	81.56
403.75	73.56
403.974	71.56
404.198	80.56
404.422	81.56
404.645	76.56
404.869	73.56
405.093	76.56
405.317	73.56
405.541	72.56
405.765	82.56
405.988	72.56
406.212	81.56
406.436	85.56
406.66	75.56
406.883	88.56
407.107	65.56
407.331	83.56
407.555	78.56
407.778	84.56
408.002	86.56
408.226	75.56
408.449	75.56
408.673	71.56
408.896	75.56
409.12	71.56
409.344	71.56
409.567	84.56
409.791	74.56
410.014	90.56
410.238	85.56
410.461	76.56
410.685	65.56
410.908	94.56
411.132	96.56
411.355	80.56
411.578	77.56
411.802	71.56
412.025	84.56
412.249	90.56
412.472	76.56
412.695	76.56
412.919	81.56
413.142	81.56
413.365	70.56
413.589	71.56
413.812	79.56
414.035	75.56
414.258	91.56
414.482	83.56
414.705	63.56
414.928	82.56
415.151	88.56
415.374	82.56
415.597	81.56
415.821	80.56
416.044	73.56
416.267	83.56
416.49	75.56
416.713	65.56
416.936	72.56
417.159	76.56
417.382	66.56
417.605	70.56
417.828	86.56
418.051	87.56
418.274	74.56
418.497	94.56
418.72	69.56
418.943	76.56
419.166	84.56
419.389	78.56
419.611	82.56
419.834	83.56
420.057	83.56
420.28	84.56
420.503	66.56
420.726	76.56
420.948	83.56
421.171	84.56
421.394	89.56
421.617	82.56
421.839	81.56
422.062	85.56
422.285	97.56
422.507	126.56
422.73	162.56
422.953	149.56
423.175	94.56
423.398	92.56
423.621	90.56
423.843	75.56
424.066	88.56
424.288	84.56
424.511	86.56
424.733	80.56
424.956	99.56
425.178	84.56
425.401	78.56
425.623	73.56
425.846	79.56
426.068	87.56
426.291	75.56
426.513	91.56
426.735	89.56
426.958	85.56
427.18	87.56
427.402	73.56
427.625	80.56
427.847	86.56
428.069	93.56
428.292	94.56
428.514	65.56
428.736	78.56
428.958	85.56
429.181	91.56
429.403	83.56
429.625	80.56
429.847	76.56
430.069	102.56
430.292	99.56
430.514	96.56
430.736	84.56
430.958	93.56
431.18	84.56
431.402	86.56
431.624	90.56
431.846	93.56
432.068	90.56
432.29	71.56
432.512	74.56
432.734	63.56
432.956	72.56
433.178	81.56
433.4	64.56
433.622	91.56
433.844	82.56
434.066	76.56
434.287	79.56
434.509	82.56
434.731	84.56
434.953	92.56
435.175	87.56
435.397	80.56
435.618	80.56
435.84	81.56
436.062	86.56
436.284	80.56
436.505	85.56
436.727	83.56
436.949	80.56
437.17	66.56
437.392	67.56
437.614	75.56
437.835	74.56
438.057	82.56
438.278	72.56
438.5	88.56
438.721	82.56
438.943	68.56
439.165	79.56
439.386	82.56
439.608	84.56
439.829	86.56
440.05	80.56
440.272	83.56
440.493	75.56
440.715	86.56
440.936	81.56
441.158	79.56
441.379	70.56
441.6	79.56
441.822	88.56
442.043	68.56
442.264	81.56
442.486	82.56
442.707	98.56
442.928	82.56
443.149	98.56
443.371	89.56
443.592	112.56
443.813	113.56
444.034	92.56
444.255	79.56
444.476	92.56
444.698	88.56
444.919	78.56
445.14	141.56
445.361	121.56
445.582	116.56
445.803	99.56
446.024	74.56
446.245	79.56
446.466	86.56
446.687	78.56
446.908	88.56
447.129	81.56
447.35	80.56
447.571	75.56
447.792	78.56
448.013	79.56
448.234	79.56
448.455	91.56
448.675	87.56
448.896	89.56
449.117	97.56
449.338	69.56
449.559	88.56
449.779	78.56
450	74.56
450.221	71.56
450.442	67.56
450.662	76.56
450.883	67.56
451.104	76.56
451.324	79.56
451.545	84.56
451.766	80.56
451.986	86.56
452.207	87.56
452.428	83.56
452.648	84.56
452.869	83.56
453.089	81.56
453.31	71.56
453.53	78.56
453.751	80.56
453.971	79.56
454.192	90.56
454.412	64.56
454.633	74.56
454.853	86.56
455.073	86.56
455.294	78.56
455.514	86.56
455.734	78.56
455.955	77.56
456.175	69.56
456.395	73.56
456.616	78.56
456.836	66.56
457.056	76.56
457.276	82.56
457.497	93.56
457.717	88.56
457.937	100.56
458.157	82.56
458.377	85.56
458.598	79.56
458.818	110.56
459.038	74.56
459.258	87.56
459.478	69.56
459.698	60.56
459.918	86.56
460.138	80.56
460.358	81.56
460.578	88.56
460.798	79.56
461.018	78.56
461.238	89.56
461.458	90.56
461.678	68.56
461.898	80.56
462.118	91.56
462.338	79.56
462.558	96.56
462.777	88.56
462.997	66.56
463.217	89.56
463.437	77.56
463.657	78.56
463.876	70.56
464.096	78.56
464.316	79.56
464.536	93.56
464.755	82.56
464.975	73.56
465.195	96.56
465.414	78.56
465.634	70.56
465.854	89.56
466.073	86.56
466.293	72.56
466.512	74.56
466.732	72.56
466.951	71.56
467.171	68.56
467.391	87.56
467.61	77.56
467.829	76.56
468.049	86.56
468.268	75.56
468.488	93.56
468.707	67.56
468.927	86.56
469.146	76.56
469.365	79.56
469.585	92.56
469.804	77.56
470.023	82.56
470.243	74.56
470.462	102.56
470.681	70.56
470.901	86.56
471.12	83.56
471.339	105.56
471.558	83.56
471.777	78.56
471.997	78.56
472.216	81.56
472.435	82.56
472.654	81.56
472.873	91.56
473.092	92.56
473.311	81.56
473.53	62.56
473.749	81.56
473.968	98.56
474.187	83.56
474.406	66.56
474.625	82.56
474.844	92.56
475.063	82.56
475.282	83.56
475.501	85.56
475.72	76.56
475.939	69.56
476.158	81.56
476.377	80.56
476.596	85.56
476.814	81.56
477.033	75.56
477.252	84.56
477.471	96.56
477.69	87.56
477.908	71.56
478.127	94.56
478.346	90.56
478.564	82.56
478.783	83.56
479.002	78.56
479.22	75.56
479.439	89.56
479.658	85.56
479.876	82.56
480.095	77.56
480.313	78.56
480.532	76.56
480.751	89.56
480.969	86.56
481.188	73.56
481.406	80.56
481.624	80.56
481.843	67.56
482.061	69.56
482.28	72.56
482.498	73.56
482.717	82.56
482.935	98.56
483.153	85.56
483.372	94.56
483.59	90.56
483.808	82.56
484.027	77.56
484.245	83.56
484.463	85.56
484.681	86.56
484.9	82.56
485.118	80.56
485.336	70.56
485.554	84.56
485.772	74.56
485.99	74.56
486.209	94.56
486.427	78.56
486.645	93.56
486.863	85.56
487.081	93.56
487.299	81.56
487.517	91.56
487.735	82.56
487.953	97.56
488.171	86.56
488.389	85.56
488.607	83.56
488.825	79.56
489.043	78.56
489.261	87.56
489.479	81.56
489.696	68.56
489.914	80.56
490.132	76.56
490.35	88.56
490.568	82.56
490.786	93.56
491.003	83.56
491.221	73.56
491.439	75.56
491.657	80.56
491.874	68.56
492.092	64.56
492.31	84.56
492.527	88.56
492.745	81.56
492.963	84.56
493.18	83.56
493.398	81.56
493.615	77.56
493.833	81.56
494.05	78.56
494.268	92.56
494.485	87.56
494.703	77.56
494.92	85.56
495.138	80.56
495.355	88.56
495.573	91.56
495.79	94.56
496.008	98.56
496.225	99.56
496.442	90.56
496.66	91.56
496.877	84.56
497.094	80.56
497.312	76.56
497.529	80.56
497.746	71.56
497.963	83.56
498.181	88.56
498.398	80.56
498.615	85.56
498.832	73.56
499.049	71.56
499.267	80.56
499.484	80.56
499.701	94.56
499.918	82.56
500.135	78.56
500.352	72.56
500.569	83.56
500.786	91.56
501.003	93.56
501.22	78.56
501.437	68.56
501.654	84.56
501.871	79.56
502.088	83.56
502.305	78.56
502.522	77.56
502.739	80.56
502.956	97.56
503.172	74.56
503.389	78.56
503.606	71.56
503.823	74.56
504.04	78.56
504.256	86.56
504.473	87.56
504.69	76.56
504.907	82.56
505.123	67.56
505.34	86.56
505.557	89.56
505.773	82.56
505.99	97.56
506.207	75.56
506.423	80.56
506.64	95.56
506.856	70.56
507.073	91.56
507.289	88.56
507.506	84.56
507.722	76.56
507.939	84.56
508.155	77.56
508.372	81.56
508.588	84.56
508.805	77.56
509.021	78.56
509.238	84.56
509.454	71.56
509.67	72.56
509.887	90.56
510.103	85.56
510.319	84.56
510.536	85.56
510.752	76.56
510.968	84.56
511.184	71.56
511.401	64.56
511.617	81.56
511.833	88.56
512.049	74.56
512.265	83.56
512.481	94.56
512.698	91.56
512.914	90.56
513.13	67.56
513.346	82.56
513.562	66.56
513.778	82.56
513.994	73.56
514.21	76.56
514.426	88.56
514.642	81.56
514.858	77.56
515.074	86.56
515.29	84.56
515.506	66.56
515.721	78.56
515.937	74.56
516.153	68.56
516.369	76.56
516.585	81.56
516.801	74.56
517.016	73.56
517.232	88.56
517.448	91.56
517.664	72.56
517.879	82.56
518.095	93.56
518.311	89.56
518.527	84.56
518.742	75.56
518.958	91.56
519.173	89.56
519.389	72.56
519.605	90.56
519.82	92.56
