Data from 10100_1_HRD10591_00044.txt Node
Date: Mon Jan 19 14:00:46 EST 2026
User: Yrep
Spectrometer: HR+D1059
Trigger mode: 1
Integration Time (sec): 1.000000E-1
Scans to average: 1
Electric dark correction enabled: true
Nonlinearity correction enabled: false
Boxcar width: 0
XAxis mode: Wavelengths
Number of Pixels in Spectrum: 2048
>>>>>Begin Spectral Data<<<<<
223.165	-6.38
223.4	-6.38
223.635	-6.38
223.869	-11.38
224.104	-19.38
224.338	-37.38
224.573	-7.38
224.808	-9.38
225.042	-7.38
225.277	-4.38
225.511	-0.38
225.746	10.62
225.98	4.62
226.215	1.62
226.449	5.62
226.683	24.62
226.918	20.62
227.152	35.62
227.387	30.62
227.621	28.62
227.856	50.62
228.09	37.62
228.324	54.62
228.559	64.62
228.793	57.62
229.027	74.62
229.262	64.62
229.496	78.62
229.73	71.62
229.964	80.62
230.199	78.62
230.433	60.62
230.667	74.62
230.901	78.62
231.136	84.62
231.37	78.62
231.604	83.62
231.838	74.62
232.072	68.62
232.306	95.62
232.541	91.62
232.775	89.62
233.009	78.62
233.243	68.62
233.477	82.62
233.711	86.62
233.945	85.62
234.179	74.62
234.413	88.62
234.647	96.62
234.881	90.62
235.115	70.62
235.349	84.62
235.583	83.62
235.817	83.62
236.051	75.62
236.285	89.62
236.519	93.62
236.753	74.62
236.987	72.62
237.221	87.62
237.455	71.62
237.689	83.62
237.922	86.62
238.156	79.62
238.39	76.62
238.624	83.62
238.858	85.62
239.091	88.62
239.325	78.62
239.559	88.62
239.793	84.62
240.027	92.62
240.26	86.62
240.494	81.62
240.728	84.62
240.961	79.62
241.195	78.62
241.429	84.62
241.662	80.62
241.896	70.62
242.13	79.62
242.363	68.62
242.597	78.62
242.83	86.62
243.064	90.62
243.298	88.62
243.531	85.62
243.765	80.62
243.998	81.62
244.232	87.62
244.465	76.62
244.699	88.62
244.932	83.62
245.166	72.62
245.399	82.62
245.633	88.62
245.866	88.62
246.099	89.62
246.333	92.62
246.566	88.62
246.8	76.62
247.033	85.62
247.266	93.62
247.5	76.62
247.733	90.62
247.966	81.62
248.2	90.62
248.433	85.62
248.666	83.62
248.899	82.62
249.133	78.62
249.366	86.62
249.599	71.62
249.832	88.62
250.066	87.62
250.299	77.62
250.532	69.62
250.765	76.62
250.998	79.62
251.231	77.62
251.465	72.62
251.698	81.62
251.931	91.62
252.164	78.62
252.397	90.62
252.63	89.62
252.863	90.62
253.096	70.62
253.329	80.62
253.562	67.62
253.795	75.62
254.028	84.62
254.261	72.62
254.494	81.62
254.727	88.62
254.96	85.62
255.193	80.62
255.426	79.62
255.659	91.62
255.892	85.62
256.124	99.62
256.357	82.62
256.59	98.62
256.823	95.62
257.056	74.62
257.289	103.62
257.521	90.62
257.754	83.62
257.987	84.62
258.22	86.62
258.452	76.62
258.685	91.62
258.918	77.62
259.151	88.62
259.383	82.62
259.616	82.62
259.849	85.62
260.081	84.62
260.314	79.62
260.547	76.62
260.779	86.62
261.012	86.62
261.244	82.62
261.477	91.62
261.71	82.62
261.942	93.62
262.175	100.62
262.407	92.62
262.64	75.62
262.872	71.62
263.105	86.62
263.337	88.62
263.57	77.62
263.802	87.62
264.035	81.62
264.267	93.62
264.499	82.62
264.732	73.62
264.964	86.62
265.197	89.62
265.429	80.62
265.661	82.62
265.894	87.62
266.126	85.62
266.358	90.62
266.591	85.62
266.823	92.62
267.055	78.62
267.287	91.62
267.52	78.62
267.752	88.62
267.984	74.62
268.216	83.62
268.448	81.62
268.681	77.62
268.913	77.62
269.145	81.62
269.377	94.62
269.609	90.62
269.841	78.62
270.073	85.62
270.306	88.62
270.538	93.62
270.77	94.62
271.002	83.62
271.234	89.62
271.466	90.62
271.698	94.62
271.93	89.62
272.162	92.62
272.394	85.62
272.626	107.62
272.858	78.62
273.09	82.62
273.322	95.62
273.553	87.62
273.785	85.62
274.017	81.62
274.249	74.62
274.481	76.62
274.713	93.62
274.945	93.62
275.176	82.62
275.408	78.62
275.64	70.62
275.872	76.62
276.104	71.62
276.335	83.62
276.567	82.62
276.799	80.62
277.031	81.62
277.262	84.62
277.494	88.62
277.726	81.62
277.957	80.62
278.189	88.62
278.421	85.62
278.652	82.62
278.884	92.62
279.115	76.62
279.347	77.62
279.579	86.62
279.81	90.62
280.042	90.62
280.273	93.62
280.505	85.62
280.736	97.62
280.968	91.62
281.199	90.62
281.431	82.62
281.662	81.62
281.894	91.62
282.125	100.62
282.356	102.62
282.588	72.62
282.819	86.62
283.051	88.62
283.282	92.62
283.513	89.62
283.745	86.62
283.976	89.62
284.207	76.62
284.439	90.62
284.67	86.62
284.901	78.62
285.132	83.62
285.364	94.62
285.595	79.62
285.826	88.62
286.057	88.62
286.288	97.62
286.52	73.62
286.751	77.62
286.982	89.62
287.213	83.62
287.444	89.62
287.675	84.62
287.906	90.62
288.138	86.62
288.369	88.62
288.6	88.62
288.831	88.62
289.062	93.62
289.293	74.62
289.524	90.62
289.755	91.62
289.986	87.62
290.217	82.62
290.448	78.62
290.679	87.62
290.91	86.62
291.141	84.62
291.371	101.62
291.602	96.62
291.833	86.62
292.064	81.62
292.295	91.62
292.526	81.62
292.757	83.62
292.987	86.62
293.218	94.62
293.449	88.62
293.68	92.62
293.91	93.62
294.141	94.62
294.372	77.62
294.603	93.62
294.833	90.62
295.064	92.62
295.295	79.62
295.525	104.62
295.756	104.62
295.987	87.62
296.217	87.62
296.448	84.62
296.679	94.62
296.909	84.62
297.14	85.62
297.37	94.62
297.601	98.62
297.831	85.62
298.062	93.62
298.292	86.62
298.523	74.62
298.753	94.62
298.984	88.62
299.214	80.62
299.445	79.62
299.675	95.62
299.905	95.62
300.136	93.62
300.366	84.62
300.597	85.62
300.827	90.62
301.057	78.62
301.288	90.62
301.518	92.62
301.748	87.62
301.979	97.62
302.209	95.62
302.439	98.62
302.669	86.62
302.9	87.62
303.13	102.62
303.36	93.62
303.59	83.62
303.82	92.62
304.051	85.62
304.281	79.62
304.511	102.62
304.741	84.62
304.971	88.62
305.201	86.62
305.431	90.62
305.661	83.62
305.891	97.62
306.121	84.62
306.352	89.62
306.582	93.62
306.812	84.62
307.042	84.62
307.272	84.62
307.502	81.62
307.731	83.62
307.961	109.62
308.191	83.62
308.421	88.62
308.651	87.62
308.881	87.62
309.111	94.62
309.341	80.62
309.571	108.62
309.8	81.62
310.03	92.62
310.26	89.62
310.49	87.62
310.72	90.62
310.949	94.62
311.179	100.62
311.409	94.62
311.639	84.62
311.868	85.62
312.098	93.62
312.328	101.62
312.557	103.62
312.787	85.62
313.017	92.62
313.246	100.62
313.476	82.62
313.706	75.62
313.935	85.62
314.165	93.62
314.394	77.62
314.624	88.62
314.853	86.62
315.083	91.62
315.312	99.62
315.542	90.62
315.771	75.62
316.001	90.62
316.23	101.62
316.46	93.62
316.689	96.62
316.919	104.62
317.148	87.62
317.377	74.62
317.607	81.62
317.836	94.62
318.065	107.62
318.295	106.62
318.524	84.62
318.753	98.62
318.983	86.62
319.212	99.62
319.441	90.62
319.67	88.62
319.9	102.62
320.129	95.62
320.358	94.62
320.587	103.62
320.816	73.62
321.046	87.62
321.275	95.62
321.504	92.62
321.733	91.62
321.962	91.62
322.191	70.62
322.42	89.62
322.649	84.62
322.878	84.62
323.108	90.62
323.337	96.62
323.566	96.62
323.795	82.62
324.024	72.62
324.253	82.62
324.482	97.62
324.71	84.62
324.939	105.62
325.168	96.62
325.397	82.62
325.626	88.62
325.855	82.62
326.084	89.62
326.313	95.62
326.542	83.62
326.77	89.62
326.999	94.62
327.228	79.62
327.457	80.62
327.686	79.62
327.914	80.62
328.143	92.62
328.372	74.62
328.6	73.62
328.829	97.62
329.058	100.62
329.287	76.62
329.515	96.62
329.744	80.62
329.972	96.62
330.201	89.62
330.43	90.62
330.658	80.62
330.887	102.62
331.115	97.62
331.344	90.62
331.572	94.62
331.801	92.62
332.03	88.62
332.258	88.62
332.486	84.62
332.715	89.62
332.943	100.62
333.172	99.62
333.4	76.62
333.629	116.62
333.857	86.62
334.085	85.62
334.314	79.62
334.542	89.62
334.771	97.62
334.999	93.62
335.227	96.62
335.455	85.62
335.684	98.62
335.912	84.62
336.14	84.62
336.369	87.62
336.597	97.62
336.825	93.62
337.053	100.62
337.281	92.62
337.51	87.62
337.738	99.62
337.966	94.62
338.194	93.62
338.422	81.62
338.65	91.62
338.878	84.62
339.106	86.62
339.334	104.62
339.562	85.62
339.79	92.62
340.018	82.62
340.246	90.62
340.474	94.62
340.702	87.62
340.93	88.62
341.158	82.62
341.386	93.62
341.614	84.62
341.842	103.62
342.07	92.62
342.298	83.62
342.526	88.62
342.754	89.62
342.981	89.62
343.209	97.62
343.437	98.62
343.665	86.62
343.893	100.62
344.12	89.62
344.348	78.62
344.576	83.62
344.804	78.62
345.031	84.62
345.259	99.62
345.487	90.62
345.714	86.62
345.942	96.62
346.17	84.62
346.397	98.62
346.625	87.62
346.853	81.62
347.08	95.62
347.308	85.62
347.535	95.62
347.763	99.62
347.99	89.62
348.218	79.62
348.445	78.62
348.673	86.62
348.9	90.62
349.128	94.62
349.355	85.62
349.583	86.62
349.81	89.62
350.037	92.62
350.265	88.62
350.492	88.62
350.72	92.62
350.947	88.62
351.174	91.62
351.402	84.62
351.629	98.62
351.856	80.62
352.083	94.62
352.311	85.62
352.538	81.62
352.765	86.62
352.992	83.62
353.22	84.62
353.447	95.62
353.674	81.62
353.901	83.62
354.128	88.62
354.355	86.62
354.583	82.62
354.81	90.62
355.037	79.62
355.264	92.62
355.491	66.62
355.718	76.62
355.945	78.62
356.172	82.62
356.399	98.62
356.626	81.62
356.853	86.62
357.08	98.62
357.307	96.62
357.534	86.62
357.761	103.62
357.988	80.62
358.215	96.62
358.441	98.62
358.668	75.62
358.895	81.62
359.122	104.62
359.349	99.62
359.576	85.62
359.802	82.62
360.029	97.62
360.256	94.62
360.483	89.62
360.709	82.62
360.936	84.62
361.163	88.62
361.39	87.62
361.616	88.62
361.843	87.62
362.07	96.62
362.296	98.62
362.523	96.62
362.749	84.62
362.976	92.62
363.203	80.62
363.429	82.62
363.656	92.62
363.882	83.62
364.109	75.62
364.335	99.62
364.562	100.62
364.788	87.62
365.015	88.62
365.241	90.62
365.468	93.62
365.694	84.62
365.92	92.62
366.147	94.62
366.373	85.62
366.599	97.62
366.826	89.62
367.052	84.62
367.278	84.62
367.505	84.62
367.731	95.62
367.957	96.62
368.184	80.62
368.41	86.62
368.636	95.62
368.862	98.62
369.089	88.62
369.315	81.62
369.541	109.62
369.767	102.62
369.993	98.62
370.219	81.62
370.445	104.62
370.672	98.62
370.898	106.62
371.124	95.62
371.35	94.62
371.576	82.62
371.802	92.62
372.028	96.62
372.254	85.62
372.48	86.62
372.706	80.62
372.932	88.62
373.158	79.62
373.384	113.62
373.61	107.62
373.835	105.62
374.061	93.62
374.287	99.62
374.513	90.62
374.739	85.62
374.965	84.62
375.191	79.62
375.416	81.62
375.642	85.62
375.868	104.62
376.094	100.62
376.319	99.62
376.545	89.62
376.771	100.62
376.997	100.62
377.222	93.62
377.448	85.62
377.674	90.62
377.899	88.62
378.125	86.62
378.35	98.62
378.576	88.62
378.802	89.62
379.027	84.62
379.253	91.62
379.478	100.62
379.704	84.62
379.929	89.62
380.155	76.62
380.38	86.62
380.606	86.62
380.831	79.62
381.057	99.62
381.282	90.62
381.507	92.62
381.733	92.62
381.958	88.62
382.184	94.62
382.409	86.62
382.634	96.62
382.86	91.62
383.085	105.62
383.31	90.62
383.535	78.62
383.761	97.62
383.986	83.62
384.211	104.62
384.436	99.62
384.662	78.62
384.887	92.62
385.112	94.62
385.337	84.62
385.562	89.62
385.787	96.62
386.013	99.62
386.238	82.62
386.463	91.62
386.688	101.62
386.913	83.62
387.138	93.62
387.363	99.62
387.588	78.62
387.813	89.62
388.038	99.62
388.263	84.62
388.488	95.62
388.713	82.62
388.938	84.62
389.163	85.62
389.387	99.62
389.612	91.62
389.837	98.62
390.062	99.62
390.287	91.62
390.512	96.62
390.736	96.62
390.961	75.62
391.186	93.62
391.411	89.62
391.636	102.62
391.86	88.62
392.085	91.62
392.31	85.62
392.534	92.62
392.759	121.62
392.984	120.62
393.208	164.62
393.433	277.62
393.658	230.62
393.882	124.62
394.107	96.62
394.331	96.62
394.556	100.62
394.78	93.62
395.005	86.62
395.229	92.62
395.454	82.62
395.678	86.62
395.903	94.62
396.127	99.62
396.352	107.62
396.576	131.62
396.801	202.62
397.025	220.62
397.249	140.62
397.474	112.62
397.698	86.62
397.922	100.62
398.147	90.62
398.371	69.62
398.595	85.62
398.82	79.62
399.044	86.62
399.268	106.62
399.492	87.62
399.717	84.62
399.941	99.62
400.165	85.62
400.389	86.62
400.613	90.62
400.837	94.62
401.062	91.62
401.286	102.62
401.51	91.62
401.734	86.62
401.958	86.62
402.182	80.62
402.406	90.62
402.63	93.62
402.854	99.62
403.078	88.62
403.302	104.62
403.526	83.62
403.75	94.62
403.974	75.62
404.198	80.62
404.422	86.62
404.645	82.62
404.869	83.62
405.093	83.62
405.317	73.62
405.541	94.62
405.765	89.62
405.988	92.62
406.212	60.62
406.436	89.62
406.66	89.62
406.883	83.62
407.107	86.62
407.331	86.62
407.555	82.62
407.778	90.62
408.002	102.62
408.226	85.62
408.449	84.62
408.673	93.62
408.896	80.62
409.12	85.62
409.344	86.62
409.567	83.62
409.791	96.62
410.014	97.62
410.238	77.62
410.461	78.62
410.685	87.62
410.908	86.62
411.132	80.62
411.355	92.62
411.578	80.62
411.802	87.62
412.025	75.62
412.249	90.62
412.472	81.62
412.695	83.62
412.919	77.62
413.142	92.62
413.365	82.62
413.589	85.62
413.812	79.62
414.035	81.62
414.258	90.62
414.482	84.62
414.705	81.62
414.928	96.62
415.151	95.62
415.374	75.62
415.597	88.62
415.821	94.62
416.044	88.62
416.267	68.62
416.49	99.62
416.713	83.62
416.936	91.62
417.159	87.62
417.382	99.62
417.605	86.62
417.828	80.62
418.051	87.62
418.274	94.62
418.497	85.62
418.72	99.62
418.943	86.62
419.166	97.62
419.389	81.62
419.611	81.62
419.834	92.62
420.057	84.62
420.28	84.62
420.503	84.62
420.726	92.62
420.948	105.62
421.171	100.62
421.394	91.62
421.617	112.62
421.839	90.62
422.062	101.62
422.285	116.62
422.507	165.62
422.73	235.62
422.953	200.62
423.175	125.62
423.398	112.62
423.621	97.62
423.843	98.62
424.066	90.62
424.288	91.62
424.511	90.62
424.733	87.62
424.956	97.62
425.178	84.62
425.401	81.62
425.623	96.62
425.846	84.62
426.068	82.62
426.291	81.62
426.513	94.62
426.735	93.62
426.958	81.62
427.18	86.62
427.402	94.62
427.625	82.62
427.847	90.62
428.069	97.62
428.292	94.62
428.514	92.62
428.736	91.62
428.958	95.62
429.181	114.62
429.403	92.62
429.625	97.62
429.847	98.62
430.069	113.62
430.292	116.62
430.514	126.62
430.736	104.62
430.958	112.62
431.18	92.62
431.402	85.62
431.624	96.62
431.846	101.62
432.068	101.62
432.29	101.62
432.512	90.62
432.734	93.62
432.956	86.62
433.178	79.62
433.4	86.62
433.622	96.62
433.844	91.62
434.066	83.62
434.287	88.62
434.509	81.62
434.731	89.62
434.953	87.62
435.175	81.62
435.397	85.62
435.618	91.62
435.84	76.62
436.062	82.62
436.284	84.62
436.505	91.62
436.727	83.62
436.949	93.62
437.17	82.62
437.392	92.62
437.614	78.62
437.835	88.62
438.057	88.62
438.278	88.62
438.5	82.62
438.721	82.62
438.943	85.62
439.165	100.62
439.386	89.62
439.608	88.62
439.829	96.62
440.05	96.62
440.272	89.62
440.493	88.62
440.715	78.62
440.936	91.62
441.158	100.62
441.379	87.62
441.6	90.62
441.822	81.62
442.043	84.62
442.264	103.62
442.486	106.62
442.707	118.62
442.928	100.62
443.149	86.62
443.371	114.62
443.592	130.62
443.813	130.62
444.034	90.62
444.255	103.62
444.476	88.62
444.698	82.62
444.919	79.62
445.14	149.62
445.361	149.62
445.582	145.62
445.803	143.62
446.024	88.62
446.245	88.62
446.466	100.62
446.687	75.62
446.908	96.62
447.129	93.62
447.35	100.62
447.571	84.62
447.792	102.62
448.013	91.62
448.234	83.62
448.455	82.62
448.675	88.62
448.896	99.62
449.117	94.62
449.338	76.62
449.559	90.62
449.779	93.62
450	88.62
450.221	98.62
450.442	96.62
450.662	76.62
450.883	90.62
451.104	88.62
451.324	94.62
451.545	88.62
451.766	59.62
451.986	83.62
452.207	72.62
452.428	78.62
452.648	102.62
452.869	89.62
453.089	90.62
453.31	73.62
453.53	92.62
453.751	82.62
453.971	81.62
454.192	87.62
454.412	95.62
454.633	84.62
454.853	76.62
455.073	84.62
455.294	90.62
455.514	94.62
455.734	98.62
455.955	73.62
456.175	84.62
456.395	92.62
456.616	93.62
456.836	87.62
457.056	87.62
457.276	93.62
457.497	82.62
457.717	83.62
457.937	87.62
458.157	107.62
458.377	90.62
458.598	97.62
458.818	100.62
459.038	92.62
459.258	84.62
459.478	81.62
459.698	92.62
459.918	92.62
460.138	89.62
460.358	91.62
460.578	88.62
460.798	94.62
461.018	98.62
461.238	88.62
461.458	88.62
461.678	91.62
461.898	73.62
462.118	74.62
462.338	84.62
462.558	90.62
462.777	97.62
462.997	92.62
463.217	88.62
463.437	82.62
463.657	88.62
463.876	80.62
464.096	91.62
464.316	87.62
464.536	90.62
464.755	97.62
464.975	86.62
465.195	88.62
465.414	94.62
465.634	85.62
465.854	90.62
466.073	87.62
466.293	73.62
466.512	85.62
466.732	82.62
466.951	95.62
467.171	97.62
467.391	86.62
467.61	96.62
467.829	76.62
468.049	78.62
468.268	83.62
468.488	82.62
468.707	91.62
468.927	84.62
469.146	71.62
469.365	89.62
469.585	84.62
469.804	90.62
470.023	88.62
470.243	85.62
470.462	72.62
470.681	86.62
470.901	78.62
471.12	88.62
471.339	83.62
471.558	74.62
471.777	97.62
471.997	96.62
472.216	85.62
472.435	84.62
472.654	94.62
472.873	80.62
473.092	95.62
473.311	91.62
473.53	76.62
473.749	99.62
473.968	101.62
474.187	85.62
474.406	84.62
474.625	88.62
474.844	80.62
475.063	66.62
475.282	83.62
475.501	82.62
475.72	82.62
475.939	102.62
476.158	82.62
476.377	86.62
476.596	96.62
476.814	78.62
477.033	98.62
477.252	83.62
477.471	90.62
477.69	100.62
477.908	92.62
478.127	88.62
478.346	95.62
478.564	84.62
478.783	74.62
479.002	80.62
479.22	82.62
479.439	97.62
479.658	83.62
479.876	108.62
480.095	80.62
480.313	84.62
480.532	82.62
480.751	96.62
480.969	94.62
481.188	79.62
481.406	95.62
481.624	92.62
481.843	89.62
482.061	74.62
482.28	86.62
482.498	93.62
482.717	82.62
482.935	100.62
483.153	102.62
483.372	85.62
483.59	97.62
483.808	95.62
484.027	91.62
484.245	96.62
484.463	86.62
484.681	90.62
484.9	89.62
485.118	88.62
485.336	97.62
485.554	90.62
485.772	96.62
485.99	94.62
486.209	84.62
486.427	93.62
486.645	75.62
486.863	88.62
487.081	86.62
487.299	98.62
487.517	84.62
487.735	83.62
487.953	101.62
488.171	97.62
488.389	102.62
488.607	85.62
488.825	84.62
489.043	86.62
489.261	93.62
489.479	88.62
489.696	84.62
489.914	94.62
490.132	88.62
490.35	85.62
490.568	73.62
490.786	88.62
491.003	79.62
491.221	99.62
491.439	74.62
491.657	84.62
491.874	88.62
492.092	102.62
492.31	91.62
492.527	85.62
492.745	90.62
492.963	91.62
493.18	83.62
493.398	85.62
493.615	74.62
493.833	76.62
494.05	93.62
494.268	90.62
494.485	86.62
494.703	92.62
494.92	89.62
495.138	107.62
495.355	94.62
495.573	88.62
495.79	91.62
496.008	78.62
496.225	83.62
496.442	93.62
496.66	86.62
496.877	91.62
497.094	90.62
497.312	79.62
497.529	77.62
497.746	98.62
497.963	78.62
498.181	96.62
498.398	102.62
498.615	94.62
498.832	95.62
499.049	80.62
499.267	89.62
499.484	86.62
499.701	96.62
499.918	92.62
500.135	70.62
500.352	98.62
500.569	78.62
500.786	77.62
501.003	99.62
501.22	80.62
501.437	91.62
501.654	95.62
501.871	92.62
502.088	88.62
502.305	91.62
502.522	91.62
502.739	82.62
502.956	84.62
503.172	99.62
503.389	89.62
503.606	89.62
503.823	96.62
504.04	107.62
504.256	98.62
504.473	107.62
504.69	89.62
504.907	107.62
505.123	85.62
505.34	74.62
505.557	96.62
505.773	94.62
505.99	104.62
506.207	93.62
506.423	85.62
506.64	94.62
506.856	97.62
507.073	89.62
507.289	85.62
507.506	82.62
507.722	81.62
507.939	103.62
508.155	75.62
508.372	89.62
508.588	85.62
508.805	100.62
509.021	80.62
509.238	93.62
509.454	91.62
509.67	95.62
509.887	84.62
510.103	90.62
510.319	92.62
510.536	85.62
510.752	91.62
510.968	100.62
511.184	103.62
511.401	86.62
511.617	84.62
511.833	86.62
512.049	89.62
512.265	91.62
512.481	88.62
512.698	77.62
512.914	96.62
513.13	92.62
513.346	79.62
513.562	97.62
513.778	88.62
513.994	86.62
514.21	88.62
514.426	87.62
514.642	92.62
514.858	84.62
515.074	104.62
515.29	85.62
515.506	89.62
515.721	79.62
515.937	104.62
516.153	91.62
516.369	80.62
516.585	95.62
516.801	92.62
517.016	98.62
517.232	85.62
517.448	106.62
517.664	72.62
517.879	99.62
518.095	84.62
518.311	98.62
518.527	109.62
