Data from 10100_1_HRD10591_00008.txt Node
Date: Mon Jan 19 14:00:28 EST 2026
User: Yrep
Spectrometer: HR+D1059
Trigger mode: 1
Integration Time (sec): 1.000000E-1
Scans to average: 1
Electric dark correction enabled: true
Nonlinearity correction enabled: false
Boxcar width: 0
XAxis mode: Wavelengths
Number of Pixels in Spectrum: 2048
>>>>>Begin Spectral Data<<<<<
223.165	-2.19
223.4	-2.19
223.635	-2.19
223.869	-14.19
224.104	-22.19
224.338	-25.19
224.573	-19.19
224.808	-3.19
225.042	-0.19
225.277	-1.19
225.511	0.81
225.746	-7.19
225.98	4.81
226.215	20.81
226.449	10.81
226.683	17.81
226.918	16.81
227.152	22.81
227.387	32.81
227.621	35.81
227.856	38.81
228.09	50.81
228.324	37.81
228.559	61.81
228.793	55.81
229.027	65.81
229.262	52.81
229.496	50.81
229.73	53.81
229.964	69.81
230.199	75.81
230.433	81.81
230.667	76.81
230.901	72.81
231.136	77.81
231.37	84.81
231.604	73.81
231.838	83.81
232.072	80.81
232.306	70.81
232.541	82.81
232.775	73.81
233.009	71.81
233.243	72.81
233.477	77.81
233.711	80.81
233.945	71.81
234.179	95.81
234.413	91.81
234.647	71.81
234.881	83.81
235.115	65.81
235.349	79.81
235.583	83.81
235.817	80.81
236.051	82.81
236.285	82.81
236.519	80.81
236.753	68.81
236.987	75.81
237.221	81.81
237.455	67.81
237.689	69.81
237.922	77.81
238.156	85.81
238.39	71.81
238.624	82.81
238.858	71.81
239.091	73.81
239.325	70.81
239.559	87.81
239.793	72.81
240.027	70.81
240.26	69.81
240.494	85.81
240.728	77.81
240.961	69.81
241.195	74.81
241.429	82.81
241.662	66.81
241.896	81.81
242.13	70.81
242.363	67.81
242.597	71.81
242.83	77.81
243.064	77.81
243.298	78.81
243.531	83.81
243.765	75.81
243.998	69.81
244.232	69.81
244.465	55.81
244.699	82.81
244.932	83.81
245.166	72.81
245.399	75.81
245.633	70.81
245.866	80.81
246.099	81.81
246.333	75.81
246.566	89.81
246.8	72.81
247.033	57.81
247.266	69.81
247.5	82.81
247.733	61.81
247.966	75.81
248.2	73.81
248.433	82.81
248.666	85.81
248.899	61.81
249.133	74.81
249.366	59.81
249.599	74.81
249.832	85.81
250.066	75.81
250.299	73.81
250.532	81.81
250.765	78.81
250.998	75.81
251.231	78.81
251.465	71.81
251.698	80.81
251.931	89.81
252.164	78.81
252.397	87.81
252.63	82.81
252.863	78.81
253.096	82.81
253.329	79.81
253.562	95.81
253.795	75.81
254.028	78.81
254.261	76.81
254.494	83.81
254.727	91.81
254.96	72.81
255.193	79.81
255.426	80.81
255.659	74.81
255.892	75.81
256.124	80.81
256.357	85.81
256.59	76.81
256.823	78.81
257.056	84.81
257.289	74.81
257.521	80.81
257.754	83.81
257.987	86.81
258.22	81.81
258.452	87.81
258.685	78.81
258.918	72.81
259.151	70.81
259.383	82.81
259.616	84.81
259.849	94.81
260.081	77.81
260.314	70.81
260.547	77.81
260.779	77.81
261.012	80.81
261.244	76.81
261.477	71.81
261.71	83.81
261.942	80.81
262.175	84.81
262.407	69.81
262.64	91.81
262.872	84.81
263.105	79.81
263.337	80.81
263.57	72.81
263.802	77.81
264.035	69.81
264.267	90.81
264.499	79.81
264.732	78.81
264.964	90.81
265.197	87.81
265.429	75.81
265.661	88.81
265.894	86.81
266.126	92.81
266.358	71.81
266.591	91.81
266.823	77.81
267.055	77.81
267.287	67.81
267.52	83.81
267.752	79.81
267.984	61.81
268.216	77.81
268.448	88.81
268.681	84.81
268.913	77.81
269.145	83.81
269.377	78.81
269.609	78.81
269.841	84.81
270.073	93.81
270.306	76.81
270.538	74.81
270.77	71.81
271.002	73.81
271.234	95.81
271.466	83.81
271.698	83.81
271.93	78.81
272.162	75.81
272.394	77.81
272.626	77.81
272.858	81.81
273.09	67.81
273.322	83.81
273.553	72.81
273.785	75.81
274.017	83.81
274.249	82.81
274.481	90.81
274.713	70.81
274.945	68.81
275.176	85.81
275.408	90.81
275.64	89.81
275.872	62.81
276.104	75.81
276.335	93.81
276.567	63.81
276.799	84.81
277.031	72.81
277.262	80.81
277.494	83.81
277.726	77.81
277.957	82.81
278.189	85.81
278.421	81.81
278.652	84.81
278.884	87.81
279.115	77.81
279.347	79.81
279.579	98.81
279.81	75.81
280.042	75.81
280.273	69.81
280.505	77.81
280.736	79.81
280.968	83.81
281.199	78.81
281.431	73.81
281.662	78.81
281.894	81.81
282.125	74.81
282.356	75.81
282.588	88.81
282.819	76.81
283.051	81.81
283.282	79.81
283.513	86.81
283.745	85.81
283.976	75.81
284.207	81.81
284.439	85.81
284.67	88.81
284.901	72.81
285.132	72.81
285.364	86.81
285.595	86.81
285.826	88.81
286.057	77.81
286.288	97.81
286.52	85.81
286.751	73.81
286.982	81.81
287.213	90.81
287.444	83.81
287.675	85.81
287.906	77.81
288.138	95.81
288.369	87.81
288.6	73.81
288.831	67.81
289.062	92.81
289.293	87.81
289.524	79.81
289.755	80.81
289.986	100.81
290.217	88.81
290.448	91.81
290.679	77.81
290.91	78.81
291.141	93.81
291.371	88.81
291.602	95.81
291.833	72.81
292.064	75.81
292.295	79.81
292.526	79.81
292.757	82.81
292.987	77.81
293.218	80.81
293.449	87.81
293.68	81.81
293.91	107.81
294.141	87.81
294.372	89.81
294.603	78.81
294.833	80.81
295.064	57.81
295.295	84.81
295.525	88.81
295.756	77.81
295.987	102.81
296.217	87.81
296.448	80.81
296.679	87.81
296.909	89.81
297.14	87.81
297.37	78.81
297.601	77.81
297.831	82.81
298.062	95.81
298.292	92.81
298.523	80.81
298.753	85.81
298.984	80.81
299.214	89.81
299.445	84.81
299.675	82.81
299.905	89.81
300.136	86.81
300.366	93.81
300.597	87.81
300.827	101.81
301.057	78.81
301.288	95.81
301.518	81.81
301.748	82.81
301.979	96.81
302.209	100.81
302.439	89.81
302.669	87.81
302.9	90.81
303.13	92.81
303.36	81.81
303.59	93.81
303.82	90.81
304.051	86.81
304.281	96.81
304.511	85.81
304.741	85.81
304.971	85.81
305.201	77.81
305.431	74.81
305.661	93.81
305.891	84.81
306.121	80.81
306.352	84.81
306.582	96.81
306.812	86.81
307.042	88.81
307.272	84.81
307.502	84.81
307.731	88.81
307.961	99.81
308.191	82.81
308.421	84.81
308.651	84.81
308.881	89.81
309.111	108.81
309.341	92.81
309.571	101.81
309.8	99.81
310.03	79.81
310.26	70.81
310.49	89.81
310.72	73.81
310.949	80.81
311.179	84.81
311.409	93.81
311.639	79.81
311.868	94.81
312.098	92.81
312.328	86.81
312.557	91.81
312.787	78.81
313.017	79.81
313.246	84.81
313.476	85.81
313.706	82.81
313.935	86.81
314.165	83.81
314.394	82.81
314.624	100.81
314.853	73.81
315.083	88.81
315.312	83.81
315.542	80.81
315.771	83.81
316.001	99.81
316.23	100.81
316.46	82.81
316.689	109.81
316.919	89.81
317.148	88.81
317.377	87.81
317.607	78.81
317.836	84.81
318.065	91.81
318.295	94.81
318.524	96.81
318.753	84.81
318.983	94.81
319.212	85.81
319.441	81.81
319.67	91.81
319.9	83.81
320.129	75.81
320.358	77.81
320.587	81.81
320.816	85.81
321.046	78.81
321.275	91.81
321.504	82.81
321.733	95.81
321.962	87.81
322.191	85.81
322.42	75.81
322.649	97.81
322.878	79.81
323.108	84.81
323.337	86.81
323.566	75.81
323.795	83.81
324.024	79.81
324.253	70.81
324.482	72.81
324.71	84.81
324.939	88.81
325.168	85.81
325.397	83.81
325.626	79.81
325.855	86.81
326.084	85.81
326.313	79.81
326.542	78.81
326.77	99.81
326.999	71.81
327.228	69.81
327.457	100.81
327.686	88.81
327.914	83.81
328.143	86.81
328.372	82.81
328.6	77.81
328.829	87.81
329.058	82.81
329.287	85.81
329.515	98.81
329.744	86.81
329.972	64.81
330.201	82.81
330.43	83.81
330.658	89.81
330.887	87.81
331.115	73.81
331.344	79.81
331.572	92.81
331.801	110.81
332.03	87.81
332.258	81.81
332.486	91.81
332.715	77.81
332.943	80.81
333.172	75.81
333.4	89.81
333.629	93.81
333.857	75.81
334.085	98.81
334.314	103.81
334.542	106.81
334.771	96.81
334.999	105.81
335.227	105.81
335.455	95.81
335.684	105.81
335.912	103.81
336.14	97.81
336.369	107.81
336.597	101.81
336.825	90.81
337.053	95.81
337.281	80.81
337.51	84.81
337.738	94.81
337.966	92.81
338.194	88.81
338.422	102.81
338.65	93.81
338.878	87.81
339.106	69.81
339.334	85.81
339.562	86.81
339.79	92.81
340.018	85.81
340.246	75.81
340.474	75.81
340.702	77.81
340.93	87.81
341.158	80.81
341.386	80.81
341.614	95.81
341.842	81.81
342.07	69.81
342.298	79.81
342.526	77.81
342.754	95.81
342.981	93.81
343.209	98.81
343.437	85.81
343.665	75.81
343.893	95.81
344.12	101.81
344.348	103.81
344.576	85.81
344.804	75.81
345.031	84.81
345.259	84.81
345.487	78.81
345.714	94.81
345.942	95.81
346.17	94.81
346.397	86.81
346.625	96.81
346.853	86.81
347.08	87.81
347.308	86.81
347.535	94.81
347.763	92.81
347.99	107.81
348.218	91.81
348.445	85.81
348.673	87.81
348.9	91.81
349.128	101.81
349.355	81.81
349.583	93.81
349.81	78.81
350.037	87.81
350.265	97.81
350.492	93.81
350.72	71.81
350.947	81.81
351.174	84.81
351.402	90.81
351.629	95.81
351.856	85.81
352.083	92.81
352.311	99.81
352.538	81.81
352.765	92.81
352.992	90.81
353.22	91.81
353.447	89.81
353.674	92.81
353.901	82.81
354.128	75.81
354.355	93.81
354.583	82.81
354.81	85.81
355.037	72.81
355.264	89.81
355.491	87.81
355.718	88.81
355.945	80.81
356.172	81.81
356.399	75.81
356.626	70.81
356.853	95.81
357.08	96.81
357.307	105.81
357.534	107.81
357.761	97.81
357.988	93.81
358.215	100.81
358.441	76.81
358.668	81.81
358.895	86.81
359.122	87.81
359.349	93.81
359.576	86.81
359.802	86.81
360.029	98.81
360.256	87.81
360.483	87.81
360.709	88.81
360.936	92.81
361.163	89.81
361.39	106.81
361.616	107.81
361.843	83.81
362.07	103.81
362.296	113.81
362.523	117.81
362.749	133.81
362.976	120.81
363.203	154.81
363.429	113.81
363.656	101.81
363.882	101.81
364.109	135.81
364.335	169.81
364.562	189.81
364.788	133.81
365.015	117.81
365.241	95.81
365.468	98.81
365.694	81.81
365.92	85.81
366.147	91.81
366.373	89.81
366.599	77.81
366.826	91.81
367.052	83.81
367.278	88.81
367.505	93.81
367.731	99.81
367.957	98.81
368.184	92.81
368.41	81.81
368.636	88.81
368.862	86.81
369.089	89.81
369.315	75.81
369.541	92.81
369.767	75.81
369.993	82.81
370.219	93.81
370.445	107.81
370.672	105.81
370.898	96.81
371.124	95.81
371.35	88.81
371.576	90.81
371.802	100.81
372.028	89.81
372.254	99.81
372.48	76.81
372.706	100.81
372.932	99.81
373.158	100.81
373.384	118.81
373.61	132.81
373.835	115.81
374.061	98.81
374.287	98.81
374.513	100.81
374.739	99.81
374.965	112.81
375.191	107.81
375.416	93.81
375.642	102.81
375.868	116.81
376.094	87.81
376.319	98.81
376.545	109.81
376.771	102.81
376.997	96.81
377.222	98.81
377.448	94.81
377.674	80.81
377.899	83.81
378.125	102.81
378.35	95.81
378.576	97.81
378.802	80.81
379.027	103.81
379.253	107.81
379.478	101.81
379.704	93.81
379.929	96.81
380.155	101.81
380.38	96.81
380.606	69.81
380.831	71.81
381.057	96.81
381.282	76.81
381.507	91.81
381.733	95.81
381.958	105.81
382.184	96.81
382.409	100.81
382.634	106.81
382.86	127.81
383.085	112.81
383.31	102.81
383.535	116.81
383.761	107.81
383.986	109.81
384.211	109.81
384.436	101.81
384.662	94.81
384.887	99.81
385.112	89.81
385.337	91.81
385.562	95.81
385.787	97.81
386.013	123.81
386.238	105.81
386.463	86.81
386.688	105.81
386.913	109.81
387.138	98.81
387.363	105.81
387.588	100.81
387.813	113.81
388.038	109.81
388.263	115.81
388.488	111.81
388.713	106.81
388.938	90.81
389.163	87.81
389.387	101.81
389.612	89.81
389.837	85.81
390.062	103.81
390.287	95.81
390.512	97.81
390.736	85.81
390.961	93.81
391.186	93.81
391.411	88.81
391.636	95.81
391.86	102.81
392.085	91.81
392.31	93.81
392.534	113.81
392.759	137.81
392.984	212.81
393.208	329.81
393.433	462.81
393.658	373.81
393.882	174.81
394.107	138.81
394.331	153.81
394.556	141.81
394.78	119.81
395.005	113.81
395.229	103.81
395.454	115.81
395.678	116.81
395.903	154.81
396.127	161.81
396.352	201.81
396.576	196.81
396.801	330.81
397.025	353.81
397.249	219.81
397.474	149.81
397.698	127.81
397.922	112.81
398.147	105.81
398.371	91.81
398.595	86.81
398.82	92.81
399.044	86.81
399.268	87.81
399.492	93.81
399.717	91.81
399.941	101.81
400.165	86.81
400.389	100.81
400.613	97.81
400.837	82.81
401.062	105.81
401.286	87.81
401.51	92.81
401.734	93.81
401.958	84.81
402.182	75.81
402.406	85.81
402.63	77.81
402.854	100.81
403.078	97.81
403.302	97.81
403.526	93.81
403.75	86.81
403.974	79.81
404.198	99.81
404.422	103.81
404.645	121.81
404.869	91.81
405.093	89.81
405.317	99.81
405.541	85.81
405.765	91.81
405.988	95.81
406.212	81.81
406.436	109.81
406.66	100.81
406.883	88.81
407.107	94.81
407.331	95.81
407.555	89.81
407.778	107.81
408.002	113.81
408.226	92.81
408.449	93.81
408.673	81.81
408.896	70.81
409.12	101.81
409.344	100.81
409.567	122.81
409.791	114.81
410.014	110.81
410.238	106.81
410.461	84.81
410.685	87.81
410.908	88.81
411.132	110.81
411.355	99.81
411.578	94.81
411.802	93.81
412.025	81.81
412.249	82.81
412.472	77.81
412.695	92.81
412.919	69.81
413.142	88.81
413.365	89.81
413.589	94.81
413.812	90.81
414.035	91.81
414.258	70.81
414.482	97.81
414.705	79.81
414.928	82.81
415.151	90.81
415.374	99.81
415.597	92.81
415.821	103.81
416.044	87.81
416.267	87.81
416.49	94.81
416.713	85.81
416.936	99.81
417.159	75.81
417.382	82.81
417.605	87.81
417.828	89.81
418.051	80.81
418.274	88.81
418.497	95.81
418.72	82.81
418.943	75.81
419.166	96.81
419.389	94.81
419.611	87.81
419.834	85.81
420.057	98.81
420.28	95.81
420.503	117.81
420.726	105.81
420.948	105.81
421.171	91.81
421.394	119.81
421.617	151.81
421.839	156.81
422.062	164.81
422.285	231.81
422.507	392.81
422.73	531.81
422.953	490.81
423.175	307.81
423.398	206.81
423.621	150.81
423.843	132.81
424.066	114.81
424.288	122.81
424.511	107.81
424.733	97.81
424.956	103.81
425.178	102.81
425.401	100.81
425.623	99.81
425.846	100.81
426.068	109.81
426.291	101.81
426.513	91.81
426.735	90.81
426.958	99.81
427.18	93.81
427.402	114.81
427.625	97.81
427.847	88.81
428.069	116.81
428.292	143.81
428.514	169.81
428.736	127.81
428.958	137.81
429.181	158.81
429.403	109.81
429.625	116.81
429.847	149.81
430.069	209.81
430.292	250.81
430.514	228.81
430.736	156.81
430.958	175.81
431.18	118.81
431.402	87.81
431.624	108.81
431.846	151.81
432.068	171.81
432.29	111.81
432.512	87.81
432.734	85.81
432.956	95.81
433.178	81.81
433.4	97.81
433.622	81.81
433.844	93.81
434.066	79.81
434.287	69.81
434.509	85.81
434.731	94.81
434.953	90.81
435.175	85.81
435.397	82.81
435.618	101.81
435.84	112.81
436.062	94.81
436.284	87.81
436.505	75.81
436.727	95.81
436.949	73.81
437.17	90.81
437.392	85.81
437.614	81.81
437.835	93.81
438.057	89.81
438.278	100.81
438.5	96.81
438.721	84.81
438.943	84.81
439.165	82.81
439.386	89.81
439.608	89.81
439.829	88.81
440.05	90.81
440.272	89.81
440.493	105.81
440.715	87.81
440.936	84.81
441.158	91.81
441.379	84.81
441.6	82.81
441.822	94.81
442.043	108.81
442.264	115.81
442.486	185.81
442.707	239.81
442.928	172.81
443.149	137.81
443.371	187.81
443.592	363.81
443.813	311.81
444.034	143.81
444.255	101.81
444.476	100.81
444.698	93.81
444.919	97.81
445.14	190.81
445.361	246.81
445.582	429.81
445.803	374.81
446.024	153.81
446.245	117.81
446.466	90.81
446.687	89.81
446.908	81.81
447.129	78.81
447.35	77.81
447.571	71.81
447.792	86.81
448.013	101.81
448.234	83.81
448.455	92.81
448.675	79.81
448.896	89.81
449.117	92.81
449.338	83.81
449.559	91.81
449.779	90.81
450	82.81
450.221	75.81
450.442	84.81
450.662	84.81
450.883	86.81
451.104	83.81
451.324	93.81
451.545	77.81
451.766	73.81
451.986	82.81
452.207	96.81
452.428	98.81
452.648	102.81
452.869	129.81
453.089	105.81
453.31	91.81
453.53	105.81
453.751	106.81
453.971	91.81
454.192	107.81
454.412	80.81
454.633	75.81
454.853	95.81
455.073	77.81
455.294	101.81
455.514	112.81
455.734	93.81
455.955	74.81
456.175	96.81
456.395	79.81
456.616	70.81
456.836	77.81
457.056	88.81
457.276	69.81
457.497	87.81
457.717	118.81
457.937	139.81
458.157	177.81
458.377	180.81
458.598	167.81
458.818	191.81
459.038	102.81
459.258	78.81
459.478	96.81
459.698	86.81
459.918	81.81
460.138	98.81
460.358	99.81
460.578	98.81
460.798	125.81
461.018	142.81
461.238	96.81
461.458	94.81
461.678	81.81
461.898	95.81
462.118	82.81
462.338	93.81
462.558	91.81
462.777	82.81
462.997	84.81
463.217	84.81
463.437	82.81
463.657	100.81
463.876	89.81
464.096	97.81
464.316	69.81
464.536	75.81
464.755	88.81
464.975	87.81
465.195	83.81
465.414	79.81
465.634	66.81
465.854	82.81
466.073	81.81
466.293	84.81
466.512	94.81
466.732	77.81
466.951	91.81
467.171	89.81
467.391	96.81
467.61	83.81
467.829	84.81
468.049	91.81
468.268	91.81
468.488	96.81
468.707	94.81
468.927	106.81
469.146	85.81
469.365	81.81
469.585	83.81
469.804	91.81
470.023	91.81
470.243	103.81
470.462	107.81
470.681	87.81
470.901	81.81
471.12	91.81
471.339	103.81
471.558	90.81
471.777	91.81
471.997	92.81
472.216	91.81
472.435	95.81
472.654	95.81
472.873	92.81
473.092	94.81
473.311	91.81
473.53	77.81
473.749	90.81
473.968	75.81
474.187	97.81
474.406	93.81
474.625	92.81
474.844	86.81
475.063	95.81
475.282	82.81
475.501	79.81
475.72	81.81
475.939	79.81
476.158	79.81
476.377	85.81
476.596	86.81
476.814	94.81
477.033	86.81
477.252	115.81
477.471	81.81
477.69	87.81
477.908	94.81
478.127	88.81
478.346	102.81
478.564	109.81
478.783	83.81
479.002	83.81
479.22	100.81
479.439	96.81
479.658	103.81
479.876	99.81
480.095	92.81
480.313	95.81
480.532	91.81
480.751	101.81
480.969	101.81
481.188	103.81
481.406	95.81
481.624	87.81
481.843	97.81
482.061	91.81
482.28	96.81
482.498	97.81
482.717	97.81
482.935	87.81
483.153	87.81
483.372	103.81
483.59	107.81
483.808	89.81
484.027	107.81
484.245	112.81
484.463	91.81
484.681	115.81
484.9	90.81
485.118	109.81
485.336	85.81
485.554	99.81
485.772	92.81
485.99	95.81
486.209	97.81
486.427	92.81
486.645	72.81
486.863	93.81
487.081	98.81
487.299	89.81
487.517	125.81
487.735	160.81
487.953	283.81
488.171	232.81
488.389	115.81
488.607	97.81
488.825	87.81
489.043	106.81
489.261	102.81
489.479	92.81
489.696	94.81
489.914	87.81
490.132	83.81
490.35	106.81
490.568	90.81
490.786	101.81
491.003	107.81
491.221	81.81
491.439	77.81
491.657	98.81
491.874	100.81
492.092	99.81
492.31	90.81
492.527	98.81
492.745	105.81
492.963	102.81
493.18	84.81
493.398	105.81
493.615	107.81
493.833	86.81
494.05	93.81
494.268	90.81
494.485	95.81
494.703	92.81
494.92	90.81
495.138	87.81
495.355	105.81
495.573	90.81
495.79	95.81
496.008	93.81
496.225	112.81
496.442	102.81
496.66	100.81
496.877	101.81
497.094	109.81
497.312	95.81
497.529	86.81
497.746	102.81
497.963	101.81
498.181	98.81
498.398	124.81
498.615	95.81
498.832	85.81
499.049	107.81
499.267	120.81
499.484	99.81
499.701	83.81
499.918	110.81
500.135	115.81
500.352	84.81
500.569	95.81
500.786	93.81
501.003	113.81
501.22	90.81
501.437	89.81
501.654	97.81
501.871	94.81
502.088	94.81
502.305	94.81
502.522	91.81
502.739	97.81
502.956	101.81
503.172	114.81
503.389	76.81
503.606	97.81
503.823	107.81
504.04	133.81
504.256	208.81
504.473	205.81
504.69	114.81
504.907	89.81
505.123	91.81
505.34	83.81
505.557	90.81
505.773	95.81
505.99	92.81
506.207	99.81
506.423	108.81
506.64	103.81
506.856	97.81
507.073	77.81
507.289	88.81
507.506	95.81
507.722	83.81
507.939	85.81
508.155	89.81
508.372	92.81
508.588	100.81
508.805	100.81
509.021	86.81
509.238	102.81
509.454	106.81
509.67	105.81
509.887	90.81
510.103	98.81
510.319	97.81
510.536	112.81
510.752	105.81
510.968	86.81
511.184	91.81
511.401	87.81
511.617	85.81
511.833	92.81
512.049	89.81
512.265	94.81
512.481	86.81
512.698	105.81
512.914	89.81
513.13	94.81
513.346	83.81
513.562	87.81
513.778	94.81
513.994	97.81
514.21	89.81
514.426	86.81
514.642	99.81
514.858	96.81
515.074	83.81
515.29	101.81
515.506	110.81
515.721	88.81
515.937	93.81
516.153	78.81
516.369	89.81
