Data from 10100_1_HRD10591_00048.txt Node
Date: Mon Jan 19 14:00:48 EST 2026
User: Yrep
Spectrometer: HR+D1059
Trigger mode: 1
Integration Time (sec): 1.000000E-1
Scans to average: 1
Electric dark correction enabled: true
Nonlinearity correction enabled: false
Boxcar width: 0
XAxis mode: Wavelengths
Number of Pixels in Spectrum: 2048
>>>>>Begin Spectral Data<<<<<
223.165	-11
223.4	-11
223.635	-11
223.869	-14
224.104	-20
224.338	-14
224.573	-25
224.808	-5
225.042	-7
225.277	-18
225.511	-3
225.746	5
225.98	-2
226.215	8
226.449	17
226.683	28
226.918	21
227.152	40
227.387	47
227.621	31
227.856	49
228.09	50
228.324	41
228.559	67
228.793	68
229.027	67
229.262	64
229.496	82
229.73	62
229.964	78
230.199	80
230.433	68
230.667	78
230.901	80
231.136	81
231.37	83
231.604	88
231.838	79
232.072	66
232.306	92
232.541	85
232.775	88
233.009	77
233.243	85
233.477	84
233.711	81
233.945	80
234.179	79
234.413	79
234.647	73
234.881	80
235.115	74
235.349	83
235.583	69
235.817	63
236.051	71
236.285	74
236.519	69
236.753	61
236.987	77
237.221	82
237.455	79
237.689	68
237.922	70
238.156	81
238.39	75
238.624	56
238.858	60
239.091	86
239.325	82
239.559	80
239.793	65
240.027	87
240.26	60
240.494	85
240.728	84
240.961	69
241.195	70
241.429	61
241.662	73
241.896	70
242.13	72
242.363	83
242.597	73
242.83	77
243.064	60
243.298	84
243.531	78
243.765	71
243.998	64
244.232	85
244.465	74
244.699	72
244.932	84
245.166	90
245.399	89
245.633	78
245.866	71
246.099	72
246.333	76
246.566	81
246.8	70
247.033	82
247.266	66
247.5	62
247.733	78
247.966	84
248.2	78
248.433	76
248.666	81
248.899	78
249.133	89
249.366	88
249.599	77
249.832	80
250.066	72
250.299	84
250.532	91
250.765	79
250.998	83
251.231	69
251.465	63
251.698	68
251.931	78
252.164	61
252.397	74
252.63	83
252.863	89
253.096	82
253.329	88
253.562	73
253.795	81
254.028	81
254.261	99
254.494	64
254.727	76
254.96	85
255.193	73
255.426	73
255.659	77
255.892	82
256.124	59
256.357	80
256.59	92
256.823	64
257.056	75
257.289	77
257.521	80
257.754	74
257.987	78
258.22	73
258.452	83
258.685	78
258.918	81
259.151	78
259.383	65
259.616	71
259.849	74
260.081	66
260.314	80
260.547	63
260.779	90
261.012	89
261.244	79
261.477	83
261.71	84
261.942	90
262.175	73
262.407	68
262.64	81
262.872	70
263.105	80
263.337	87
263.57	81
263.802	72
264.035	80
264.267	87
264.499	78
264.732	80
264.964	78
265.197	97
265.429	74
265.661	83
265.894	94
266.126	70
266.358	89
266.591	88
266.823	97
267.055	83
267.287	88
267.52	82
267.752	84
267.984	74
268.216	68
268.448	84
268.681	82
268.913	75
269.145	84
269.377	78
269.609	82
269.841	89
270.073	80
270.306	71
270.538	79
270.77	73
271.002	82
271.234	77
271.466	81
271.698	75
271.93	88
272.162	84
272.394	79
272.626	80
272.858	89
273.09	86
273.322	78
273.553	93
273.785	72
274.017	72
274.249	76
274.481	72
274.713	82
274.945	86
275.176	74
275.408	87
275.64	82
275.872	85
276.104	86
276.335	77
276.567	74
276.799	70
277.031	71
277.262	90
277.494	105
277.726	87
277.957	78
278.189	74
278.421	86
278.652	82
278.884	77
279.115	82
279.347	73
279.579	73
279.81	83
280.042	82
280.273	86
280.505	85
280.736	78
280.968	81
281.199	74
281.431	89
281.662	96
281.894	98
282.125	80
282.356	84
282.588	78
282.819	82
283.051	81
283.282	71
283.513	88
283.745	80
283.976	84
284.207	88
284.439	78
284.67	87
284.901	86
285.132	80
285.364	85
285.595	90
285.826	81
286.057	84
286.288	78
286.52	90
286.751	85
286.982	78
287.213	80
287.444	90
287.675	80
287.906	86
288.138	80
288.369	82
288.6	94
288.831	78
289.062	84
289.293	80
289.524	80
289.755	81
289.986	72
290.217	92
290.448	78
290.679	75
290.91	85
291.141	74
291.371	76
291.602	74
291.833	77
292.064	72
292.295	85
292.526	76
292.757	78
292.987	81
293.218	89
293.449	94
293.68	84
293.91	86
294.141	86
294.372	75
294.603	85
294.833	79
295.064	94
295.295	82
295.525	94
295.756	94
295.987	90
296.217	68
296.448	80
296.679	78
296.909	76
297.14	86
297.37	85
297.601	83
297.831	88
298.062	77
298.292	86
298.523	85
298.753	78
298.984	71
299.214	82
299.445	81
299.675	79
299.905	87
300.136	75
300.366	89
300.597	88
300.827	71
301.057	82
301.288	82
301.518	96
301.748	83
301.979	88
302.209	84
302.439	72
302.669	93
302.9	90
303.13	76
303.36	85
303.59	84
303.82	92
304.051	83
304.281	88
304.511	80
304.741	80
304.971	80
305.201	95
305.431	93
305.661	86
305.891	86
306.121	85
306.352	86
306.582	78
306.812	78
307.042	87
307.272	88
307.502	88
307.731	75
307.961	89
308.191	78
308.421	82
308.651	86
308.881	82
309.111	89
309.341	88
309.571	75
309.8	82
310.03	92
310.26	83
310.49	80
310.72	65
310.949	81
311.179	90
311.409	84
311.639	77
311.868	88
312.098	88
312.328	97
312.557	85
312.787	75
313.017	82
313.246	89
313.476	96
313.706	73
313.935	96
314.165	84
314.394	92
314.624	97
314.853	84
315.083	80
315.312	77
315.542	88
315.771	89
316.001	79
316.23	86
316.46	78
316.689	74
316.919	88
317.148	82
317.377	94
317.607	83
317.836	92
318.065	78
318.295	92
318.524	88
318.753	74
318.983	72
319.212	92
319.441	87
319.67	82
319.9	81
320.129	92
320.358	82
320.587	78
320.816	82
321.046	93
321.275	75
321.504	90
321.733	88
321.962	92
322.191	80
322.42	87
322.649	90
322.878	87
323.108	63
323.337	90
323.566	79
323.795	92
324.024	90
324.253	83
324.482	84
324.71	74
324.939	82
325.168	93
325.397	88
325.626	88
325.855	86
326.084	99
326.313	85
326.542	90
326.77	85
326.999	74
327.228	83
327.457	76
327.686	90
327.914	88
328.143	92
328.372	92
328.6	83
328.829	82
329.058	69
329.287	79
329.515	80
329.744	82
329.972	80
330.201	99
330.43	86
330.658	84
330.887	84
331.115	89
331.344	85
331.572	86
331.801	80
332.03	96
332.258	79
332.486	81
332.715	84
332.943	76
333.172	82
333.4	71
333.629	78
333.857	87
334.085	80
334.314	80
334.542	77
334.771	85
334.999	82
335.227	89
335.455	79
335.684	104
335.912	92
336.14	86
336.369	81
336.597	89
336.825	77
337.053	77
337.281	70
337.51	86
337.738	91
337.966	74
338.194	76
338.422	80
338.65	83
338.878	75
339.106	85
339.334	74
339.562	86
339.79	82
340.018	73
340.246	91
340.474	87
340.702	85
340.93	88
341.158	78
341.386	69
341.614	76
341.842	93
342.07	89
342.298	100
342.526	79
342.754	86
342.981	94
343.209	100
343.437	109
343.665	77
343.893	82
344.12	89
344.348	86
344.576	86
344.804	89
345.031	92
345.259	84
345.487	74
345.714	74
345.942	80
346.17	79
346.397	77
346.625	73
346.853	82
347.08	86
347.308	98
347.535	89
347.763	93
347.99	69
348.218	80
348.445	80
348.673	84
348.9	84
349.128	86
349.355	90
349.583	79
349.81	92
350.037	82
350.265	74
350.492	86
350.72	90
350.947	82
351.174	100
351.402	82
351.629	82
351.856	84
352.083	80
352.311	96
352.538	97
352.765	77
352.992	106
353.22	73
353.447	80
353.674	90
353.901	69
354.128	80
354.355	81
354.583	84
354.81	88
355.037	89
355.264	75
355.491	76
355.718	80
355.945	76
356.172	78
356.399	77
356.626	92
356.853	82
357.08	92
357.307	99
357.534	97
357.761	79
357.988	105
358.215	70
358.441	78
358.668	83
358.895	88
359.122	78
359.349	93
359.576	92
359.802	79
360.029	88
360.256	77
360.483	79
360.709	90
360.936	87
361.163	97
361.39	85
361.616	84
361.843	74
362.07	71
362.296	79
362.523	74
362.749	89
362.976	76
363.203	96
363.429	87
363.656	92
363.882	78
364.109	82
364.335	90
364.562	84
364.788	102
365.015	72
365.241	87
365.468	93
365.694	78
365.92	76
366.147	95
366.373	88
366.599	63
366.826	77
367.052	89
367.278	85
367.505	77
367.731	89
367.957	77
368.184	79
368.41	84
368.636	93
368.862	81
369.089	88
369.315	81
369.541	81
369.767	92
369.993	88
370.219	95
370.445	89
370.672	88
370.898	60
371.124	80
371.35	88
371.576	80
371.802	74
372.028	80
372.254	96
372.48	86
372.706	91
372.932	103
373.158	89
373.384	83
373.61	97
373.835	82
374.061	84
374.287	87
374.513	71
374.739	79
374.965	96
375.191	80
375.416	88
375.642	71
375.868	88
376.094	79
376.319	83
376.545	82
376.771	81
376.997	88
377.222	81
377.448	87
377.674	81
377.899	81
378.125	87
378.35	82
378.576	100
378.802	89
379.027	80
379.253	106
379.478	85
379.704	85
379.929	73
380.155	70
380.38	84
380.606	87
380.831	88
381.057	90
381.282	82
381.507	79
381.733	88
381.958	75
382.184	73
382.409	92
382.634	82
382.86	92
383.085	86
383.31	82
383.535	82
383.761	77
383.986	90
384.211	87
384.436	86
384.662	88
384.887	82
385.112	83
385.337	66
385.562	78
385.787	85
386.013	86
386.238	81
386.463	79
386.688	100
386.913	85
387.138	83
387.363	90
387.588	83
387.813	96
388.038	94
388.263	84
388.488	90
388.713	89
388.938	87
389.163	77
389.387	70
389.612	78
389.837	90
390.062	83
390.287	82
390.512	86
390.736	78
390.961	89
391.186	86
391.411	76
391.636	83
391.86	75
392.085	78
392.31	76
392.534	108
392.759	83
392.984	104
393.208	119
393.433	142
393.658	124
393.882	108
394.107	91
394.331	88
394.556	73
394.78	93
395.005	99
395.229	76
395.454	81
395.678	90
395.903	82
396.127	73
396.352	97
396.576	121
396.801	120
397.025	145
397.249	110
397.474	72
397.698	75
397.922	85
398.147	86
398.371	88
398.595	84
398.82	91
399.044	83
399.268	88
399.492	80
399.717	96
399.941	84
400.165	61
400.389	71
400.613	87
400.837	77
401.062	93
401.286	71
401.51	80
401.734	77
401.958	72
402.182	80
402.406	96
402.63	87
402.854	74
403.078	74
403.302	98
403.526	80
403.75	82
403.974	81
404.198	84
404.422	100
404.645	81
404.869	74
405.093	89
405.317	89
405.541	73
405.765	79
405.988	84
406.212	64
406.436	84
406.66	92
406.883	85
407.107	85
407.331	88
407.555	70
407.778	75
408.002	83
408.226	87
408.449	81
408.673	80
408.896	82
409.12	80
409.344	87
409.567	83
409.791	77
410.014	84
410.238	72
410.461	87
410.685	86
410.908	88
411.132	77
411.355	67
411.578	79
411.802	86
412.025	79
412.249	80
412.472	70
412.695	70
412.919	73
413.142	73
413.365	65
413.589	74
413.812	77
414.035	78
414.258	67
414.482	74
414.705	64
414.928	84
415.151	86
415.374	87
415.597	73
415.821	74
416.044	73
416.267	91
416.49	78
416.713	80
416.936	98
417.159	82
417.382	81
417.605	79
417.828	77
418.051	92
418.274	84
418.497	82
418.72	89
418.943	81
419.166	89
419.389	76
419.611	73
419.834	92
420.057	96
420.28	77
420.503	82
420.726	84
420.948	84
421.171	82
421.394	84
421.617	77
421.839	89
422.062	75
422.285	108
422.507	113
422.73	155
422.953	128
423.175	108
423.398	94
423.621	100
423.843	88
424.066	89
424.288	84
424.511	71
424.733	83
424.956	82
425.178	89
425.401	81
425.623	71
425.846	83
426.068	83
426.291	97
426.513	83
426.735	68
426.958	88
427.18	73
427.402	84
427.625	92
427.847	90
428.069	76
428.292	73
428.514	92
428.736	85
428.958	99
429.181	88
429.403	75
429.625	96
429.847	81
430.069	94
430.292	95
430.514	95
430.736	87
430.958	100
431.18	70
431.402	78
431.624	95
431.846	94
432.068	73
432.29	90
432.512	88
432.734	82
432.956	94
433.178	101
433.4	90
433.622	88
433.844	80
434.066	90
434.287	82
434.509	76
434.731	74
434.953	88
435.175	88
435.397	81
435.618	77
435.84	72
436.062	80
436.284	84
436.505	87
436.727	77
436.949	83
437.17	81
437.392	76
437.614	81
437.835	76
438.057	83
438.278	84
438.5	71
438.721	72
438.943	78
439.165	70
439.386	87
439.608	82
439.829	84
440.05	89
440.272	87
440.493	81
440.715	75
440.936	87
441.158	89
441.379	88
441.6	88
441.822	81
442.043	76
442.264	74
442.486	92
442.707	92
442.928	86
443.149	90
443.371	90
443.592	111
443.813	121
444.034	73
444.255	83
444.476	80
444.698	76
444.919	68
445.14	140
445.361	125
445.582	137
445.803	100
446.024	94
446.245	97
446.466	76
446.687	87
446.908	88
447.129	80
447.35	83
447.571	76
447.792	67
448.013	74
448.234	85
448.455	67
448.675	78
448.896	84
449.117	88
449.338	74
449.559	76
449.779	74
450	76
450.221	72
450.442	73
450.662	80
450.883	74
451.104	75
451.324	86
451.545	89
451.766	77
451.986	75
452.207	75
452.428	83
452.648	84
452.869	80
453.089	84
453.31	72
453.53	78
453.751	92
453.971	66
454.192	78
454.412	81
454.633	78
454.853	91
455.073	82
455.294	70
455.514	84
455.734	77
455.955	80
456.175	77
456.395	84
456.616	78
456.836	86
457.056	81
457.276	75
457.497	86
457.717	77
457.937	80
458.157	97
458.377	89
458.598	95
458.818	90
459.038	90
459.258	78
459.478	88
459.698	80
459.918	87
460.138	86
460.358	89
460.578	82
460.798	101
461.018	84
461.238	77
461.458	89
461.678	85
461.898	85
462.118	81
462.338	88
462.558	80
462.777	82
462.997	64
463.217	72
463.437	83
463.657	73
463.876	88
464.096	75
464.316	69
464.536	87
464.755	84
464.975	84
465.195	77
465.414	95
465.634	81
465.854	68
466.073	84
466.293	62
466.512	80
466.732	89
466.951	77
467.171	64
467.391	70
467.61	71
467.829	75
468.049	95
468.268	85
468.488	95
468.707	83
468.927	66
469.146	86
469.365	83
469.585	73
469.804	84
470.023	67
470.243	71
470.462	71
470.681	72
470.901	83
471.12	83
471.339	78
471.558	73
471.777	74
471.997	85
472.216	83
472.435	88
472.654	68
472.873	77
473.092	83
473.311	77
473.53	78
473.749	92
473.968	76
474.187	83
474.406	84
474.625	80
474.844	96
475.063	87
475.282	90
475.501	73
475.72	88
475.939	74
476.158	83
476.377	90
476.596	80
476.814	71
477.033	90
477.252	73
477.471	83
477.69	93
477.908	80
478.127	83
478.346	82
478.564	88
478.783	78
479.002	84
479.22	81
479.439	88
479.658	83
479.876	97
480.095	94
480.313	89
480.532	78
480.751	78
480.969	90
481.188	71
481.406	84
481.624	105
481.843	84
482.061	72
482.28	83
482.498	88
482.717	83
482.935	86
483.153	98
483.372	74
483.59	82
483.808	92
484.027	82
484.245	75
484.463	77
484.681	84
484.9	83
485.118	82
485.336	85
485.554	96
485.772	82
485.99	59
486.209	100
486.427	95
486.645	86
486.863	79
487.081	83
487.299	88
487.517	85
487.735	86
487.953	91
488.171	86
488.389	88
488.607	81
488.825	89
489.043	86
489.261	90
489.479	74
489.696	84
489.914	78
490.132	86
490.35	87
490.568	75
490.786	77
491.003	80
491.221	73
491.439	83
491.657	88
491.874	77
492.092	88
492.31	75
492.527	73
492.745	80
492.963	93
493.18	84
493.398	88
493.615	78
493.833	78
494.05	89
494.268	71
494.485	80
494.703	78
494.92	93
495.138	97
495.355	95
495.573	90
495.79	60
496.008	89
496.225	90
496.442	93
496.66	97
496.877	86
497.094	96
497.312	100
497.529	86
497.746	85
497.963	85
498.181	94
498.398	74
498.615	78
498.832	80
499.049	87
499.267	82
499.484	77
499.701	86
499.918	84
500.135	92
500.352	89
500.569	88
500.786	76
501.003	84
501.22	80
501.437	73
501.654	79
501.871	83
502.088	72
502.305	77
502.522	98
502.739	92
502.956	79
503.172	78
503.389	79
503.606	86
503.823	82
504.04	94
504.256	86
504.473	89
504.69	83
504.907	98
505.123	76
505.34	94
505.557	77
505.773	82
505.99	84
506.207	86
506.423	75
506.64	77
506.856	80
507.073	82
507.289	92
507.506	78
507.722	93
507.939	74
508.155	83
508.372	89
508.588	92
508.805	83
509.021	85
509.238	77
509.454	81
509.67	75
509.887	81
510.103	97
510.319	84
510.536	96
510.752	74
510.968	88
511.184	73
511.401	84
511.617	90
511.833	78
512.049	82
512.265	88
512.481	96
512.698	93
512.914	92
513.13	85
513.346	77
513.562	85
513.778	88
513.994	86
514.21	84
514.426	85
514.642	93
514.858	89
515.074	90
515.29	92
515.506	76
515.721	80
515.937	88
516.153	77
516.369	92
516.585	96
516.801	88
517.016	84
517.232	85
517.448	84
517.664	79
517.879	93
518.095	84
518.311	70
518.527	81
518.742	96
518.958	100
519.173	101
519.389	96
519.605	86
519.82	93
520.036	66
520.251	92
520.467	88
520.682	82
520.898	88
521.113	85
521.329	83
521.544	85
521.76	80
521.975	74
522.19	81
522.406	85
522.621	82
522.836	80
523.052	85
523.267	93
523.482	80
523.698	74
523.913	74
524.128	83
524.343	88
524.559	80
524.774	68
524.989	94
525.204	86
525.419	77
525.634	75
525.849	94
526.064	89
526.28	116
526.495	132
526.71	126
526.925	98
527.14	114
527.355	112
527.57	95
527.785	97
527.999	77
528.214	87
528.429	98
528.644	102
528.859	74
529.074	85
529.289	92
529.503	75
529.718	92
529.933	74
530.148	91
530.363	81
530.577	74
530.792	84
531.007	94
531.221	83
531.436	82
531.651	93
531.865	73
532.08	104
532.295	88
532.509	78
532.724	84
532.938	85
533.153	83
533.367	75
533.582	66
533.796	82
534.011	87
534.225	79
534.44	86
534.654	75
534.868	92
535.083	102
535.297	89
535.511	88
535.726	79
535.94	91
536.154	83
536.369	84
536.583	94
536.797	91
537.011	86
537.225	80
537.44	68
537.654	87
537.868	89
538.082	87
538.296	83
538.51	99
538.724	73
538.938	87
539.153	88
539.367	94
539.581	89
539.795	83
540.009	71
540.222	88
540.436	94
540.65	84
540.864	71
541.078	84
541.292	64
541.506	78
541.72	82
541.934	78
542.147	97
542.361	86
542.575	84
542.789	88
543.002	99
543.216	74
543.43	86
543.644	83
543.857	95
544.071	80
544.285	100
544.498	90
544.712	93
544.925	86
545.139	89
545.352	82
545.566	92
545.779	97
545.993	76
546.206	101
546.42	88
546.633	94
546.847	92
547.06	93
547.274	90
547.487	92
547.7	89
547.914	97
548.127	103
548.34	100
548.554	89
548.767	99
548.98	100
549.193	101
549.407	85
549.62	110
549.833	112
550.046	101
550.259	118
550.473	121
550.686	109
550.899	113
551.112	125
551.325	122
551.538	138
551.751	110
551.964	116
552.177	145
552.39	116
552.603	115
552.816	118
553.029	117
553.242	102
553.455	119
553.667	124
553.88	122
554.093	121
554.306	139
554.519	118
554.732	118
554.944	140
555.157	133
555.37	114
555.583	129
555.795	118
556.008	110
556.221	112
556.433	96
556.646	117
556.859	104
557.071	104
557.284	103
557.496	90
557.709	94
557.921	94
558.134	100
558.346	116
558.559	111
558.771	102
558.984	126
559.196	150
559.409	112
559.621	130
559.833	118
560.046	122
560.258	121
560.47	101
560.683	89
560.895	88
561.107	100
561.32	84
561.532	88
561.744	97
561.956	94
562.168	85
562.381	86
562.593	91
562.805	84
563.017	93
563.229	84
563.441	86
563.653	86
563.865	83
564.077	82
564.289	92
564.501	75
564.713	87
564.925	86
565.137	80
565.349	86
565.561	80
565.773	85
565.985	86
566.197	62
566.408	77
566.62	81
566.832	88
567.044	78
567.255	97
567.467	97
567.679	95
567.891	101
568.102	89
568.314	73
568.526	103
568.737	100
568.949	88
569.161	81
569.372	82
569.584	98
569.795	89
570.007	85
570.218	88
570.43	96
570.641	90
570.853	86
571.064	77
571.276	83
571.487	71
571.698	86
571.91	106
572.121	80
572.333	82
572.544	90
572.755	87
572.966	78
573.178	87
573.389	87
573.6	83
573.811	87
574.023	80
574.234	80
574.445	90
574.656	78
574.867	85
575.078	88
575.289	99
575.501	77
575.712	84
575.923	85
576.134	93
576.345	88
576.556	97
576.767	86
576.978	94
577.188	103
577.399	88
577.61	98
577.821	83
578.032	75
578.243	81
578.454	89
578.665	100
578.875	98
579.086	78
579.297	75
579.508	87
579.718	75
579.929	80
580.14	85
580.35	78
580.561	82
580.772	89
580.982	86
581.193	82
581.403	81
581.614	87
581.825	71
582.035	89
582.246	80
582.456	91
582.667	88
582.877	82
583.087	83
583.298	82
583.508	84
583.719	82
583.929	77
584.139	92
584.35	104
584.56	84
584.77	82
584.981	88
585.191	91
585.401	87
585.611	79
585.821	100
586.032	109
586.242	97
586.452	96
586.662	101
586.872	88
587.082	82
587.292	84
587.502	78
587.713	77
587.923	93
588.133	83
588.343	101
588.553	89
588.762	98
588.972	109
