Data from 10100_1_HRD10591_00030.txt Node
Date: Mon Jan 19 14:00:39 EST 2026
User: Yrep
Spectrometer: HR+D1059
Trigger mode: 1
Integration Time (sec): 1.000000E-1
Scans to average: 1
Electric dark correction enabled: true
Nonlinearity correction enabled: false
Boxcar width: 0
XAxis mode: Wavelengths
Number of Pixels in Spectrum: 2048
>>>>>Begin Spectral Data<<<<<
223.165	-14.38
223.4	-14.38
223.635	-14.38
223.869	-32.38
224.104	-18.38
224.338	-9.38
224.573	-16.38
224.808	-7.38
225.042	-22.38
225.277	-5.38
225.511	1.62
225.746	18.62
225.98	19.62
226.215	11.62
226.449	16.62
226.683	16.62
226.918	14.62
227.152	26.62
227.387	47.62
227.621	52.62
227.856	53.62
228.09	48.62
228.324	49.62
228.559	57.62
228.793	55.62
229.027	55.62
229.262	52.62
229.496	59.62
229.73	56.62
229.964	80.62
230.199	69.62
230.433	64.62
230.667	80.62
230.901	89.62
231.136	78.62
231.37	77.62
231.604	79.62
231.838	90.62
232.072	87.62
232.306	83.62
232.541	86.62
232.775	71.62
233.009	76.62
233.243	72.62
233.477	74.62
233.711	78.62
233.945	87.62
234.179	76.62
234.413	81.62
234.647	86.62
234.881	80.62
235.115	88.62
235.349	67.62
235.583	87.62
235.817	82.62
236.051	83.62
236.285	80.62
236.519	100.62
236.753	87.62
236.987	67.62
237.221	90.62
237.455	68.62
237.689	75.62
237.922	85.62
238.156	75.62
238.39	70.62
238.624	82.62
238.858	75.62
239.091	75.62
239.325	79.62
239.559	69.62
239.793	65.62
240.027	79.62
240.26	85.62
240.494	85.62
240.728	76.62
240.961	80.62
241.195	83.62
241.429	84.62
241.662	56.62
241.896	73.62
242.13	79.62
242.363	72.62
242.597	74.62
242.83	72.62
243.064	75.62
243.298	62.62
243.531	78.62
243.765	78.62
243.998	79.62
244.232	88.62
244.465	88.62
244.699	71.62
244.932	61.62
245.166	83.62
245.399	92.62
245.633	83.62
245.866	79.62
246.099	78.62
246.333	69.62
246.566	73.62
246.8	81.62
247.033	71.62
247.266	66.62
247.5	73.62
247.733	82.62
247.966	59.62
248.2	80.62
248.433	69.62
248.666	76.62
248.899	87.62
249.133	85.62
249.366	82.62
249.599	78.62
249.832	95.62
250.066	90.62
250.299	72.62
250.532	84.62
250.765	67.62
250.998	80.62
251.231	76.62
251.465	69.62
251.698	72.62
251.931	91.62
252.164	83.62
252.397	88.62
252.63	79.62
252.863	79.62
253.096	77.62
253.329	84.62
253.562	86.62
253.795	77.62
254.028	85.62
254.261	88.62
254.494	75.62
254.727	85.62
254.96	86.62
255.193	79.62
255.426	74.62
255.659	80.62
255.892	76.62
256.124	72.62
256.357	82.62
256.59	88.62
256.823	84.62
257.056	77.62
257.289	86.62
257.521	81.62
257.754	88.62
257.987	84.62
258.22	72.62
258.452	82.62
258.685	78.62
258.918	78.62
259.151	70.62
259.383	80.62
259.616	83.62
259.849	68.62
260.081	78.62
260.314	92.62
260.547	79.62
260.779	90.62
261.012	84.62
261.244	78.62
261.477	84.62
261.71	84.62
261.942	79.62
262.175	86.62
262.407	82.62
262.64	73.62
262.872	83.62
263.105	73.62
263.337	92.62
263.57	85.62
263.802	93.62
264.035	80.62
264.267	80.62
264.499	74.62
264.732	72.62
264.964	69.62
265.197	79.62
265.429	80.62
265.661	73.62
265.894	79.62
266.126	78.62
266.358	89.62
266.591	81.62
266.823	79.62
267.055	89.62
267.287	76.62
267.52	90.62
267.752	85.62
267.984	77.62
268.216	87.62
268.448	72.62
268.681	88.62
268.913	89.62
269.145	81.62
269.377	80.62
269.609	86.62
269.841	87.62
270.073	80.62
270.306	85.62
270.538	60.62
270.77	78.62
271.002	82.62
271.234	85.62
271.466	78.62
271.698	78.62
271.93	72.62
272.162	86.62
272.394	82.62
272.626	92.62
272.858	87.62
273.09	92.62
273.322	82.62
273.553	89.62
273.785	84.62
274.017	80.62
274.249	85.62
274.481	78.62
274.713	79.62
274.945	77.62
275.176	82.62
275.408	77.62
275.64	84.62
275.872	65.62
276.104	75.62
276.335	80.62
276.567	81.62
276.799	86.62
277.031	96.62
277.262	87.62
277.494	75.62
277.726	74.62
277.957	89.62
278.189	79.62
278.421	83.62
278.652	80.62
278.884	80.62
279.115	73.62
279.347	94.62
279.579	92.62
279.81	77.62
280.042	98.62
280.273	86.62
280.505	80.62
280.736	92.62
280.968	86.62
281.199	86.62
281.431	81.62
281.662	86.62
281.894	84.62
282.125	80.62
282.356	85.62
282.588	80.62
282.819	92.62
283.051	78.62
283.282	80.62
283.513	86.62
283.745	88.62
283.976	99.62
284.207	85.62
284.439	86.62
284.67	88.62
284.901	91.62
285.132	78.62
285.364	78.62
285.595	88.62
285.826	88.62
286.057	86.62
286.288	81.62
286.52	92.62
286.751	94.62
286.982	84.62
287.213	77.62
287.444	83.62
287.675	71.62
287.906	85.62
288.138	82.62
288.369	87.62
288.6	77.62
288.831	85.62
289.062	89.62
289.293	94.62
289.524	84.62
289.755	81.62
289.986	90.62
290.217	82.62
290.448	87.62
290.679	78.62
290.91	88.62
291.141	77.62
291.371	92.62
291.602	82.62
291.833	83.62
292.064	77.62
292.295	82.62
292.526	88.62
292.757	79.62
292.987	96.62
293.218	78.62
293.449	69.62
293.68	68.62
293.91	80.62
294.141	84.62
294.372	85.62
294.603	96.62
294.833	79.62
295.064	88.62
295.295	84.62
295.525	73.62
295.756	87.62
295.987	97.62
296.217	85.62
296.448	90.62
296.679	95.62
296.909	77.62
297.14	105.62
297.37	73.62
297.601	94.62
297.831	97.62
298.062	72.62
298.292	68.62
298.523	79.62
298.753	85.62
298.984	76.62
299.214	82.62
299.445	88.62
299.675	91.62
299.905	84.62
300.136	106.62
300.366	88.62
300.597	86.62
300.827	100.62
301.057	96.62
301.288	82.62
301.518	85.62
301.748	80.62
301.979	104.62
302.209	93.62
302.439	84.62
302.669	85.62
302.9	93.62
303.13	99.62
303.36	76.62
303.59	86.62
303.82	73.62
304.051	68.62
304.281	76.62
304.511	84.62
304.741	75.62
304.971	92.62
305.201	84.62
305.431	80.62
305.661	89.62
305.891	81.62
306.121	84.62
306.352	81.62
306.582	84.62
306.812	92.62
307.042	89.62
307.272	91.62
307.502	91.62
307.731	92.62
307.961	91.62
308.191	94.62
308.421	98.62
308.651	92.62
308.881	80.62
309.111	75.62
309.341	86.62
309.571	82.62
309.8	86.62
310.03	78.62
310.26	93.62
310.49	91.62
310.72	78.62
310.949	85.62
311.179	79.62
311.409	75.62
311.639	70.62
311.868	78.62
312.098	96.62
312.328	91.62
312.557	88.62
312.787	87.62
313.017	93.62
313.246	80.62
313.476	92.62
313.706	86.62
313.935	94.62
314.165	94.62
314.394	91.62
314.624	72.62
314.853	81.62
315.083	92.62
315.312	88.62
315.542	93.62
315.771	92.62
316.001	92.62
316.23	85.62
316.46	82.62
316.689	92.62
316.919	88.62
317.148	81.62
317.377	93.62
317.607	79.62
317.836	90.62
318.065	89.62
318.295	84.62
318.524	91.62
318.753	90.62
318.983	89.62
319.212	98.62
319.441	65.62
319.67	73.62
319.9	69.62
320.129	83.62
320.358	86.62
320.587	90.62
320.816	87.62
321.046	77.62
321.275	82.62
321.504	88.62
321.733	80.62
321.962	86.62
322.191	82.62
322.42	74.62
322.649	84.62
322.878	88.62
323.108	76.62
323.337	81.62
323.566	94.62
323.795	78.62
324.024	85.62
324.253	87.62
324.482	76.62
324.71	76.62
324.939	81.62
325.168	70.62
325.397	93.62
325.626	90.62
325.855	89.62
326.084	82.62
326.313	73.62
326.542	85.62
326.77	90.62
326.999	84.62
327.228	87.62
327.457	85.62
327.686	78.62
327.914	91.62
328.143	101.62
328.372	82.62
328.6	94.62
328.829	88.62
329.058	86.62
329.287	78.62
329.515	69.62
329.744	94.62
329.972	96.62
330.201	89.62
330.43	80.62
330.658	82.62
330.887	88.62
331.115	82.62
331.344	90.62
331.572	93.62
331.801	105.62
332.03	85.62
332.258	81.62
332.486	85.62
332.715	85.62
332.943	80.62
333.172	85.62
333.4	104.62
333.629	91.62
333.857	82.62
334.085	96.62
334.314	94.62
334.542	85.62
334.771	85.62
334.999	71.62
335.227	74.62
335.455	89.62
335.684	101.62
335.912	93.62
336.14	90.62
336.369	90.62
336.597	84.62
336.825	79.62
337.053	83.62
337.281	82.62
337.51	88.62
337.738	80.62
337.966	83.62
338.194	80.62
338.422	87.62
338.65	84.62
338.878	91.62
339.106	74.62
339.334	85.62
339.562	72.62
339.79	88.62
340.018	79.62
340.246	85.62
340.474	81.62
340.702	100.62
340.93	94.62
341.158	82.62
341.386	90.62
341.614	68.62
341.842	87.62
342.07	85.62
342.298	98.62
342.526	99.62
342.754	71.62
342.981	82.62
343.209	92.62
343.437	97.62
343.665	103.62
343.893	85.62
344.12	86.62
344.348	94.62
344.576	87.62
344.804	67.62
345.031	86.62
345.259	90.62
345.487	86.62
345.714	101.62
345.942	83.62
346.17	81.62
346.397	77.62
346.625	84.62
346.853	94.62
347.08	88.62
347.308	90.62
347.535	91.62
347.763	84.62
347.99	67.62
348.218	101.62
348.445	76.62
348.673	86.62
348.9	84.62
349.128	87.62
349.355	82.62
349.583	88.62
349.81	82.62
350.037	86.62
350.265	98.62
350.492	92.62
350.72	84.62
350.947	80.62
351.174	89.62
351.402	76.62
351.629	90.62
351.856	100.62
352.083	82.62
352.311	74.62
352.538	95.62
352.765	102.62
352.992	100.62
353.22	91.62
353.447	74.62
353.674	84.62
353.901	86.62
354.128	80.62
354.355	84.62
354.583	94.62
354.81	88.62
355.037	86.62
355.264	87.62
355.491	84.62
355.718	66.62
355.945	84.62
356.172	93.62
356.399	72.62
356.626	90.62
356.853	86.62
357.08	93.62
357.307	74.62
357.534	74.62
357.761	93.62
357.988	87.62
358.215	97.62
358.441	80.62
358.668	78.62
358.895	87.62
359.122	79.62
359.349	78.62
359.576	84.62
359.802	85.62
360.029	99.62
360.256	91.62
360.483	84.62
360.709	80.62
360.936	75.62
361.163	86.62
361.39	89.62
361.616	87.62
361.843	95.62
362.07	89.62
362.296	75.62
362.523	81.62
362.749	89.62
362.976	96.62
363.203	84.62
363.429	95.62
363.656	86.62
363.882	76.62
364.109	93.62
364.335	100.62
364.562	94.62
364.788	88.62
365.015	93.62
365.241	87.62
365.468	98.62
365.694	80.62
365.92	89.62
366.147	78.62
366.373	75.62
366.599	104.62
366.826	80.62
367.052	83.62
367.278	90.62
367.505	72.62
367.731	97.62
367.957	79.62
368.184	85.62
368.41	82.62
368.636	93.62
368.862	102.62
369.089	88.62
369.315	72.62
369.541	83.62
369.767	77.62
369.993	80.62
370.219	79.62
370.445	83.62
370.672	101.62
370.898	108.62
371.124	89.62
371.35	80.62
371.576	84.62
371.802	83.62
372.028	80.62
372.254	91.62
372.48	86.62
372.706	82.62
372.932	94.62
373.158	86.62
373.384	90.62
373.61	87.62
373.835	108.62
374.061	93.62
374.287	95.62
374.513	73.62
374.739	98.62
374.965	87.62
375.191	82.62
375.416	86.62
375.642	85.62
375.868	89.62
376.094	77.62
376.319	94.62
376.545	82.62
376.771	80.62
376.997	95.62
377.222	95.62
377.448	94.62
377.674	83.62
377.899	69.62
378.125	91.62
378.35	102.62
378.576	69.62
378.802	78.62
379.027	82.62
379.253	87.62
379.478	89.62
379.704	81.62
379.929	68.62
380.155	80.62
380.38	72.62
380.606	75.62
380.831	91.62
381.057	93.62
381.282	86.62
381.507	84.62
381.733	84.62
381.958	90.62
382.184	86.62
382.409	78.62
382.634	88.62
382.86	85.62
383.085	93.62
383.31	85.62
383.535	88.62
383.761	79.62
383.986	71.62
384.211	75.62
384.436	95.62
384.662	91.62
384.887	70.62
385.112	88.62
385.337	86.62
385.562	78.62
385.787	89.62
386.013	84.62
386.238	98.62
386.463	84.62
386.688	97.62
386.913	96.62
387.138	95.62
387.363	79.62
387.588	106.62
387.813	79.62
388.038	86.62
388.263	79.62
388.488	84.62
388.713	89.62
388.938	86.62
389.163	79.62
389.387	87.62
389.612	93.62
389.837	96.62
390.062	90.62
390.287	95.62
390.512	80.62
390.736	88.62
390.961	84.62
391.186	96.62
391.411	90.62
391.636	85.62
391.86	74.62
392.085	92.62
392.31	96.62
392.534	96.62
392.759	92.62
392.984	106.62
393.208	160.62
393.433	234.62
393.658	193.62
393.882	111.62
394.107	96.62
394.331	99.62
394.556	92.62
394.78	81.62
395.005	84.62
395.229	86.62
395.454	82.62
395.678	84.62
395.903	90.62
396.127	99.62
396.352	105.62
396.576	108.62
396.801	176.62
397.025	188.62
397.249	129.62
397.474	109.62
397.698	98.62
397.922	80.62
398.147	97.62
398.371	92.62
398.595	94.62
398.82	94.62
399.044	88.62
399.268	80.62
399.492	94.62
399.717	99.62
399.941	88.62
400.165	84.62
400.389	87.62
400.613	83.62
400.837	87.62
401.062	64.62
401.286	82.62
401.51	82.62
401.734	87.62
401.958	89.62
402.182	73.62
402.406	82.62
402.63	68.62
402.854	79.62
403.078	70.62
403.302	74.62
403.526	87.62
403.75	99.62
403.974	55.62
404.198	80.62
404.422	97.62
404.645	90.62
404.869	78.62
405.093	86.62
405.317	97.62
405.541	82.62
405.765	85.62
405.988	93.62
406.212	82.62
406.436	81.62
406.66	89.62
406.883	79.62
407.107	83.62
407.331	69.62
407.555	92.62
407.778	99.62
408.002	89.62
408.226	83.62
408.449	90.62
408.673	69.62
408.896	86.62
409.12	81.62
409.344	88.62
409.567	92.62
409.791	93.62
410.014	96.62
410.238	84.62
410.461	73.62
410.685	70.62
410.908	68.62
411.132	86.62
411.355	82.62
411.578	96.62
411.802	84.62
412.025	78.62
412.249	77.62
412.472	81.62
412.695	74.62
412.919	75.62
413.142	89.62
413.365	74.62
413.589	72.62
413.812	77.62
414.035	82.62
414.258	86.62
414.482	69.62
414.705	87.62
414.928	86.62
415.151	74.62
415.374	76.62
415.597	96.62
415.821	89.62
416.044	75.62
416.267	76.62
416.49	76.62
416.713	71.62
416.936	71.62
417.159	98.62
417.382	80.62
417.605	80.62
417.828	86.62
418.051	79.62
418.274	81.62
418.497	82.62
418.72	67.62
418.943	74.62
419.166	87.62
419.389	74.62
419.611	81.62
419.834	91.62
420.057	79.62
420.28	90.62
420.503	91.62
420.726	90.62
420.948	78.62
421.171	76.62
421.394	85.62
421.617	96.62
421.839	92.62
422.062	100.62
422.285	98.62
422.507	162.62
422.73	215.62
422.953	204.62
423.175	134.62
423.398	104.62
423.621	90.62
423.843	89.62
424.066	77.62
424.288	83.62
424.511	91.62
424.733	94.62
424.956	93.62
425.178	78.62
425.401	77.62
425.623	102.62
425.846	92.62
426.068	79.62
426.291	82.62
426.513	85.62
426.735	99.62
426.958	89.62
427.18	94.62
427.402	75.62
427.625	74.62
427.847	85.62
428.069	89.62
428.292	86.62
428.514	105.62
428.736	98.62
428.958	96.62
429.181	93.62
429.403	74.62
429.625	108.62
429.847	84.62
430.069	119.62
430.292	122.62
430.514	122.62
430.736	95.62
430.958	97.62
431.18	89.62
431.402	82.62
431.624	101.62
431.846	93.62
432.068	90.62
432.29	85.62
432.512	81.62
432.734	92.62
432.956	95.62
433.178	86.62
433.4	88.62
433.622	85.62
433.844	84.62
434.066	87.62
434.287	94.62
434.509	82.62
434.731	77.62
434.953	97.62
435.175	76.62
435.397	91.62
435.618	76.62
435.84	88.62
436.062	85.62
436.284	73.62
436.505	76.62
436.727	70.62
436.949	86.62
437.17	80.62
437.392	88.62
437.614	73.62
437.835	80.62
438.057	71.62
438.278	86.62
438.5	90.62
438.721	93.62
438.943	85.62
439.165	84.62
439.386	86.62
439.608	87.62
439.829	90.62
440.05	89.62
440.272	88.62
440.493	82.62
440.715	82.62
440.936	86.62
441.158	77.62
441.379	76.62
441.6	78.62
441.822	74.62
442.043	89.62
442.264	74.62
442.486	98.62
442.707	98.62
442.928	102.62
443.149	80.62
443.371	99.62
443.592	145.62
443.813	116.62
444.034	96.62
444.255	88.62
444.476	101.62
444.698	82.62
444.919	84.62
445.14	152.62
445.361	136.62
445.582	158.62
445.803	152.62
446.024	96.62
446.245	103.62
446.466	81.62
446.687	82.62
446.908	61.62
447.129	81.62
447.35	80.62
447.571	93.62
447.792	76.62
448.013	63.62
448.234	82.62
448.455	84.62
448.675	76.62
448.896	85.62
449.117	79.62
449.338	70.62
449.559	90.62
449.779	85.62
450	79.62
450.221	86.62
450.442	86.62
450.662	88.62
450.883	75.62
451.104	84.62
451.324	85.62
451.545	80.62
451.766	81.62
451.986	81.62
452.207	82.62
452.428	88.62
452.648	86.62
452.869	92.62
453.089	80.62
453.31	69.62
453.53	76.62
453.751	68.62
453.971	87.62
454.192	80.62
454.412	88.62
454.633	88.62
454.853	84.62
455.073	93.62
455.294	78.62
455.514	86.62
455.734	85.62
455.955	94.62
456.175	84.62
456.395	94.62
456.616	83.62
456.836	79.62
457.056	69.62
457.276	75.62
457.497	90.62
457.717	76.62
457.937	97.62
458.157	107.62
458.377	90.62
458.598	88.62
458.818	95.62
459.038	71.62
459.258	89.62
459.478	90.62
459.698	81.62
459.918	84.62
460.138	74.62
460.358	83.62
460.578	96.62
460.798	98.62
461.018	86.62
461.238	88.62
461.458	83.62
461.678	80.62
461.898	84.62
462.118	80.62
462.338	92.62
462.558	76.62
462.777	86.62
462.997	88.62
463.217	78.62
463.437	75.62
463.657	72.62
463.876	74.62
464.096	82.62
464.316	98.62
464.536	80.62
464.755	65.62
464.975	83.62
465.195	74.62
465.414	74.62
465.634	79.62
465.854	91.62
466.073	83.62
466.293	86.62
466.512	90.62
466.732	87.62
466.951	84.62
467.171	84.62
467.391	64.62
467.61	80.62
467.829	90.62
468.049	74.62
468.268	89.62
468.488	92.62
468.707	81.62
468.927	81.62
469.146	83.62
469.365	83.62
469.585	80.62
469.804	95.62
470.023	84.62
470.243	67.62
470.462	85.62
470.681	86.62
470.901	63.62
471.12	85.62
471.339	73.62
471.558	100.62
471.777	72.62
471.997	83.62
472.216	80.62
472.435	76.62
472.654	75.62
472.873	83.62
473.092	66.62
473.311	70.62
473.53	64.62
473.749	71.62
473.968	74.62
474.187	85.62
474.406	80.62
474.625	82.62
474.844	86.62
475.063	83.62
475.282	65.62
475.501	77.62
475.72	84.62
475.939	80.62
476.158	87.62
476.377	85.62
476.596	78.62
476.814	76.62
477.033	83.62
477.252	72.62
477.471	83.62
477.69	91.62
477.908	91.62
478.127	96.62
478.346	86.62
478.564	83.62
478.783	84.62
479.002	106.62
479.22	81.62
479.439	99.62
479.658	78.62
479.876	89.62
480.095	80.62
480.313	82.62
480.532	72.62
480.751	73.62
480.969	76.62
481.188	82.62
481.406	75.62
481.624	83.62
481.843	83.62
482.061	79.62
482.28	90.62
482.498	69.62
482.717	83.62
482.935	77.62
483.153	87.62
483.372	83.62
483.59	83.62
483.808	98.62
484.027	82.62
484.245	97.62
484.463	85.62
484.681	104.62
484.9	91.62
485.118	88.62
485.336	84.62
485.554	79.62
485.772	90.62
485.99	88.62
486.209	83.62
486.427	85.62
486.645	88.62
486.863	87.62
487.081	71.62
487.299	76.62
487.517	78.62
487.735	96.62
487.953	90.62
488.171	110.62
488.389	92.62
488.607	70.62
488.825	92.62
489.043	74.62
489.261	96.62
489.479	94.62
489.696	83.62
489.914	71.62
490.132	86.62
490.35	84.62
490.568	91.62
490.786	89.62
491.003	84.62
491.221	87.62
491.439	95.62
491.657	75.62
491.874	96.62
492.092	83.62
492.31	85.62
492.527	101.62
492.745	96.62
492.963	75.62
493.18	85.62
493.398	86.62
493.615	81.62
493.833	83.62
494.05	90.62
494.268	94.62
494.485	92.62
494.703	100.62
494.92	73.62
495.138	88.62
495.355	91.62
495.573	81.62
495.79	86.62
496.008	90.62
496.225	79.62
496.442	82.62
496.66	85.62
496.877	86.62
497.094	88.62
497.312	85.62
497.529	109.62
497.746	86.62
497.963	87.62
498.181	76.62
498.398	87.62
498.615	89.62
498.832	81.62
499.049	95.62
499.267	93.62
499.484	90.62
499.701	72.62
499.918	85.62
500.135	83.62
500.352	96.62
500.569	83.62
500.786	78.62
501.003	95.62
501.22	76.62
501.437	83.62
501.654	86.62
501.871	73.62
502.088	88.62
502.305	93.62
502.522	84.62
502.739	76.62
502.956	92.62
503.172	72.62
503.389	91.62
503.606	84.62
503.823	92.62
504.04	85.62
504.256	93.62
504.473	90.62
504.69	89.62
504.907	93.62
505.123	106.62
505.34	93.62
505.557	94.62
505.773	81.62
505.99	81.62
506.207	88.62
506.423	84.62
506.64	83.62
506.856	94.62
507.073	84.62
507.289	86.62
507.506	89.62
507.722	93.62
507.939	79.62
508.155	77.62
508.372	96.62
508.588	94.62
508.805	85.62
509.021	92.62
509.238	77.62
509.454	75.62
509.67	88.62
509.887	77.62
510.103	94.62
510.319	85.62
510.536	87.62
510.752	85.62
510.968	75.62
511.184	91.62
511.401	87.62
511.617	96.62
511.833	82.62
512.049	90.62
512.265	65.62
512.481	81.62
512.698	92.62
512.914	68.62
513.13	93.62
513.346	82.62
513.562	94.62
513.778	86.62
513.994	95.62
514.21	94.62
514.426	82.62
514.642	89.62
514.858	83.62
515.074	87.62
515.29	97.62
515.506	82.62
515.721	89.62
515.937	78.62
516.153	92.62
516.369	95.62
516.585	92.62
516.801	74.62
517.016	93.62
517.232	83.62
517.448	92.62
517.664	93.62
517.879	98.62
518.095	83.62
518.311	76.62
518.527	103.62
518.742	87.62
518.958	105.62
519.173	103.62
519.389	93.62
