Data from 10100_1_HRD10591_00001.txt Node
Date: Mon Jan 19 14:00:25 EST 2026
User: Yrep
Spectrometer: HR+D1059
Trigger mode: 1
Integration Time (sec): 1.000000E-1
Scans to average: 1
Electric dark correction enabled: true
Nonlinearity correction enabled: false
Boxcar width: 0
XAxis mode: Wavelengths
Number of Pixels in Spectrum: 2048
>>>>>Begin Spectral Data<<<<<
223.165	-9.69
223.4	-9.69
223.635	-9.69
223.869	-11.69
224.104	-36.69
224.338	-15.69
224.573	-22.69
224.808	-5.69
225.042	9.31
225.277	1.31
225.511	-2.69
225.746	-0.69
225.98	-0.69
226.215	11.31
226.449	4.31
226.683	18.31
226.918	38.31
227.152	23.31
227.387	24.31
227.621	38.31
227.856	58.31
228.09	52.31
228.324	46.31
228.559	56.31
228.793	67.31
229.027	54.31
229.262	64.31
229.496	56.31
229.73	54.31
229.964	65.31
230.199	73.31
230.433	66.31
230.667	69.31
230.901	78.31
231.136	71.31
231.37	77.31
231.604	78.31
231.838	78.31
232.072	91.31
232.306	75.31
232.541	65.31
232.775	73.31
233.009	81.31
233.243	85.31
233.477	75.31
233.711	74.31
233.945	84.31
234.179	89.31
234.413	87.31
234.647	66.31
234.881	78.31
235.115	86.31
235.349	70.31
235.583	68.31
235.817	80.31
236.051	87.31
236.285	73.31
236.519	83.31
236.753	86.31
236.987	81.31
237.221	70.31
237.455	93.31
237.689	80.31
237.922	78.31
238.156	74.31
238.39	65.31
238.624	71.31
238.858	81.31
239.091	80.31
239.325	82.31
239.559	85.31
239.793	60.31
240.027	74.31
240.26	68.31
240.494	92.31
240.728	67.31
240.961	74.31
241.195	74.31
241.429	70.31
241.662	70.31
241.896	69.31
242.13	78.31
242.363	80.31
242.597	66.31
242.83	79.31
243.064	79.31
243.298	84.31
243.531	82.31
243.765	80.31
243.998	68.31
244.232	92.31
244.465	69.31
244.699	78.31
244.932	86.31
245.166	81.31
245.399	80.31
245.633	85.31
245.866	78.31
246.099	64.31
246.333	69.31
246.566	77.31
246.8	75.31
247.033	81.31
247.266	69.31
247.5	80.31
247.733	79.31
247.966	74.31
248.2	72.31
248.433	78.31
248.666	79.31
248.899	72.31
249.133	60.31
249.366	80.31
249.599	81.31
249.832	89.31
250.066	77.31
250.299	79.31
250.532	79.31
250.765	66.31
250.998	78.31
251.231	70.31
251.465	74.31
251.698	71.31
251.931	70.31
252.164	72.31
252.397	88.31
252.63	71.31
252.863	60.31
253.096	72.31
253.329	92.31
253.562	80.31
253.795	78.31
254.028	77.31
254.261	94.31
254.494	62.31
254.727	66.31
254.96	76.31
255.193	65.31
255.426	75.31
255.659	68.31
255.892	75.31
256.124	74.31
256.357	75.31
256.59	84.31
256.823	87.31
257.056	87.31
257.289	83.31
257.521	84.31
257.754	91.31
257.987	81.31
258.22	96.31
258.452	86.31
258.685	75.31
258.918	88.31
259.151	75.31
259.383	81.31
259.616	82.31
259.849	68.31
260.081	64.31
260.314	85.31
260.547	64.31
260.779	80.31
261.012	77.31
261.244	82.31
261.477	82.31
261.71	71.31
261.942	76.31
262.175	69.31
262.407	82.31
262.64	73.31
262.872	77.31
263.105	69.31
263.337	80.31
263.57	65.31
263.802	70.31
264.035	96.31
264.267	89.31
264.499	74.31
264.732	76.31
264.964	78.31
265.197	68.31
265.429	84.31
265.661	82.31
265.894	77.31
266.126	82.31
266.358	97.31
266.591	76.31
266.823	99.31
267.055	79.31
267.287	74.31
267.52	85.31
267.752	63.31
267.984	80.31
268.216	72.31
268.448	75.31
268.681	80.31
268.913	78.31
269.145	85.31
269.377	72.31
269.609	88.31
269.841	83.31
270.073	67.31
270.306	73.31
270.538	74.31
270.77	78.31
271.002	73.31
271.234	79.31
271.466	76.31
271.698	86.31
271.93	83.31
272.162	88.31
272.394	81.31
272.626	65.31
272.858	78.31
273.09	84.31
273.322	74.31
273.553	73.31
273.785	78.31
274.017	84.31
274.249	83.31
274.481	79.31
274.713	67.31
274.945	78.31
275.176	79.31
275.408	87.31
275.64	96.31
275.872	73.31
276.104	88.31
276.335	87.31
276.567	74.31
276.799	90.31
277.031	82.31
277.262	80.31
277.494	87.31
277.726	88.31
277.957	86.31
278.189	80.31
278.421	84.31
278.652	65.31
278.884	74.31
279.115	79.31
279.347	77.31
279.579	83.31
279.81	89.31
280.042	103.31
280.273	88.31
280.505	92.31
280.736	78.31
280.968	86.31
281.199	82.31
281.431	89.31
281.662	78.31
281.894	85.31
282.125	81.31
282.356	73.31
282.588	78.31
282.819	76.31
283.051	89.31
283.282	80.31
283.513	73.31
283.745	72.31
283.976	87.31
284.207	89.31
284.439	85.31
284.67	91.31
284.901	84.31
285.132	75.31
285.364	87.31
285.595	74.31
285.826	76.31
286.057	74.31
286.288	94.31
286.52	74.31
286.751	85.31
286.982	81.31
287.213	72.31
287.444	90.31
287.675	77.31
287.906	87.31
288.138	86.31
288.369	95.31
288.6	95.31
288.831	95.31
289.062	84.31
289.293	75.31
289.524	72.31
289.755	83.31
289.986	84.31
290.217	86.31
290.448	96.31
290.679	84.31
290.91	80.31
291.141	69.31
291.371	80.31
291.602	101.31
291.833	83.31
292.064	69.31
292.295	89.31
292.526	78.31
292.757	79.31
292.987	86.31
293.218	74.31
293.449	78.31
293.68	81.31
293.91	93.31
294.141	109.31
294.372	78.31
294.603	78.31
294.833	65.31
295.064	85.31
295.295	85.31
295.525	92.31
295.756	78.31
295.987	87.31
296.217	86.31
296.448	80.31
296.679	85.31
296.909	84.31
297.14	75.31
297.37	94.31
297.601	87.31
297.831	77.31
298.062	66.31
298.292	93.31
298.523	95.31
298.753	81.31
298.984	82.31
299.214	93.31
299.445	78.31
299.675	93.31
299.905	83.31
300.136	85.31
300.366	94.31
300.597	75.31
300.827	78.31
301.057	84.31
301.288	66.31
301.518	72.31
301.748	69.31
301.979	100.31
302.209	87.31
302.439	80.31
302.669	92.31
302.9	90.31
303.13	92.31
303.36	99.31
303.59	92.31
303.82	78.31
304.051	78.31
304.281	83.31
304.511	77.31
304.741	76.31
304.971	71.31
305.201	95.31
305.431	88.31
305.661	69.31
305.891	77.31
306.121	88.31
306.352	81.31
306.582	87.31
306.812	85.31
307.042	92.31
307.272	82.31
307.502	84.31
307.731	87.31
307.961	87.31
308.191	92.31
308.421	85.31
308.651	84.31
308.881	85.31
309.111	91.31
309.341	103.31
309.571	93.31
309.8	79.31
310.03	94.31
310.26	93.31
310.49	92.31
310.72	89.31
310.949	90.31
311.179	81.31
311.409	91.31
311.639	69.31
311.868	89.31
312.098	76.31
312.328	89.31
312.557	81.31
312.787	76.31
313.017	84.31
313.246	82.31
313.476	77.31
313.706	60.31
313.935	88.31
314.165	92.31
314.394	85.31
314.624	68.31
314.853	92.31
315.083	83.31
315.312	94.31
315.542	80.31
315.771	101.31
316.001	74.31
316.23	75.31
316.46	92.31
316.689	88.31
316.919	88.31
317.148	78.31
317.377	83.31
317.607	96.31
317.836	80.31
318.065	91.31
318.295	97.31
318.524	69.31
318.753	88.31
318.983	90.31
319.212	89.31
319.441	86.31
319.67	82.31
319.9	90.31
320.129	95.31
320.358	86.31
320.587	86.31
320.816	82.31
321.046	85.31
321.275	73.31
321.504	89.31
321.733	96.31
321.962	67.31
322.191	86.31
322.42	84.31
322.649	74.31
322.878	68.31
323.108	75.31
323.337	73.31
323.566	84.31
323.795	102.31
324.024	93.31
324.253	92.31
324.482	81.31
324.71	87.31
324.939	64.31
325.168	82.31
325.397	96.31
325.626	87.31
325.855	74.31
326.084	85.31
326.313	76.31
326.542	90.31
326.77	95.31
326.999	82.31
327.228	92.31
327.457	100.31
327.686	102.31
327.914	86.31
328.143	90.31
328.372	91.31
328.6	72.31
328.829	93.31
329.058	83.31
329.287	87.31
329.515	89.31
329.744	104.31
329.972	87.31
330.201	80.31
330.43	82.31
330.658	67.31
330.887	101.31
331.115	73.31
331.344	85.31
331.572	83.31
331.801	89.31
332.03	86.31
332.258	80.31
332.486	84.31
332.715	89.31
332.943	62.31
333.172	78.31
333.4	97.31
333.629	88.31
333.857	94.31
334.085	80.31
334.314	89.31
334.542	92.31
334.771	90.31
334.999	80.31
335.227	88.31
335.455	71.31
335.684	72.31
335.912	85.31
336.14	116.31
336.369	98.31
336.597	98.31
336.825	88.31
337.053	91.31
337.281	78.31
337.51	83.31
337.738	84.31
337.966	78.31
338.194	79.31
338.422	78.31
338.65	79.31
338.878	82.31
339.106	80.31
339.334	92.31
339.562	89.31
339.79	80.31
340.018	94.31
340.246	86.31
340.474	85.31
340.702	84.31
340.93	85.31
341.158	75.31
341.386	87.31
341.614	80.31
341.842	86.31
342.07	86.31
342.298	97.31
342.526	72.31
342.754	75.31
342.981	85.31
343.209	82.31
343.437	99.31
343.665	79.31
343.893	86.31
344.12	99.31
344.348	82.31
344.576	86.31
344.804	85.31
345.031	76.31
345.259	86.31
345.487	94.31
345.714	87.31
345.942	99.31
346.17	83.31
346.397	84.31
346.625	92.31
346.853	87.31
347.08	84.31
347.308	88.31
347.535	88.31
347.763	74.31
347.99	101.31
348.218	92.31
348.445	85.31
348.673	79.31
348.9	95.31
349.128	95.31
349.355	76.31
349.583	83.31
349.81	82.31
350.037	86.31
350.265	92.31
350.492	79.31
350.72	100.31
350.947	76.31
351.174	84.31
351.402	86.31
351.629	77.31
351.856	80.31
352.083	84.31
352.311	71.31
352.538	94.31
352.765	78.31
352.992	82.31
353.22	84.31
353.447	94.31
353.674	86.31
353.901	90.31
354.128	71.31
354.355	88.31
354.583	87.31
354.81	82.31
355.037	93.31
355.264	89.31
355.491	80.31
355.718	84.31
355.945	87.31
356.172	84.31
356.399	86.31
356.626	87.31
356.853	91.31
357.08	91.31
357.307	74.31
357.534	89.31
357.761	71.31
357.988	97.31
358.215	85.31
358.441	86.31
358.668	82.31
358.895	83.31
359.122	86.31
359.349	86.31
359.576	96.31
359.802	76.31
360.029	81.31
360.256	83.31
360.483	88.31
360.709	80.31
360.936	102.31
361.163	94.31
361.39	90.31
361.616	87.31
361.843	100.31
362.07	101.31
362.296	84.31
362.523	86.31
362.749	102.31
362.976	93.31
363.203	114.31
363.429	98.31
363.656	87.31
363.882	86.31
364.109	97.31
364.335	111.31
364.562	100.31
364.788	96.31
365.015	105.31
365.241	84.31
365.468	97.31
365.694	82.31
365.92	72.31
366.147	79.31
366.373	82.31
366.599	70.31
366.826	72.31
367.052	87.31
367.278	90.31
367.505	90.31
367.731	93.31
367.957	94.31
368.184	99.31
368.41	89.31
368.636	97.31
368.862	86.31
369.089	87.31
369.315	86.31
369.541	101.31
369.767	75.31
369.993	90.31
370.219	80.31
370.445	94.31
370.672	80.31
370.898	93.31
371.124	88.31
371.35	72.31
371.576	89.31
371.802	89.31
372.028	81.31
372.254	92.31
372.48	83.31
372.706	80.31
372.932	84.31
373.158	85.31
373.384	97.31
373.61	94.31
373.835	83.31
374.061	84.31
374.287	83.31
374.513	94.31
374.739	110.31
374.965	103.31
375.191	92.31
375.416	88.31
375.642	80.31
375.868	92.31
376.094	98.31
376.319	92.31
376.545	102.31
376.771	85.31
376.997	86.31
377.222	97.31
377.448	90.31
377.674	80.31
377.899	85.31
378.125	84.31
378.35	90.31
378.576	93.31
378.802	78.31
379.027	72.31
379.253	91.31
379.478	73.31
379.704	72.31
379.929	77.31
380.155	82.31
380.38	90.31
380.606	88.31
380.831	89.31
381.057	87.31
381.282	79.31
381.507	75.31
381.733	97.31
381.958	91.31
382.184	85.31
382.409	99.31
382.634	87.31
382.86	82.31
383.085	80.31
383.31	90.31
383.535	95.31
383.761	84.31
383.986	96.31
384.211	75.31
384.436	86.31
384.662	75.31
384.887	78.31
385.112	80.31
385.337	81.31
385.562	89.31
385.787	86.31
386.013	86.31
386.238	86.31
386.463	85.31
386.688	98.31
386.913	96.31
387.138	89.31
387.363	84.31
387.588	93.31
387.813	85.31
388.038	90.31
388.263	93.31
388.488	89.31
388.713	91.31
388.938	88.31
389.163	96.31
389.387	82.31
389.612	86.31
389.837	92.31
390.062	109.31
390.287	79.31
390.512	78.31
390.736	84.31
390.961	79.31
391.186	92.31
391.411	80.31
391.636	95.31
391.86	97.31
392.085	92.31
392.31	87.31
392.534	99.31
392.759	82.31
392.984	121.31
393.208	163.31
393.433	204.31
393.658	160.31
393.882	104.31
394.107	89.31
394.331	90.31
394.556	96.31
394.78	89.31
395.005	92.31
395.229	100.31
395.454	103.31
395.678	96.31
395.903	103.31
396.127	98.31
396.352	122.31
396.576	126.31
396.801	154.31
397.025	184.31
397.249	128.31
397.474	94.31
397.698	109.31
397.922	80.31
398.147	86.31
398.371	96.31
398.595	95.31
398.82	94.31
399.044	90.31
399.268	90.31
399.492	103.31
399.717	95.31
399.941	94.31
400.165	102.31
400.389	93.31
400.613	84.31
400.837	92.31
401.062	89.31
401.286	82.31
401.51	71.31
401.734	85.31
401.958	89.31
402.182	86.31
402.406	78.31
402.63	78.31
402.854	87.31
403.078	86.31
403.302	84.31
403.526	91.31
403.75	81.31
403.974	79.31
404.198	72.31
404.422	84.31
404.645	93.31
404.869	88.31
405.093	80.31
405.317	84.31
405.541	77.31
405.765	95.31
405.988	92.31
406.212	79.31
406.436	79.31
406.66	88.31
406.883	72.31
407.107	77.31
407.331	92.31
407.555	85.31
407.778	108.31
408.002	96.31
408.226	79.31
408.449	67.31
408.673	82.31
408.896	86.31
409.12	84.31
409.344	104.31
409.567	92.31
409.791	93.31
410.014	103.31
410.238	110.31
410.461	92.31
410.685	89.31
410.908	72.31
411.132	85.31
411.355	74.31
411.578	84.31
411.802	84.31
412.025	84.31
412.249	74.31
412.472	98.31
412.695	86.31
412.919	91.31
413.142	78.31
413.365	80.31
413.589	72.31
413.812	86.31
414.035	94.31
414.258	73.31
414.482	66.31
414.705	76.31
414.928	84.31
415.151	85.31
415.374	80.31
415.597	92.31
415.821	81.31
416.044	77.31
416.267	79.31
416.49	94.31
416.713	88.31
416.936	83.31
417.159	82.31
417.382	75.31
417.605	67.31
417.828	100.31
418.051	75.31
418.274	82.31
418.497	85.31
418.72	89.31
418.943	67.31
419.166	77.31
419.389	82.31
419.611	83.31
419.834	80.31
420.057	79.31
420.28	79.31
420.503	84.31
420.726	86.31
420.948	78.31
421.171	95.31
421.394	96.31
421.617	112.31
421.839	97.31
422.062	111.31
422.285	148.31
422.507	180.31
422.73	236.31
422.953	208.31
423.175	160.31
423.398	121.31
423.621	94.31
423.843	100.31
424.066	95.31
424.288	97.31
424.511	89.31
424.733	92.31
424.956	84.31
425.178	86.31
425.401	88.31
425.623	100.31
425.846	94.31
426.068	82.31
426.291	85.31
426.513	82.31
426.735	87.31
426.958	82.31
427.18	80.31
427.402	95.31
427.625	73.31
427.847	76.31
428.069	95.31
428.292	115.31
428.514	113.31
428.736	98.31
428.958	98.31
429.181	117.31
429.403	89.31
429.625	81.31
429.847	116.31
430.069	130.31
430.292	132.31
430.514	130.31
430.736	108.31
430.958	118.31
431.18	96.31
431.402	92.31
431.624	84.31
431.846	106.31
432.068	105.31
432.29	87.31
432.512	94.31
432.734	75.31
432.956	69.31
433.178	81.31
433.4	85.31
433.622	88.31
433.844	80.31
434.066	80.31
434.287	85.31
434.509	93.31
434.731	94.31
434.953	97.31
435.175	86.31
435.397	85.31
435.618	86.31
435.84	81.31
436.062	82.31
436.284	82.31
436.505	93.31
436.727	80.31
436.949	74.31
437.17	84.31
437.392	90.31
437.614	79.31
437.835	92.31
438.057	87.31
438.278	73.31
438.5	92.31
438.721	91.31
438.943	79.31
439.165	87.31
439.386	88.31
439.608	89.31
439.829	82.31
440.05	77.31
440.272	86.31
440.493	77.31
440.715	85.31
440.936	85.31
441.158	89.31
441.379	85.31
441.6	88.31
441.822	72.31
442.043	83.31
442.264	89.31
442.486	124.31
442.707	136.31
442.928	106.31
443.149	92.31
443.371	122.31
443.592	175.31
443.813	155.31
444.034	106.31
444.255	96.31
444.476	73.31
444.698	84.31
444.919	97.31
445.14	161.31
445.361	157.31
445.582	202.31
445.803	185.31
446.024	114.31
446.245	87.31
446.466	82.31
446.687	79.31
446.908	75.31
447.129	91.31
447.35	87.31
447.571	81.31
447.792	81.31
448.013	70.31
448.234	97.31
448.455	92.31
448.675	75.31
448.896	75.31
449.117	80.31
449.338	93.31
449.559	84.31
449.779	79.31
450	87.31
450.221	84.31
450.442	89.31
450.662	76.31
450.883	88.31
451.104	83.31
451.324	85.31
451.545	86.31
451.766	83.31
451.986	81.31
452.207	89.31
452.428	86.31
452.648	90.31
452.869	98.31
453.089	96.31
453.31	86.31
453.53	87.31
453.751	88.31
453.971	86.31
454.192	78.31
454.412	82.31
454.633	89.31
454.853	74.31
455.073	88.31
455.294	74.31
455.514	81.31
455.734	89.31
455.955	88.31
456.175	81.31
456.395	80.31
456.616	78.31
456.836	86.31
457.056	81.31
457.276	84.31
457.497	88.31
457.717	86.31
457.937	104.31
458.157	120.31
458.377	116.31
458.598	120.31
458.818	106.31
459.038	101.31
459.258	92.31
459.478	86.31
459.698	82.31
459.918	82.31
460.138	90.31
460.358	88.31
460.578	88.31
460.798	98.31
461.018	104.31
461.238	83.31
461.458	88.31
461.678	85.31
461.898	73.31
462.118	73.31
462.338	76.31
462.558	88.31
462.777	88.31
462.997	95.31
463.217	77.31
463.437	76.31
463.657	71.31
463.876	92.31
464.096	81.31
464.316	87.31
464.536	74.31
464.755	86.31
464.975	83.31
465.195	98.31
465.414	84.31
465.634	89.31
465.854	90.31
466.073	93.31
466.293	86.31
466.512	91.31
466.732	92.31
466.951	92.31
467.171	75.31
467.391	77.31
467.61	74.31
467.829	78.31
468.049	89.31
468.268	89.31
468.488	77.31
468.707	81.31
468.927	102.31
469.146	87.31
469.365	80.31
469.585	85.31
469.804	81.31
470.023	88.31
470.243	82.31
470.462	77.31
470.681	86.31
470.901	88.31
471.12	82.31
471.339	85.31
471.558	93.31
471.777	77.31
471.997	85.31
472.216	76.31
472.435	70.31
472.654	88.31
472.873	100.31
473.092	83.31
473.311	90.31
473.53	85.31
473.749	96.31
473.968	89.31
474.187	77.31
474.406	89.31
474.625	86.31
474.844	87.31
475.063	74.31
475.282	75.31
475.501	88.31
475.72	87.31
475.939	81.31
476.158	68.31
476.377	94.31
476.596	93.31
476.814	75.31
477.033	83.31
477.252	85.31
477.471	79.31
477.69	89.31
477.908	85.31
478.127	80.31
478.346	90.31
478.564	78.31
478.783	74.31
479.002	88.31
479.22	86.31
479.439	81.31
479.658	75.31
479.876	80.31
480.095	80.31
480.313	101.31
480.532	78.31
480.751	78.31
480.969	81.31
481.188	97.31
481.406	74.31
481.624	65.31
481.843	77.31
482.061	68.31
482.28	78.31
482.498	100.31
482.717	69.31
482.935	92.31
483.153	96.31
483.372	82.31
483.59	78.31
483.808	80.31
484.027	77.31
484.245	79.31
484.463	86.31
484.681	83.31
484.9	89.31
485.118	81.31
485.336	69.31
485.554	79.31
485.772	81.31
485.99	82.31
486.209	89.31
486.427	88.31
486.645	88.31
486.863	79.31
487.081	82.31
487.299	98.31
487.517	85.31
487.735	105.31
487.953	161.31
488.171	122.31
488.389	90.31
488.607	86.31
488.825	85.31
489.043	79.31
489.261	79.31
489.479	86.31
489.696	92.31
489.914	73.31
490.132	90.31
490.35	94.31
490.568	90.31
490.786	82.31
491.003	68.31
491.221	78.31
491.439	95.31
491.657	81.31
491.874	73.31
492.092	93.31
492.31	85.31
492.527	79.31
492.745	82.31
492.963	93.31
493.18	75.31
493.398	83.31
493.615	80.31
493.833	81.31
494.05	96.31
494.268	88.31
494.485	86.31
494.703	93.31
494.92	80.31
495.138	86.31
495.355	87.31
495.573	85.31
495.79	85.31
496.008	93.31
496.225	73.31
496.442	108.31
496.66	95.31
496.877	96.31
497.094	89.31
497.312	70.31
497.529	80.31
497.746	92.31
497.963	68.31
498.181	83.31
498.398	90.31
498.615	84.31
498.832	100.31
499.049	81.31
499.267	98.31
499.484	93.31
499.701	69.31
499.918	104.31
500.135	84.31
500.352	88.31
500.569	85.31
500.786	84.31
501.003	96.31
501.22	75.31
501.437	88.31
501.654	86.31
501.871	96.31
502.088	86.31
502.305	85.31
502.522	77.31
502.739	87.31
502.956	82.31
503.172	94.31
503.389	78.31
503.606	89.31
503.823	86.31
504.04	102.31
504.256	124.31
504.473	119.31
504.69	98.31
504.907	89.31
505.123	94.31
505.34	82.31
505.557	77.31
505.773	88.31
505.99	75.31
506.207	99.31
506.423	95.31
506.64	87.31
506.856	80.31
507.073	88.31
507.289	85.31
507.506	83.31
507.722	75.31
507.939	75.31
508.155	88.31
508.372	68.31
508.588	79.31
508.805	83.31
509.021	92.31
509.238	89.31
509.454	90.31
509.67	82.31
509.887	70.31
510.103	83.31
510.319	82.31
510.536	84.31
510.752	85.31
510.968	96.31
511.184	78.31
511.401	74.31
511.617	79.31
511.833	87.31
512.049	100.31
512.265	105.31
512.481	87.31
512.698	73.31
512.914	99.31
513.13	94.31
513.346	86.31
513.562	97.31
513.778	97.31
513.994	93.31
514.21	97.31
514.426	86.31
514.642	89.31
514.858	83.31
515.074	90.31
515.29	85.31
515.506	88.31
515.721	93.31
515.937	93.31
516.153	103.31
516.369	81.31
516.585	89.31
516.801	96.31
517.016	78.31
517.232	91.31
517.448	87.31
517.664	87.31
517.879	95.31
518.095	93.31
518.311	101.31
518.527	91.31
518.742	91.31
