Data from 10100_1_HRD10591_00031.txt Node
Date: Mon Jan 19 14:00:40 EST 2026
User: Yrep
Spectrometer: HR+D1059
Trigger mode: 1
Integration Time (sec): 1.000000E-1
Scans to average: 1
Electric dark correction enabled: true
Nonlinearity correction enabled: false
Boxcar width: 0
XAxis mode: Wavelengths
Number of Pixels in Spectrum: 2048
>>>>>Begin Spectral Data<<<<<
223.165	-20.88
223.4	-20.88
223.635	-20.88
223.869	-6.88
224.104	-15.88
224.338	-16.88
224.573	-22.88
224.808	-10.88
225.042	-11.88
225.277	-1.88
225.511	-6.88
225.746	3.12
225.98	8.12
226.215	16.12
226.449	20.12
226.683	18.12
226.918	23.12
227.152	26.12
227.387	19.12
227.621	27.12
227.856	44.12
228.09	36.12
228.324	42.12
228.559	53.12
228.793	64.12
229.027	54.12
229.262	58.12
229.496	61.12
229.73	57.12
229.964	66.12
230.199	62.12
230.433	71.12
230.667	65.12
230.901	72.12
231.136	80.12
231.37	67.12
231.604	72.12
231.838	77.12
232.072	74.12
232.306	73.12
232.541	72.12
232.775	58.12
233.009	82.12
233.243	79.12
233.477	83.12
233.711	82.12
233.945	84.12
234.179	90.12
234.413	80.12
234.647	63.12
234.881	84.12
235.115	77.12
235.349	70.12
235.583	71.12
235.817	92.12
236.051	77.12
236.285	60.12
236.519	76.12
236.753	69.12
236.987	84.12
237.221	75.12
237.455	72.12
237.689	86.12
237.922	78.12
238.156	77.12
238.39	72.12
238.624	66.12
238.858	72.12
239.091	67.12
239.325	67.12
239.559	65.12
239.793	65.12
240.027	73.12
240.26	69.12
240.494	68.12
240.728	65.12
240.961	65.12
241.195	78.12
241.429	77.12
241.662	67.12
241.896	69.12
242.13	66.12
242.363	61.12
242.597	76.12
242.83	67.12
243.064	69.12
243.298	66.12
243.531	85.12
243.765	81.12
243.998	62.12
244.232	85.12
244.465	63.12
244.699	65.12
244.932	68.12
245.166	77.12
245.399	63.12
245.633	75.12
245.866	84.12
246.099	73.12
246.333	73.12
246.566	62.12
246.8	56.12
247.033	72.12
247.266	72.12
247.5	74.12
247.733	61.12
247.966	76.12
248.2	77.12
248.433	71.12
248.666	82.12
248.899	75.12
249.133	82.12
249.366	79.12
249.599	70.12
249.832	73.12
250.066	76.12
250.299	84.12
250.532	81.12
250.765	80.12
250.998	82.12
251.231	77.12
251.465	67.12
251.698	68.12
251.931	75.12
252.164	77.12
252.397	89.12
252.63	75.12
252.863	79.12
253.096	91.12
253.329	63.12
253.562	71.12
253.795	79.12
254.028	81.12
254.261	58.12
254.494	82.12
254.727	102.12
254.96	67.12
255.193	78.12
255.426	82.12
255.659	87.12
255.892	80.12
256.124	89.12
256.357	69.12
256.59	75.12
256.823	83.12
257.056	75.12
257.289	83.12
257.521	76.12
257.754	77.12
257.987	61.12
258.22	77.12
258.452	91.12
258.685	65.12
258.918	89.12
259.151	75.12
259.383	81.12
259.616	60.12
259.849	77.12
260.081	77.12
260.314	78.12
260.547	76.12
260.779	75.12
261.012	84.12
261.244	83.12
261.477	81.12
261.71	79.12
261.942	77.12
262.175	66.12
262.407	77.12
262.64	74.12
262.872	80.12
263.105	66.12
263.337	77.12
263.57	81.12
263.802	67.12
264.035	64.12
264.267	77.12
264.499	78.12
264.732	77.12
264.964	81.12
265.197	85.12
265.429	74.12
265.661	85.12
265.894	77.12
266.126	70.12
266.358	73.12
266.591	77.12
266.823	84.12
267.055	82.12
267.287	78.12
267.52	83.12
267.752	78.12
267.984	84.12
268.216	79.12
268.448	79.12
268.681	76.12
268.913	77.12
269.145	81.12
269.377	73.12
269.609	81.12
269.841	75.12
270.073	78.12
270.306	93.12
270.538	72.12
270.77	74.12
271.002	82.12
271.234	90.12
271.466	94.12
271.698	78.12
271.93	78.12
272.162	82.12
272.394	76.12
272.626	75.12
272.858	86.12
273.09	91.12
273.322	77.12
273.553	74.12
273.785	85.12
274.017	79.12
274.249	70.12
274.481	91.12
274.713	71.12
274.945	94.12
275.176	76.12
275.408	78.12
275.64	77.12
275.872	67.12
276.104	62.12
276.335	81.12
276.567	84.12
276.799	84.12
277.031	83.12
277.262	81.12
277.494	74.12
277.726	66.12
277.957	83.12
278.189	68.12
278.421	70.12
278.652	77.12
278.884	77.12
279.115	81.12
279.347	74.12
279.579	81.12
279.81	83.12
280.042	77.12
280.273	78.12
280.505	89.12
280.736	105.12
280.968	83.12
281.199	68.12
281.431	89.12
281.662	83.12
281.894	93.12
282.125	92.12
282.356	73.12
282.588	101.12
282.819	95.12
283.051	70.12
283.282	82.12
283.513	83.12
283.745	72.12
283.976	77.12
284.207	79.12
284.439	80.12
284.67	89.12
284.901	78.12
285.132	73.12
285.364	89.12
285.595	84.12
285.826	89.12
286.057	95.12
286.288	82.12
286.52	96.12
286.751	73.12
286.982	81.12
287.213	95.12
287.444	88.12
287.675	80.12
287.906	84.12
288.138	68.12
288.369	82.12
288.6	75.12
288.831	85.12
289.062	89.12
289.293	78.12
289.524	78.12
289.755	80.12
289.986	74.12
290.217	94.12
290.448	82.12
290.679	79.12
290.91	87.12
291.141	86.12
291.371	88.12
291.602	87.12
291.833	93.12
292.064	80.12
292.295	75.12
292.526	77.12
292.757	86.12
292.987	89.12
293.218	75.12
293.449	81.12
293.68	83.12
293.91	77.12
294.141	76.12
294.372	74.12
294.603	85.12
294.833	80.12
295.064	75.12
295.295	78.12
295.525	75.12
295.756	90.12
295.987	98.12
296.217	86.12
296.448	97.12
296.679	72.12
296.909	81.12
297.14	86.12
297.37	80.12
297.601	97.12
297.831	92.12
298.062	90.12
298.292	93.12
298.523	79.12
298.753	95.12
298.984	72.12
299.214	82.12
299.445	76.12
299.675	86.12
299.905	77.12
300.136	78.12
300.366	78.12
300.597	87.12
300.827	100.12
301.057	84.12
301.288	80.12
301.518	90.12
301.748	78.12
301.979	86.12
302.209	85.12
302.439	89.12
302.669	57.12
302.9	84.12
303.13	84.12
303.36	109.12
303.59	72.12
303.82	86.12
304.051	75.12
304.281	83.12
304.511	83.12
304.741	79.12
304.971	78.12
305.201	77.12
305.431	63.12
305.661	91.12
305.891	90.12
306.121	71.12
306.352	83.12
306.582	71.12
306.812	90.12
307.042	77.12
307.272	75.12
307.502	74.12
307.731	90.12
307.961	90.12
308.191	86.12
308.421	80.12
308.651	79.12
308.881	81.12
309.111	71.12
309.341	79.12
309.571	88.12
309.8	77.12
310.03	82.12
310.26	85.12
310.49	77.12
310.72	84.12
310.949	82.12
311.179	71.12
311.409	91.12
311.639	85.12
311.868	91.12
312.098	77.12
312.328	87.12
312.557	90.12
312.787	86.12
313.017	81.12
313.246	79.12
313.476	75.12
313.706	86.12
313.935	88.12
314.165	80.12
314.394	86.12
314.624	73.12
314.853	79.12
315.083	84.12
315.312	78.12
315.542	92.12
315.771	55.12
316.001	91.12
316.23	78.12
316.46	91.12
316.689	71.12
316.919	75.12
317.148	85.12
317.377	95.12
317.607	97.12
317.836	75.12
318.065	97.12
318.295	81.12
318.524	78.12
318.753	65.12
318.983	74.12
319.212	97.12
319.441	76.12
319.67	78.12
319.9	83.12
320.129	75.12
320.358	83.12
320.587	83.12
320.816	85.12
321.046	70.12
321.275	95.12
321.504	75.12
321.733	100.12
321.962	84.12
322.191	72.12
322.42	79.12
322.649	77.12
322.878	79.12
323.108	72.12
323.337	77.12
323.566	79.12
323.795	80.12
324.024	73.12
324.253	79.12
324.482	63.12
324.71	77.12
324.939	80.12
325.168	84.12
325.397	83.12
325.626	85.12
325.855	85.12
326.084	72.12
326.313	82.12
326.542	74.12
326.77	96.12
326.999	68.12
327.228	78.12
327.457	75.12
327.686	73.12
327.914	84.12
328.143	77.12
328.372	81.12
328.6	77.12
328.829	69.12
329.058	78.12
329.287	71.12
329.515	79.12
329.744	89.12
329.972	81.12
330.201	79.12
330.43	81.12
330.658	83.12
330.887	85.12
331.115	83.12
331.344	88.12
331.572	87.12
331.801	76.12
332.03	79.12
332.258	72.12
332.486	87.12
332.715	93.12
332.943	89.12
333.172	66.12
333.4	93.12
333.629	86.12
333.857	72.12
334.085	74.12
334.314	86.12
334.542	78.12
334.771	81.12
334.999	76.12
335.227	81.12
335.455	83.12
335.684	85.12
335.912	85.12
336.14	93.12
336.369	80.12
336.597	69.12
336.825	77.12
337.053	82.12
337.281	75.12
337.51	91.12
337.738	94.12
337.966	92.12
338.194	72.12
338.422	77.12
338.65	86.12
338.878	80.12
339.106	78.12
339.334	85.12
339.562	89.12
339.79	86.12
340.018	73.12
340.246	91.12
340.474	75.12
340.702	85.12
340.93	86.12
341.158	81.12
341.386	74.12
341.614	86.12
341.842	97.12
342.07	81.12
342.298	78.12
342.526	79.12
342.754	86.12
342.981	84.12
343.209	89.12
343.437	80.12
343.665	77.12
343.893	86.12
344.12	79.12
344.348	77.12
344.576	91.12
344.804	57.12
345.031	86.12
345.259	71.12
345.487	74.12
345.714	89.12
345.942	78.12
346.17	92.12
346.397	73.12
346.625	79.12
346.853	66.12
347.08	78.12
347.308	79.12
347.535	89.12
347.763	80.12
347.99	89.12
348.218	89.12
348.445	84.12
348.673	87.12
348.9	78.12
349.128	75.12
349.355	85.12
349.583	82.12
349.81	78.12
350.037	74.12
350.265	74.12
350.492	81.12
350.72	75.12
350.947	81.12
351.174	84.12
351.402	92.12
351.629	72.12
351.856	69.12
352.083	83.12
352.311	69.12
352.538	85.12
352.765	87.12
352.992	92.12
353.22	92.12
353.447	80.12
353.674	79.12
353.901	92.12
354.128	69.12
354.355	75.12
354.583	77.12
354.81	92.12
355.037	81.12
355.264	92.12
355.491	81.12
355.718	85.12
355.945	86.12
356.172	91.12
356.399	76.12
356.626	71.12
356.853	72.12
357.08	90.12
357.307	79.12
357.534	69.12
357.761	89.12
357.988	82.12
358.215	92.12
358.441	75.12
358.668	81.12
358.895	78.12
359.122	78.12
359.349	95.12
359.576	82.12
359.802	82.12
360.029	85.12
360.256	83.12
360.483	83.12
360.709	76.12
360.936	90.12
361.163	91.12
361.39	82.12
361.616	99.12
361.843	79.12
362.07	91.12
362.296	86.12
362.523	91.12
362.749	86.12
362.976	100.12
363.203	115.12
363.429	81.12
363.656	81.12
363.882	85.12
364.109	100.12
364.335	98.12
364.562	97.12
364.788	93.12
365.015	90.12
365.241	87.12
365.468	89.12
365.694	84.12
365.92	93.12
366.147	95.12
366.373	74.12
366.599	81.12
366.826	88.12
367.052	79.12
367.278	75.12
367.505	87.12
367.731	91.12
367.957	73.12
368.184	85.12
368.41	89.12
368.636	71.12
368.862	79.12
369.089	73.12
369.315	71.12
369.541	89.12
369.767	101.12
369.993	75.12
370.219	92.12
370.445	75.12
370.672	80.12
370.898	84.12
371.124	81.12
371.35	83.12
371.576	88.12
371.802	64.12
372.028	79.12
372.254	92.12
372.48	86.12
372.706	78.12
372.932	76.12
373.158	81.12
373.384	89.12
373.61	99.12
373.835	94.12
374.061	96.12
374.287	93.12
374.513	79.12
374.739	98.12
374.965	89.12
375.191	84.12
375.416	83.12
375.642	76.12
375.868	85.12
376.094	71.12
376.319	85.12
376.545	93.12
376.771	73.12
376.997	75.12
377.222	74.12
377.448	86.12
377.674	72.12
377.899	82.12
378.125	81.12
378.35	80.12
378.576	94.12
378.802	81.12
379.027	69.12
379.253	85.12
379.478	82.12
379.704	69.12
379.929	74.12
380.155	79.12
380.38	77.12
380.606	94.12
380.831	73.12
381.057	78.12
381.282	78.12
381.507	86.12
381.733	96.12
381.958	85.12
382.184	84.12
382.409	79.12
382.634	83.12
382.86	84.12
383.085	89.12
383.31	75.12
383.535	95.12
383.761	85.12
383.986	80.12
384.211	103.12
384.436	84.12
384.662	83.12
384.887	78.12
385.112	68.12
385.337	82.12
385.562	73.12
385.787	94.12
386.013	89.12
386.238	85.12
386.463	86.12
386.688	97.12
386.913	70.12
387.138	74.12
387.363	77.12
387.588	82.12
387.813	76.12
388.038	65.12
388.263	68.12
388.488	77.12
388.713	83.12
388.938	89.12
389.163	61.12
389.387	82.12
389.612	79.12
389.837	75.12
390.062	70.12
390.287	61.12
390.512	77.12
390.736	89.12
390.961	90.12
391.186	85.12
391.411	78.12
391.636	79.12
391.86	89.12
392.085	86.12
392.31	77.12
392.534	107.12
392.759	101.12
392.984	113.12
393.208	137.12
393.433	199.12
393.658	149.12
393.882	107.12
394.107	88.12
394.331	93.12
394.556	100.12
394.78	95.12
395.005	93.12
395.229	80.12
395.454	89.12
395.678	89.12
395.903	86.12
396.127	96.12
396.352	95.12
396.576	99.12
396.801	159.12
397.025	158.12
397.249	110.12
397.474	89.12
397.698	93.12
397.922	85.12
398.147	73.12
398.371	78.12
398.595	100.12
398.82	73.12
399.044	85.12
399.268	77.12
399.492	83.12
399.717	75.12
399.941	100.12
400.165	107.12
400.389	85.12
400.613	89.12
400.837	77.12
401.062	79.12
401.286	72.12
401.51	80.12
401.734	76.12
401.958	94.12
402.182	88.12
402.406	74.12
402.63	88.12
402.854	81.12
403.078	89.12
403.302	84.12
403.526	71.12
403.75	85.12
403.974	63.12
404.198	66.12
404.422	84.12
404.645	74.12
404.869	91.12
405.093	81.12
405.317	70.12
405.541	77.12
405.765	74.12
405.988	75.12
406.212	67.12
406.436	83.12
406.66	79.12
406.883	79.12
407.107	79.12
407.331	74.12
407.555	84.12
407.778	77.12
408.002	93.12
408.226	84.12
408.449	85.12
408.673	86.12
408.896	83.12
409.12	76.12
409.344	96.12
409.567	82.12
409.791	62.12
410.014	81.12
410.238	70.12
410.461	71.12
410.685	94.12
410.908	87.12
411.132	85.12
411.355	75.12
411.578	78.12
411.802	82.12
412.025	70.12
412.249	85.12
412.472	91.12
412.695	77.12
412.919	89.12
413.142	72.12
413.365	75.12
413.589	83.12
413.812	64.12
414.035	77.12
414.258	68.12
414.482	85.12
414.705	70.12
414.928	85.12
415.151	81.12
415.374	68.12
415.597	81.12
415.821	91.12
416.044	84.12
416.267	68.12
416.49	85.12
416.713	79.12
416.936	88.12
417.159	83.12
417.382	75.12
417.605	76.12
417.828	83.12
418.051	77.12
418.274	98.12
418.497	75.12
418.72	77.12
418.943	94.12
419.166	82.12
419.389	88.12
419.611	83.12
419.834	64.12
420.057	79.12
420.28	86.12
420.503	79.12
420.726	68.12
420.948	83.12
421.171	70.12
421.394	89.12
421.617	87.12
421.839	83.12
422.062	86.12
422.285	126.12
422.507	171.12
422.73	239.12
422.953	207.12
423.175	133.12
423.398	101.12
423.621	81.12
423.843	78.12
424.066	84.12
424.288	79.12
424.511	83.12
424.733	81.12
424.956	76.12
425.178	91.12
425.401	77.12
425.623	76.12
425.846	79.12
426.068	83.12
426.291	71.12
426.513	76.12
426.735	70.12
426.958	91.12
427.18	75.12
427.402	98.12
427.625	81.12
427.847	76.12
428.069	96.12
428.292	96.12
428.514	94.12
428.736	97.12
428.958	84.12
429.181	96.12
429.403	76.12
429.625	95.12
429.847	105.12
430.069	113.12
430.292	130.12
430.514	109.12
430.736	102.12
430.958	107.12
431.18	90.12
431.402	82.12
431.624	84.12
431.846	83.12
432.068	93.12
432.29	83.12
432.512	77.12
432.734	78.12
432.956	92.12
433.178	76.12
433.4	84.12
433.622	77.12
433.844	82.12
434.066	78.12
434.287	79.12
434.509	64.12
434.731	89.12
434.953	84.12
435.175	78.12
435.397	79.12
435.618	79.12
435.84	83.12
436.062	80.12
436.284	80.12
436.505	87.12
436.727	81.12
436.949	82.12
437.17	84.12
437.392	83.12
437.614	91.12
437.835	85.12
438.057	71.12
438.278	81.12
438.5	82.12
438.721	97.12
438.943	86.12
439.165	88.12
439.386	75.12
439.608	70.12
439.829	68.12
440.05	81.12
440.272	81.12
440.493	78.12
440.715	79.12
440.936	90.12
441.158	59.12
441.379	95.12
441.6	97.12
441.822	65.12
442.043	91.12
442.264	93.12
442.486	97.12
442.707	121.12
442.928	98.12
443.149	86.12
443.371	122.12
443.592	136.12
443.813	131.12
444.034	96.12
444.255	72.12
444.476	87.12
444.698	82.12
444.919	89.12
445.14	148.12
445.361	144.12
445.582	163.12
445.803	161.12
446.024	96.12
446.245	79.12
446.466	95.12
446.687	91.12
446.908	82.12
447.129	93.12
447.35	77.12
447.571	84.12
447.792	77.12
448.013	67.12
448.234	81.12
448.455	83.12
448.675	85.12
448.896	70.12
449.117	79.12
449.338	74.12
449.559	91.12
449.779	89.12
450	82.12
450.221	59.12
450.442	77.12
450.662	67.12
450.883	67.12
451.104	91.12
451.324	82.12
451.545	89.12
451.766	90.12
451.986	80.12
452.207	88.12
452.428	86.12
452.648	85.12
452.869	82.12
453.089	79.12
453.31	77.12
453.53	76.12
453.751	88.12
453.971	91.12
454.192	78.12
454.412	97.12
454.633	75.12
454.853	77.12
455.073	83.12
455.294	83.12
455.514	77.12
455.734	78.12
455.955	85.12
456.175	77.12
456.395	68.12
456.616	78.12
456.836	77.12
457.056	83.12
457.276	92.12
457.497	98.12
457.717	99.12
457.937	89.12
458.157	89.12
458.377	79.12
458.598	93.12
458.818	92.12
459.038	99.12
459.258	79.12
459.478	75.12
459.698	82.12
459.918	90.12
460.138	89.12
460.358	87.12
460.578	100.12
460.798	77.12
461.018	99.12
461.238	81.12
461.458	76.12
461.678	81.12
461.898	82.12
462.118	67.12
462.338	73.12
462.558	81.12
462.777	81.12
462.997	72.12
463.217	80.12
463.437	84.12
463.657	84.12
463.876	71.12
464.096	72.12
464.316	75.12
464.536	91.12
464.755	82.12
464.975	64.12
465.195	86.12
465.414	83.12
465.634	89.12
465.854	89.12
466.073	75.12
466.293	75.12
466.512	84.12
466.732	83.12
466.951	76.12
467.171	78.12
467.391	79.12
467.61	66.12
467.829	69.12
468.049	75.12
468.268	83.12
468.488	82.12
468.707	81.12
468.927	74.12
469.146	71.12
469.365	85.12
469.585	93.12
469.804	78.12
470.023	73.12
470.243	80.12
470.462	94.12
470.681	87.12
470.901	79.12
471.12	77.12
471.339	73.12
471.558	71.12
471.777	71.12
471.997	91.12
472.216	72.12
472.435	70.12
472.654	75.12
472.873	77.12
473.092	81.12
473.311	96.12
473.53	67.12
473.749	85.12
473.968	77.12
474.187	80.12
474.406	82.12
474.625	89.12
474.844	78.12
475.063	75.12
475.282	84.12
475.501	85.12
475.72	82.12
475.939	77.12
476.158	80.12
476.377	81.12
476.596	67.12
476.814	59.12
477.033	71.12
477.252	81.12
477.471	79.12
477.69	74.12
477.908	78.12
478.127	81.12
478.346	81.12
478.564	68.12
478.783	79.12
479.002	79.12
479.22	83.12
479.439	87.12
479.658	100.12
479.876	78.12
480.095	76.12
480.313	90.12
480.532	81.12
480.751	86.12
480.969	99.12
481.188	81.12
481.406	87.12
481.624	77.12
481.843	96.12
482.061	79.12
482.28	89.12
482.498	71.12
482.717	78.12
482.935	85.12
483.153	78.12
483.372	89.12
483.59	93.12
483.808	92.12
484.027	61.12
484.245	72.12
484.463	70.12
484.681	89.12
484.9	73.12
485.118	78.12
485.336	91.12
485.554	81.12
485.772	75.12
485.99	96.12
486.209	84.12
486.427	77.12
486.645	81.12
486.863	82.12
487.081	81.12
487.299	83.12
487.517	91.12
487.735	81.12
487.953	115.12
488.171	89.12
488.389	73.12
488.607	72.12
488.825	83.12
489.043	86.12
489.261	84.12
489.479	80.12
489.696	66.12
489.914	77.12
490.132	90.12
490.35	74.12
490.568	90.12
490.786	81.12
491.003	87.12
491.221	82.12
491.439	93.12
491.657	80.12
491.874	89.12
492.092	83.12
492.31	79.12
492.527	84.12
492.745	80.12
492.963	105.12
493.18	73.12
493.398	77.12
493.615	75.12
493.833	77.12
494.05	77.12
494.268	95.12
494.485	71.12
494.703	89.12
494.92	74.12
495.138	84.12
495.355	78.12
495.573	82.12
495.79	80.12
496.008	69.12
496.225	73.12
496.442	83.12
496.66	79.12
496.877	78.12
497.094	82.12
497.312	75.12
497.529	83.12
497.746	89.12
497.963	81.12
498.181	82.12
498.398	85.12
498.615	75.12
498.832	82.12
499.049	96.12
499.267	91.12
499.484	83.12
499.701	87.12
499.918	72.12
500.135	72.12
500.352	73.12
500.569	82.12
500.786	77.12
501.003	87.12
501.22	80.12
501.437	82.12
501.654	85.12
501.871	70.12
502.088	92.12
502.305	77.12
502.522	84.12
502.739	75.12
502.956	79.12
503.172	89.12
503.389	92.12
503.606	84.12
503.823	77.12
504.04	87.12
504.256	81.12
504.473	100.12
504.69	77.12
504.907	99.12
505.123	80.12
505.34	68.12
505.557	92.12
505.773	87.12
505.99	82.12
506.207	59.12
506.423	70.12
506.64	95.12
506.856	72.12
507.073	71.12
507.289	93.12
507.506	89.12
507.722	85.12
507.939	75.12
508.155	89.12
508.372	74.12
508.588	84.12
508.805	70.12
509.021	80.12
509.238	63.12
509.454	82.12
509.67	80.12
509.887	69.12
510.103	77.12
510.319	74.12
510.536	81.12
510.752	92.12
510.968	73.12
511.184	89.12
511.401	82.12
511.617	77.12
511.833	92.12
512.049	78.12
512.265	92.12
512.481	70.12
512.698	83.12
512.914	73.12
513.13	69.12
513.346	84.12
513.562	72.12
513.778	93.12
513.994	71.12
514.21	78.12
514.426	88.12
514.642	90.12
514.858	84.12
515.074	91.12
515.29	86.12
515.506	100.12
515.721	76.12
515.937	95.12
516.153	77.12
516.369	86.12
516.585	92.12
516.801	76.12
517.016	79.12
517.232	79.12
517.448	93.12
517.664	84.12
517.879	93.12
518.095	91.12
518.311	87.12
518.527	84.12
518.742	99.12
518.958	95.12
519.173	110.12
519.389	89.12
519.605	85.12
