Data from 10100_1_HRD10591_00021.txt Node
Date: Mon Jan 19 14:00:35 EST 2026
User: Yrep
Spectrometer: HR+D1059
Trigger mode: 1
Integration Time (sec): 1.000000E-1
Scans to average: 1
Electric dark correction enabled: true
Nonlinearity correction enabled: false
Boxcar width: 0
XAxis mode: Wavelengths
Number of Pixels in Spectrum: 2048
>>>>>Begin Spectral Data<<<<<
223.165	-22.19
223.4	-22.19
223.635	-22.19
223.869	-14.19
224.104	-14.19
224.338	-12.19
224.573	-8.19
224.808	-5.19
225.042	-8.19
225.277	-11.19
225.511	-0.19
225.746	12.81
225.98	3.81
226.215	14.81
226.449	17.81
226.683	16.81
226.918	14.81
227.152	14.81
227.387	38.81
227.621	44.81
227.856	47.81
228.09	45.81
228.324	51.81
228.559	57.81
228.793	61.81
229.027	58.81
229.262	68.81
229.496	63.81
229.73	68.81
229.964	83.81
230.199	64.81
230.433	70.81
230.667	71.81
230.901	68.81
231.136	81.81
231.37	72.81
231.604	79.81
231.838	72.81
232.072	87.81
232.306	88.81
232.541	80.81
232.775	82.81
233.009	79.81
233.243	78.81
233.477	80.81
233.711	76.81
233.945	81.81
234.179	88.81
234.413	103.81
234.647	70.81
234.881	84.81
235.115	83.81
235.349	72.81
235.583	85.81
235.817	71.81
236.051	70.81
236.285	78.81
236.519	79.81
236.753	68.81
236.987	68.81
237.221	79.81
237.455	73.81
237.689	89.81
237.922	74.81
238.156	91.81
238.39	78.81
238.624	73.81
238.858	75.81
239.091	85.81
239.325	75.81
239.559	76.81
239.793	87.81
240.027	81.81
240.26	78.81
240.494	81.81
240.728	83.81
240.961	81.81
241.195	80.81
241.429	85.81
241.662	73.81
241.896	81.81
242.13	83.81
242.363	89.81
242.597	70.81
242.83	85.81
243.064	66.81
243.298	89.81
243.531	81.81
243.765	75.81
243.998	75.81
244.232	74.81
244.465	89.81
244.699	89.81
244.932	68.81
245.166	67.81
245.399	70.81
245.633	75.81
245.866	87.81
246.099	81.81
246.333	73.81
246.566	63.81
246.8	73.81
247.033	74.81
247.266	92.81
247.5	74.81
247.733	88.81
247.966	89.81
248.2	80.81
248.433	85.81
248.666	83.81
248.899	100.81
249.133	81.81
249.366	73.81
249.599	61.81
249.832	68.81
250.066	81.81
250.299	71.81
250.532	66.81
250.765	84.81
250.998	81.81
251.231	87.81
251.465	73.81
251.698	76.81
251.931	96.81
252.164	88.81
252.397	65.81
252.63	89.81
252.863	77.81
253.096	87.81
253.329	80.81
253.562	84.81
253.795	75.81
254.028	83.81
254.261	87.81
254.494	79.81
254.727	84.81
254.96	74.81
255.193	73.81
255.426	88.81
255.659	80.81
255.892	91.81
256.124	74.81
256.357	85.81
256.59	83.81
256.823	88.81
257.056	78.81
257.289	93.81
257.521	74.81
257.754	68.81
257.987	77.81
258.22	90.81
258.452	85.81
258.685	88.81
258.918	67.81
259.151	80.81
259.383	74.81
259.616	77.81
259.849	72.81
260.081	81.81
260.314	83.81
260.547	70.81
260.779	91.81
261.012	93.81
261.244	81.81
261.477	100.81
261.71	68.81
261.942	79.81
262.175	86.81
262.407	69.81
262.64	84.81
262.872	80.81
263.105	77.81
263.337	79.81
263.57	76.81
263.802	86.81
264.035	86.81
264.267	71.81
264.499	85.81
264.732	68.81
264.964	83.81
265.197	61.81
265.429	81.81
265.661	91.81
265.894	87.81
266.126	93.81
266.358	79.81
266.591	79.81
266.823	79.81
267.055	83.81
267.287	86.81
267.52	85.81
267.752	87.81
267.984	82.81
268.216	79.81
268.448	93.81
268.681	78.81
268.913	76.81
269.145	81.81
269.377	76.81
269.609	88.81
269.841	88.81
270.073	91.81
270.306	83.81
270.538	87.81
270.77	68.81
271.002	81.81
271.234	83.81
271.466	85.81
271.698	78.81
271.93	80.81
272.162	78.81
272.394	88.81
272.626	76.81
272.858	87.81
273.09	75.81
273.322	78.81
273.553	95.81
273.785	94.81
274.017	75.81
274.249	90.81
274.481	85.81
274.713	74.81
274.945	92.81
275.176	71.81
275.408	99.81
275.64	99.81
275.872	85.81
276.104	77.81
276.335	87.81
276.567	81.81
276.799	81.81
277.031	81.81
277.262	77.81
277.494	88.81
277.726	95.81
277.957	81.81
278.189	69.81
278.421	91.81
278.652	84.81
278.884	83.81
279.115	65.81
279.347	77.81
279.579	106.81
279.81	89.81
280.042	83.81
280.273	97.81
280.505	80.81
280.736	80.81
280.968	78.81
281.199	94.81
281.431	72.81
281.662	79.81
281.894	93.81
282.125	89.81
282.356	87.81
282.588	80.81
282.819	80.81
283.051	79.81
283.282	83.81
283.513	75.81
283.745	92.81
283.976	82.81
284.207	79.81
284.439	78.81
284.67	85.81
284.901	82.81
285.132	93.81
285.364	94.81
285.595	75.81
285.826	85.81
286.057	94.81
286.288	95.81
286.52	81.81
286.751	85.81
286.982	93.81
287.213	73.81
287.444	75.81
287.675	84.81
287.906	86.81
288.138	83.81
288.369	81.81
288.6	83.81
288.831	81.81
289.062	85.81
289.293	94.81
289.524	91.81
289.755	79.81
289.986	71.81
290.217	71.81
290.448	68.81
290.679	84.81
290.91	79.81
291.141	72.81
291.371	93.81
291.602	93.81
291.833	88.81
292.064	93.81
292.295	93.81
292.526	85.81
292.757	91.81
292.987	85.81
293.218	73.81
293.449	96.81
293.68	68.81
293.91	89.81
294.141	93.81
294.372	93.81
294.603	93.81
294.833	82.81
295.064	81.81
295.295	89.81
295.525	69.81
295.756	93.81
295.987	83.81
296.217	97.81
296.448	87.81
296.679	92.81
296.909	99.81
297.14	85.81
297.37	85.81
297.601	76.81
297.831	75.81
298.062	92.81
298.292	78.81
298.523	84.81
298.753	88.81
298.984	97.81
299.214	76.81
299.445	79.81
299.675	86.81
299.905	85.81
300.136	92.81
300.366	87.81
300.597	83.81
300.827	86.81
301.057	91.81
301.288	85.81
301.518	83.81
301.748	92.81
301.979	98.81
302.209	92.81
302.439	89.81
302.669	83.81
302.9	89.81
303.13	83.81
303.36	69.81
303.59	75.81
303.82	92.81
304.051	83.81
304.281	100.81
304.511	80.81
304.741	81.81
304.971	88.81
305.201	77.81
305.431	85.81
305.661	83.81
305.891	84.81
306.121	81.81
306.352	83.81
306.582	89.81
306.812	91.81
307.042	78.81
307.272	97.81
307.502	84.81
307.731	82.81
307.961	80.81
308.191	87.81
308.421	100.81
308.651	82.81
308.881	83.81
309.111	101.81
309.341	102.81
309.571	89.81
309.8	79.81
310.03	96.81
310.26	79.81
310.49	85.81
310.72	71.81
310.949	79.81
311.179	71.81
311.409	80.81
311.639	86.81
311.868	88.81
312.098	97.81
312.328	84.81
312.557	87.81
312.787	75.81
313.017	92.81
313.246	88.81
313.476	83.81
313.706	80.81
313.935	85.81
314.165	87.81
314.394	85.81
314.624	78.81
314.853	81.81
315.083	92.81
315.312	83.81
315.542	93.81
315.771	95.81
316.001	98.81
316.23	99.81
316.46	85.81
316.689	83.81
316.919	83.81
317.148	85.81
317.377	87.81
317.607	93.81
317.836	91.81
318.065	115.81
318.295	91.81
318.524	86.81
318.753	94.81
318.983	93.81
319.212	81.81
319.441	76.81
319.67	92.81
319.9	79.81
320.129	87.81
320.358	74.81
320.587	103.81
320.816	92.81
321.046	78.81
321.275	86.81
321.504	110.81
321.733	85.81
321.962	81.81
322.191	79.81
322.42	82.81
322.649	103.81
322.878	103.81
323.108	79.81
323.337	90.81
323.566	77.81
323.795	79.81
324.024	76.81
324.253	78.81
324.482	88.81
324.71	89.81
324.939	102.81
325.168	81.81
325.397	89.81
325.626	88.81
325.855	93.81
326.084	89.81
326.313	97.81
326.542	85.81
326.77	85.81
326.999	72.81
327.228	87.81
327.457	95.81
327.686	90.81
327.914	87.81
328.143	83.81
328.372	81.81
328.6	86.81
328.829	61.81
329.058	85.81
329.287	104.81
329.515	80.81
329.744	82.81
329.972	85.81
330.201	82.81
330.43	79.81
330.658	77.81
330.887	81.81
331.115	80.81
331.344	91.81
331.572	81.81
331.801	82.81
332.03	66.81
332.258	87.81
332.486	91.81
332.715	85.81
332.943	84.81
333.172	83.81
333.4	67.81
333.629	84.81
333.857	95.81
334.085	81.81
334.314	85.81
334.542	85.81
334.771	87.81
334.999	104.81
335.227	75.81
335.455	92.81
335.684	85.81
335.912	100.81
336.14	101.81
336.369	83.81
336.597	80.81
336.825	85.81
337.053	83.81
337.281	100.81
337.51	78.81
337.738	83.81
337.966	90.81
338.194	86.81
338.422	83.81
338.65	94.81
338.878	79.81
339.106	83.81
339.334	85.81
339.562	72.81
339.79	86.81
340.018	95.81
340.246	83.81
340.474	78.81
340.702	81.81
340.93	82.81
341.158	86.81
341.386	79.81
341.614	87.81
341.842	91.81
342.07	86.81
342.298	87.81
342.526	76.81
342.754	79.81
342.981	74.81
343.209	97.81
343.437	89.81
343.665	84.81
343.893	91.81
344.12	96.81
344.348	73.81
344.576	89.81
344.804	90.81
345.031	72.81
345.259	73.81
345.487	72.81
345.714	82.81
345.942	91.81
346.17	81.81
346.397	90.81
346.625	93.81
346.853	87.81
347.08	77.81
347.308	80.81
347.535	91.81
347.763	92.81
347.99	79.81
348.218	91.81
348.445	79.81
348.673	93.81
348.9	82.81
349.128	81.81
349.355	81.81
349.583	73.81
349.81	95.81
350.037	87.81
350.265	93.81
350.492	78.81
350.72	87.81
350.947	78.81
351.174	77.81
351.402	85.81
351.629	83.81
351.856	98.81
352.083	89.81
352.311	86.81
352.538	84.81
352.765	86.81
352.992	87.81
353.22	87.81
353.447	89.81
353.674	86.81
353.901	80.81
354.128	86.81
354.355	92.81
354.583	92.81
354.81	95.81
355.037	90.81
355.264	86.81
355.491	98.81
355.718	79.81
355.945	77.81
356.172	76.81
356.399	88.81
356.626	101.81
356.853	86.81
357.08	94.81
357.307	94.81
357.534	87.81
357.761	87.81
357.988	81.81
358.215	100.81
358.441	115.81
358.668	88.81
358.895	103.81
359.122	77.81
359.349	78.81
359.576	85.81
359.802	79.81
360.029	82.81
360.256	92.81
360.483	88.81
360.709	96.81
360.936	96.81
361.163	84.81
361.39	93.81
361.616	88.81
361.843	95.81
362.07	70.81
362.296	91.81
362.523	101.81
362.749	103.81
362.976	121.81
363.203	129.81
363.429	100.81
363.656	82.81
363.882	93.81
364.109	116.81
364.335	131.81
364.562	141.81
364.788	112.81
365.015	97.81
365.241	98.81
365.468	77.81
365.694	107.81
365.92	80.81
366.147	79.81
366.373	83.81
366.599	86.81
366.826	88.81
367.052	86.81
367.278	84.81
367.505	86.81
367.731	83.81
367.957	81.81
368.184	90.81
368.41	93.81
368.636	103.81
368.862	87.81
369.089	83.81
369.315	77.81
369.541	85.81
369.767	99.81
369.993	84.81
370.219	89.81
370.445	82.81
370.672	96.81
370.898	81.81
371.124	89.81
371.35	80.81
371.576	89.81
371.802	94.81
372.028	109.81
372.254	89.81
372.48	91.81
372.706	80.81
372.932	81.81
373.158	94.81
373.384	111.81
373.61	101.81
373.835	115.81
374.061	81.81
374.287	87.81
374.513	102.81
374.739	99.81
374.965	104.81
375.191	94.81
375.416	91.81
375.642	88.81
375.868	97.81
376.094	98.81
376.319	101.81
376.545	88.81
376.771	84.81
376.997	86.81
377.222	92.81
377.448	88.81
377.674	97.81
377.899	77.81
378.125	76.81
378.35	84.81
378.576	88.81
378.802	85.81
379.027	72.81
379.253	87.81
379.478	90.81
379.704	84.81
379.929	81.81
380.155	86.81
380.38	97.81
380.606	91.81
380.831	81.81
381.057	92.81
381.282	87.81
381.507	93.81
381.733	91.81
381.958	103.81
382.184	92.81
382.409	100.81
382.634	114.81
382.86	98.81
383.085	85.81
383.31	97.81
383.535	96.81
383.761	97.81
383.986	97.81
384.211	84.81
384.436	104.81
384.662	89.81
384.887	88.81
385.112	91.81
385.337	96.81
385.562	100.81
385.787	112.81
386.013	100.81
386.238	89.81
386.463	75.81
386.688	100.81
386.913	82.81
387.138	97.81
387.363	93.81
387.588	94.81
387.813	95.81
388.038	107.81
388.263	92.81
388.488	93.81
388.713	80.81
388.938	108.81
389.163	93.81
389.387	93.81
389.612	82.81
389.837	95.81
390.062	95.81
390.287	86.81
390.512	92.81
390.736	79.81
390.961	97.81
391.186	99.81
391.411	89.81
391.636	91.81
391.86	93.81
392.085	100.81
392.31	100.81
392.534	103.81
392.759	122.81
392.984	165.81
393.208	281.81
393.433	379.81
393.658	285.81
393.882	150.81
394.107	107.81
394.331	111.81
394.556	117.81
394.78	104.81
395.005	99.81
395.229	94.81
395.454	102.81
395.678	107.81
395.903	109.81
396.127	132.81
396.352	149.81
396.576	169.81
396.801	280.81
397.025	311.81
397.249	176.81
397.474	111.81
397.698	100.81
397.922	79.81
398.147	92.81
398.371	88.81
398.595	75.81
398.82	79.81
399.044	99.81
399.268	80.81
399.492	80.81
399.717	81.81
399.941	99.81
400.165	81.81
400.389	76.81
400.613	83.81
400.837	83.81
401.062	83.81
401.286	97.81
401.51	77.81
401.734	96.81
401.958	83.81
402.182	101.81
402.406	71.81
402.63	83.81
402.854	92.81
403.078	91.81
403.302	86.81
403.526	99.81
403.75	93.81
403.974	84.81
404.198	96.81
404.422	95.81
404.645	105.81
404.869	87.81
405.093	78.81
405.317	85.81
405.541	93.81
405.765	69.81
405.988	83.81
406.212	87.81
406.436	81.81
406.66	93.81
406.883	89.81
407.107	70.81
407.331	89.81
407.555	102.81
407.778	110.81
408.002	111.81
408.226	87.81
408.449	89.81
408.673	78.81
408.896	86.81
409.12	77.81
409.344	95.81
409.567	105.81
409.791	110.81
410.014	110.81
410.238	92.81
410.461	99.81
410.685	90.81
410.908	93.81
411.132	101.81
411.355	88.81
411.578	82.81
411.802	86.81
412.025	81.81
412.249	91.81
412.472	85.81
412.695	89.81
412.919	73.81
413.142	86.81
413.365	79.81
413.589	91.81
413.812	83.81
414.035	76.81
414.258	93.81
414.482	100.81
414.705	76.81
414.928	87.81
415.151	77.81
415.374	81.81
415.597	76.81
415.821	71.81
416.044	94.81
416.267	88.81
416.49	84.81
416.713	88.81
416.936	83.81
417.159	88.81
417.382	87.81
417.605	81.81
417.828	84.81
418.051	75.81
418.274	84.81
418.497	94.81
418.72	98.81
418.943	83.81
419.166	85.81
419.389	91.81
419.611	83.81
419.834	98.81
420.057	73.81
420.28	86.81
420.503	87.81
420.726	97.81
420.948	95.81
421.171	89.81
421.394	102.81
421.617	115.81
421.839	136.81
422.062	132.81
422.285	179.81
422.507	311.81
422.73	451.81
422.953	386.81
423.175	214.81
423.398	151.81
423.621	112.81
423.843	112.81
424.066	113.81
424.288	118.81
424.511	99.81
424.733	97.81
424.956	82.81
425.178	97.81
425.401	77.81
425.623	95.81
425.846	110.81
426.068	85.81
426.291	80.81
426.513	92.81
426.735	77.81
426.958	88.81
427.18	79.81
427.402	97.81
427.625	93.81
427.847	92.81
428.069	101.81
428.292	128.81
428.514	125.81
428.736	123.81
428.958	133.81
429.181	140.81
429.403	102.81
429.625	83.81
429.847	125.81
430.069	139.81
430.292	180.81
430.514	171.81
430.736	127.81
430.958	143.81
431.18	98.81
431.402	89.81
431.624	104.81
431.846	128.81
432.068	144.81
432.29	95.81
432.512	94.81
432.734	86.81
432.956	97.81
433.178	79.81
433.4	78.81
433.622	88.81
433.844	86.81
434.066	74.81
434.287	73.81
434.509	86.81
434.731	77.81
434.953	82.81
435.175	85.81
435.397	93.81
435.618	85.81
435.84	97.81
436.062	92.81
436.284	83.81
436.505	88.81
436.727	92.81
436.949	84.81
437.17	96.81
437.392	109.81
437.614	77.81
437.835	88.81
438.057	83.81
438.278	71.81
438.5	97.81
438.721	84.81
438.943	90.81
439.165	90.81
439.386	83.81
439.608	86.81
439.829	100.81
440.05	104.81
440.272	84.81
440.493	94.81
440.715	85.81
440.936	97.81
441.158	91.81
441.379	88.81
441.6	91.81
441.822	96.81
442.043	85.81
442.264	92.81
442.486	141.81
442.707	161.81
442.928	132.81
443.149	103.81
443.371	151.81
443.592	255.81
443.813	214.81
444.034	124.81
444.255	104.81
444.476	87.81
444.698	94.81
444.919	99.81
445.14	166.81
445.361	187.81
445.582	301.81
445.803	258.81
446.024	123.81
446.245	98.81
446.466	98.81
446.687	85.81
446.908	101.81
447.129	94.81
447.35	71.81
447.571	85.81
447.792	73.81
448.013	79.81
448.234	83.81
448.455	92.81
448.675	78.81
448.896	99.81
449.117	85.81
449.338	93.81
449.559	87.81
449.779	97.81
450	87.81
450.221	79.81
450.442	80.81
450.662	80.81
450.883	99.81
451.104	81.81
451.324	77.81
451.545	95.81
451.766	92.81
451.986	89.81
452.207	73.81
452.428	89.81
452.648	102.81
452.869	99.81
453.089	98.81
453.31	89.81
453.53	95.81
453.751	93.81
453.971	91.81
454.192	95.81
454.412	83.81
454.633	90.81
454.853	100.81
455.073	99.81
455.294	78.81
455.514	97.81
455.734	99.81
455.955	93.81
456.175	72.81
456.395	82.81
456.616	71.81
456.836	92.81
457.056	85.81
457.276	92.81
457.497	92.81
457.717	82.81
457.937	96.81
458.157	127.81
458.377	126.81
458.598	113.81
458.818	138.81
459.038	114.81
459.258	97.81
459.478	96.81
459.698	88.81
459.918	89.81
460.138	98.81
460.358	79.81
460.578	100.81
460.798	119.81
461.018	103.81
461.238	94.81
461.458	93.81
461.678	97.81
461.898	94.81
462.118	73.81
462.338	76.81
462.558	95.81
462.777	88.81
462.997	82.81
463.217	94.81
463.437	80.81
463.657	96.81
463.876	89.81
464.096	91.81
464.316	73.81
464.536	79.81
464.755	95.81
464.975	86.81
465.195	91.81
465.414	89.81
465.634	74.81
465.854	97.81
466.073	69.81
466.293	74.81
466.512	92.81
466.732	87.81
466.951	83.81
467.171	73.81
467.391	80.81
467.61	75.81
467.829	83.81
468.049	90.81
468.268	84.81
468.488	85.81
468.707	92.81
468.927	89.81
469.146	95.81
469.365	81.81
469.585	86.81
469.804	93.81
470.023	76.81
470.243	86.81
470.462	93.81
470.681	93.81
470.901	88.81
471.12	89.81
471.339	88.81
471.558	87.81
471.777	110.81
471.997	100.81
472.216	89.81
472.435	88.81
472.654	86.81
472.873	88.81
473.092	95.81
473.311	92.81
473.53	88.81
473.749	93.81
473.968	85.81
474.187	92.81
474.406	72.81
474.625	87.81
474.844	95.81
475.063	95.81
475.282	89.81
475.501	79.81
475.72	106.81
475.939	97.81
476.158	79.81
476.377	81.81
476.596	88.81
476.814	82.81
477.033	85.81
477.252	85.81
477.471	79.81
477.69	87.81
477.908	97.81
478.127	101.81
478.346	89.81
478.564	87.81
478.783	84.81
479.002	85.81
479.22	86.81
479.439	86.81
479.658	87.81
479.876	93.81
480.095	99.81
480.313	93.81
480.532	81.81
480.751	80.81
480.969	89.81
481.188	92.81
481.406	73.81
481.624	96.81
481.843	95.81
482.061	92.81
482.28	79.81
482.498	85.81
482.717	93.81
482.935	75.81
483.153	95.81
483.372	104.81
483.59	97.81
483.808	89.81
484.027	101.81
484.245	108.81
484.463	88.81
484.681	95.81
484.9	94.81
485.118	97.81
485.336	96.81
485.554	89.81
485.772	89.81
485.99	84.81
486.209	101.81
486.427	82.81
486.645	84.81
486.863	89.81
487.081	88.81
487.299	84.81
487.517	102.81
487.735	117.81
487.953	177.81
488.171	155.81
488.389	115.81
488.607	89.81
488.825	101.81
489.043	84.81
489.261	77.81
489.479	88.81
489.696	90.81
489.914	90.81
490.132	100.81
490.35	94.81
490.568	72.81
490.786	76.81
491.003	77.81
491.221	90.81
491.439	88.81
491.657	80.81
491.874	91.81
492.092	111.81
492.31	98.81
492.527	81.81
492.745	95.81
492.963	81.81
493.18	81.81
493.398	91.81
493.615	99.81
493.833	88.81
494.05	93.81
494.268	91.81
494.485	96.81
494.703	92.81
494.92	94.81
495.138	95.81
495.355	97.81
495.573	92.81
495.79	101.81
496.008	97.81
496.225	97.81
496.442	111.81
496.66	87.81
496.877	88.81
497.094	83.81
497.312	91.81
497.529	92.81
497.746	104.81
497.963	91.81
498.181	74.81
498.398	87.81
498.615	95.81
498.832	97.81
499.049	97.81
499.267	95.81
499.484	82.81
499.701	95.81
499.918	80.81
500.135	104.81
500.352	97.81
500.569	97.81
500.786	104.81
501.003	92.81
501.22	81.81
501.437	95.81
501.654	79.81
501.871	86.81
502.088	80.81
502.305	92.81
502.522	111.81
502.739	99.81
502.956	98.81
503.172	94.81
503.389	106.81
503.606	81.81
503.823	100.81
504.04	93.81
504.256	152.81
504.473	153.81
504.69	98.81
504.907	104.81
505.123	95.81
505.34	93.81
505.557	93.81
505.773	95.81
505.99	92.81
506.207	86.81
506.423	84.81
506.64	96.81
506.856	87.81
507.073	90.81
507.289	85.81
507.506	87.81
507.722	92.81
507.939	86.81
508.155	93.81
508.372	103.81
508.588	97.81
508.805	87.81
509.021	84.81
509.238	83.81
509.454	95.81
509.67	91.81
509.887	102.81
510.103	94.81
510.319	85.81
510.536	101.81
510.752	75.81
510.968	94.81
511.184	78.81
511.401	97.81
511.617	80.81
511.833	105.81
512.049	97.81
512.265	109.81
512.481	86.81
512.698	95.81
512.914	92.81
513.13	95.81
513.346	101.81
513.562	99.81
513.778	89.81
513.994	83.81
514.21	87.81
514.426	91.81
514.642	83.81
514.858	99.81
515.074	92.81
515.29	97.81
515.506	87.81
515.721	91.81
515.937	95.81
516.153	92.81
516.369	101.81
516.585	88.81
516.801	84.81
517.016	87.81
517.232	117.81
517.448	104.81
517.664	93.81
