Data from 10100_1_HRD10591_00028.txt Node
Date: Mon Jan 19 14:00:38 EST 2026
User: Yrep
Spectrometer: HR+D1059
Trigger mode: 1
Integration Time (sec): 1.000000E-1
Scans to average: 1
Electric dark correction enabled: true
Nonlinearity correction enabled: false
Boxcar width: 0
XAxis mode: Wavelengths
Number of Pixels in Spectrum: 2048
>>>>>Begin Spectral Data<<<<<
223.165	-21.62
223.4	-21.62
223.635	-21.62
223.869	-18.62
224.104	-16.62
224.338	-23.62
224.573	-16.62
224.808	-18.62
225.042	-7.62
225.277	-4.62
225.511	-4.62
225.746	6.38
225.98	10.38
226.215	13.38
226.449	30.38
226.683	18.38
226.918	34.38
227.152	19.38
227.387	23.38
227.621	44.38
227.856	51.38
228.09	50.38
228.324	58.38
228.559	61.38
228.793	50.38
229.027	61.38
229.262	60.38
229.496	68.38
229.73	66.38
229.964	76.38
230.199	68.38
230.433	59.38
230.667	61.38
230.901	79.38
231.136	73.38
231.37	82.38
231.604	73.38
231.838	78.38
232.072	59.38
232.306	68.38
232.541	79.38
232.775	66.38
233.009	84.38
233.243	74.38
233.477	66.38
233.711	78.38
233.945	74.38
234.179	76.38
234.413	87.38
234.647	73.38
234.881	73.38
235.115	72.38
235.349	64.38
235.583	82.38
235.817	72.38
236.051	62.38
236.285	69.38
236.519	57.38
236.753	66.38
236.987	71.38
237.221	73.38
237.455	73.38
237.689	69.38
237.922	78.38
238.156	76.38
238.39	73.38
238.624	66.38
238.858	85.38
239.091	68.38
239.325	69.38
239.559	63.38
239.793	75.38
240.027	81.38
240.26	84.38
240.494	80.38
240.728	72.38
240.961	69.38
241.195	77.38
241.429	74.38
241.662	67.38
241.896	74.38
242.13	72.38
242.363	73.38
242.597	65.38
242.83	70.38
243.064	72.38
243.298	91.38
243.531	54.38
243.765	60.38
243.998	80.38
244.232	81.38
244.465	82.38
244.699	76.38
244.932	66.38
245.166	69.38
245.399	73.38
245.633	66.38
245.866	78.38
246.099	65.38
246.333	77.38
246.566	68.38
246.8	73.38
247.033	74.38
247.266	74.38
247.5	73.38
247.733	75.38
247.966	73.38
248.2	70.38
248.433	74.38
248.666	74.38
248.899	73.38
249.133	71.38
249.366	78.38
249.599	65.38
249.832	62.38
250.066	69.38
250.299	81.38
250.532	74.38
250.765	63.38
250.998	76.38
251.231	76.38
251.465	60.38
251.698	81.38
251.931	80.38
252.164	76.38
252.397	73.38
252.63	70.38
252.863	64.38
253.096	91.38
253.329	77.38
253.562	82.38
253.795	67.38
254.028	93.38
254.261	80.38
254.494	94.38
254.727	70.38
254.96	76.38
255.193	80.38
255.426	66.38
255.659	70.38
255.892	84.38
256.124	70.38
256.357	81.38
256.59	90.38
256.823	71.38
257.056	69.38
257.289	78.38
257.521	81.38
257.754	68.38
257.987	88.38
258.22	77.38
258.452	78.38
258.685	78.38
258.918	89.38
259.151	81.38
259.383	73.38
259.616	62.38
259.849	78.38
260.081	74.38
260.314	66.38
260.547	71.38
260.779	60.38
261.012	68.38
261.244	87.38
261.477	81.38
261.71	56.38
261.942	68.38
262.175	73.38
262.407	95.38
262.64	70.38
262.872	61.38
263.105	81.38
263.337	76.38
263.57	64.38
263.802	76.38
264.035	77.38
264.267	75.38
264.499	55.38
264.732	82.38
264.964	80.38
265.197	78.38
265.429	70.38
265.661	75.38
265.894	71.38
266.126	68.38
266.358	66.38
266.591	72.38
266.823	71.38
267.055	83.38
267.287	75.38
267.52	67.38
267.752	83.38
267.984	84.38
268.216	87.38
268.448	85.38
268.681	80.38
268.913	83.38
269.145	79.38
269.377	76.38
269.609	74.38
269.841	86.38
270.073	76.38
270.306	75.38
270.538	82.38
270.77	68.38
271.002	90.38
271.234	72.38
271.466	88.38
271.698	79.38
271.93	64.38
272.162	75.38
272.394	84.38
272.626	83.38
272.858	80.38
273.09	71.38
273.322	87.38
273.553	77.38
273.785	64.38
274.017	82.38
274.249	74.38
274.481	82.38
274.713	80.38
274.945	95.38
275.176	85.38
275.408	85.38
275.64	90.38
275.872	79.38
276.104	70.38
276.335	68.38
276.567	84.38
276.799	81.38
277.031	63.38
277.262	71.38
277.494	81.38
277.726	90.38
277.957	83.38
278.189	77.38
278.421	73.38
278.652	79.38
278.884	86.38
279.115	82.38
279.347	86.38
279.579	89.38
279.81	76.38
280.042	97.38
280.273	80.38
280.505	62.38
280.736	82.38
280.968	82.38
281.199	76.38
281.431	90.38
281.662	86.38
281.894	93.38
282.125	83.38
282.356	80.38
282.588	75.38
282.819	92.38
283.051	78.38
283.282	96.38
283.513	92.38
283.745	75.38
283.976	65.38
284.207	74.38
284.439	70.38
284.67	65.38
284.901	68.38
285.132	69.38
285.364	78.38
285.595	78.38
285.826	70.38
286.057	88.38
286.288	88.38
286.52	84.38
286.751	71.38
286.982	77.38
287.213	72.38
287.444	76.38
287.675	70.38
287.906	78.38
288.138	75.38
288.369	96.38
288.6	65.38
288.831	77.38
289.062	81.38
289.293	73.38
289.524	74.38
289.755	79.38
289.986	80.38
290.217	87.38
290.448	81.38
290.679	74.38
290.91	70.38
291.141	83.38
291.371	80.38
291.602	79.38
291.833	79.38
292.064	85.38
292.295	78.38
292.526	86.38
292.757	75.38
292.987	74.38
293.218	77.38
293.449	92.38
293.68	89.38
293.91	84.38
294.141	84.38
294.372	68.38
294.603	91.38
294.833	71.38
295.064	93.38
295.295	87.38
295.525	64.38
295.756	74.38
295.987	93.38
296.217	78.38
296.448	80.38
296.679	74.38
296.909	83.38
297.14	77.38
297.37	74.38
297.601	71.38
297.831	74.38
298.062	78.38
298.292	78.38
298.523	83.38
298.753	76.38
298.984	89.38
299.214	66.38
299.445	70.38
299.675	62.38
299.905	78.38
300.136	80.38
300.366	81.38
300.597	79.38
300.827	82.38
301.057	76.38
301.288	85.38
301.518	73.38
301.748	75.38
301.979	84.38
302.209	74.38
302.439	69.38
302.669	66.38
302.9	73.38
303.13	81.38
303.36	80.38
303.59	76.38
303.82	82.38
304.051	81.38
304.281	87.38
304.511	60.38
304.741	91.38
304.971	82.38
305.201	91.38
305.431	70.38
305.661	89.38
305.891	95.38
306.121	78.38
306.352	67.38
306.582	82.38
306.812	74.38
307.042	88.38
307.272	75.38
307.502	64.38
307.731	82.38
307.961	71.38
308.191	75.38
308.421	80.38
308.651	73.38
308.881	88.38
309.111	73.38
309.341	88.38
309.571	92.38
309.8	80.38
310.03	80.38
310.26	80.38
310.49	83.38
310.72	77.38
310.949	75.38
311.179	81.38
311.409	85.38
311.639	84.38
311.868	72.38
312.098	76.38
312.328	82.38
312.557	82.38
312.787	81.38
313.017	84.38
313.246	73.38
313.476	80.38
313.706	83.38
313.935	67.38
314.165	82.38
314.394	79.38
314.624	81.38
314.853	88.38
315.083	86.38
315.312	77.38
315.542	81.38
315.771	70.38
316.001	90.38
316.23	83.38
316.46	85.38
316.689	94.38
316.919	72.38
317.148	76.38
317.377	88.38
317.607	90.38
317.836	81.38
318.065	69.38
318.295	79.38
318.524	84.38
318.753	85.38
318.983	75.38
319.212	66.38
319.441	60.38
319.67	91.38
319.9	93.38
320.129	70.38
320.358	77.38
320.587	86.38
320.816	73.38
321.046	84.38
321.275	75.38
321.504	87.38
321.733	85.38
321.962	77.38
322.191	68.38
322.42	81.38
322.649	87.38
322.878	79.38
323.108	78.38
323.337	74.38
323.566	72.38
323.795	76.38
324.024	83.38
324.253	81.38
324.482	78.38
324.71	95.38
324.939	78.38
325.168	80.38
325.397	75.38
325.626	74.38
325.855	70.38
326.084	63.38
326.313	65.38
326.542	83.38
326.77	72.38
326.999	69.38
327.228	70.38
327.457	85.38
327.686	73.38
327.914	75.38
328.143	80.38
328.372	77.38
328.6	78.38
328.829	82.38
329.058	82.38
329.287	73.38
329.515	78.38
329.744	87.38
329.972	86.38
330.201	82.38
330.43	82.38
330.658	86.38
330.887	76.38
331.115	78.38
331.344	77.38
331.572	88.38
331.801	78.38
332.03	74.38
332.258	85.38
332.486	83.38
332.715	67.38
332.943	76.38
333.172	70.38
333.4	76.38
333.629	67.38
333.857	74.38
334.085	88.38
334.314	71.38
334.542	74.38
334.771	93.38
334.999	82.38
335.227	79.38
335.455	87.38
335.684	101.38
335.912	80.38
336.14	88.38
336.369	80.38
336.597	87.38
336.825	80.38
337.053	83.38
337.281	69.38
337.51	78.38
337.738	71.38
337.966	83.38
338.194	77.38
338.422	77.38
338.65	67.38
338.878	78.38
339.106	76.38
339.334	83.38
339.562	76.38
339.79	87.38
340.018	93.38
340.246	83.38
340.474	86.38
340.702	78.38
340.93	74.38
341.158	84.38
341.386	67.38
341.614	84.38
341.842	81.38
342.07	95.38
342.298	76.38
342.526	71.38
342.754	76.38
342.981	76.38
343.209	80.38
343.437	89.38
343.665	67.38
343.893	66.38
344.12	90.38
344.348	83.38
344.576	86.38
344.804	82.38
345.031	77.38
345.259	73.38
345.487	77.38
345.714	69.38
345.942	73.38
346.17	78.38
346.397	92.38
346.625	89.38
346.853	77.38
347.08	66.38
347.308	83.38
347.535	82.38
347.763	80.38
347.99	83.38
348.218	84.38
348.445	90.38
348.673	85.38
348.9	82.38
349.128	86.38
349.355	84.38
349.583	78.38
349.81	60.38
350.037	81.38
350.265	76.38
350.492	90.38
350.72	77.38
350.947	80.38
351.174	81.38
351.402	86.38
351.629	83.38
351.856	78.38
352.083	85.38
352.311	74.38
352.538	81.38
352.765	78.38
352.992	79.38
353.22	90.38
353.447	78.38
353.674	81.38
353.901	78.38
354.128	85.38
354.355	74.38
354.583	85.38
354.81	77.38
355.037	75.38
355.264	90.38
355.491	78.38
355.718	75.38
355.945	84.38
356.172	74.38
356.399	81.38
356.626	82.38
356.853	75.38
357.08	70.38
357.307	80.38
357.534	81.38
357.761	82.38
357.988	72.38
358.215	76.38
358.441	78.38
358.668	64.38
358.895	78.38
359.122	80.38
359.349	78.38
359.576	85.38
359.802	86.38
360.029	84.38
360.256	83.38
360.483	76.38
360.709	81.38
360.936	80.38
361.163	75.38
361.39	78.38
361.616	68.38
361.843	94.38
362.07	80.38
362.296	86.38
362.523	86.38
362.749	85.38
362.976	88.38
363.203	109.38
363.429	82.38
363.656	71.38
363.882	76.38
364.109	94.38
364.335	104.38
364.562	95.38
364.788	98.38
365.015	78.38
365.241	81.38
365.468	69.38
365.694	89.38
365.92	73.38
366.147	75.38
366.373	83.38
366.599	83.38
366.826	73.38
367.052	80.38
367.278	75.38
367.505	78.38
367.731	86.38
367.957	82.38
368.184	81.38
368.41	74.38
368.636	76.38
368.862	72.38
369.089	60.38
369.315	81.38
369.541	88.38
369.767	78.38
369.993	77.38
370.219	68.38
370.445	65.38
370.672	69.38
370.898	78.38
371.124	75.38
371.35	89.38
371.576	89.38
371.802	92.38
372.028	78.38
372.254	73.38
372.48	69.38
372.706	78.38
372.932	77.38
373.158	65.38
373.384	85.38
373.61	80.38
373.835	76.38
374.061	84.38
374.287	86.38
374.513	88.38
374.739	80.38
374.965	79.38
375.191	95.38
375.416	77.38
375.642	70.38
375.868	91.38
376.094	81.38
376.319	77.38
376.545	70.38
376.771	72.38
376.997	84.38
377.222	67.38
377.448	83.38
377.674	82.38
377.899	61.38
378.125	82.38
378.35	77.38
378.576	86.38
378.802	78.38
379.027	65.38
379.253	81.38
379.478	86.38
379.704	74.38
379.929	85.38
380.155	74.38
380.38	77.38
380.606	78.38
380.831	79.38
381.057	76.38
381.282	73.38
381.507	89.38
381.733	76.38
381.958	76.38
382.184	71.38
382.409	85.38
382.634	98.38
382.86	82.38
383.085	73.38
383.31	81.38
383.535	83.38
383.761	89.38
383.986	89.38
384.211	80.38
384.436	79.38
384.662	70.38
384.887	75.38
385.112	74.38
385.337	81.38
385.562	73.38
385.787	73.38
386.013	77.38
386.238	78.38
386.463	79.38
386.688	108.38
386.913	90.38
387.138	70.38
387.363	73.38
387.588	90.38
387.813	97.38
388.038	81.38
388.263	81.38
388.488	82.38
388.713	84.38
388.938	71.38
389.163	67.38
389.387	85.38
389.612	80.38
389.837	66.38
390.062	77.38
390.287	61.38
390.512	89.38
390.736	73.38
390.961	68.38
391.186	73.38
391.411	84.38
391.636	81.38
391.86	59.38
392.085	90.38
392.31	88.38
392.534	81.38
392.759	79.38
392.984	110.38
393.208	131.38
393.433	178.38
393.658	139.38
393.882	96.38
394.107	90.38
394.331	98.38
394.556	81.38
394.78	71.38
395.005	77.38
395.229	75.38
395.454	82.38
395.678	81.38
395.903	85.38
396.127	100.38
396.352	105.38
396.576	106.38
396.801	171.38
397.025	159.38
397.249	98.38
397.474	100.38
397.698	101.38
397.922	80.38
398.147	69.38
398.371	64.38
398.595	89.38
398.82	84.38
399.044	70.38
399.268	88.38
399.492	83.38
399.717	77.38
399.941	81.38
400.165	86.38
400.389	84.38
400.613	78.38
400.837	77.38
401.062	82.38
401.286	76.38
401.51	91.38
401.734	73.38
401.958	61.38
402.182	64.38
402.406	83.38
402.63	75.38
402.854	83.38
403.078	65.38
403.302	74.38
403.526	82.38
403.75	75.38
403.974	77.38
404.198	69.38
404.422	70.38
404.645	71.38
404.869	70.38
405.093	82.38
405.317	66.38
405.541	71.38
405.765	88.38
405.988	80.38
406.212	85.38
406.436	77.38
406.66	77.38
406.883	80.38
407.107	70.38
407.331	95.38
407.555	71.38
407.778	90.38
408.002	80.38
408.226	79.38
408.449	71.38
408.673	76.38
408.896	68.38
409.12	83.38
409.344	64.38
409.567	66.38
409.791	86.38
410.014	88.38
410.238	74.38
410.461	82.38
410.685	80.38
410.908	94.38
411.132	77.38
411.355	68.38
411.578	90.38
411.802	86.38
412.025	70.38
412.249	78.38
412.472	83.38
412.695	69.38
412.919	68.38
413.142	70.38
413.365	77.38
413.589	83.38
413.812	76.38
414.035	83.38
414.258	80.38
414.482	78.38
414.705	61.38
414.928	84.38
415.151	88.38
415.374	73.38
415.597	66.38
415.821	76.38
416.044	68.38
416.267	72.38
416.49	77.38
416.713	75.38
416.936	82.38
417.159	86.38
417.382	76.38
417.605	77.38
417.828	70.38
418.051	88.38
418.274	74.38
418.497	69.38
418.72	69.38
418.943	80.38
419.166	80.38
419.389	65.38
419.611	61.38
419.834	71.38
420.057	78.38
420.28	75.38
420.503	79.38
420.726	84.38
420.948	87.38
421.171	80.38
421.394	80.38
421.617	109.38
421.839	79.38
422.062	91.38
422.285	136.38
422.507	184.38
422.73	272.38
422.953	253.38
423.175	135.38
423.398	105.38
423.621	86.38
423.843	84.38
424.066	88.38
424.288	87.38
424.511	84.38
424.733	82.38
424.956	79.38
425.178	74.38
425.401	83.38
425.623	69.38
425.846	82.38
426.068	75.38
426.291	75.38
426.513	71.38
426.735	77.38
426.958	89.38
427.18	80.38
427.402	88.38
427.625	77.38
427.847	69.38
428.069	93.38
428.292	107.38
428.514	98.38
428.736	80.38
428.958	99.38
429.181	100.38
429.403	78.38
429.625	82.38
429.847	96.38
430.069	120.38
430.292	140.38
430.514	134.38
430.736	110.38
430.958	114.38
431.18	77.38
431.402	60.38
431.624	79.38
431.846	101.38
432.068	110.38
432.29	84.38
432.512	86.38
432.734	77.38
432.956	76.38
433.178	77.38
433.4	80.38
433.622	68.38
433.844	71.38
434.066	70.38
434.287	65.38
434.509	76.38
434.731	81.38
434.953	81.38
435.175	78.38
435.397	84.38
435.618	79.38
435.84	81.38
436.062	79.38
436.284	81.38
436.505	85.38
436.727	82.38
436.949	73.38
437.17	67.38
437.392	75.38
437.614	92.38
437.835	69.38
438.057	80.38
438.278	83.38
438.5	97.38
438.721	87.38
438.943	76.38
439.165	75.38
439.386	78.38
439.608	78.38
439.829	69.38
440.05	83.38
440.272	81.38
440.493	71.38
440.715	71.38
440.936	74.38
441.158	74.38
441.379	70.38
441.6	74.38
441.822	65.38
442.043	85.38
442.264	80.38
442.486	101.38
442.707	127.38
442.928	92.38
443.149	102.38
443.371	115.38
443.592	157.38
443.813	146.38
444.034	92.38
444.255	71.38
444.476	66.38
444.698	78.38
444.919	84.38
445.14	137.38
445.361	152.38
445.582	203.38
445.803	156.38
446.024	95.38
446.245	90.38
446.466	80.38
446.687	75.38
446.908	82.38
447.129	66.38
447.35	79.38
447.571	85.38
447.792	81.38
448.013	81.38
448.234	91.38
448.455	86.38
448.675	73.38
448.896	64.38
449.117	83.38
449.338	75.38
449.559	89.38
449.779	72.38
450	89.38
450.221	68.38
450.442	74.38
450.662	76.38
450.883	78.38
451.104	74.38
451.324	74.38
451.545	76.38
451.766	70.38
451.986	81.38
452.207	91.38
452.428	72.38
452.648	83.38
452.869	85.38
453.089	94.38
453.31	80.38
453.53	76.38
453.751	63.38
453.971	76.38
454.192	69.38
454.412	73.38
454.633	77.38
454.853	88.38
455.073	65.38
455.294	74.38
455.514	94.38
455.734	69.38
455.955	77.38
456.175	78.38
456.395	67.38
456.616	71.38
456.836	79.38
457.056	74.38
457.276	85.38
457.497	77.38
457.717	77.38
457.937	82.38
458.157	98.38
458.377	92.38
458.598	80.38
458.818	107.38
459.038	73.38
459.258	77.38
459.478	89.38
459.698	66.38
459.918	71.38
460.138	84.38
460.358	75.38
460.578	73.38
460.798	88.38
461.018	88.38
461.238	90.38
461.458	82.38
461.678	63.38
461.898	84.38
462.118	78.38
462.338	73.38
462.558	79.38
462.777	78.38
462.997	69.38
463.217	80.38
463.437	88.38
463.657	70.38
463.876	76.38
464.096	89.38
464.316	68.38
464.536	86.38
464.755	77.38
464.975	74.38
465.195	83.38
465.414	70.38
465.634	76.38
465.854	82.38
466.073	79.38
466.293	75.38
466.512	73.38
466.732	77.38
466.951	83.38
467.171	84.38
467.391	86.38
467.61	77.38
467.829	69.38
468.049	77.38
468.268	74.38
468.488	75.38
468.707	94.38
468.927	81.38
469.146	86.38
469.365	77.38
469.585	78.38
469.804	60.38
470.023	69.38
470.243	79.38
470.462	74.38
470.681	77.38
470.901	72.38
471.12	81.38
471.339	73.38
471.558	70.38
471.777	84.38
471.997	70.38
472.216	67.38
472.435	86.38
472.654	88.38
472.873	83.38
473.092	86.38
473.311	82.38
473.53	69.38
473.749	79.38
473.968	74.38
474.187	66.38
474.406	84.38
474.625	80.38
474.844	68.38
475.063	81.38
475.282	78.38
475.501	75.38
475.72	89.38
475.939	79.38
476.158	84.38
476.377	86.38
476.596	87.38
476.814	72.38
477.033	78.38
477.252	85.38
477.471	83.38
477.69	83.38
477.908	74.38
478.127	81.38
478.346	80.38
478.564	79.38
478.783	69.38
479.002	97.38
479.22	60.38
479.439	73.38
479.658	86.38
479.876	74.38
480.095	72.38
480.313	85.38
480.532	90.38
480.751	82.38
480.969	96.38
481.188	73.38
481.406	81.38
481.624	92.38
481.843	67.38
482.061	79.38
482.28	75.38
482.498	67.38
482.717	76.38
482.935	80.38
483.153	72.38
483.372	80.38
483.59	90.38
483.808	74.38
484.027	86.38
484.245	67.38
484.463	70.38
484.681	92.38
484.9	96.38
485.118	81.38
485.336	79.38
485.554	71.38
485.772	75.38
485.99	85.38
486.209	81.38
486.427	74.38
486.645	71.38
486.863	91.38
487.081	98.38
487.299	86.38
487.517	88.38
487.735	91.38
487.953	117.38
488.171	104.38
488.389	89.38
488.607	66.38
488.825	90.38
489.043	86.38
489.261	84.38
489.479	75.38
489.696	78.38
489.914	83.38
490.132	74.38
490.35	81.38
490.568	85.38
490.786	86.38
491.003	85.38
491.221	77.38
491.439	84.38
491.657	67.38
491.874	79.38
492.092	74.38
492.31	81.38
492.527	72.38
492.745	75.38
492.963	71.38
493.18	71.38
493.398	69.38
493.615	63.38
493.833	74.38
494.05	88.38
494.268	77.38
494.485	82.38
494.703	86.38
494.92	83.38
495.138	91.38
495.355	88.38
495.573	80.38
495.79	81.38
496.008	92.38
496.225	83.38
496.442	96.38
496.66	70.38
496.877	86.38
497.094	78.38
497.312	90.38
497.529	105.38
497.746	77.38
497.963	84.38
498.181	74.38
498.398	83.38
498.615	88.38
498.832	92.38
499.049	94.38
499.267	80.38
499.484	78.38
499.701	82.38
499.918	75.38
500.135	84.38
500.352	79.38
500.569	82.38
500.786	95.38
501.003	83.38
501.22	81.38
501.437	85.38
501.654	81.38
501.871	90.38
502.088	80.38
502.305	91.38
502.522	91.38
502.739	86.38
502.956	72.38
503.172	75.38
503.389	81.38
503.606	89.38
503.823	65.38
504.04	82.38
504.256	88.38
504.473	102.38
504.69	82.38
504.907	92.38
505.123	80.38
505.34	82.38
505.557	94.38
505.773	82.38
505.99	69.38
506.207	80.38
506.423	89.38
506.64	81.38
506.856	96.38
507.073	76.38
507.289	70.38
507.506	88.38
507.722	75.38
507.939	76.38
508.155	81.38
508.372	77.38
508.588	78.38
508.805	92.38
509.021	85.38
509.238	76.38
509.454	70.38
509.67	77.38
509.887	81.38
510.103	82.38
510.319	65.38
510.536	88.38
510.752	91.38
510.968	86.38
511.184	83.38
511.401	86.38
511.617	80.38
511.833	78.38
512.049	87.38
512.265	76.38
512.481	77.38
512.698	79.38
512.914	88.38
513.13	87.38
513.346	89.38
513.562	83.38
513.778	85.38
513.994	75.38
514.21	90.38
514.426	88.38
514.642	82.38
514.858	77.38
515.074	72.38
515.29	90.38
515.506	76.38
515.721	66.38
515.937	80.38
516.153	84.38
516.369	82.38
516.585	89.38
516.801	66.38
517.016	99.38
517.232	89.38
517.448	89.38
517.664	82.38
517.879	79.38
518.095	93.38
518.311	77.38
518.527	91.38
518.742	95.38
518.958	115.38
519.173	125.38
519.389	72.38
519.605	70.38
