Data from 10100_1_HRD10591_00003.txt Node
Date: Mon Jan 19 14:00:26 EST 2026
User: Yrep
Spectrometer: HR+D1059
Trigger mode: 1
Integration Time (sec): 1.000000E-1
Scans to average: 1
Electric dark correction enabled: true
Nonlinearity correction enabled: false
Boxcar width: 0
XAxis mode: Wavelengths
Number of Pixels in Spectrum: 2048
>>>>>Begin Spectral Data<<<<<
223.165	-24.5
223.4	-24.5
223.635	-24.5
223.869	-12.5
224.104	-15.5
224.338	-13.5
224.573	-0.5
224.808	-27.5
225.042	-1.5
225.277	-12.5
225.511	0.5
225.746	-5.5
225.98	5.5
226.215	10.5
226.449	15.5
226.683	14.5
226.918	34.5
227.152	32.5
227.387	27.5
227.621	41.5
227.856	42.5
228.09	46.5
228.324	42.5
228.559	46.5
228.793	71.5
229.027	51.5
229.262	73.5
229.496	65.5
229.73	72.5
229.964	72.5
230.199	85.5
230.433	86.5
230.667	74.5
230.901	84.5
231.136	75.5
231.37	81.5
231.604	87.5
231.838	86.5
232.072	73.5
232.306	77.5
232.541	79.5
232.775	80.5
233.009	89.5
233.243	83.5
233.477	77.5
233.711	81.5
233.945	83.5
234.179	77.5
234.413	80.5
234.647	91.5
234.881	85.5
235.115	83.5
235.349	85.5
235.583	87.5
235.817	67.5
236.051	83.5
236.285	77.5
236.519	76.5
236.753	72.5
236.987	71.5
237.221	76.5
237.455	79.5
237.689	83.5
237.922	73.5
238.156	75.5
238.39	88.5
238.624	88.5
238.858	73.5
239.091	81.5
239.325	73.5
239.559	67.5
239.793	77.5
240.027	85.5
240.26	79.5
240.494	72.5
240.728	97.5
240.961	77.5
241.195	78.5
241.429	74.5
241.662	74.5
241.896	86.5
242.13	78.5
242.363	80.5
242.597	77.5
242.83	85.5
243.064	91.5
243.298	73.5
243.531	81.5
243.765	86.5
243.998	65.5
244.232	85.5
244.465	73.5
244.699	75.5
244.932	81.5
245.166	73.5
245.399	92.5
245.633	85.5
245.866	80.5
246.099	77.5
246.333	84.5
246.566	92.5
246.8	80.5
247.033	63.5
247.266	68.5
247.5	83.5
247.733	74.5
247.966	84.5
248.2	82.5
248.433	88.5
248.666	69.5
248.899	81.5
249.133	92.5
249.366	89.5
249.599	95.5
249.832	84.5
250.066	76.5
250.299	82.5
250.532	81.5
250.765	73.5
250.998	71.5
251.231	93.5
251.465	92.5
251.698	96.5
251.931	75.5
252.164	64.5
252.397	85.5
252.63	101.5
252.863	81.5
253.096	84.5
253.329	88.5
253.562	73.5
253.795	72.5
254.028	81.5
254.261	94.5
254.494	83.5
254.727	69.5
254.96	79.5
255.193	79.5
255.426	84.5
255.659	90.5
255.892	81.5
256.124	83.5
256.357	80.5
256.59	77.5
256.823	84.5
257.056	92.5
257.289	80.5
257.521	86.5
257.754	88.5
257.987	92.5
258.22	86.5
258.452	89.5
258.685	85.5
258.918	86.5
259.151	63.5
259.383	73.5
259.616	68.5
259.849	92.5
260.081	87.5
260.314	85.5
260.547	81.5
260.779	74.5
261.012	82.5
261.244	71.5
261.477	87.5
261.71	83.5
261.942	84.5
262.175	74.5
262.407	85.5
262.64	83.5
262.872	89.5
263.105	76.5
263.337	89.5
263.57	73.5
263.802	73.5
264.035	86.5
264.267	82.5
264.499	77.5
264.732	91.5
264.964	85.5
265.197	83.5
265.429	98.5
265.661	95.5
265.894	85.5
266.126	88.5
266.358	99.5
266.591	103.5
266.823	95.5
267.055	88.5
267.287	73.5
267.52	85.5
267.752	78.5
267.984	80.5
268.216	91.5
268.448	88.5
268.681	90.5
268.913	88.5
269.145	88.5
269.377	81.5
269.609	88.5
269.841	95.5
270.073	84.5
270.306	76.5
270.538	89.5
270.77	83.5
271.002	76.5
271.234	85.5
271.466	65.5
271.698	71.5
271.93	84.5
272.162	72.5
272.394	85.5
272.626	82.5
272.858	87.5
273.09	99.5
273.322	95.5
273.553	98.5
273.785	77.5
274.017	91.5
274.249	91.5
274.481	86.5
274.713	74.5
274.945	91.5
275.176	80.5
275.408	89.5
275.64	70.5
275.872	95.5
276.104	81.5
276.335	87.5
276.567	72.5
276.799	99.5
277.031	86.5
277.262	78.5
277.494	70.5
277.726	91.5
277.957	97.5
278.189	96.5
278.421	99.5
278.652	91.5
278.884	97.5
279.115	87.5
279.347	95.5
279.579	96.5
279.81	91.5
280.042	87.5
280.273	81.5
280.505	91.5
280.736	83.5
280.968	91.5
281.199	98.5
281.431	89.5
281.662	87.5
281.894	103.5
282.125	91.5
282.356	97.5
282.588	71.5
282.819	81.5
283.051	87.5
283.282	81.5
283.513	85.5
283.745	87.5
283.976	94.5
284.207	81.5
284.439	90.5
284.67	84.5
284.901	84.5
285.132	99.5
285.364	102.5
285.595	101.5
285.826	86.5
286.057	107.5
286.288	79.5
286.52	85.5
286.751	88.5
286.982	90.5
287.213	85.5
287.444	87.5
287.675	81.5
287.906	84.5
288.138	75.5
288.369	89.5
288.6	89.5
288.831	84.5
289.062	99.5
289.293	88.5
289.524	80.5
289.755	91.5
289.986	91.5
290.217	91.5
290.448	76.5
290.679	67.5
290.91	84.5
291.141	87.5
291.371	86.5
291.602	89.5
291.833	82.5
292.064	83.5
292.295	89.5
292.526	90.5
292.757	76.5
292.987	84.5
293.218	93.5
293.449	74.5
293.68	82.5
293.91	92.5
294.141	93.5
294.372	77.5
294.603	82.5
294.833	72.5
295.064	87.5
295.295	87.5
295.525	92.5
295.756	92.5
295.987	101.5
296.217	83.5
296.448	91.5
296.679	81.5
296.909	88.5
297.14	115.5
297.37	97.5
297.601	95.5
297.831	73.5
298.062	90.5
298.292	83.5
298.523	92.5
298.753	105.5
298.984	82.5
299.214	81.5
299.445	100.5
299.675	97.5
299.905	97.5
300.136	95.5
300.366	103.5
300.597	94.5
300.827	89.5
301.057	84.5
301.288	83.5
301.518	86.5
301.748	75.5
301.979	76.5
302.209	86.5
302.439	86.5
302.669	78.5
302.9	81.5
303.13	75.5
303.36	82.5
303.59	89.5
303.82	93.5
304.051	92.5
304.281	98.5
304.511	104.5
304.741	92.5
304.971	83.5
305.201	89.5
305.431	100.5
305.661	84.5
305.891	91.5
306.121	91.5
306.352	74.5
306.582	90.5
306.812	101.5
307.042	103.5
307.272	81.5
307.502	82.5
307.731	93.5
307.961	87.5
308.191	93.5
308.421	103.5
308.651	84.5
308.881	98.5
309.111	99.5
309.341	91.5
309.571	98.5
309.8	91.5
310.03	97.5
310.26	94.5
310.49	98.5
310.72	82.5
310.949	98.5
311.179	80.5
311.409	84.5
311.639	91.5
311.868	87.5
312.098	86.5
312.328	87.5
312.557	80.5
312.787	75.5
313.017	102.5
313.246	96.5
313.476	92.5
313.706	91.5
313.935	96.5
314.165	87.5
314.394	90.5
314.624	108.5
314.853	94.5
315.083	88.5
315.312	78.5
315.542	74.5
315.771	86.5
316.001	91.5
316.23	103.5
316.46	94.5
316.689	97.5
316.919	80.5
317.148	92.5
317.377	94.5
317.607	102.5
317.836	111.5
318.065	105.5
318.295	107.5
318.524	91.5
318.753	87.5
318.983	80.5
319.212	93.5
319.441	94.5
319.67	97.5
319.9	92.5
320.129	81.5
320.358	90.5
320.587	104.5
320.816	96.5
321.046	76.5
321.275	105.5
321.504	90.5
321.733	91.5
321.962	95.5
322.191	85.5
322.42	95.5
322.649	103.5
322.878	100.5
323.108	95.5
323.337	91.5
323.566	74.5
323.795	81.5
324.024	97.5
324.253	91.5
324.482	88.5
324.71	83.5
324.939	88.5
325.168	87.5
325.397	91.5
325.626	89.5
325.855	83.5
326.084	88.5
326.313	95.5
326.542	87.5
326.77	92.5
326.999	100.5
327.228	93.5
327.457	96.5
327.686	101.5
327.914	88.5
328.143	97.5
328.372	81.5
328.6	87.5
328.829	89.5
329.058	108.5
329.287	82.5
329.515	97.5
329.744	89.5
329.972	96.5
330.201	89.5
330.43	89.5
330.658	90.5
330.887	85.5
331.115	95.5
331.344	85.5
331.572	86.5
331.801	93.5
332.03	102.5
332.258	101.5
332.486	104.5
332.715	79.5
332.943	99.5
333.172	98.5
333.4	98.5
333.629	94.5
333.857	103.5
334.085	99.5
334.314	117.5
334.542	92.5
334.771	93.5
334.999	117.5
335.227	106.5
335.455	115.5
335.684	101.5
335.912	109.5
336.14	121.5
336.369	104.5
336.597	86.5
336.825	98.5
337.053	87.5
337.281	105.5
337.51	105.5
337.738	111.5
337.966	89.5
338.194	93.5
338.422	85.5
338.65	77.5
338.878	94.5
339.106	91.5
339.334	79.5
339.562	91.5
339.79	100.5
340.018	97.5
340.246	97.5
340.474	75.5
340.702	81.5
340.93	107.5
341.158	87.5
341.386	100.5
341.614	85.5
341.842	86.5
342.07	90.5
342.298	89.5
342.526	87.5
342.754	82.5
342.981	90.5
343.209	90.5
343.437	101.5
343.665	81.5
343.893	93.5
344.12	108.5
344.348	98.5
344.576	89.5
344.804	81.5
345.031	99.5
345.259	105.5
345.487	87.5
345.714	95.5
345.942	93.5
346.17	83.5
346.397	96.5
346.625	92.5
346.853	93.5
347.08	88.5
347.308	107.5
347.535	100.5
347.763	81.5
347.99	91.5
348.218	81.5
348.445	89.5
348.673	104.5
348.9	93.5
349.128	85.5
349.355	74.5
349.583	86.5
349.81	107.5
350.037	104.5
350.265	105.5
350.492	84.5
350.72	99.5
350.947	99.5
351.174	88.5
351.402	82.5
351.629	67.5
351.856	87.5
352.083	107.5
352.311	101.5
352.538	111.5
352.765	91.5
352.992	97.5
353.22	84.5
353.447	96.5
353.674	94.5
353.901	99.5
354.128	87.5
354.355	99.5
354.583	101.5
354.81	84.5
355.037	91.5
355.264	89.5
355.491	88.5
355.718	107.5
355.945	84.5
356.172	90.5
356.399	92.5
356.626	89.5
356.853	90.5
357.08	98.5
357.307	107.5
357.534	91.5
357.761	97.5
357.988	111.5
358.215	108.5
358.441	96.5
358.668	91.5
358.895	86.5
359.122	100.5
359.349	98.5
359.576	87.5
359.802	88.5
360.029	109.5
360.256	98.5
360.483	103.5
360.709	99.5
360.936	98.5
361.163	108.5
361.39	88.5
361.616	93.5
361.843	104.5
362.07	116.5
362.296	132.5
362.523	132.5
362.749	131.5
362.976	155.5
363.203	166.5
363.429	127.5
363.656	111.5
363.882	107.5
364.109	142.5
364.335	189.5
364.562	209.5
364.788	144.5
365.015	116.5
365.241	106.5
365.468	105.5
365.694	85.5
365.92	93.5
366.147	96.5
366.373	89.5
366.599	91.5
366.826	100.5
367.052	91.5
367.278	104.5
367.505	95.5
367.731	99.5
367.957	86.5
368.184	92.5
368.41	83.5
368.636	100.5
368.862	112.5
369.089	100.5
369.315	96.5
369.541	102.5
369.767	91.5
369.993	93.5
370.219	100.5
370.445	105.5
370.672	115.5
370.898	98.5
371.124	103.5
371.35	96.5
371.576	86.5
371.802	96.5
372.028	120.5
372.254	107.5
372.48	104.5
372.706	105.5
372.932	96.5
373.158	105.5
373.384	107.5
373.61	138.5
373.835	106.5
374.061	106.5
374.287	98.5
374.513	111.5
374.739	121.5
374.965	121.5
375.191	115.5
375.416	119.5
375.642	99.5
375.868	104.5
376.094	113.5
376.319	87.5
376.545	119.5
376.771	107.5
376.997	103.5
377.222	85.5
377.448	100.5
377.674	96.5
377.899	76.5
378.125	92.5
378.35	99.5
378.576	96.5
378.802	84.5
379.027	87.5
379.253	78.5
379.478	88.5
379.704	115.5
379.929	95.5
380.155	99.5
380.38	97.5
380.606	97.5
380.831	96.5
381.057	113.5
381.282	104.5
381.507	113.5
381.733	110.5
381.958	88.5
382.184	108.5
382.409	114.5
382.634	126.5
382.86	112.5
383.085	115.5
383.31	101.5
383.535	112.5
383.761	107.5
383.986	103.5
384.211	117.5
384.436	104.5
384.662	100.5
384.887	106.5
385.112	105.5
385.337	106.5
385.562	102.5
385.787	104.5
386.013	113.5
386.238	99.5
386.463	105.5
386.688	112.5
386.913	113.5
387.138	112.5
387.363	94.5
387.588	119.5
387.813	113.5
388.038	121.5
388.263	116.5
388.488	101.5
388.713	100.5
388.938	84.5
389.163	103.5
389.387	107.5
389.612	112.5
389.837	107.5
390.062	105.5
390.287	98.5
390.512	100.5
390.736	99.5
390.961	97.5
391.186	102.5
391.411	96.5
391.636	97.5
391.86	114.5
392.085	115.5
392.31	130.5
392.534	130.5
392.759	149.5
392.984	212.5
393.208	333.5
393.433	456.5
393.658	357.5
393.882	197.5
394.107	136.5
394.331	138.5
394.556	155.5
394.78	127.5
395.005	116.5
395.229	109.5
395.454	113.5
395.678	137.5
395.903	148.5
396.127	181.5
396.352	205.5
396.576	236.5
396.801	325.5
397.025	375.5
397.249	243.5
397.474	179.5
397.698	138.5
397.922	105.5
398.147	104.5
398.371	96.5
398.595	103.5
398.82	104.5
399.044	101.5
399.268	100.5
399.492	104.5
399.717	104.5
399.941	104.5
400.165	103.5
400.389	100.5
400.613	99.5
400.837	105.5
401.062	97.5
401.286	91.5
401.51	85.5
401.734	97.5
401.958	98.5
402.182	94.5
402.406	88.5
402.63	75.5
402.854	94.5
403.078	95.5
403.302	100.5
403.526	87.5
403.75	113.5
403.974	99.5
404.198	107.5
404.422	125.5
404.645	110.5
404.869	123.5
405.093	104.5
405.317	105.5
405.541	95.5
405.765	100.5
405.988	87.5
406.212	99.5
406.436	101.5
406.66	98.5
406.883	116.5
407.107	92.5
407.331	86.5
407.555	113.5
407.778	128.5
408.002	130.5
408.226	91.5
408.449	89.5
408.673	97.5
408.896	86.5
409.12	106.5
409.344	119.5
409.567	125.5
409.791	144.5
410.014	133.5
410.238	120.5
410.461	116.5
410.685	107.5
410.908	108.5
411.132	100.5
411.355	92.5
411.578	99.5
411.802	107.5
412.025	103.5
412.249	95.5
412.472	106.5
412.695	95.5
412.919	101.5
413.142	108.5
413.365	98.5
413.589	92.5
413.812	96.5
414.035	95.5
414.258	88.5
414.482	113.5
414.705	81.5
414.928	82.5
415.151	100.5
415.374	97.5
415.597	99.5
415.821	95.5
416.044	93.5
416.267	77.5
416.49	103.5
416.713	79.5
416.936	101.5
417.159	91.5
417.382	95.5
417.605	101.5
417.828	93.5
418.051	93.5
418.274	110.5
418.497	103.5
418.72	102.5
418.943	87.5
419.166	104.5
419.389	101.5
419.611	103.5
419.834	119.5
420.057	105.5
420.28	89.5
420.503	91.5
420.726	103.5
420.948	114.5
421.171	106.5
421.394	141.5
421.617	150.5
421.839	174.5
422.062	209.5
422.285	280.5
422.507	396.5
422.73	536.5
422.953	513.5
423.175	338.5
423.398	233.5
423.621	175.5
423.843	140.5
424.066	143.5
424.288	137.5
424.511	123.5
424.733	112.5
424.956	107.5
425.178	97.5
425.401	105.5
425.623	112.5
425.846	89.5
426.068	91.5
426.291	111.5
426.513	104.5
426.735	97.5
426.958	107.5
427.18	99.5
427.402	112.5
427.625	101.5
427.847	107.5
428.069	128.5
428.292	165.5
428.514	172.5
428.736	129.5
428.958	161.5
429.181	160.5
429.403	123.5
429.625	113.5
429.847	149.5
430.069	233.5
430.292	271.5
430.514	237.5
430.736	178.5
430.958	173.5
431.18	127.5
431.402	95.5
431.624	117.5
431.846	151.5
432.068	172.5
432.29	117.5
432.512	96.5
432.734	100.5
432.956	99.5
433.178	101.5
433.4	90.5
433.622	96.5
433.844	101.5
434.066	103.5
434.287	103.5
434.509	96.5
434.731	98.5
434.953	88.5
435.175	83.5
435.397	97.5
435.618	106.5
435.84	115.5
436.062	103.5
436.284	97.5
436.505	83.5
436.727	93.5
436.949	89.5
437.17	77.5
437.392	108.5
437.614	91.5
437.835	90.5
438.057	92.5
438.278	100.5
438.5	99.5
438.721	80.5
438.943	93.5
439.165	83.5
439.386	92.5
439.608	99.5
439.829	94.5
440.05	100.5
440.272	101.5
440.493	104.5
440.715	107.5
440.936	87.5
441.158	108.5
441.379	93.5
441.6	96.5
441.822	103.5
442.043	103.5
442.264	134.5
442.486	184.5
442.707	249.5
442.928	188.5
443.149	145.5
443.371	216.5
443.592	376.5
443.813	347.5
444.034	155.5
444.255	123.5
444.476	105.5
444.698	101.5
444.919	115.5
445.14	215.5
445.361	295.5
445.582	443.5
445.803	381.5
446.024	175.5
446.245	116.5
446.466	120.5
446.687	101.5
446.908	93.5
447.129	104.5
447.35	103.5
447.571	99.5
447.792	98.5
448.013	107.5
448.234	105.5
448.455	99.5
448.675	95.5
448.896	105.5
449.117	85.5
449.338	80.5
449.559	89.5
449.779	93.5
450	93.5
450.221	93.5
450.442	92.5
450.662	95.5
450.883	90.5
451.104	81.5
451.324	115.5
451.545	82.5
451.766	85.5
451.986	84.5
452.207	87.5
452.428	81.5
452.648	106.5
452.869	129.5
453.089	119.5
453.31	109.5
453.53	121.5
453.751	108.5
453.971	97.5
454.192	103.5
454.412	109.5
454.633	115.5
454.853	99.5
455.073	94.5
455.294	104.5
455.514	100.5
455.734	120.5
455.955	93.5
456.175	76.5
456.395	91.5
456.616	104.5
456.836	101.5
457.056	89.5
457.276	90.5
457.497	91.5
457.717	119.5
457.937	164.5
458.157	183.5
458.377	184.5
458.598	188.5
458.818	199.5
459.038	125.5
459.258	101.5
459.478	89.5
459.698	93.5
459.918	102.5
460.138	89.5
460.358	94.5
460.578	114.5
460.798	170.5
461.018	142.5
461.238	96.5
461.458	68.5
461.678	96.5
461.898	103.5
462.118	92.5
462.338	95.5
462.558	98.5
462.777	104.5
462.997	91.5
463.217	80.5
463.437	76.5
463.657	107.5
463.876	81.5
464.096	79.5
464.316	95.5
464.536	83.5
464.755	84.5
464.975	85.5
465.195	86.5
465.414	85.5
465.634	100.5
465.854	90.5
466.073	86.5
466.293	92.5
466.512	107.5
466.732	98.5
466.951	93.5
467.171	103.5
467.391	83.5
467.61	99.5
467.829	95.5
468.049	88.5
468.268	89.5
468.488	82.5
468.707	99.5
468.927	98.5
469.146	111.5
469.365	93.5
469.585	93.5
469.804	92.5
470.023	100.5
470.243	102.5
470.462	93.5
470.681	93.5
470.901	89.5
471.12	103.5
471.339	77.5
471.558	104.5
471.777	88.5
471.997	98.5
472.216	82.5
472.435	125.5
472.654	90.5
472.873	97.5
473.092	80.5
473.311	93.5
473.53	92.5
473.749	95.5
473.968	95.5
474.187	99.5
474.406	88.5
474.625	97.5
474.844	91.5
475.063	88.5
475.282	90.5
475.501	86.5
475.72	100.5
475.939	105.5
476.158	99.5
476.377	91.5
476.596	95.5
476.814	93.5
477.033	89.5
477.252	83.5
477.471	88.5
477.69	87.5
477.908	99.5
478.127	96.5
478.346	103.5
478.564	89.5
478.783	85.5
479.002	98.5
479.22	95.5
479.439	103.5
479.658	92.5
479.876	97.5
480.095	81.5
480.313	98.5
480.532	99.5
480.751	92.5
480.969	85.5
481.188	108.5
481.406	108.5
481.624	98.5
481.843	98.5
482.061	89.5
482.28	95.5
482.498	102.5
482.717	94.5
482.935	97.5
483.153	91.5
483.372	103.5
483.59	111.5
483.808	95.5
484.027	99.5
484.245	107.5
484.463	95.5
484.681	97.5
484.9	98.5
485.118	93.5
485.336	109.5
485.554	89.5
485.772	99.5
485.99	106.5
486.209	107.5
486.427	90.5
486.645	96.5
486.863	101.5
487.081	98.5
487.299	119.5
487.517	123.5
487.735	179.5
487.953	305.5
488.171	251.5
488.389	113.5
488.607	109.5
488.825	101.5
489.043	105.5
489.261	114.5
489.479	109.5
489.696	108.5
489.914	98.5
490.132	89.5
490.35	115.5
490.568	100.5
490.786	97.5
491.003	92.5
491.221	99.5
491.439	101.5
491.657	108.5
491.874	93.5
492.092	115.5
492.31	99.5
492.527	115.5
492.745	91.5
492.963	101.5
493.18	88.5
493.398	105.5
493.615	95.5
493.833	120.5
494.05	102.5
494.268	104.5
494.485	105.5
494.703	98.5
494.92	102.5
495.138	99.5
495.355	84.5
495.573	108.5
495.79	114.5
496.008	114.5
496.225	109.5
496.442	107.5
496.66	105.5
496.877	97.5
497.094	86.5
497.312	100.5
497.529	103.5
497.746	97.5
497.963	95.5
498.181	112.5
498.398	137.5
498.615	101.5
498.832	94.5
499.049	93.5
499.267	97.5
499.484	97.5
499.701	112.5
499.918	100.5
500.135	116.5
500.352	106.5
500.569	92.5
500.786	101.5
501.003	120.5
501.22	95.5
501.437	105.5
501.654	109.5
501.871	103.5
502.088	98.5
502.305	108.5
502.522	103.5
502.739	110.5
502.956	108.5
503.172	101.5
503.389	98.5
503.606	114.5
503.823	113.5
504.04	139.5
504.256	230.5
504.473	233.5
504.69	126.5
504.907	103.5
505.123	110.5
505.34	95.5
505.557	101.5
505.773	99.5
505.99	86.5
506.207	104.5
506.423	91.5
506.64	117.5
506.856	98.5
507.073	94.5
507.289	99.5
507.506	92.5
507.722	91.5
507.939	93.5
508.155	108.5
508.372	90.5
508.588	107.5
508.805	115.5
509.021	96.5
509.238	84.5
509.454	91.5
509.67	95.5
509.887	89.5
510.103	100.5
510.319	104.5
510.536	107.5
510.752	81.5
510.968	94.5
511.184	108.5
511.401	88.5
511.617	89.5
511.833	105.5
512.049	107.5
512.265	88.5
512.481	88.5
512.698	107.5
512.914	95.5
513.13	101.5
513.346	95.5
513.562	107.5
513.778	100.5
513.994	76.5
514.21	114.5
514.426	101.5
514.642	103.5
514.858	103.5
515.074	115.5
515.29	111.5
515.506	100.5
515.721	94.5
515.937	98.5
516.153	107.5
516.369	103.5
516.585	105.5
516.801	100.5
517.016	124.5
517.232	105.5
517.448	119.5
517.664	110.5
517.879	112.5
518.095	103.5
518.311	123.5
518.527	160.5
518.742	151.5
518.958	272.5
519.173	315.5
519.389	145.5
519.605	123.5
519.82	111.5
520.036	115.5
520.251	98.5
520.467	94.5
520.682	94.5
520.898	113.5
521.113	99.5
521.329	105.5
521.544	99.5
521.76	101.5
521.975	91.5
522.19	104.5
522.406	101.5
522.621	99.5
522.836	98.5
523.052	92.5
523.267	97.5
523.482	89.5
523.698	94.5
523.913	96.5
524.128	111.5
524.343	111.5
524.559	116.5
524.774	103.5
524.989	103.5
525.204	105.5
525.419	106.5
525.634	106.5
525.849	128.5
526.064	177.5
526.28	390.5
526.495	556.5
526.71	596.5
526.925	367.5
527.14	471.5
527.355	427.5
527.57	156.5
527.785	113.5
527.999	109.5
528.214	114.5
528.429	113.5
528.644	92.5
528.859	107.5
529.074	108.5
529.289	89.5
529.503	111.5
529.718	113.5
529.933	106.5
530.148	107.5
530.363	100.5
530.577	119.5
530.792	117.5
531.007	105.5
531.221	113.5
531.436	109.5
531.651	119.5
531.865	127.5
532.08	128.5
532.295	106.5
532.509	105.5
532.724	120.5
