Data from 10100_1_HRD10591_00020.txt Node
Date: Mon Jan 19 14:00:34 EST 2026
User: Yrep
Spectrometer: HR+D1059
Trigger mode: 1
Integration Time (sec): 1.000000E-1
Scans to average: 1
Electric dark correction enabled: true
Nonlinearity correction enabled: false
Boxcar width: 0
XAxis mode: Wavelengths
Number of Pixels in Spectrum: 2048
>>>>>Begin Spectral Data<<<<<
223.165	-20.31
223.4	-20.31
223.635	-20.31
223.869	-10.31
224.104	-20.31
224.338	-13.31
224.573	-12.31
224.808	-18.31
225.042	-19.31
225.277	-2.31
225.511	-1.31
225.746	11.69
225.98	1.69
226.215	3.69
226.449	14.69
226.683	24.69
226.918	31.69
227.152	29.69
227.387	20.69
227.621	37.69
227.856	50.69
228.09	54.69
228.324	44.69
228.559	51.69
228.793	57.69
229.027	56.69
229.262	59.69
229.496	58.69
229.73	69.69
229.964	74.69
230.199	73.69
230.433	64.69
230.667	77.69
230.901	70.69
231.136	66.69
231.37	65.69
231.604	65.69
231.838	58.69
232.072	77.69
232.306	76.69
232.541	77.69
232.775	78.69
233.009	83.69
233.243	74.69
233.477	72.69
233.711	84.69
233.945	77.69
234.179	69.69
234.413	78.69
234.647	66.69
234.881	72.69
235.115	73.69
235.349	76.69
235.583	79.69
235.817	65.69
236.051	58.69
236.285	67.69
236.519	72.69
236.753	88.69
236.987	88.69
237.221	86.69
237.455	77.69
237.689	78.69
237.922	75.69
238.156	74.69
238.39	68.69
238.624	66.69
238.858	96.69
239.091	67.69
239.325	70.69
239.559	69.69
239.793	66.69
240.027	70.69
240.26	44.69
240.494	83.69
240.728	54.69
240.961	58.69
241.195	68.69
241.429	83.69
241.662	59.69
241.896	66.69
242.13	64.69
242.363	78.69
242.597	78.69
242.83	79.69
243.064	86.69
243.298	78.69
243.531	78.69
243.765	80.69
243.998	71.69
244.232	78.69
244.465	72.69
244.699	72.69
244.932	58.69
245.166	93.69
245.399	72.69
245.633	84.69
245.866	69.69
246.099	82.69
246.333	86.69
246.566	77.69
246.8	82.69
247.033	84.69
247.266	85.69
247.5	86.69
247.733	77.69
247.966	88.69
248.2	82.69
248.433	91.69
248.666	67.69
248.899	78.69
249.133	79.69
249.366	69.69
249.599	91.69
249.832	78.69
250.066	83.69
250.299	86.69
250.532	76.69
250.765	90.69
250.998	73.69
251.231	65.69
251.465	66.69
251.698	81.69
251.931	82.69
252.164	73.69
252.397	78.69
252.63	76.69
252.863	66.69
253.096	77.69
253.329	78.69
253.562	70.69
253.795	68.69
254.028	79.69
254.261	76.69
254.494	90.69
254.727	87.69
254.96	84.69
255.193	66.69
255.426	75.69
255.659	79.69
255.892	84.69
256.124	83.69
256.357	66.69
256.59	68.69
256.823	83.69
257.056	54.69
257.289	91.69
257.521	78.69
257.754	75.69
257.987	79.69
258.22	82.69
258.452	76.69
258.685	65.69
258.918	67.69
259.151	69.69
259.383	77.69
259.616	77.69
259.849	68.69
260.081	78.69
260.314	78.69
260.547	85.69
260.779	68.69
261.012	71.69
261.244	86.69
261.477	84.69
261.71	67.69
261.942	98.69
262.175	86.69
262.407	67.69
262.64	72.69
262.872	78.69
263.105	60.69
263.337	65.69
263.57	89.69
263.802	81.69
264.035	85.69
264.267	90.69
264.499	75.69
264.732	71.69
264.964	94.69
265.197	72.69
265.429	73.69
265.661	94.69
265.894	82.69
266.126	79.69
266.358	70.69
266.591	84.69
266.823	72.69
267.055	73.69
267.287	74.69
267.52	79.69
267.752	84.69
267.984	67.69
268.216	66.69
268.448	84.69
268.681	87.69
268.913	86.69
269.145	76.69
269.377	68.69
269.609	88.69
269.841	78.69
270.073	93.69
270.306	91.69
270.538	66.69
270.77	71.69
271.002	90.69
271.234	76.69
271.466	73.69
271.698	78.69
271.93	92.69
272.162	75.69
272.394	82.69
272.626	66.69
272.858	75.69
273.09	84.69
273.322	79.69
273.553	80.69
273.785	83.69
274.017	84.69
274.249	67.69
274.481	73.69
274.713	75.69
274.945	94.69
275.176	79.69
275.408	85.69
275.64	80.69
275.872	81.69
276.104	70.69
276.335	68.69
276.567	65.69
276.799	70.69
277.031	86.69
277.262	64.69
277.494	88.69
277.726	66.69
277.957	72.69
278.189	77.69
278.421	85.69
278.652	82.69
278.884	71.69
279.115	72.69
279.347	88.69
279.579	69.69
279.81	65.69
280.042	79.69
280.273	72.69
280.505	60.69
280.736	89.69
280.968	91.69
281.199	76.69
281.431	86.69
281.662	70.69
281.894	79.69
282.125	82.69
282.356	70.69
282.588	78.69
282.819	86.69
283.051	74.69
283.282	82.69
283.513	78.69
283.745	87.69
283.976	71.69
284.207	86.69
284.439	71.69
284.67	73.69
284.901	91.69
285.132	75.69
285.364	70.69
285.595	81.69
285.826	59.69
286.057	85.69
286.288	72.69
286.52	99.69
286.751	71.69
286.982	77.69
287.213	95.69
287.444	83.69
287.675	82.69
287.906	83.69
288.138	67.69
288.369	71.69
288.6	90.69
288.831	65.69
289.062	90.69
289.293	71.69
289.524	89.69
289.755	79.69
289.986	81.69
290.217	72.69
290.448	86.69
290.679	87.69
290.91	82.69
291.141	86.69
291.371	85.69
291.602	86.69
291.833	101.69
292.064	91.69
292.295	74.69
292.526	83.69
292.757	78.69
292.987	93.69
293.218	77.69
293.449	72.69
293.68	67.69
293.91	76.69
294.141	88.69
294.372	77.69
294.603	96.69
294.833	85.69
295.064	71.69
295.295	70.69
295.525	83.69
295.756	82.69
295.987	86.69
296.217	87.69
296.448	100.69
296.679	78.69
296.909	88.69
297.14	83.69
297.37	85.69
297.601	78.69
297.831	80.69
298.062	92.69
298.292	71.69
298.523	95.69
298.753	84.69
298.984	86.69
299.214	81.69
299.445	86.69
299.675	87.69
299.905	88.69
300.136	71.69
300.366	90.69
300.597	93.69
300.827	94.69
301.057	72.69
301.288	86.69
301.518	90.69
301.748	80.69
301.979	86.69
302.209	88.69
302.439	84.69
302.669	83.69
302.9	89.69
303.13	91.69
303.36	77.69
303.59	85.69
303.82	94.69
304.051	72.69
304.281	86.69
304.511	81.69
304.741	80.69
304.971	78.69
305.201	86.69
305.431	92.69
305.661	93.69
305.891	80.69
306.121	85.69
306.352	80.69
306.582	84.69
306.812	75.69
307.042	94.69
307.272	90.69
307.502	80.69
307.731	91.69
307.961	92.69
308.191	88.69
308.421	78.69
308.651	87.69
308.881	87.69
309.111	102.69
309.341	92.69
309.571	91.69
309.8	81.69
310.03	98.69
310.26	95.69
310.49	86.69
310.72	76.69
310.949	75.69
311.179	87.69
311.409	80.69
311.639	90.69
311.868	94.69
312.098	85.69
312.328	87.69
312.557	85.69
312.787	81.69
313.017	70.69
313.246	78.69
313.476	78.69
313.706	80.69
313.935	81.69
314.165	74.69
314.394	85.69
314.624	88.69
314.853	82.69
315.083	82.69
315.312	91.69
315.542	86.69
315.771	78.69
316.001	90.69
316.23	88.69
316.46	84.69
316.689	69.69
316.919	82.69
317.148	78.69
317.377	89.69
317.607	86.69
317.836	95.69
318.065	102.69
318.295	80.69
318.524	83.69
318.753	81.69
318.983	84.69
319.212	82.69
319.441	89.69
319.67	74.69
319.9	81.69
320.129	90.69
320.358	68.69
320.587	75.69
320.816	83.69
321.046	83.69
321.275	84.69
321.504	82.69
321.733	86.69
321.962	85.69
322.191	91.69
322.42	89.69
322.649	100.69
322.878	73.69
323.108	84.69
323.337	86.69
323.566	82.69
323.795	89.69
324.024	76.69
324.253	80.69
324.482	90.69
324.71	90.69
324.939	95.69
325.168	94.69
325.397	77.69
325.626	69.69
325.855	78.69
326.084	94.69
326.313	85.69
326.542	79.69
326.77	79.69
326.999	90.69
327.228	80.69
327.457	93.69
327.686	76.69
327.914	94.69
328.143	79.69
328.372	81.69
328.6	79.69
328.829	80.69
329.058	81.69
329.287	80.69
329.515	87.69
329.744	80.69
329.972	91.69
330.201	83.69
330.43	86.69
330.658	78.69
330.887	87.69
331.115	78.69
331.344	84.69
331.572	87.69
331.801	85.69
332.03	81.69
332.258	81.69
332.486	73.69
332.715	84.69
332.943	98.69
333.172	95.69
333.4	62.69
333.629	82.69
333.857	76.69
334.085	92.69
334.314	82.69
334.542	76.69
334.771	78.69
334.999	91.69
335.227	86.69
335.455	84.69
335.684	85.69
335.912	94.69
336.14	77.69
336.369	92.69
336.597	74.69
336.825	70.69
337.053	68.69
337.281	82.69
337.51	85.69
337.738	91.69
337.966	86.69
338.194	87.69
338.422	84.69
338.65	94.69
338.878	81.69
339.106	77.69
339.334	95.69
339.562	81.69
339.79	88.69
340.018	74.69
340.246	71.69
340.474	84.69
340.702	83.69
340.93	67.69
341.158	80.69
341.386	78.69
341.614	85.69
341.842	88.69
342.07	68.69
342.298	92.69
342.526	88.69
342.754	85.69
342.981	72.69
343.209	85.69
343.437	76.69
343.665	87.69
343.893	77.69
344.12	85.69
344.348	96.69
344.576	88.69
344.804	88.69
345.031	86.69
345.259	86.69
345.487	94.69
345.714	86.69
345.942	83.69
346.17	85.69
346.397	76.69
346.625	93.69
346.853	80.69
347.08	70.69
347.308	85.69
347.535	71.69
347.763	87.69
347.99	72.69
348.218	84.69
348.445	84.69
348.673	83.69
348.9	77.69
349.128	78.69
349.355	89.69
349.583	95.69
349.81	83.69
350.037	76.69
350.265	87.69
350.492	76.69
350.72	76.69
350.947	93.69
351.174	82.69
351.402	91.69
351.629	75.69
351.856	83.69
352.083	72.69
352.311	89.69
352.538	75.69
352.765	85.69
352.992	92.69
353.22	96.69
353.447	79.69
353.674	86.69
353.901	84.69
354.128	80.69
354.355	79.69
354.583	78.69
354.81	107.69
355.037	90.69
355.264	64.69
355.491	92.69
355.718	86.69
355.945	79.69
356.172	78.69
356.399	90.69
356.626	86.69
356.853	71.69
357.08	82.69
357.307	81.69
357.534	78.69
357.761	64.69
357.988	81.69
358.215	88.69
358.441	79.69
358.668	94.69
358.895	84.69
359.122	94.69
359.349	90.69
359.576	99.69
359.802	63.69
360.029	69.69
360.256	95.69
360.483	79.69
360.709	79.69
360.936	99.69
361.163	94.69
361.39	79.69
361.616	81.69
361.843	83.69
362.07	64.69
362.296	90.69
362.523	78.69
362.749	118.69
362.976	102.69
363.203	117.69
363.429	104.69
363.656	91.69
363.882	103.69
364.109	102.69
364.335	115.69
364.562	108.69
364.788	109.69
365.015	97.69
365.241	85.69
365.468	85.69
365.694	88.69
365.92	93.69
366.147	82.69
366.373	87.69
366.599	81.69
366.826	86.69
367.052	85.69
367.278	92.69
367.505	83.69
367.731	99.69
367.957	82.69
368.184	85.69
368.41	90.69
368.636	77.69
368.862	75.69
369.089	76.69
369.315	80.69
369.541	79.69
369.767	93.69
369.993	92.69
370.219	93.69
370.445	86.69
370.672	83.69
370.898	85.69
371.124	81.69
371.35	77.69
371.576	94.69
371.802	76.69
372.028	81.69
372.254	79.69
372.48	82.69
372.706	78.69
372.932	77.69
373.158	93.69
373.384	90.69
373.61	102.69
373.835	96.69
374.061	83.69
374.287	86.69
374.513	93.69
374.739	82.69
374.965	97.69
375.191	82.69
375.416	73.69
375.642	84.69
375.868	71.69
376.094	87.69
376.319	87.69
376.545	88.69
376.771	93.69
376.997	72.69
377.222	83.69
377.448	85.69
377.674	91.69
377.899	92.69
378.125	82.69
378.35	90.69
378.576	72.69
378.802	79.69
379.027	85.69
379.253	77.69
379.478	91.69
379.704	79.69
379.929	86.69
380.155	86.69
380.38	80.69
380.606	62.69
380.831	82.69
381.057	69.69
381.282	80.69
381.507	95.69
381.733	103.69
381.958	100.69
382.184	97.69
382.409	90.69
382.634	102.69
382.86	91.69
383.085	96.69
383.31	85.69
383.535	92.69
383.761	95.69
383.986	91.69
384.211	82.69
384.436	78.69
384.662	94.69
384.887	83.69
385.112	86.69
385.337	81.69
385.562	83.69
385.787	87.69
386.013	100.69
386.238	82.69
386.463	77.69
386.688	97.69
386.913	83.69
387.138	82.69
387.363	80.69
387.588	92.69
387.813	91.69
388.038	96.69
388.263	96.69
388.488	84.69
388.713	76.69
388.938	95.69
389.163	80.69
389.387	75.69
389.612	82.69
389.837	79.69
390.062	90.69
390.287	72.69
390.512	81.69
390.736	62.69
390.961	77.69
391.186	86.69
391.411	67.69
391.636	96.69
391.86	79.69
392.085	86.69
392.31	82.69
392.534	93.69
392.759	111.69
392.984	127.69
393.208	196.69
393.433	264.69
393.658	200.69
393.882	119.69
394.107	110.69
394.331	112.69
394.556	112.69
394.78	85.69
395.005	90.69
395.229	84.69
395.454	87.69
395.678	96.69
395.903	100.69
396.127	113.69
396.352	117.69
396.576	142.69
396.801	194.69
397.025	202.69
397.249	116.69
397.474	109.69
397.698	82.69
397.922	91.69
398.147	86.69
398.371	80.69
398.595	83.69
398.82	60.69
399.044	90.69
399.268	82.69
399.492	86.69
399.717	91.69
399.941	59.69
400.165	95.69
400.389	82.69
400.613	111.69
400.837	78.69
401.062	72.69
401.286	92.69
401.51	86.69
401.734	79.69
401.958	94.69
402.182	78.69
402.406	73.69
402.63	70.69
402.854	100.69
403.078	84.69
403.302	81.69
403.526	96.69
403.75	84.69
403.974	80.69
404.198	87.69
404.422	80.69
404.645	86.69
404.869	98.69
405.093	95.69
405.317	76.69
405.541	87.69
405.765	90.69
405.988	80.69
406.212	71.69
406.436	89.69
406.66	80.69
406.883	75.69
407.107	86.69
407.331	88.69
407.555	86.69
407.778	95.69
408.002	108.69
408.226	92.69
408.449	93.69
408.673	87.69
408.896	87.69
409.12	94.69
409.344	91.69
409.567	86.69
409.791	81.69
410.014	98.69
410.238	93.69
410.461	87.69
410.685	88.69
410.908	74.69
411.132	81.69
411.355	85.69
411.578	92.69
411.802	88.69
412.025	65.69
412.249	85.69
412.472	93.69
412.695	72.69
412.919	68.69
413.142	80.69
413.365	88.69
413.589	81.69
413.812	79.69
414.035	76.69
414.258	79.69
414.482	85.69
414.705	75.69
414.928	78.69
415.151	82.69
415.374	65.69
415.597	84.69
415.821	90.69
416.044	98.69
416.267	82.69
416.49	82.69
416.713	84.69
416.936	91.69
417.159	71.69
417.382	76.69
417.605	67.69
417.828	58.69
418.051	84.69
418.274	83.69
418.497	87.69
418.72	85.69
418.943	79.69
419.166	79.69
419.389	74.69
419.611	78.69
419.834	94.69
420.057	81.69
420.28	76.69
420.503	87.69
420.726	100.69
420.948	94.69
421.171	86.69
421.394	94.69
421.617	98.69
421.839	112.69
422.062	120.69
422.285	157.69
422.507	254.69
422.73	378.69
422.953	363.69
423.175	195.69
423.398	120.69
423.621	114.69
423.843	95.69
424.066	100.69
424.288	87.69
424.511	86.69
424.733	98.69
424.956	95.69
425.178	76.69
425.401	71.69
425.623	87.69
425.846	87.69
426.068	76.69
426.291	79.69
426.513	77.69
426.735	77.69
426.958	85.69
427.18	80.69
427.402	81.69
427.625	78.69
427.847	81.69
428.069	106.69
428.292	116.69
428.514	127.69
428.736	103.69
428.958	112.69
429.181	114.69
429.403	96.69
429.625	95.69
429.847	114.69
430.069	144.69
430.292	171.69
430.514	157.69
430.736	114.69
430.958	120.69
431.18	94.69
431.402	92.69
431.624	99.69
431.846	115.69
432.068	114.69
432.29	90.69
432.512	95.69
432.734	87.69
432.956	79.69
433.178	95.69
433.4	67.69
433.622	76.69
433.844	74.69
434.066	79.69
434.287	74.69
434.509	86.69
434.731	80.69
434.953	88.69
435.175	85.69
435.397	85.69
435.618	83.69
435.84	78.69
436.062	86.69
436.284	80.69
436.505	90.69
436.727	86.69
436.949	86.69
437.17	88.69
437.392	79.69
437.614	78.69
437.835	69.69
438.057	87.69
438.278	92.69
438.5	91.69
438.721	79.69
438.943	93.69
439.165	85.69
439.386	76.69
439.608	90.69
439.829	88.69
440.05	91.69
440.272	71.69
440.493	86.69
440.715	86.69
440.936	82.69
441.158	85.69
441.379	61.69
441.6	86.69
441.822	78.69
442.043	86.69
442.264	95.69
442.486	115.69
442.707	134.69
442.928	110.69
443.149	93.69
443.371	140.69
443.592	211.69
443.813	186.69
444.034	97.69
444.255	81.69
444.476	80.69
444.698	85.69
444.919	94.69
445.14	150.69
445.361	182.69
445.582	244.69
445.803	215.69
446.024	112.69
446.245	99.69
446.466	86.69
446.687	85.69
446.908	88.69
447.129	71.69
447.35	85.69
447.571	82.69
447.792	78.69
448.013	77.69
448.234	75.69
448.455	86.69
448.675	97.69
448.896	86.69
449.117	78.69
449.338	76.69
449.559	79.69
449.779	73.69
450	77.69
450.221	72.69
450.442	74.69
450.662	80.69
450.883	90.69
451.104	82.69
451.324	75.69
451.545	86.69
451.766	67.69
451.986	86.69
452.207	72.69
452.428	83.69
452.648	78.69
452.869	96.69
453.089	87.69
453.31	82.69
453.53	102.69
453.751	78.69
453.971	84.69
454.192	70.69
454.412	84.69
454.633	86.69
454.853	87.69
455.073	81.69
455.294	89.69
455.514	81.69
455.734	83.69
455.955	87.69
456.175	75.69
456.395	81.69
456.616	91.69
456.836	90.69
457.056	87.69
457.276	76.69
457.497	87.69
457.717	86.69
457.937	105.69
458.157	115.69
458.377	110.69
458.598	120.69
458.818	113.69
459.038	91.69
459.258	69.69
459.478	85.69
459.698	71.69
459.918	88.69
460.138	92.69
460.358	82.69
460.578	96.69
460.798	101.69
461.018	108.69
461.238	102.69
461.458	74.69
461.678	76.69
461.898	90.69
462.118	71.69
462.338	76.69
462.558	76.69
462.777	67.69
462.997	94.69
463.217	74.69
463.437	72.69
463.657	60.69
463.876	75.69
464.096	73.69
464.316	81.69
464.536	85.69
464.755	83.69
464.975	90.69
465.195	83.69
465.414	99.69
465.634	91.69
465.854	83.69
466.073	80.69
466.293	80.69
466.512	82.69
466.732	92.69
466.951	103.69
467.171	87.69
467.391	85.69
467.61	79.69
467.829	88.69
468.049	81.69
468.268	90.69
468.488	89.69
468.707	83.69
468.927	71.69
469.146	81.69
469.365	78.69
469.585	88.69
469.804	92.69
470.023	78.69
470.243	92.69
470.462	87.69
470.681	82.69
470.901	74.69
471.12	88.69
471.339	81.69
471.558	84.69
471.777	80.69
471.997	80.69
472.216	91.69
472.435	75.69
472.654	96.69
472.873	81.69
473.092	84.69
473.311	91.69
473.53	78.69
473.749	72.69
473.968	74.69
474.187	84.69
474.406	96.69
474.625	85.69
474.844	84.69
475.063	95.69
475.282	91.69
475.501	67.69
475.72	86.69
475.939	66.69
476.158	91.69
476.377	82.69
476.596	98.69
476.814	75.69
477.033	78.69
477.252	94.69
477.471	85.69
477.69	85.69
477.908	79.69
478.127	103.69
478.346	94.69
478.564	81.69
478.783	86.69
479.002	82.69
479.22	87.69
479.439	87.69
479.658	78.69
479.876	93.69
480.095	95.69
480.313	77.69
480.532	85.69
480.751	81.69
480.969	89.69
481.188	86.69
481.406	85.69
481.624	79.69
481.843	88.69
482.061	94.69
482.28	78.69
482.498	85.69
482.717	99.69
482.935	79.69
483.153	83.69
483.372	86.69
483.59	103.69
483.808	84.69
484.027	95.69
484.245	91.69
484.463	100.69
484.681	85.69
484.9	94.69
485.118	83.69
485.336	79.69
485.554	90.69
485.772	84.69
485.99	88.69
486.209	89.69
486.427	76.69
486.645	93.69
486.863	92.69
487.081	87.69
487.299	91.69
487.517	96.69
487.735	106.69
487.953	146.69
488.171	126.69
488.389	78.69
488.607	71.69
488.825	93.69
489.043	90.69
489.261	78.69
489.479	89.69
489.696	94.69
489.914	94.69
490.132	83.69
490.35	87.69
490.568	79.69
490.786	90.69
491.003	83.69
491.221	81.69
491.439	81.69
491.657	87.69
491.874	85.69
492.092	81.69
492.31	83.69
492.527	80.69
492.745	82.69
492.963	116.69
493.18	91.69
493.398	86.69
493.615	80.69
493.833	96.69
494.05	85.69
494.268	86.69
494.485	89.69
494.703	95.69
494.92	77.69
495.138	106.69
495.355	90.69
495.573	79.69
495.79	98.69
496.008	107.69
496.225	91.69
496.442	90.69
496.66	95.69
496.877	86.69
497.094	89.69
497.312	87.69
497.529	82.69
497.746	84.69
497.963	92.69
498.181	92.69
498.398	93.69
498.615	94.69
498.832	88.69
499.049	91.69
499.267	96.69
499.484	94.69
499.701	80.69
499.918	87.69
500.135	106.69
500.352	100.69
500.569	96.69
500.786	75.69
501.003	88.69
501.22	82.69
501.437	69.69
501.654	83.69
501.871	89.69
502.088	81.69
502.305	85.69
502.522	100.69
502.739	88.69
502.956	79.69
503.172	81.69
503.389	75.69
503.606	82.69
503.823	92.69
504.04	90.69
504.256	129.69
504.473	126.69
504.69	95.69
504.907	90.69
505.123	88.69
505.34	105.69
505.557	91.69
505.773	100.69
505.99	84.69
506.207	94.69
506.423	82.69
506.64	82.69
506.856	87.69
507.073	82.69
507.289	98.69
507.506	95.69
507.722	96.69
507.939	95.69
508.155	94.69
508.372	100.69
508.588	97.69
508.805	106.69
509.021	83.69
509.238	87.69
509.454	80.69
509.67	83.69
509.887	87.69
510.103	91.69
510.319	75.69
510.536	91.69
510.752	92.69
510.968	85.69
511.184	70.69
511.401	88.69
511.617	97.69
511.833	87.69
512.049	93.69
512.265	92.69
512.481	87.69
512.698	93.69
512.914	88.69
513.13	96.69
513.346	85.69
513.562	88.69
513.778	79.69
513.994	84.69
514.21	82.69
514.426	90.69
514.642	83.69
514.858	95.69
515.074	99.69
515.29	87.69
515.506	80.69
515.721	77.69
515.937	83.69
516.153	85.69
516.369	97.69
516.585	108.69
516.801	84.69
517.016	91.69
517.232	83.69
517.448	100.69
517.664	92.69
517.879	89.69
518.095	82.69
518.311	98.69
518.527	81.69
518.742	104.69
