Data from 10100_1_HRD10591_00006.txt Node
Date: Mon Jan 19 14:00:27 EST 2026
User: Yrep
Spectrometer: HR+D1059
Trigger mode: 1
Integration Time (sec): 1.000000E-1
Scans to average: 1
Electric dark correction enabled: true
Nonlinearity correction enabled: false
Boxcar width: 0
XAxis mode: Wavelengths
Number of Pixels in Spectrum: 2048
>>>>>Begin Spectral Data<<<<<
223.165	-7.31
223.4	-7.31
223.635	-7.31
223.869	-20.31
224.104	-23.31
224.338	-4.31
224.573	-24.31
224.808	-7.31
225.042	-12.31
225.277	-7.31
225.511	-0.31
225.746	2.69
225.98	0.69
226.215	12.69
226.449	10.69
226.683	24.69
226.918	22.69
227.152	32.69
227.387	17.69
227.621	47.69
227.856	49.69
228.09	43.69
228.324	51.69
228.559	56.69
228.793	66.69
229.027	66.69
229.262	45.69
229.496	67.69
229.73	61.69
229.964	67.69
230.199	75.69
230.433	80.69
230.667	71.69
230.901	75.69
231.136	66.69
231.37	82.69
231.604	79.69
231.838	79.69
232.072	66.69
232.306	73.69
232.541	80.69
232.775	86.69
233.009	92.69
233.243	89.69
233.477	85.69
233.711	80.69
233.945	79.69
234.179	79.69
234.413	74.69
234.647	62.69
234.881	90.69
235.115	61.69
235.349	80.69
235.583	85.69
235.817	69.69
236.051	71.69
236.285	62.69
236.519	76.69
236.753	66.69
236.987	72.69
237.221	73.69
237.455	80.69
237.689	74.69
237.922	67.69
238.156	82.69
238.39	68.69
238.624	80.69
238.858	77.69
239.091	72.69
239.325	85.69
239.559	61.69
239.793	76.69
240.027	76.69
240.26	58.69
240.494	65.69
240.728	78.69
240.961	80.69
241.195	82.69
241.429	73.69
241.662	87.69
241.896	65.69
242.13	70.69
242.363	69.69
242.597	77.69
242.83	79.69
243.064	85.69
243.298	68.69
243.531	84.69
243.765	81.69
243.998	73.69
244.232	78.69
244.465	86.69
244.699	80.69
244.932	76.69
245.166	77.69
245.399	85.69
245.633	72.69
245.866	88.69
246.099	79.69
246.333	94.69
246.566	74.69
246.8	64.69
247.033	72.69
247.266	67.69
247.5	76.69
247.733	91.69
247.966	82.69
248.2	85.69
248.433	75.69
248.666	80.69
248.899	78.69
249.133	91.69
249.366	72.69
249.599	85.69
249.832	85.69
250.066	76.69
250.299	72.69
250.532	83.69
250.765	71.69
250.998	72.69
251.231	81.69
251.465	73.69
251.698	84.69
251.931	90.69
252.164	83.69
252.397	78.69
252.63	86.69
252.863	87.69
253.096	77.69
253.329	76.69
253.562	82.69
253.795	90.69
254.028	91.69
254.261	91.69
254.494	71.69
254.727	81.69
254.96	79.69
255.193	73.69
255.426	85.69
255.659	87.69
255.892	67.69
256.124	83.69
256.357	92.69
256.59	77.69
256.823	74.69
257.056	87.69
257.289	73.69
257.521	85.69
257.754	80.69
257.987	90.69
258.22	77.69
258.452	69.69
258.685	91.69
258.918	81.69
259.151	81.69
259.383	86.69
259.616	65.69
259.849	72.69
260.081	87.69
260.314	72.69
260.547	75.69
260.779	79.69
261.012	66.69
261.244	76.69
261.477	87.69
261.71	78.69
261.942	77.69
262.175	87.69
262.407	81.69
262.64	85.69
262.872	82.69
263.105	84.69
263.337	86.69
263.57	92.69
263.802	91.69
264.035	86.69
264.267	90.69
264.499	87.69
264.732	79.69
264.964	87.69
265.197	92.69
265.429	84.69
265.661	84.69
265.894	88.69
266.126	96.69
266.358	86.69
266.591	79.69
266.823	91.69
267.055	82.69
267.287	84.69
267.52	88.69
267.752	81.69
267.984	75.69
268.216	77.69
268.448	93.69
268.681	78.69
268.913	86.69
269.145	93.69
269.377	91.69
269.609	74.69
269.841	77.69
270.073	77.69
270.306	80.69
270.538	95.69
270.77	80.69
271.002	75.69
271.234	82.69
271.466	83.69
271.698	71.69
271.93	87.69
272.162	62.69
272.394	70.69
272.626	80.69
272.858	78.69
273.09	86.69
273.322	96.69
273.553	79.69
273.785	85.69
274.017	75.69
274.249	81.69
274.481	77.69
274.713	76.69
274.945	87.69
275.176	77.69
275.408	93.69
275.64	78.69
275.872	89.69
276.104	75.69
276.335	77.69
276.567	72.69
276.799	87.69
277.031	85.69
277.262	76.69
277.494	91.69
277.726	81.69
277.957	84.69
278.189	84.69
278.421	91.69
278.652	96.69
278.884	91.69
279.115	73.69
279.347	79.69
279.579	72.69
279.81	85.69
280.042	81.69
280.273	78.69
280.505	93.69
280.736	73.69
280.968	87.69
281.199	66.69
281.431	79.69
281.662	98.69
281.894	93.69
282.125	80.69
282.356	96.69
282.588	83.69
282.819	78.69
283.051	79.69
283.282	88.69
283.513	89.69
283.745	81.69
283.976	83.69
284.207	82.69
284.439	93.69
284.67	69.69
284.901	83.69
285.132	84.69
285.364	81.69
285.595	102.69
285.826	88.69
286.057	79.69
286.288	89.69
286.52	73.69
286.751	87.69
286.982	77.69
287.213	73.69
287.444	72.69
287.675	102.69
287.906	83.69
288.138	91.69
288.369	83.69
288.6	79.69
288.831	82.69
289.062	83.69
289.293	78.69
289.524	68.69
289.755	85.69
289.986	76.69
290.217	79.69
290.448	84.69
290.679	87.69
290.91	79.69
291.141	78.69
291.371	85.69
291.602	93.69
291.833	84.69
292.064	100.69
292.295	79.69
292.526	87.69
292.757	74.69
292.987	93.69
293.218	71.69
293.449	93.69
293.68	88.69
293.91	72.69
294.141	89.69
294.372	93.69
294.603	78.69
294.833	85.69
295.064	91.69
295.295	101.69
295.525	92.69
295.756	81.69
295.987	75.69
296.217	81.69
296.448	82.69
296.679	93.69
296.909	105.69
297.14	80.69
297.37	95.69
297.601	86.69
297.831	74.69
298.062	85.69
298.292	79.69
298.523	86.69
298.753	81.69
298.984	94.69
299.214	100.69
299.445	89.69
299.675	99.69
299.905	79.69
300.136	89.69
300.366	92.69
300.597	94.69
300.827	86.69
301.057	73.69
301.288	63.69
301.518	95.69
301.748	73.69
301.979	107.69
302.209	89.69
302.439	75.69
302.669	91.69
302.9	91.69
303.13	104.69
303.36	90.69
303.59	78.69
303.82	80.69
304.051	80.69
304.281	78.69
304.511	92.69
304.741	80.69
304.971	81.69
305.201	90.69
305.431	94.69
305.661	84.69
305.891	83.69
306.121	100.69
306.352	85.69
306.582	84.69
306.812	92.69
307.042	82.69
307.272	76.69
307.502	87.69
307.731	93.69
307.961	91.69
308.191	76.69
308.421	88.69
308.651	78.69
308.881	79.69
309.111	96.69
309.341	89.69
309.571	95.69
309.8	81.69
310.03	73.69
310.26	88.69
310.49	84.69
310.72	79.69
310.949	89.69
311.179	75.69
311.409	92.69
311.639	99.69
311.868	88.69
312.098	87.69
312.328	72.69
312.557	80.69
312.787	92.69
313.017	83.69
313.246	86.69
313.476	81.69
313.706	79.69
313.935	69.69
314.165	102.69
314.394	81.69
314.624	77.69
314.853	81.69
315.083	85.69
315.312	81.69
315.542	89.69
315.771	83.69
316.001	89.69
316.23	89.69
316.46	84.69
316.689	79.69
316.919	91.69
317.148	84.69
317.377	93.69
317.607	113.69
317.836	95.69
318.065	95.69
318.295	81.69
318.524	81.69
318.753	80.69
318.983	86.69
319.212	80.69
319.441	100.69
319.67	86.69
319.9	83.69
320.129	96.69
320.358	101.69
320.587	70.69
320.816	79.69
321.046	95.69
321.275	102.69
321.504	92.69
321.733	94.69
321.962	101.69
322.191	88.69
322.42	87.69
322.649	98.69
322.878	91.69
323.108	86.69
323.337	88.69
323.566	91.69
323.795	81.69
324.024	88.69
324.253	94.69
324.482	85.69
324.71	93.69
324.939	92.69
325.168	83.69
325.397	97.69
325.626	94.69
325.855	81.69
326.084	77.69
326.313	85.69
326.542	92.69
326.77	82.69
326.999	86.69
327.228	89.69
327.457	82.69
327.686	92.69
327.914	89.69
328.143	79.69
328.372	82.69
328.6	95.69
328.829	89.69
329.058	81.69
329.287	74.69
329.515	87.69
329.744	75.69
329.972	91.69
330.201	69.69
330.43	95.69
330.658	88.69
330.887	92.69
331.115	99.69
331.344	74.69
331.572	84.69
331.801	83.69
332.03	71.69
332.258	83.69
332.486	87.69
332.715	77.69
332.943	83.69
333.172	89.69
333.4	86.69
333.629	70.69
333.857	72.69
334.085	99.69
334.314	93.69
334.542	84.69
334.771	105.69
334.999	93.69
335.227	83.69
335.455	85.69
335.684	89.69
335.912	84.69
336.14	102.69
336.369	90.69
336.597	100.69
336.825	74.69
337.053	77.69
337.281	92.69
337.51	86.69
337.738	81.69
337.966	100.69
338.194	79.69
338.422	87.69
338.65	85.69
338.878	114.69
339.106	83.69
339.334	90.69
339.562	79.69
339.79	91.69
340.018	83.69
340.246	77.69
340.474	88.69
340.702	87.69
340.93	93.69
341.158	85.69
341.386	80.69
341.614	89.69
341.842	87.69
342.07	76.69
342.298	72.69
342.526	96.69
342.754	87.69
342.981	83.69
343.209	70.69
343.437	93.69
343.665	79.69
343.893	77.69
344.12	91.69
344.348	77.69
344.576	84.69
344.804	79.69
345.031	87.69
345.259	87.69
345.487	80.69
345.714	88.69
345.942	94.69
346.17	84.69
346.397	91.69
346.625	85.69
346.853	81.69
347.08	79.69
347.308	91.69
347.535	109.69
347.763	85.69
347.99	90.69
348.218	79.69
348.445	92.69
348.673	89.69
348.9	93.69
349.128	83.69
349.355	81.69
349.583	100.69
349.81	77.69
350.037	71.69
350.265	84.69
350.492	84.69
350.72	91.69
350.947	94.69
351.174	84.69
351.402	85.69
351.629	83.69
351.856	72.69
352.083	89.69
352.311	73.69
352.538	78.69
352.765	98.69
352.992	90.69
353.22	95.69
353.447	79.69
353.674	82.69
353.901	84.69
354.128	89.69
354.355	74.69
354.583	87.69
354.81	86.69
355.037	88.69
355.264	83.69
355.491	81.69
355.718	88.69
355.945	91.69
356.172	86.69
356.399	92.69
356.626	89.69
356.853	77.69
357.08	100.69
357.307	89.69
357.534	72.69
357.761	79.69
357.988	95.69
358.215	97.69
358.441	100.69
358.668	90.69
358.895	97.69
359.122	102.69
359.349	91.69
359.576	73.69
359.802	65.69
360.029	78.69
360.256	87.69
360.483	93.69
360.709	77.69
360.936	94.69
361.163	68.69
361.39	76.69
361.616	91.69
361.843	95.69
362.07	84.69
362.296	98.69
362.523	100.69
362.749	100.69
362.976	111.69
363.203	129.69
363.429	109.69
363.656	97.69
363.882	95.69
364.109	107.69
364.335	125.69
364.562	147.69
364.788	95.69
365.015	93.69
365.241	82.69
365.468	74.69
365.694	95.69
365.92	74.69
366.147	85.69
366.373	85.69
366.599	74.69
366.826	85.69
367.052	79.69
367.278	85.69
367.505	80.69
367.731	81.69
367.957	94.69
368.184	81.69
368.41	89.69
368.636	80.69
368.862	84.69
369.089	87.69
369.315	71.69
369.541	88.69
369.767	85.69
369.993	89.69
370.219	79.69
370.445	78.69
370.672	94.69
370.898	80.69
371.124	80.69
371.35	76.69
371.576	91.69
371.802	88.69
372.028	80.69
372.254	93.69
372.48	80.69
372.706	74.69
372.932	83.69
373.158	84.69
373.384	90.69
373.61	97.69
373.835	87.69
374.061	76.69
374.287	102.69
374.513	89.69
374.739	97.69
374.965	94.69
375.191	85.69
375.416	96.69
375.642	100.69
375.868	94.69
376.094	94.69
376.319	94.69
376.545	86.69
376.771	79.69
376.997	88.69
377.222	99.69
377.448	99.69
377.674	87.69
377.899	83.69
378.125	80.69
378.35	77.69
378.576	99.69
378.802	77.69
379.027	86.69
379.253	65.69
379.478	93.69
379.704	93.69
379.929	87.69
380.155	90.69
380.38	80.69
380.606	75.69
380.831	91.69
381.057	90.69
381.282	88.69
381.507	95.69
381.733	97.69
381.958	87.69
382.184	96.69
382.409	87.69
382.634	87.69
382.86	93.69
383.085	87.69
383.31	91.69
383.535	97.69
383.761	105.69
383.986	107.69
384.211	91.69
384.436	87.69
384.662	99.69
384.887	88.69
385.112	74.69
385.337	95.69
385.562	88.69
385.787	107.69
386.013	102.69
386.238	97.69
386.463	86.69
386.688	97.69
386.913	81.69
387.138	79.69
387.363	91.69
387.588	96.69
387.813	84.69
388.038	94.69
388.263	86.69
388.488	89.69
388.713	87.69
388.938	88.69
389.163	83.69
389.387	95.69
389.612	94.69
389.837	96.69
390.062	97.69
390.287	96.69
390.512	83.69
390.736	73.69
390.961	88.69
391.186	97.69
391.411	98.69
391.636	88.69
391.86	100.69
392.085	85.69
392.31	102.69
392.534	109.69
392.759	95.69
392.984	149.69
393.208	203.69
393.433	274.69
393.658	213.69
393.882	127.69
394.107	115.69
394.331	105.69
394.556	121.69
394.78	102.69
395.005	104.69
395.229	98.69
395.454	98.69
395.678	104.69
395.903	131.69
396.127	142.69
396.352	129.69
396.576	147.69
396.801	216.69
397.025	239.69
397.249	136.69
397.474	119.69
397.698	93.69
397.922	89.69
398.147	98.69
398.371	99.69
398.595	88.69
398.82	79.69
399.044	73.69
399.268	97.69
399.492	83.69
399.717	84.69
399.941	73.69
400.165	85.69
400.389	71.69
400.613	73.69
400.837	88.69
401.062	81.69
401.286	87.69
401.51	104.69
401.734	79.69
401.958	73.69
402.182	75.69
402.406	83.69
402.63	87.69
402.854	75.69
403.078	89.69
403.302	76.69
403.526	92.69
403.75	79.69
403.974	89.69
404.198	79.69
404.422	91.69
404.645	108.69
404.869	95.69
405.093	83.69
405.317	83.69
405.541	74.69
405.765	86.69
405.988	88.69
406.212	83.69
406.436	71.69
406.66	85.69
406.883	87.69
407.107	81.69
407.331	78.69
407.555	75.69
407.778	103.69
408.002	97.69
408.226	85.69
408.449	88.69
408.673	82.69
408.896	93.69
409.12	92.69
409.344	99.69
409.567	99.69
409.791	98.69
410.014	105.69
410.238	102.69
410.461	88.69
410.685	96.69
410.908	84.69
411.132	99.69
411.355	95.69
411.578	94.69
411.802	86.69
412.025	77.69
412.249	81.69
412.472	80.69
412.695	91.69
412.919	82.69
413.142	86.69
413.365	89.69
413.589	95.69
413.812	72.69
414.035	81.69
414.258	84.69
414.482	103.69
414.705	79.69
414.928	78.69
415.151	79.69
415.374	88.69
415.597	68.69
415.821	88.69
416.044	80.69
416.267	72.69
416.49	89.69
416.713	89.69
416.936	110.69
417.159	77.69
417.382	97.69
417.605	71.69
417.828	89.69
418.051	82.69
418.274	98.69
418.497	87.69
418.72	74.69
418.943	80.69
419.166	87.69
419.389	92.69
419.611	75.69
419.834	87.69
420.057	89.69
420.28	95.69
420.503	84.69
420.726	92.69
420.948	75.69
421.171	99.69
421.394	93.69
421.617	107.69
421.839	117.69
422.062	116.69
422.285	149.69
422.507	215.69
422.73	289.69
422.953	264.69
423.175	193.69
423.398	134.69
423.621	120.69
423.843	119.69
424.066	98.69
424.288	102.69
424.511	94.69
424.733	82.69
424.956	99.69
425.178	101.69
425.401	94.69
425.623	96.69
425.846	93.69
426.068	91.69
426.291	77.69
426.513	87.69
426.735	94.69
426.958	94.69
427.18	96.69
427.402	91.69
427.625	97.69
427.847	99.69
428.069	104.69
428.292	111.69
428.514	122.69
428.736	100.69
428.958	128.69
429.181	131.69
429.403	104.69
429.625	102.69
429.847	118.69
430.069	158.69
430.292	159.69
430.514	147.69
430.736	127.69
430.958	117.69
431.18	92.69
431.402	73.69
431.624	96.69
431.846	132.69
432.068	123.69
432.29	109.69
432.512	80.69
432.734	94.69
432.956	89.69
433.178	72.69
433.4	88.69
433.622	79.69
433.844	86.69
434.066	70.69
434.287	91.69
434.509	89.69
434.731	89.69
434.953	89.69
435.175	81.69
435.397	95.69
435.618	83.69
435.84	99.69
436.062	83.69
436.284	84.69
436.505	85.69
436.727	93.69
436.949	100.69
437.17	89.69
437.392	88.69
437.614	87.69
437.835	79.69
438.057	89.69
438.278	89.69
438.5	91.69
438.721	82.69
438.943	92.69
439.165	87.69
439.386	89.69
439.608	85.69
439.829	81.69
440.05	76.69
440.272	83.69
440.493	94.69
440.715	91.69
440.936	99.69
441.158	97.69
441.379	91.69
441.6	84.69
441.822	93.69
442.043	95.69
442.264	104.69
442.486	101.69
442.707	173.69
442.928	121.69
443.149	111.69
443.371	146.69
443.592	209.69
443.813	201.69
444.034	112.69
444.255	96.69
444.476	113.69
444.698	72.69
444.919	97.69
445.14	158.69
445.361	177.69
445.582	265.69
445.803	239.69
446.024	111.69
446.245	89.69
446.466	91.69
446.687	88.69
446.908	89.69
447.129	86.69
447.35	87.69
447.571	91.69
447.792	86.69
448.013	61.69
448.234	82.69
448.455	93.69
448.675	95.69
448.896	91.69
449.117	79.69
449.338	79.69
449.559	100.69
449.779	79.69
450	82.69
450.221	80.69
450.442	70.69
450.662	83.69
450.883	101.69
451.104	87.69
451.324	84.69
451.545	90.69
451.766	84.69
451.986	83.69
452.207	73.69
452.428	69.69
452.648	98.69
452.869	112.69
453.089	103.69
453.31	81.69
453.53	90.69
453.751	93.69
453.971	85.69
454.192	84.69
454.412	80.69
454.633	75.69
454.853	82.69
455.073	87.69
455.294	93.69
455.514	97.69
455.734	78.69
455.955	83.69
456.175	86.69
456.395	82.69
456.616	77.69
456.836	84.69
457.056	87.69
457.276	77.69
457.497	92.69
457.717	84.69
457.937	94.69
458.157	105.69
458.377	103.69
458.598	113.69
458.818	130.69
459.038	91.69
459.258	87.69
459.478	87.69
459.698	70.69
459.918	94.69
460.138	83.69
460.358	96.69
460.578	104.69
460.798	103.69
461.018	112.69
461.238	80.69
461.458	91.69
461.678	90.69
461.898	79.69
462.118	78.69
462.338	98.69
462.558	83.69
462.777	95.69
462.997	80.69
463.217	88.69
463.437	87.69
463.657	88.69
463.876	84.69
464.096	93.69
464.316	83.69
464.536	81.69
464.755	85.69
464.975	84.69
465.195	78.69
465.414	79.69
465.634	79.69
465.854	98.69
466.073	93.69
466.293	81.69
466.512	68.69
466.732	86.69
466.951	87.69
467.171	76.69
467.391	74.69
467.61	79.69
467.829	86.69
468.049	95.69
468.268	73.69
468.488	73.69
468.707	96.69
468.927	95.69
469.146	81.69
469.365	92.69
469.585	86.69
469.804	74.69
470.023	74.69
470.243	77.69
470.462	80.69
470.681	95.69
470.901	94.69
471.12	98.69
471.339	91.69
471.558	103.69
471.777	86.69
471.997	88.69
472.216	96.69
472.435	91.69
472.654	89.69
472.873	80.69
473.092	91.69
473.311	87.69
473.53	81.69
473.749	83.69
473.968	116.69
474.187	95.69
474.406	82.69
474.625	89.69
474.844	89.69
475.063	87.69
475.282	87.69
475.501	93.69
475.72	91.69
475.939	94.69
476.158	77.69
476.377	59.69
476.596	99.69
476.814	85.69
477.033	65.69
477.252	89.69
477.471	84.69
477.69	81.69
477.908	75.69
478.127	81.69
478.346	99.69
478.564	77.69
478.783	76.69
479.002	98.69
479.22	96.69
479.439	92.69
479.658	94.69
479.876	77.69
480.095	67.69
480.313	79.69
480.532	86.69
480.751	90.69
480.969	85.69
481.188	89.69
481.406	92.69
481.624	73.69
481.843	97.69
482.061	80.69
482.28	91.69
482.498	95.69
482.717	74.69
482.935	93.69
483.153	75.69
483.372	88.69
483.59	86.69
483.808	95.69
484.027	85.69
484.245	91.69
484.463	87.69
484.681	94.69
484.9	96.69
485.118	87.69
485.336	89.69
485.554	86.69
485.772	92.69
485.99	77.69
486.209	83.69
486.427	87.69
486.645	101.69
486.863	98.69
487.081	85.69
487.299	81.69
487.517	92.69
487.735	118.69
487.953	183.69
488.171	167.69
488.389	105.69
488.607	99.69
488.825	83.69
489.043	97.69
489.261	98.69
489.479	85.69
489.696	85.69
489.914	78.69
490.132	90.69
490.35	94.69
490.568	78.69
490.786	87.69
491.003	96.69
491.221	91.69
491.439	87.69
491.657	88.69
491.874	70.69
492.092	88.69
492.31	94.69
492.527	89.69
492.745	95.69
492.963	79.69
493.18	76.69
493.398	110.69
493.615	95.69
493.833	81.69
494.05	88.69
494.268	87.69
494.485	85.69
494.703	84.69
494.92	98.69
495.138	93.69
495.355	89.69
495.573	90.69
495.79	90.69
496.008	96.69
496.225	94.69
496.442	87.69
496.66	87.69
496.877	80.69
497.094	111.69
497.312	100.69
497.529	87.69
497.746	86.69
497.963	79.69
498.181	93.69
498.398	112.69
498.615	81.69
498.832	81.69
499.049	89.69
499.267	114.69
499.484	95.69
499.701	87.69
499.918	88.69
500.135	81.69
500.352	89.69
500.569	109.69
500.786	94.69
501.003	105.69
501.22	98.69
501.437	79.69
501.654	81.69
501.871	80.69
502.088	84.69
502.305	81.69
502.522	100.69
502.739	83.69
502.956	96.69
503.172	104.69
503.389	85.69
503.606	77.69
503.823	103.69
504.04	113.69
504.256	142.69
504.473	139.69
504.69	93.69
504.907	93.69
505.123	97.69
505.34	73.69
505.557	86.69
505.773	94.69
505.99	88.69
506.207	88.69
506.423	98.69
506.64	91.69
506.856	90.69
507.073	89.69
507.289	83.69
507.506	93.69
507.722	104.69
507.939	91.69
508.155	87.69
508.372	89.69
508.588	68.69
508.805	87.69
509.021	92.69
509.238	98.69
509.454	83.69
509.67	75.69
509.887	89.69
510.103	92.69
510.319	105.69
510.536	84.69
510.752	84.69
510.968	85.69
511.184	84.69
511.401	92.69
511.617	86.69
511.833	88.69
512.049	89.69
512.265	91.69
512.481	100.69
512.698	103.69
512.914	81.69
513.13	85.69
513.346	92.69
513.562	93.69
513.778	79.69
513.994	82.69
514.21	93.69
514.426	84.69
514.642	94.69
514.858	98.69
515.074	91.69
515.29	84.69
515.506	94.69
515.721	71.69
515.937	90.69
516.153	95.69
516.369	96.69
516.585	84.69
516.801	91.69
517.016	96.69
517.232	105.69
517.448	97.69
517.664	94.69
517.879	94.69
518.095	92.69
