Data from 10100_1_HRD10591_00022.txt Node
Date: Mon Jan 19 14:00:35 EST 2026
User: Yrep
Spectrometer: HR+D1059
Trigger mode: 1
Integration Time (sec): 1.000000E-1
Scans to average: 1
Electric dark correction enabled: true
Nonlinearity correction enabled: false
Boxcar width: 0
XAxis mode: Wavelengths
Number of Pixels in Spectrum: 2048
>>>>>Begin Spectral Data<<<<<
223.165	-16.19
223.4	-16.19
223.635	-16.19
223.869	-3.19
224.104	-14.19
224.338	-22.19
224.573	-27.19
224.808	-15.19
225.042	-18.19
225.277	-8.19
225.511	-1.19
225.746	9.81
225.98	11.81
226.215	20.81
226.449	11.81
226.683	21.81
226.918	12.81
227.152	36.81
227.387	39.81
227.621	36.81
227.856	51.81
228.09	58.81
228.324	43.81
228.559	51.81
228.793	39.81
229.027	72.81
229.262	84.81
229.496	70.81
229.73	53.81
229.964	70.81
230.199	69.81
230.433	77.81
230.667	76.81
230.901	66.81
231.136	77.81
231.37	78.81
231.604	71.81
231.838	86.81
232.072	89.81
232.306	77.81
232.541	78.81
232.775	80.81
233.009	77.81
233.243	84.81
233.477	84.81
233.711	92.81
233.945	78.81
234.179	79.81
234.413	72.81
234.647	93.81
234.881	80.81
235.115	84.81
235.349	82.81
235.583	82.81
235.817	67.81
236.051	73.81
236.285	77.81
236.519	88.81
236.753	81.81
236.987	79.81
237.221	71.81
237.455	61.81
237.689	63.81
237.922	81.81
238.156	70.81
238.39	63.81
238.624	76.81
238.858	78.81
239.091	86.81
239.325	67.81
239.559	85.81
239.793	72.81
240.027	72.81
240.26	64.81
240.494	87.81
240.728	79.81
240.961	88.81
241.195	82.81
241.429	82.81
241.662	63.81
241.896	65.81
242.13	86.81
242.363	69.81
242.597	79.81
242.83	74.81
243.064	71.81
243.298	86.81
243.531	83.81
243.765	91.81
243.998	73.81
244.232	81.81
244.465	73.81
244.699	83.81
244.932	69.81
245.166	74.81
245.399	67.81
245.633	67.81
245.866	67.81
246.099	57.81
246.333	67.81
246.566	79.81
246.8	75.81
247.033	66.81
247.266	90.81
247.5	84.81
247.733	69.81
247.966	65.81
248.2	98.81
248.433	69.81
248.666	75.81
248.899	79.81
249.133	80.81
249.366	72.81
249.599	74.81
249.832	81.81
250.066	63.81
250.299	77.81
250.532	89.81
250.765	75.81
250.998	70.81
251.231	69.81
251.465	67.81
251.698	80.81
251.931	73.81
252.164	79.81
252.397	69.81
252.63	82.81
252.863	79.81
253.096	81.81
253.329	89.81
253.562	86.81
253.795	72.81
254.028	84.81
254.261	70.81
254.494	66.81
254.727	81.81
254.96	67.81
255.193	79.81
255.426	80.81
255.659	87.81
255.892	77.81
256.124	82.81
256.357	73.81
256.59	82.81
256.823	79.81
257.056	87.81
257.289	73.81
257.521	76.81
257.754	77.81
257.987	81.81
258.22	85.81
258.452	73.81
258.685	78.81
258.918	75.81
259.151	63.81
259.383	64.81
259.616	67.81
259.849	71.81
260.081	87.81
260.314	76.81
260.547	98.81
260.779	72.81
261.012	73.81
261.244	72.81
261.477	75.81
261.71	81.81
261.942	72.81
262.175	75.81
262.407	88.81
262.64	78.81
262.872	78.81
263.105	64.81
263.337	81.81
263.57	98.81
263.802	72.81
264.035	87.81
264.267	66.81
264.499	89.81
264.732	90.81
264.964	72.81
265.197	77.81
265.429	85.81
265.661	86.81
265.894	71.81
266.126	77.81
266.358	82.81
266.591	83.81
266.823	80.81
267.055	80.81
267.287	85.81
267.52	86.81
267.752	78.81
267.984	93.81
268.216	87.81
268.448	77.81
268.681	90.81
268.913	72.81
269.145	82.81
269.377	81.81
269.609	73.81
269.841	81.81
270.073	79.81
270.306	86.81
270.538	89.81
270.77	86.81
271.002	78.81
271.234	86.81
271.466	86.81
271.698	74.81
271.93	64.81
272.162	85.81
272.394	82.81
272.626	84.81
272.858	99.81
273.09	79.81
273.322	73.81
273.553	89.81
273.785	78.81
274.017	86.81
274.249	79.81
274.481	89.81
274.713	75.81
274.945	94.81
275.176	71.81
275.408	93.81
275.64	83.81
275.872	86.81
276.104	81.81
276.335	82.81
276.567	85.81
276.799	79.81
277.031	93.81
277.262	83.81
277.494	75.81
277.726	79.81
277.957	75.81
278.189	89.81
278.421	89.81
278.652	103.81
278.884	83.81
279.115	93.81
279.347	86.81
279.579	77.81
279.81	86.81
280.042	88.81
280.273	81.81
280.505	56.81
280.736	84.81
280.968	81.81
281.199	84.81
281.431	86.81
281.662	79.81
281.894	76.81
282.125	83.81
282.356	87.81
282.588	78.81
282.819	80.81
283.051	84.81
283.282	93.81
283.513	76.81
283.745	85.81
283.976	82.81
284.207	89.81
284.439	87.81
284.67	95.81
284.901	79.81
285.132	83.81
285.364	95.81
285.595	86.81
285.826	94.81
286.057	81.81
286.288	81.81
286.52	89.81
286.751	84.81
286.982	78.81
287.213	85.81
287.444	95.81
287.675	87.81
287.906	87.81
288.138	75.81
288.369	91.81
288.6	86.81
288.831	83.81
289.062	88.81
289.293	96.81
289.524	81.81
289.755	85.81
289.986	81.81
290.217	83.81
290.448	73.81
290.679	99.81
290.91	88.81
291.141	75.81
291.371	85.81
291.602	94.81
291.833	91.81
292.064	91.81
292.295	90.81
292.526	81.81
292.757	81.81
292.987	80.81
293.218	84.81
293.449	92.81
293.68	81.81
293.91	80.81
294.141	101.81
294.372	81.81
294.603	95.81
294.833	96.81
295.064	95.81
295.295	90.81
295.525	96.81
295.756	103.81
295.987	78.81
296.217	82.81
296.448	89.81
296.679	79.81
296.909	85.81
297.14	84.81
297.37	94.81
297.601	80.81
297.831	93.81
298.062	82.81
298.292	95.81
298.523	89.81
298.753	85.81
298.984	82.81
299.214	83.81
299.445	102.81
299.675	90.81
299.905	92.81
300.136	89.81
300.366	96.81
300.597	97.81
300.827	77.81
301.057	100.81
301.288	97.81
301.518	91.81
301.748	80.81
301.979	107.81
302.209	95.81
302.439	103.81
302.669	86.81
302.9	84.81
303.13	80.81
303.36	95.81
303.59	80.81
303.82	87.81
304.051	95.81
304.281	79.81
304.511	74.81
304.741	104.81
304.971	83.81
305.201	91.81
305.431	98.81
305.661	101.81
305.891	90.81
306.121	89.81
306.352	89.81
306.582	81.81
306.812	82.81
307.042	87.81
307.272	66.81
307.502	78.81
307.731	88.81
307.961	104.81
308.191	94.81
308.421	104.81
308.651	94.81
308.881	96.81
309.111	89.81
309.341	103.81
309.571	93.81
309.8	85.81
310.03	83.81
310.26	83.81
310.49	74.81
310.72	70.81
310.949	87.81
311.179	63.81
311.409	93.81
311.639	83.81
311.868	88.81
312.098	83.81
312.328	91.81
312.557	86.81
312.787	95.81
313.017	82.81
313.246	79.81
313.476	82.81
313.706	102.81
313.935	84.81
314.165	95.81
314.394	88.81
314.624	79.81
314.853	80.81
315.083	89.81
315.312	84.81
315.542	102.81
315.771	93.81
316.001	91.81
316.23	93.81
316.46	85.81
316.689	87.81
316.919	88.81
317.148	74.81
317.377	74.81
317.607	74.81
317.836	99.81
318.065	115.81
318.295	97.81
318.524	79.81
318.753	94.81
318.983	84.81
319.212	93.81
319.441	74.81
319.67	92.81
319.9	106.81
320.129	91.81
320.358	97.81
320.587	96.81
320.816	84.81
321.046	100.81
321.275	98.81
321.504	90.81
321.733	85.81
321.962	89.81
322.191	91.81
322.42	95.81
322.649	92.81
322.878	68.81
323.108	86.81
323.337	94.81
323.566	81.81
323.795	91.81
324.024	75.81
324.253	80.81
324.482	92.81
324.71	86.81
324.939	107.81
325.168	87.81
325.397	84.81
325.626	77.81
325.855	84.81
326.084	84.81
326.313	83.81
326.542	89.81
326.77	85.81
326.999	80.81
327.228	90.81
327.457	80.81
327.686	77.81
327.914	92.81
328.143	86.81
328.372	98.81
328.6	86.81
328.829	83.81
329.058	82.81
329.287	88.81
329.515	93.81
329.744	80.81
329.972	79.81
330.201	93.81
330.43	80.81
330.658	87.81
330.887	87.81
331.115	88.81
331.344	84.81
331.572	95.81
331.801	96.81
332.03	94.81
332.258	84.81
332.486	79.81
332.715	89.81
332.943	88.81
333.172	89.81
333.4	86.81
333.629	85.81
333.857	85.81
334.085	95.81
334.314	79.81
334.542	94.81
334.771	91.81
334.999	96.81
335.227	110.81
335.455	101.81
335.684	79.81
335.912	86.81
336.14	102.81
336.369	103.81
336.597	84.81
336.825	79.81
337.053	102.81
337.281	103.81
337.51	92.81
337.738	87.81
337.966	79.81
338.194	84.81
338.422	98.81
338.65	83.81
338.878	83.81
339.106	86.81
339.334	74.81
339.562	71.81
339.79	69.81
340.018	91.81
340.246	93.81
340.474	83.81
340.702	93.81
340.93	69.81
341.158	99.81
341.386	93.81
341.614	87.81
341.842	77.81
342.07	88.81
342.298	85.81
342.526	81.81
342.754	86.81
342.981	94.81
343.209	99.81
343.437	102.81
343.665	81.81
343.893	104.81
344.12	101.81
344.348	102.81
344.576	71.81
344.804	89.81
345.031	76.81
345.259	94.81
345.487	79.81
345.714	72.81
345.942	85.81
346.17	87.81
346.397	95.81
346.625	86.81
346.853	95.81
347.08	79.81
347.308	83.81
347.535	104.81
347.763	89.81
347.99	83.81
348.218	84.81
348.445	88.81
348.673	82.81
348.9	104.81
349.128	99.81
349.355	87.81
349.583	95.81
349.81	85.81
350.037	88.81
350.265	93.81
350.492	81.81
350.72	79.81
350.947	84.81
351.174	96.81
351.402	93.81
351.629	76.81
351.856	91.81
352.083	81.81
352.311	88.81
352.538	81.81
352.765	79.81
352.992	80.81
353.22	91.81
353.447	79.81
353.674	91.81
353.901	91.81
354.128	81.81
354.355	89.81
354.583	98.81
354.81	86.81
355.037	89.81
355.264	95.81
355.491	76.81
355.718	79.81
355.945	94.81
356.172	83.81
356.399	92.81
356.626	98.81
356.853	89.81
357.08	93.81
357.307	89.81
357.534	93.81
357.761	109.81
357.988	102.81
358.215	98.81
358.441	93.81
358.668	99.81
358.895	89.81
359.122	81.81
359.349	94.81
359.576	91.81
359.802	75.81
360.029	100.81
360.256	91.81
360.483	88.81
360.709	79.81
360.936	112.81
361.163	102.81
361.39	81.81
361.616	91.81
361.843	89.81
362.07	89.81
362.296	103.81
362.523	115.81
362.749	127.81
362.976	119.81
363.203	133.81
363.429	116.81
363.656	88.81
363.882	100.81
364.109	119.81
364.335	145.81
364.562	162.81
364.788	124.81
365.015	110.81
365.241	97.81
365.468	91.81
365.694	79.81
365.92	67.81
366.147	90.81
366.373	98.81
366.599	88.81
366.826	89.81
367.052	93.81
367.278	84.81
367.505	80.81
367.731	96.81
367.957	82.81
368.184	87.81
368.41	73.81
368.636	99.81
368.862	81.81
369.089	85.81
369.315	84.81
369.541	82.81
369.767	96.81
369.993	85.81
370.219	84.81
370.445	91.81
370.672	96.81
370.898	87.81
371.124	94.81
371.35	86.81
371.576	91.81
371.802	89.81
372.028	82.81
372.254	102.81
372.48	93.81
372.706	95.81
372.932	83.81
373.158	82.81
373.384	111.81
373.61	109.81
373.835	116.81
374.061	101.81
374.287	112.81
374.513	101.81
374.739	99.81
374.965	99.81
375.191	95.81
375.416	95.81
375.642	85.81
375.868	97.81
376.094	86.81
376.319	86.81
376.545	98.81
376.771	88.81
376.997	102.81
377.222	87.81
377.448	85.81
377.674	93.81
377.899	92.81
378.125	84.81
378.35	72.81
378.576	73.81
378.802	92.81
379.027	84.81
379.253	89.81
379.478	107.81
379.704	95.81
379.929	89.81
380.155	81.81
380.38	83.81
380.606	75.81
380.831	102.81
381.057	95.81
381.282	95.81
381.507	99.81
381.733	90.81
381.958	111.81
382.184	101.81
382.409	105.81
382.634	117.81
382.86	95.81
383.085	90.81
383.31	107.81
383.535	107.81
383.761	96.81
383.986	96.81
384.211	89.81
384.436	114.81
384.662	83.81
384.887	89.81
385.112	91.81
385.337	87.81
385.562	101.81
385.787	89.81
386.013	104.81
386.238	109.81
386.463	87.81
386.688	120.81
386.913	94.81
387.138	92.81
387.363	111.81
387.588	107.81
387.813	96.81
388.038	100.81
388.263	96.81
388.488	102.81
388.713	98.81
388.938	83.81
389.163	87.81
389.387	84.81
389.612	90.81
389.837	89.81
390.062	87.81
390.287	97.81
390.512	77.81
390.736	90.81
390.961	91.81
391.186	88.81
391.411	98.81
391.636	95.81
391.86	89.81
392.085	96.81
392.31	92.81
392.534	112.81
392.759	135.81
392.984	187.81
393.208	288.81
393.433	424.81
393.658	331.81
393.882	161.81
394.107	109.81
394.331	127.81
394.556	114.81
394.78	109.81
395.005	111.81
395.229	91.81
395.454	116.81
395.678	112.81
395.903	117.81
396.127	145.81
396.352	166.81
396.576	209.81
396.801	292.81
397.025	351.81
397.249	201.81
397.474	135.81
397.698	105.81
397.922	99.81
398.147	88.81
398.371	97.81
398.595	86.81
398.82	89.81
399.044	94.81
399.268	107.81
399.492	83.81
399.717	97.81
399.941	101.81
400.165	84.81
400.389	94.81
400.613	80.81
400.837	79.81
401.062	79.81
401.286	84.81
401.51	79.81
401.734	87.81
401.958	85.81
402.182	89.81
402.406	68.81
402.63	95.81
402.854	84.81
403.078	77.81
403.302	90.81
403.526	102.81
403.75	86.81
403.974	96.81
404.198	91.81
404.422	104.81
404.645	103.81
404.869	108.81
405.093	93.81
405.317	71.81
405.541	93.81
405.765	88.81
405.988	82.81
406.212	84.81
406.436	91.81
406.66	93.81
406.883	93.81
407.107	84.81
407.331	86.81
407.555	87.81
407.778	108.81
408.002	122.81
408.226	83.81
408.449	86.81
408.673	94.81
408.896	94.81
409.12	88.81
409.344	92.81
409.567	110.81
409.791	104.81
410.014	114.81
410.238	96.81
410.461	96.81
410.685	89.81
410.908	82.81
411.132	102.81
411.355	92.81
411.578	99.81
411.802	91.81
412.025	95.81
412.249	74.81
412.472	88.81
412.695	92.81
412.919	92.81
413.142	89.81
413.365	86.81
413.589	71.81
413.812	81.81
414.035	89.81
414.258	90.81
414.482	77.81
414.705	94.81
414.928	82.81
415.151	97.81
415.374	100.81
415.597	97.81
415.821	84.81
416.044	88.81
416.267	85.81
416.49	82.81
416.713	91.81
416.936	85.81
417.159	99.81
417.382	96.81
417.605	107.81
417.828	83.81
418.051	81.81
418.274	81.81
418.497	90.81
418.72	87.81
418.943	87.81
419.166	77.81
419.389	89.81
419.611	87.81
419.834	73.81
420.057	97.81
420.28	75.81
420.503	109.81
420.726	81.81
420.948	92.81
421.171	114.81
421.394	105.81
421.617	145.81
421.839	148.81
422.062	144.81
422.285	217.81
422.507	349.81
422.73	555.81
422.953	483.81
423.175	264.81
423.398	165.81
423.621	125.81
423.843	109.81
424.066	128.81
424.288	107.81
424.511	105.81
424.733	93.81
424.956	93.81
425.178	86.81
425.401	84.81
425.623	98.81
425.846	94.81
426.068	104.81
426.291	86.81
426.513	83.81
426.735	92.81
426.958	86.81
427.18	111.81
427.402	99.81
427.625	87.81
427.847	75.81
428.069	113.81
428.292	143.81
428.514	169.81
428.736	130.81
428.958	149.81
429.181	150.81
429.403	114.81
429.625	99.81
429.847	141.81
430.069	187.81
430.292	224.81
430.514	211.81
430.736	146.81
430.958	158.81
431.18	100.81
431.402	96.81
431.624	93.81
431.846	136.81
432.068	163.81
432.29	115.81
432.512	85.81
432.734	83.81
432.956	85.81
433.178	96.81
433.4	88.81
433.622	80.81
433.844	93.81
434.066	85.81
434.287	87.81
434.509	83.81
434.731	96.81
434.953	84.81
435.175	92.81
435.397	100.81
435.618	89.81
435.84	87.81
436.062	85.81
436.284	76.81
436.505	88.81
436.727	89.81
436.949	96.81
437.17	93.81
437.392	90.81
437.614	88.81
437.835	89.81
438.057	85.81
438.278	92.81
438.5	99.81
438.721	85.81
438.943	99.81
439.165	94.81
439.386	78.81
439.608	77.81
439.829	79.81
440.05	75.81
440.272	85.81
440.493	92.81
440.715	101.81
440.936	88.81
441.158	79.81
441.379	109.81
441.6	95.81
441.822	95.81
442.043	109.81
442.264	100.81
442.486	150.81
442.707	212.81
442.928	134.81
443.149	131.81
443.371	196.81
443.592	319.81
443.813	270.81
444.034	124.81
444.255	97.81
444.476	91.81
444.698	114.81
444.919	82.81
445.14	194.81
445.361	223.81
445.582	379.81
445.803	315.81
446.024	135.81
446.245	102.81
446.466	102.81
446.687	98.81
446.908	94.81
447.129	79.81
447.35	90.81
447.571	88.81
447.792	93.81
448.013	77.81
448.234	86.81
448.455	97.81
448.675	73.81
448.896	69.81
449.117	80.81
449.338	81.81
449.559	91.81
449.779	71.81
450	113.81
450.221	78.81
450.442	89.81
450.662	93.81
450.883	80.81
451.104	85.81
451.324	81.81
451.545	81.81
451.766	111.81
451.986	95.81
452.207	91.81
452.428	83.81
452.648	96.81
452.869	109.81
453.089	95.81
453.31	94.81
453.53	100.81
453.751	95.81
453.971	89.81
454.192	84.81
454.412	85.81
454.633	85.81
454.853	86.81
455.073	108.81
455.294	93.81
455.514	100.81
455.734	89.81
455.955	89.81
456.175	92.81
456.395	95.81
456.616	87.81
456.836	97.81
457.056	84.81
457.276	77.81
457.497	87.81
457.717	87.81
457.937	120.81
458.157	166.81
458.377	160.81
458.598	131.81
458.818	163.81
459.038	121.81
459.258	108.81
459.478	74.81
459.698	89.81
459.918	97.81
460.138	90.81
460.358	79.81
460.578	95.81
460.798	117.81
461.018	134.81
461.238	99.81
461.458	82.81
461.678	83.81
461.898	95.81
462.118	92.81
462.338	81.81
462.558	81.81
462.777	80.81
462.997	88.81
463.217	95.81
463.437	90.81
463.657	78.81
463.876	79.81
464.096	86.81
464.316	95.81
464.536	76.81
464.755	83.81
464.975	89.81
465.195	83.81
465.414	97.81
465.634	78.81
465.854	83.81
466.073	100.81
466.293	80.81
466.512	83.81
466.732	91.81
466.951	95.81
467.171	82.81
467.391	79.81
467.61	74.81
467.829	93.81
468.049	90.81
468.268	94.81
468.488	94.81
468.707	101.81
468.927	86.81
469.146	82.81
469.365	88.81
469.585	88.81
469.804	97.81
470.023	83.81
470.243	99.81
470.462	92.81
470.681	92.81
470.901	95.81
471.12	83.81
471.339	92.81
471.558	85.81
471.777	93.81
471.997	83.81
472.216	82.81
472.435	88.81
472.654	92.81
472.873	90.81
473.092	90.81
473.311	92.81
473.53	94.81
473.749	80.81
473.968	100.81
474.187	83.81
474.406	76.81
474.625	73.81
474.844	103.81
475.063	80.81
475.282	94.81
475.501	80.81
475.72	95.81
475.939	83.81
476.158	87.81
476.377	83.81
476.596	90.81
476.814	79.81
477.033	78.81
477.252	91.81
477.471	83.81
477.69	77.81
477.908	91.81
478.127	85.81
478.346	91.81
478.564	74.81
478.783	83.81
479.002	81.81
479.22	93.81
479.439	85.81
479.658	84.81
479.876	104.81
480.095	91.81
480.313	87.81
480.532	83.81
480.751	95.81
480.969	83.81
481.188	97.81
481.406	102.81
481.624	98.81
481.843	93.81
482.061	91.81
482.28	97.81
482.498	84.81
482.717	78.81
482.935	91.81
483.153	104.81
483.372	102.81
483.59	87.81
483.808	88.81
484.027	95.81
484.245	83.81
484.463	82.81
484.681	94.81
484.9	88.81
485.118	87.81
485.336	98.81
485.554	79.81
485.772	83.81
485.99	104.81
486.209	104.81
486.427	94.81
486.645	92.81
486.863	87.81
487.081	102.81
487.299	100.81
487.517	117.81
487.735	129.81
487.953	227.81
488.171	175.81
488.389	100.81
488.607	93.81
488.825	89.81
489.043	98.81
489.261	96.81
489.479	84.81
489.696	107.81
489.914	81.81
490.132	100.81
490.35	113.81
490.568	77.81
490.786	91.81
491.003	83.81
491.221	89.81
491.439	81.81
491.657	96.81
491.874	111.81
492.092	96.81
492.31	95.81
492.527	78.81
492.745	85.81
492.963	97.81
493.18	74.81
493.398	98.81
493.615	104.81
493.833	109.81
494.05	86.81
494.268	92.81
494.485	96.81
494.703	95.81
494.92	83.81
495.138	80.81
495.355	96.81
495.573	92.81
495.79	90.81
496.008	88.81
496.225	96.81
496.442	97.81
496.66	94.81
496.877	91.81
497.094	85.81
497.312	99.81
497.529	98.81
497.746	84.81
497.963	89.81
498.181	111.81
498.398	111.81
498.615	90.81
498.832	87.81
499.049	93.81
499.267	109.81
499.484	94.81
499.701	95.81
499.918	101.81
500.135	98.81
500.352	96.81
500.569	102.81
500.786	87.81
501.003	98.81
501.22	83.81
501.437	100.81
501.654	118.81
501.871	92.81
502.088	87.81
502.305	102.81
502.522	90.81
502.739	100.81
502.956	87.81
503.172	98.81
503.389	104.81
503.606	87.81
503.823	103.81
504.04	119.81
504.256	166.81
504.473	166.81
504.69	111.81
504.907	101.81
505.123	86.81
505.34	99.81
505.557	95.81
505.773	92.81
505.99	81.81
506.207	92.81
506.423	78.81
506.64	95.81
506.856	97.81
507.073	91.81
507.289	89.81
507.506	94.81
507.722	96.81
507.939	93.81
508.155	107.81
508.372	111.81
508.588	105.81
508.805	69.81
509.021	87.81
509.238	100.81
509.454	77.81
509.67	77.81
509.887	92.81
510.103	75.81
510.319	85.81
510.536	93.81
510.752	88.81
510.968	103.81
511.184	80.81
511.401	97.81
511.617	91.81
511.833	80.81
512.049	94.81
512.265	87.81
512.481	93.81
512.698	93.81
512.914	83.81
513.13	83.81
513.346	99.81
513.562	84.81
513.778	93.81
513.994	96.81
514.21	92.81
514.426	91.81
514.642	96.81
514.858	89.81
515.074	93.81
515.29	115.81
515.506	92.81
515.721	99.81
515.937	104.81
516.153	99.81
516.369	94.81
516.585	84.81
516.801	91.81
517.016	91.81
