Data from 10100_1_HRD10591_00012.txt Node
Date: Mon Jan 19 14:00:30 EST 2026
User: Yrep
Spectrometer: HR+D1059
Trigger mode: 1
Integration Time (sec): 1.000000E-1
Scans to average: 1
Electric dark correction enabled: true
Nonlinearity correction enabled: false
Boxcar width: 0
XAxis mode: Wavelengths
Number of Pixels in Spectrum: 2048
>>>>>Begin Spectral Data<<<<<
223.165	-11.06
223.4	-11.06
223.635	-11.06
223.869	-21.06
224.104	-23.06
224.338	-25.06
224.573	-18.06
224.808	-1.06
225.042	-1.06
225.277	-5.06
225.511	6.94
225.746	-8.06
225.98	10.94
226.215	1.94
226.449	16.94
226.683	33.94
226.918	26.94
227.152	15.94
227.387	27.94
227.621	38.94
227.856	50.94
228.09	32.94
228.324	61.94
228.559	63.94
228.793	51.94
229.027	69.94
229.262	61.94
229.496	64.94
229.73	73.94
229.964	81.94
230.199	67.94
230.433	70.94
230.667	80.94
230.901	88.94
231.136	87.94
231.37	74.94
231.604	95.94
231.838	80.94
232.072	74.94
232.306	79.94
232.541	83.94
232.775	84.94
233.009	85.94
233.243	82.94
233.477	80.94
233.711	84.94
233.945	72.94
234.179	70.94
234.413	90.94
234.647	70.94
234.881	66.94
235.115	62.94
235.349	75.94
235.583	71.94
235.817	81.94
236.051	78.94
236.285	76.94
236.519	89.94
236.753	80.94
236.987	79.94
237.221	80.94
237.455	68.94
237.689	82.94
237.922	81.94
238.156	79.94
238.39	73.94
238.624	76.94
238.858	70.94
239.091	78.94
239.325	84.94
239.559	81.94
239.793	71.94
240.027	68.94
240.26	96.94
240.494	83.94
240.728	78.94
240.961	83.94
241.195	83.94
241.429	83.94
241.662	81.94
241.896	70.94
242.13	77.94
242.363	77.94
242.597	83.94
242.83	72.94
243.064	78.94
243.298	66.94
243.531	74.94
243.765	74.94
243.998	74.94
244.232	86.94
244.465	78.94
244.699	61.94
244.932	93.94
245.166	81.94
245.399	69.94
245.633	76.94
245.866	74.94
246.099	74.94
246.333	84.94
246.566	100.94
246.8	75.94
247.033	84.94
247.266	73.94
247.5	76.94
247.733	74.94
247.966	78.94
248.2	74.94
248.433	72.94
248.666	77.94
248.899	83.94
249.133	83.94
249.366	82.94
249.599	74.94
249.832	82.94
250.066	80.94
250.299	81.94
250.532	70.94
250.765	94.94
250.998	58.94
251.231	77.94
251.465	76.94
251.698	82.94
251.931	85.94
252.164	83.94
252.397	82.94
252.63	96.94
252.863	75.94
253.096	77.94
253.329	87.94
253.562	77.94
253.795	65.94
254.028	78.94
254.261	94.94
254.494	81.94
254.727	66.94
254.96	72.94
255.193	71.94
255.426	87.94
255.659	87.94
255.892	85.94
256.124	73.94
256.357	84.94
256.59	82.94
256.823	84.94
257.056	93.94
257.289	94.94
257.521	73.94
257.754	80.94
257.987	68.94
258.22	104.94
258.452	73.94
258.685	82.94
258.918	80.94
259.151	89.94
259.383	85.94
259.616	88.94
259.849	88.94
260.081	83.94
260.314	86.94
260.547	86.94
260.779	89.94
261.012	81.94
261.244	85.94
261.477	96.94
261.71	94.94
261.942	88.94
262.175	79.94
262.407	76.94
262.64	69.94
262.872	87.94
263.105	91.94
263.337	91.94
263.57	93.94
263.802	86.94
264.035	89.94
264.267	84.94
264.499	70.94
264.732	85.94
264.964	84.94
265.197	79.94
265.429	81.94
265.661	70.94
265.894	85.94
266.126	86.94
266.358	70.94
266.591	68.94
266.823	85.94
267.055	76.94
267.287	92.94
267.52	82.94
267.752	90.94
267.984	80.94
268.216	76.94
268.448	91.94
268.681	75.94
268.913	70.94
269.145	79.94
269.377	92.94
269.609	85.94
269.841	72.94
270.073	97.94
270.306	86.94
270.538	84.94
270.77	86.94
271.002	80.94
271.234	71.94
271.466	86.94
271.698	78.94
271.93	85.94
272.162	80.94
272.394	92.94
272.626	84.94
272.858	84.94
273.09	73.94
273.322	83.94
273.553	84.94
273.785	74.94
274.017	89.94
274.249	90.94
274.481	80.94
274.713	77.94
274.945	69.94
275.176	89.94
275.408	90.94
275.64	94.94
275.872	81.94
276.104	86.94
276.335	96.94
276.567	84.94
276.799	93.94
277.031	89.94
277.262	92.94
277.494	87.94
277.726	94.94
277.957	78.94
278.189	77.94
278.421	78.94
278.652	79.94
278.884	93.94
279.115	80.94
279.347	87.94
279.579	79.94
279.81	85.94
280.042	88.94
280.273	84.94
280.505	93.94
280.736	83.94
280.968	85.94
281.199	84.94
281.431	78.94
281.662	80.94
281.894	82.94
282.125	80.94
282.356	81.94
282.588	92.94
282.819	89.94
283.051	83.94
283.282	79.94
283.513	80.94
283.745	90.94
283.976	73.94
284.207	77.94
284.439	86.94
284.67	80.94
284.901	87.94
285.132	89.94
285.364	98.94
285.595	90.94
285.826	92.94
286.057	100.94
286.288	83.94
286.52	77.94
286.751	84.94
286.982	79.94
287.213	74.94
287.444	82.94
287.675	87.94
287.906	94.94
288.138	87.94
288.369	90.94
288.6	89.94
288.831	93.94
289.062	88.94
289.293	79.94
289.524	91.94
289.755	70.94
289.986	85.94
290.217	84.94
290.448	63.94
290.679	82.94
290.91	86.94
291.141	92.94
291.371	89.94
291.602	85.94
291.833	77.94
292.064	89.94
292.295	86.94
292.526	94.94
292.757	84.94
292.987	67.94
293.218	69.94
293.449	94.94
293.68	75.94
293.91	79.94
294.141	84.94
294.372	86.94
294.603	78.94
294.833	82.94
295.064	84.94
295.295	80.94
295.525	95.94
295.756	99.94
295.987	80.94
296.217	92.94
296.448	90.94
296.679	86.94
296.909	93.94
297.14	84.94
297.37	96.94
297.601	87.94
297.831	104.94
298.062	81.94
298.292	86.94
298.523	70.94
298.753	82.94
298.984	76.94
299.214	101.94
299.445	76.94
299.675	94.94
299.905	87.94
300.136	80.94
300.366	73.94
300.597	86.94
300.827	93.94
301.057	84.94
301.288	95.94
301.518	78.94
301.748	82.94
301.979	104.94
302.209	97.94
302.439	86.94
302.669	78.94
302.9	68.94
303.13	82.94
303.36	88.94
303.59	82.94
303.82	92.94
304.051	86.94
304.281	92.94
304.511	92.94
304.741	96.94
304.971	80.94
305.201	93.94
305.431	98.94
305.661	91.94
305.891	88.94
306.121	97.94
306.352	87.94
306.582	90.94
306.812	79.94
307.042	88.94
307.272	92.94
307.502	90.94
307.731	92.94
307.961	94.94
308.191	102.94
308.421	91.94
308.651	75.94
308.881	89.94
309.111	96.94
309.341	100.94
309.571	90.94
309.8	89.94
310.03	87.94
310.26	86.94
310.49	83.94
310.72	84.94
310.949	90.94
311.179	81.94
311.409	93.94
311.639	87.94
311.868	88.94
312.098	94.94
312.328	86.94
312.557	85.94
312.787	74.94
313.017	96.94
313.246	84.94
313.476	87.94
313.706	77.94
313.935	78.94
314.165	91.94
314.394	85.94
314.624	80.94
314.853	93.94
315.083	86.94
315.312	89.94
315.542	97.94
315.771	117.94
316.001	96.94
316.23	102.94
316.46	84.94
316.689	72.94
316.919	77.94
317.148	89.94
317.377	92.94
317.607	92.94
317.836	93.94
318.065	109.94
318.295	104.94
318.524	96.94
318.753	79.94
318.983	82.94
319.212	75.94
319.441	82.94
319.67	82.94
319.9	78.94
320.129	83.94
320.358	92.94
320.587	89.94
320.816	91.94
321.046	80.94
321.275	93.94
321.504	70.94
321.733	99.94
321.962	91.94
322.191	95.94
322.42	73.94
322.649	95.94
322.878	92.94
323.108	82.94
323.337	86.94
323.566	91.94
323.795	77.94
324.024	87.94
324.253	88.94
324.482	83.94
324.71	91.94
324.939	88.94
325.168	96.94
325.397	79.94
325.626	95.94
325.855	86.94
326.084	87.94
326.313	86.94
326.542	99.94
326.77	70.94
326.999	86.94
327.228	90.94
327.457	80.94
327.686	92.94
327.914	94.94
328.143	93.94
328.372	89.94
328.6	96.94
328.829	83.94
329.058	87.94
329.287	95.94
329.515	80.94
329.744	91.94
329.972	78.94
330.201	92.94
330.43	88.94
330.658	82.94
330.887	90.94
331.115	94.94
331.344	79.94
331.572	82.94
331.801	93.94
332.03	77.94
332.258	82.94
332.486	91.94
332.715	85.94
332.943	86.94
333.172	87.94
333.4	81.94
333.629	88.94
333.857	94.94
334.085	87.94
334.314	88.94
334.542	84.94
334.771	96.94
334.999	93.94
335.227	88.94
335.455	109.94
335.684	103.94
335.912	116.94
336.14	104.94
336.369	101.94
336.597	88.94
336.825	84.94
337.053	110.94
337.281	91.94
337.51	78.94
337.738	89.94
337.966	80.94
338.194	92.94
338.422	86.94
338.65	100.94
338.878	103.94
339.106	92.94
339.334	88.94
339.562	98.94
339.79	94.94
340.018	86.94
340.246	81.94
340.474	83.94
340.702	81.94
340.93	95.94
341.158	82.94
341.386	98.94
341.614	85.94
341.842	62.94
342.07	83.94
342.298	85.94
342.526	90.94
342.754	89.94
342.981	75.94
343.209	73.94
343.437	106.94
343.665	80.94
343.893	87.94
344.12	96.94
344.348	103.94
344.576	89.94
344.804	86.94
345.031	94.94
345.259	93.94
345.487	89.94
345.714	92.94
345.942	81.94
346.17	90.94
346.397	85.94
346.625	95.94
346.853	92.94
347.08	103.94
347.308	81.94
347.535	86.94
347.763	93.94
347.99	68.94
348.218	84.94
348.445	85.94
348.673	80.94
348.9	85.94
349.128	96.94
349.355	83.94
349.583	92.94
349.81	88.94
350.037	86.94
350.265	99.94
350.492	79.94
350.72	92.94
350.947	95.94
351.174	88.94
351.402	102.94
351.629	96.94
351.856	68.94
352.083	92.94
352.311	105.94
352.538	84.94
352.765	103.94
352.992	90.94
353.22	93.94
353.447	78.94
353.674	99.94
353.901	73.94
354.128	92.94
354.355	77.94
354.583	83.94
354.81	99.94
355.037	93.94
355.264	83.94
355.491	98.94
355.718	90.94
355.945	93.94
356.172	97.94
356.399	97.94
356.626	109.94
356.853	88.94
357.08	104.94
357.307	97.94
357.534	78.94
357.761	96.94
357.988	99.94
358.215	96.94
358.441	86.94
358.668	87.94
358.895	85.94
359.122	90.94
359.349	95.94
359.576	80.94
359.802	105.94
360.029	104.94
360.256	92.94
360.483	96.94
360.709	101.94
360.936	105.94
361.163	92.94
361.39	84.94
361.616	97.94
361.843	110.94
362.07	98.94
362.296	108.94
362.523	111.94
362.749	116.94
362.976	142.94
363.203	141.94
363.429	113.94
363.656	100.94
363.882	110.94
364.109	120.94
364.335	137.94
364.562	164.94
364.788	115.94
365.015	92.94
365.241	86.94
365.468	93.94
365.694	88.94
365.92	99.94
366.147	79.94
366.373	93.94
366.599	89.94
366.826	104.94
367.052	85.94
367.278	100.94
367.505	87.94
367.731	84.94
367.957	89.94
368.184	88.94
368.41	74.94
368.636	88.94
368.862	90.94
369.089	85.94
369.315	98.94
369.541	92.94
369.767	95.94
369.993	80.94
370.219	90.94
370.445	98.94
370.672	105.94
370.898	102.94
371.124	98.94
371.35	97.94
371.576	91.94
371.802	105.94
372.028	94.94
372.254	97.94
372.48	95.94
372.706	89.94
372.932	78.94
373.158	98.94
373.384	114.94
373.61	117.94
373.835	127.94
374.061	110.94
374.287	89.94
374.513	105.94
374.739	105.94
374.965	126.94
375.191	96.94
375.416	89.94
375.642	113.94
375.868	106.94
376.094	111.94
376.319	102.94
376.545	97.94
376.771	100.94
376.997	73.94
377.222	77.94
377.448	90.94
377.674	94.94
377.899	85.94
378.125	85.94
378.35	78.94
378.576	93.94
378.802	97.94
379.027	85.94
379.253	94.94
379.478	81.94
379.704	85.94
379.929	95.94
380.155	105.94
380.38	97.94
380.606	98.94
380.831	88.94
381.057	81.94
381.282	86.94
381.507	110.94
381.733	94.94
381.958	103.94
382.184	100.94
382.409	106.94
382.634	114.94
382.86	118.94
383.085	110.94
383.31	104.94
383.535	118.94
383.761	110.94
383.986	111.94
384.211	93.94
384.436	107.94
384.662	93.94
384.887	90.94
385.112	94.94
385.337	107.94
385.562	101.94
385.787	89.94
386.013	115.94
386.238	96.94
386.463	104.94
386.688	116.94
386.913	101.94
387.138	101.94
387.363	112.94
387.588	94.94
387.813	114.94
388.038	91.94
388.263	106.94
388.488	99.94
388.713	97.94
388.938	90.94
389.163	84.94
389.387	86.94
389.612	85.94
389.837	99.94
390.062	90.94
390.287	96.94
390.512	95.94
390.736	98.94
390.961	93.94
391.186	90.94
391.411	87.94
391.636	73.94
391.86	82.94
392.085	104.94
392.31	112.94
392.534	118.94
392.759	149.94
392.984	190.94
393.208	335.94
393.433	484.94
393.658	377.94
393.882	168.94
394.107	126.94
394.331	135.94
394.556	132.94
394.78	112.94
395.005	104.94
395.229	93.94
395.454	94.94
395.678	110.94
395.903	152.94
396.127	173.94
396.352	190.94
396.576	210.94
396.801	327.94
397.025	375.94
397.249	216.94
397.474	153.94
397.698	120.94
397.922	109.94
398.147	103.94
398.371	108.94
398.595	102.94
398.82	77.94
399.044	90.94
399.268	92.94
399.492	86.94
399.717	103.94
399.941	99.94
400.165	95.94
400.389	91.94
400.613	82.94
400.837	103.94
401.062	90.94
401.286	78.94
401.51	94.94
401.734	83.94
401.958	96.94
402.182	88.94
402.406	81.94
402.63	88.94
402.854	93.94
403.078	91.94
403.302	98.94
403.526	82.94
403.75	83.94
403.974	93.94
404.198	92.94
404.422	112.94
404.645	97.94
404.869	92.94
405.093	90.94
405.317	97.94
405.541	81.94
405.765	77.94
405.988	95.94
406.212	88.94
406.436	98.94
406.66	90.94
406.883	83.94
407.107	105.94
407.331	99.94
407.555	101.94
407.778	109.94
408.002	128.94
408.226	95.94
408.449	89.94
408.673	101.94
408.896	102.94
409.12	95.94
409.344	104.94
409.567	122.94
409.791	105.94
410.014	113.94
410.238	108.94
410.461	89.94
410.685	98.94
410.908	96.94
411.132	89.94
411.355	92.94
411.578	98.94
411.802	87.94
412.025	97.94
412.249	90.94
412.472	75.94
412.695	84.94
412.919	96.94
413.142	96.94
413.365	97.94
413.589	89.94
413.812	95.94
414.035	96.94
414.258	90.94
414.482	88.94
414.705	101.94
414.928	94.94
415.151	91.94
415.374	100.94
415.597	85.94
415.821	92.94
416.044	81.94
416.267	87.94
416.49	87.94
416.713	86.94
416.936	86.94
417.159	89.94
417.382	83.94
417.605	66.94
417.828	85.94
418.051	89.94
418.274	93.94
418.497	92.94
418.72	82.94
418.943	92.94
419.166	89.94
419.389	89.94
419.611	92.94
419.834	93.94
420.057	99.94
420.28	98.94
420.503	88.94
420.726	97.94
420.948	90.94
421.171	90.94
421.394	130.94
421.617	146.94
421.839	159.94
422.062	153.94
422.285	217.94
422.507	385.94
422.73	558.94
422.953	517.94
423.175	304.94
423.398	169.94
423.621	145.94
423.843	117.94
424.066	118.94
424.288	125.94
424.511	110.94
424.733	118.94
424.956	90.94
425.178	91.94
425.401	92.94
425.623	104.94
425.846	94.94
426.068	99.94
426.291	87.94
426.513	80.94
426.735	87.94
426.958	98.94
427.18	97.94
427.402	100.94
427.625	87.94
427.847	100.94
428.069	113.94
428.292	146.94
428.514	179.94
428.736	131.94
428.958	152.94
429.181	161.94
429.403	114.94
429.625	120.94
429.847	139.94
430.069	199.94
430.292	229.94
430.514	203.94
430.736	157.94
430.958	179.94
431.18	110.94
431.402	95.94
431.624	117.94
431.846	138.94
432.068	148.94
432.29	94.94
432.512	96.94
432.734	88.94
432.956	93.94
433.178	80.94
433.4	98.94
433.622	82.94
433.844	94.94
434.066	91.94
434.287	84.94
434.509	88.94
434.731	89.94
434.953	90.94
435.175	93.94
435.397	109.94
435.618	91.94
435.84	106.94
436.062	93.94
436.284	93.94
436.505	92.94
436.727	99.94
436.949	89.94
437.17	95.94
437.392	92.94
437.614	95.94
437.835	85.94
438.057	97.94
438.278	91.94
438.5	97.94
438.721	85.94
438.943	83.94
439.165	83.94
439.386	82.94
439.608	85.94
439.829	78.94
440.05	78.94
440.272	90.94
440.493	99.94
440.715	110.94
440.936	99.94
441.158	93.94
441.379	91.94
441.6	94.94
441.822	104.94
442.043	92.94
442.264	105.94
442.486	157.94
442.707	221.94
442.928	154.94
443.149	127.94
443.371	185.94
443.592	312.94
443.813	273.94
444.034	118.94
444.255	87.94
444.476	80.94
444.698	93.94
444.919	105.94
445.14	188.94
445.361	252.94
445.582	398.94
445.803	341.94
446.024	156.94
446.245	99.94
446.466	97.94
446.687	81.94
446.908	88.94
447.129	90.94
447.35	83.94
447.571	81.94
447.792	89.94
448.013	97.94
448.234	82.94
448.455	92.94
448.675	95.94
448.896	81.94
449.117	90.94
449.338	94.94
449.559	93.94
449.779	79.94
450	85.94
450.221	77.94
450.442	97.94
450.662	90.94
450.883	87.94
451.104	98.94
451.324	94.94
451.545	91.94
451.766	89.94
451.986	80.94
452.207	92.94
452.428	101.94
452.648	111.94
452.869	124.94
453.089	111.94
453.31	92.94
453.53	105.94
453.751	95.94
453.971	84.94
454.192	86.94
454.412	85.94
454.633	100.94
454.853	88.94
455.073	84.94
455.294	101.94
455.514	96.94
455.734	89.94
455.955	93.94
456.175	66.94
456.395	83.94
456.616	84.94
456.836	102.94
457.056	86.94
457.276	97.94
457.497	83.94
457.717	92.94
457.937	126.94
458.157	144.94
458.377	144.94
458.598	134.94
458.818	156.94
459.038	101.94
459.258	90.94
459.478	83.94
459.698	94.94
459.918	89.94
460.138	81.94
460.358	107.94
460.578	94.94
460.798	142.94
461.018	127.94
461.238	86.94
461.458	88.94
461.678	98.94
461.898	89.94
462.118	92.94
462.338	84.94
462.558	79.94
462.777	99.94
462.997	82.94
463.217	85.94
463.437	93.94
463.657	87.94
463.876	96.94
464.096	83.94
464.316	87.94
464.536	79.94
464.755	86.94
464.975	98.94
465.195	85.94
465.414	90.94
465.634	78.94
465.854	84.94
466.073	85.94
466.293	81.94
466.512	98.94
466.732	91.94
466.951	92.94
467.171	89.94
467.391	76.94
467.61	88.94
467.829	89.94
468.049	87.94
468.268	86.94
468.488	90.94
468.707	94.94
468.927	87.94
469.146	103.94
469.365	96.94
469.585	82.94
469.804	98.94
470.023	77.94
470.243	87.94
470.462	98.94
470.681	93.94
470.901	93.94
471.12	86.94
471.339	80.94
471.558	89.94
471.777	83.94
471.997	84.94
472.216	94.94
472.435	97.94
472.654	82.94
472.873	92.94
473.092	96.94
473.311	94.94
473.53	90.94
473.749	89.94
473.968	88.94
474.187	88.94
474.406	94.94
474.625	92.94
474.844	103.94
475.063	94.94
475.282	95.94
475.501	95.94
475.72	99.94
475.939	88.94
476.158	95.94
476.377	85.94
476.596	77.94
476.814	100.94
477.033	91.94
477.252	85.94
477.471	94.94
477.69	93.94
477.908	96.94
478.127	96.94
478.346	78.94
478.564	88.94
478.783	91.94
479.002	92.94
479.22	86.94
479.439	102.94
479.658	90.94
479.876	97.94
480.095	90.94
480.313	69.94
480.532	84.94
480.751	92.94
480.969	89.94
481.188	86.94
481.406	96.94
481.624	87.94
481.843	72.94
482.061	91.94
482.28	93.94
482.498	96.94
482.717	104.94
482.935	90.94
483.153	95.94
483.372	108.94
483.59	91.94
483.808	94.94
484.027	97.94
484.245	82.94
484.463	96.94
484.681	91.94
484.9	95.94
485.118	109.94
485.336	84.94
485.554	92.94
485.772	89.94
485.99	92.94
486.209	84.94
486.427	95.94
486.645	103.94
486.863	88.94
487.081	104.94
487.299	118.94
487.517	122.94
487.735	138.94
487.953	232.94
488.171	184.94
488.389	110.94
488.607	90.94
488.825	95.94
489.043	94.94
489.261	94.94
489.479	100.94
489.696	85.94
489.914	97.94
490.132	95.94
490.35	93.94
490.568	93.94
490.786	81.94
491.003	89.94
491.221	95.94
491.439	93.94
491.657	99.94
491.874	102.94
492.092	94.94
492.31	98.94
492.527	92.94
492.745	76.94
492.963	98.94
493.18	97.94
493.398	107.94
493.615	105.94
493.833	84.94
494.05	92.94
494.268	83.94
494.485	88.94
494.703	90.94
494.92	98.94
495.138	92.94
495.355	105.94
495.573	98.94
495.79	89.94
496.008	94.94
496.225	108.94
496.442	95.94
496.66	108.94
496.877	95.94
497.094	104.94
497.312	100.94
497.529	80.94
497.746	88.94
497.963	93.94
498.181	95.94
498.398	95.94
498.615	106.94
498.832	89.94
499.049	101.94
499.267	110.94
499.484	98.94
499.701	94.94
499.918	96.94
500.135	104.94
500.352	87.94
500.569	89.94
500.786	118.94
501.003	104.94
501.22	95.94
501.437	110.94
501.654	112.94
501.871	87.94
502.088	106.94
502.305	100.94
502.522	92.94
502.739	89.94
502.956	100.94
503.172	90.94
503.389	93.94
503.606	90.94
503.823	111.94
504.04	129.94
504.256	192.94
504.473	189.94
504.69	117.94
504.907	81.94
505.123	91.94
505.34	96.94
505.557	108.94
505.773	100.94
505.99	99.94
506.207	75.94
506.423	92.94
506.64	105.94
506.856	95.94
507.073	96.94
507.289	86.94
507.506	102.94
507.722	97.94
507.939	93.94
508.155	90.94
508.372	110.94
508.588	98.94
508.805	91.94
509.021	100.94
509.238	101.94
509.454	100.94
509.67	99.94
509.887	94.94
510.103	98.94
510.319	91.94
510.536	100.94
510.752	91.94
510.968	100.94
511.184	96.94
511.401	80.94
511.617	98.94
511.833	96.94
512.049	102.94
512.265	85.94
512.481	95.94
512.698	102.94
512.914	98.94
513.13	93.94
513.346	98.94
513.562	105.94
513.778	98.94
513.994	90.94
514.21	89.94
514.426	88.94
514.642	81.94
514.858	104.94
515.074	106.94
515.29	85.94
515.506	96.94
515.721	84.94
515.937	94.94
516.153	91.94
516.369	98.94
516.585	97.94
