Data from 10100_1_HRD10591_00005.txt Node
Date: Mon Jan 19 14:00:27 EST 2026
User: Yrep
Spectrometer: HR+D1059
Trigger mode: 1
Integration Time (sec): 1.000000E-1
Scans to average: 1
Electric dark correction enabled: true
Nonlinearity correction enabled: false
Boxcar width: 0
XAxis mode: Wavelengths
Number of Pixels in Spectrum: 2048
>>>>>Begin Spectral Data<<<<<
223.165	-28.75
223.4	-28.75
223.635	-28.75
223.869	-26.75
224.104	-19.75
224.338	-11.75
224.573	-11.75
224.808	-14.75
225.042	-11.75
225.277	-4.75
225.511	-11.75
225.746	7.25
225.98	7.25
226.215	17.25
226.449	23.25
226.683	22.25
226.918	28.25
227.152	36.25
227.387	47.25
227.621	25.25
227.856	45.25
228.09	42.25
228.324	44.25
228.559	60.25
228.793	72.25
229.027	64.25
229.262	66.25
229.496	48.25
229.73	60.25
229.964	64.25
230.199	64.25
230.433	68.25
230.667	69.25
230.901	72.25
231.136	85.25
231.37	75.25
231.604	80.25
231.838	73.25
232.072	66.25
232.306	88.25
232.541	80.25
232.775	76.25
233.009	73.25
233.243	71.25
233.477	76.25
233.711	84.25
233.945	71.25
234.179	74.25
234.413	81.25
234.647	76.25
234.881	76.25
235.115	83.25
235.349	68.25
235.583	89.25
235.817	75.25
236.051	70.25
236.285	75.25
236.519	80.25
236.753	72.25
236.987	69.25
237.221	83.25
237.455	79.25
237.689	75.25
237.922	88.25
238.156	65.25
238.39	72.25
238.624	73.25
238.858	67.25
239.091	78.25
239.325	78.25
239.559	77.25
239.793	75.25
240.027	70.25
240.26	74.25
240.494	75.25
240.728	82.25
240.961	75.25
241.195	73.25
241.429	83.25
241.662	82.25
241.896	71.25
242.13	86.25
242.363	83.25
242.597	83.25
242.83	83.25
243.064	74.25
243.298	72.25
243.531	73.25
243.765	78.25
243.998	69.25
244.232	84.25
244.465	80.25
244.699	75.25
244.932	62.25
245.166	70.25
245.399	82.25
245.633	82.25
245.866	77.25
246.099	77.25
246.333	75.25
246.566	69.25
246.8	76.25
247.033	66.25
247.266	76.25
247.5	72.25
247.733	76.25
247.966	83.25
248.2	75.25
248.433	77.25
248.666	78.25
248.899	84.25
249.133	77.25
249.366	87.25
249.599	79.25
249.832	73.25
250.066	94.25
250.299	86.25
250.532	75.25
250.765	81.25
250.998	69.25
251.231	62.25
251.465	79.25
251.698	78.25
251.931	81.25
252.164	80.25
252.397	88.25
252.63	62.25
252.863	78.25
253.096	73.25
253.329	86.25
253.562	83.25
253.795	80.25
254.028	86.25
254.261	75.25
254.494	75.25
254.727	83.25
254.96	81.25
255.193	78.25
255.426	58.25
255.659	73.25
255.892	79.25
256.124	70.25
256.357	84.25
256.59	68.25
256.823	82.25
257.056	86.25
257.289	86.25
257.521	75.25
257.754	74.25
257.987	70.25
258.22	97.25
258.452	61.25
258.685	82.25
258.918	95.25
259.151	96.25
259.383	74.25
259.616	79.25
259.849	74.25
260.081	81.25
260.314	69.25
260.547	88.25
260.779	87.25
261.012	84.25
261.244	89.25
261.477	80.25
261.71	86.25
261.942	76.25
262.175	72.25
262.407	80.25
262.64	87.25
262.872	84.25
263.105	84.25
263.337	83.25
263.57	81.25
263.802	71.25
264.035	70.25
264.267	82.25
264.499	74.25
264.732	86.25
264.964	78.25
265.197	85.25
265.429	66.25
265.661	80.25
265.894	78.25
266.126	86.25
266.358	70.25
266.591	68.25
266.823	80.25
267.055	93.25
267.287	75.25
267.52	71.25
267.752	75.25
267.984	78.25
268.216	86.25
268.448	86.25
268.681	72.25
268.913	74.25
269.145	67.25
269.377	78.25
269.609	74.25
269.841	88.25
270.073	70.25
270.306	88.25
270.538	93.25
270.77	94.25
271.002	84.25
271.234	79.25
271.466	88.25
271.698	81.25
271.93	79.25
272.162	68.25
272.394	90.25
272.626	79.25
272.858	93.25
273.09	86.25
273.322	66.25
273.553	87.25
273.785	84.25
274.017	89.25
274.249	77.25
274.481	95.25
274.713	88.25
274.945	73.25
275.176	90.25
275.408	90.25
275.64	75.25
275.872	86.25
276.104	80.25
276.335	83.25
276.567	83.25
276.799	86.25
277.031	92.25
277.262	84.25
277.494	77.25
277.726	85.25
277.957	89.25
278.189	84.25
278.421	96.25
278.652	83.25
278.884	81.25
279.115	67.25
279.347	83.25
279.579	77.25
279.81	90.25
280.042	104.25
280.273	71.25
280.505	79.25
280.736	79.25
280.968	79.25
281.199	85.25
281.431	84.25
281.662	91.25
281.894	72.25
282.125	87.25
282.356	68.25
282.588	78.25
282.819	94.25
283.051	85.25
283.282	76.25
283.513	78.25
283.745	79.25
283.976	80.25
284.207	93.25
284.439	90.25
284.67	83.25
284.901	88.25
285.132	89.25
285.364	86.25
285.595	80.25
285.826	80.25
286.057	92.25
286.288	88.25
286.52	70.25
286.751	78.25
286.982	83.25
287.213	80.25
287.444	75.25
287.675	98.25
287.906	88.25
288.138	91.25
288.369	78.25
288.6	83.25
288.831	87.25
289.062	93.25
289.293	80.25
289.524	85.25
289.755	64.25
289.986	78.25
290.217	79.25
290.448	88.25
290.679	84.25
290.91	92.25
291.141	84.25
291.371	86.25
291.602	86.25
291.833	84.25
292.064	73.25
292.295	73.25
292.526	78.25
292.757	89.25
292.987	92.25
293.218	88.25
293.449	76.25
293.68	83.25
293.91	92.25
294.141	87.25
294.372	89.25
294.603	84.25
294.833	83.25
295.064	81.25
295.295	82.25
295.525	84.25
295.756	78.25
295.987	90.25
296.217	89.25
296.448	85.25
296.679	100.25
296.909	84.25
297.14	107.25
297.37	104.25
297.601	89.25
297.831	79.25
298.062	85.25
298.292	82.25
298.523	100.25
298.753	88.25
298.984	86.25
299.214	85.25
299.445	92.25
299.675	94.25
299.905	100.25
300.136	73.25
300.366	84.25
300.597	91.25
300.827	88.25
301.057	84.25
301.288	90.25
301.518	88.25
301.748	90.25
301.979	98.25
302.209	85.25
302.439	92.25
302.669	88.25
302.9	84.25
303.13	94.25
303.36	78.25
303.59	90.25
303.82	87.25
304.051	70.25
304.281	85.25
304.511	88.25
304.741	81.25
304.971	85.25
305.201	81.25
305.431	85.25
305.661	87.25
305.891	96.25
306.121	82.25
306.352	83.25
306.582	85.25
306.812	88.25
307.042	88.25
307.272	71.25
307.502	97.25
307.731	87.25
307.961	86.25
308.191	97.25
308.421	88.25
308.651	74.25
308.881	83.25
309.111	89.25
309.341	83.25
309.571	109.25
309.8	93.25
310.03	80.25
310.26	84.25
310.49	68.25
310.72	84.25
310.949	93.25
311.179	96.25
311.409	82.25
311.639	71.25
311.868	81.25
312.098	74.25
312.328	84.25
312.557	85.25
312.787	89.25
313.017	83.25
313.246	94.25
313.476	92.25
313.706	88.25
313.935	88.25
314.165	90.25
314.394	85.25
314.624	88.25
314.853	90.25
315.083	83.25
315.312	81.25
315.542	92.25
315.771	83.25
316.001	67.25
316.23	87.25
316.46	81.25
316.689	91.25
316.919	81.25
317.148	82.25
317.377	86.25
317.607	94.25
317.836	93.25
318.065	88.25
318.295	85.25
318.524	81.25
318.753	84.25
318.983	94.25
319.212	83.25
319.441	80.25
319.67	94.25
319.9	92.25
320.129	82.25
320.358	84.25
320.587	96.25
320.816	103.25
321.046	89.25
321.275	92.25
321.504	97.25
321.733	88.25
321.962	88.25
322.191	86.25
322.42	83.25
322.649	63.25
322.878	85.25
323.108	80.25
323.337	92.25
323.566	92.25
323.795	93.25
324.024	82.25
324.253	82.25
324.482	90.25
324.71	100.25
324.939	94.25
325.168	94.25
325.397	89.25
325.626	98.25
325.855	83.25
326.084	92.25
326.313	91.25
326.542	86.25
326.77	83.25
326.999	77.25
327.228	88.25
327.457	83.25
327.686	74.25
327.914	88.25
328.143	75.25
328.372	83.25
328.6	89.25
328.829	73.25
329.058	85.25
329.287	82.25
329.515	71.25
329.744	73.25
329.972	84.25
330.201	92.25
330.43	89.25
330.658	80.25
330.887	87.25
331.115	72.25
331.344	92.25
331.572	93.25
331.801	100.25
332.03	99.25
332.258	93.25
332.486	90.25
332.715	93.25
332.943	84.25
333.172	72.25
333.4	99.25
333.629	86.25
333.857	86.25
334.085	102.25
334.314	101.25
334.542	77.25
334.771	105.25
334.999	98.25
335.227	87.25
335.455	94.25
335.684	94.25
335.912	87.25
336.14	97.25
336.369	98.25
336.597	86.25
336.825	84.25
337.053	82.25
337.281	92.25
337.51	87.25
337.738	86.25
337.966	83.25
338.194	90.25
338.422	82.25
338.65	75.25
338.878	96.25
339.106	90.25
339.334	73.25
339.562	82.25
339.79	85.25
340.018	90.25
340.246	86.25
340.474	98.25
340.702	81.25
340.93	89.25
341.158	75.25
341.386	86.25
341.614	87.25
341.842	83.25
342.07	80.25
342.298	79.25
342.526	82.25
342.754	70.25
342.981	93.25
343.209	82.25
343.437	99.25
343.665	89.25
343.893	93.25
344.12	92.25
344.348	103.25
344.576	103.25
344.804	87.25
345.031	81.25
345.259	93.25
345.487	85.25
345.714	79.25
345.942	93.25
346.17	78.25
346.397	91.25
346.625	95.25
346.853	94.25
347.08	73.25
347.308	80.25
347.535	78.25
347.763	83.25
347.99	79.25
348.218	85.25
348.445	85.25
348.673	69.25
348.9	68.25
349.128	92.25
349.355	78.25
349.583	80.25
349.81	77.25
350.037	89.25
350.265	88.25
350.492	77.25
350.72	85.25
350.947	78.25
351.174	82.25
351.402	73.25
351.629	89.25
351.856	78.25
352.083	82.25
352.311	84.25
352.538	93.25
352.765	88.25
352.992	95.25
353.22	88.25
353.447	86.25
353.674	77.25
353.901	96.25
354.128	87.25
354.355	88.25
354.583	84.25
354.81	98.25
355.037	93.25
355.264	89.25
355.491	82.25
355.718	88.25
355.945	95.25
356.172	90.25
356.399	93.25
356.626	99.25
356.853	94.25
357.08	84.25
357.307	87.25
357.534	81.25
357.761	92.25
357.988	99.25
358.215	96.25
358.441	98.25
358.668	82.25
358.895	86.25
359.122	91.25
359.349	102.25
359.576	93.25
359.802	85.25
360.029	90.25
360.256	90.25
360.483	105.25
360.709	90.25
360.936	86.25
361.163	79.25
361.39	87.25
361.616	94.25
361.843	88.25
362.07	110.25
362.296	96.25
362.523	95.25
362.749	105.25
362.976	125.25
363.203	121.25
363.429	93.25
363.656	94.25
363.882	106.25
364.109	120.25
364.335	118.25
364.562	123.25
364.788	112.25
365.015	99.25
365.241	84.25
365.468	92.25
365.694	91.25
365.92	97.25
366.147	75.25
366.373	65.25
366.599	80.25
366.826	81.25
367.052	101.25
367.278	86.25
367.505	90.25
367.731	77.25
367.957	105.25
368.184	95.25
368.41	75.25
368.636	85.25
368.862	90.25
369.089	104.25
369.315	96.25
369.541	76.25
369.767	81.25
369.993	83.25
370.219	85.25
370.445	101.25
370.672	94.25
370.898	95.25
371.124	90.25
371.35	80.25
371.576	94.25
371.802	89.25
372.028	93.25
372.254	93.25
372.48	99.25
372.706	81.25
372.932	81.25
373.158	91.25
373.384	103.25
373.61	111.25
373.835	102.25
374.061	112.25
374.287	80.25
374.513	93.25
374.739	98.25
374.965	88.25
375.191	94.25
375.416	78.25
375.642	82.25
375.868	96.25
376.094	96.25
376.319	87.25
376.545	108.25
376.771	84.25
376.997	94.25
377.222	72.25
377.448	74.25
377.674	85.25
377.899	84.25
378.125	78.25
378.35	93.25
378.576	92.25
378.802	90.25
379.027	92.25
379.253	81.25
379.478	86.25
379.704	78.25
379.929	96.25
380.155	84.25
380.38	89.25
380.606	96.25
380.831	74.25
381.057	75.25
381.282	84.25
381.507	101.25
381.733	98.25
381.958	90.25
382.184	85.25
382.409	100.25
382.634	106.25
382.86	94.25
383.085	96.25
383.31	94.25
383.535	105.25
383.761	89.25
383.986	97.25
384.211	95.25
384.436	85.25
384.662	89.25
384.887	93.25
385.112	96.25
385.337	92.25
385.562	80.25
385.787	88.25
386.013	93.25
386.238	92.25
386.463	89.25
386.688	106.25
386.913	95.25
387.138	93.25
387.363	97.25
387.588	108.25
387.813	92.25
388.038	95.25
388.263	93.25
388.488	95.25
388.713	103.25
388.938	95.25
389.163	101.25
389.387	88.25
389.612	105.25
389.837	103.25
390.062	85.25
390.287	102.25
390.512	86.25
390.736	96.25
390.961	87.25
391.186	102.25
391.411	84.25
391.636	97.25
391.86	84.25
392.085	97.25
392.31	106.25
392.534	103.25
392.759	127.25
392.984	146.25
393.208	194.25
393.433	267.25
393.658	214.25
393.882	120.25
394.107	109.25
394.331	104.25
394.556	107.25
394.78	108.25
395.005	101.25
395.229	92.25
395.454	109.25
395.678	103.25
395.903	118.25
396.127	122.25
396.352	137.25
396.576	152.25
396.801	210.25
397.025	233.25
397.249	159.25
397.474	120.25
397.698	102.25
397.922	98.25
398.147	96.25
398.371	101.25
398.595	86.25
398.82	86.25
399.044	78.25
399.268	85.25
399.492	92.25
399.717	96.25
399.941	91.25
400.165	80.25
400.389	71.25
400.613	89.25
400.837	84.25
401.062	96.25
401.286	83.25
401.51	80.25
401.734	88.25
401.958	95.25
402.182	95.25
402.406	91.25
402.63	81.25
402.854	74.25
403.078	81.25
403.302	84.25
403.526	95.25
403.75	84.25
403.974	96.25
404.198	94.25
404.422	102.25
404.645	101.25
404.869	112.25
405.093	96.25
405.317	78.25
405.541	81.25
405.765	82.25
405.988	91.25
406.212	96.25
406.436	80.25
406.66	85.25
406.883	85.25
407.107	85.25
407.331	74.25
407.555	88.25
407.778	106.25
408.002	111.25
408.226	92.25
408.449	88.25
408.673	91.25
408.896	99.25
409.12	88.25
409.344	102.25
409.567	104.25
409.791	102.25
410.014	103.25
410.238	108.25
410.461	92.25
410.685	86.25
410.908	97.25
411.132	89.25
411.355	92.25
411.578	91.25
411.802	92.25
412.025	87.25
412.249	96.25
412.472	91.25
412.695	97.25
412.919	81.25
413.142	94.25
413.365	88.25
413.589	85.25
413.812	100.25
414.035	93.25
414.258	80.25
414.482	87.25
414.705	84.25
414.928	95.25
415.151	100.25
415.374	89.25
415.597	86.25
415.821	88.25
416.044	80.25
416.267	74.25
416.49	75.25
416.713	96.25
416.936	78.25
417.159	98.25
417.382	78.25
417.605	68.25
417.828	81.25
418.051	94.25
418.274	84.25
418.497	86.25
418.72	96.25
418.943	101.25
419.166	94.25
419.389	92.25
419.611	101.25
419.834	107.25
420.057	98.25
420.28	85.25
420.503	95.25
420.726	89.25
420.948	98.25
421.171	94.25
421.394	92.25
421.617	129.25
421.839	121.25
422.062	128.25
422.285	161.25
422.507	229.25
422.73	271.25
422.953	264.25
423.175	198.25
423.398	150.25
423.621	104.25
423.843	102.25
424.066	113.25
424.288	94.25
424.511	94.25
424.733	80.25
424.956	84.25
425.178	84.25
425.401	73.25
425.623	83.25
425.846	90.25
426.068	86.25
426.291	91.25
426.513	77.25
426.735	76.25
426.958	91.25
427.18	109.25
427.402	84.25
427.625	88.25
427.847	67.25
428.069	97.25
428.292	116.25
428.514	134.25
428.736	124.25
428.958	110.25
429.181	124.25
429.403	98.25
429.625	106.25
429.847	127.25
430.069	151.25
430.292	181.25
430.514	158.25
430.736	118.25
430.958	112.25
431.18	91.25
431.402	83.25
431.624	99.25
431.846	101.25
432.068	131.25
432.29	101.25
432.512	93.25
432.734	93.25
432.956	80.25
433.178	96.25
433.4	92.25
433.622	86.25
433.844	78.25
434.066	74.25
434.287	84.25
434.509	81.25
434.731	75.25
434.953	71.25
435.175	99.25
435.397	80.25
435.618	84.25
435.84	102.25
436.062	80.25
436.284	88.25
436.505	84.25
436.727	92.25
436.949	72.25
437.17	74.25
437.392	85.25
437.614	84.25
437.835	84.25
438.057	86.25
438.278	92.25
438.5	84.25
438.721	106.25
438.943	100.25
439.165	76.25
439.386	86.25
439.608	85.25
439.829	76.25
440.05	80.25
440.272	84.25
440.493	88.25
440.715	84.25
440.936	81.25
441.158	75.25
441.379	82.25
441.6	88.25
441.822	80.25
442.043	84.25
442.264	100.25
442.486	129.25
442.707	164.25
442.928	114.25
443.149	109.25
443.371	151.25
443.592	226.25
443.813	204.25
444.034	111.25
444.255	97.25
444.476	97.25
444.698	96.25
444.919	90.25
445.14	165.25
445.361	192.25
445.582	262.25
445.803	232.25
446.024	128.25
446.245	97.25
446.466	89.25
446.687	85.25
446.908	99.25
447.129	66.25
447.35	95.25
447.571	75.25
447.792	87.25
448.013	68.25
448.234	87.25
448.455	91.25
448.675	86.25
448.896	92.25
449.117	75.25
449.338	84.25
449.559	74.25
449.779	84.25
450	82.25
450.221	99.25
450.442	92.25
450.662	82.25
450.883	89.25
451.104	87.25
451.324	80.25
451.545	80.25
451.766	89.25
451.986	78.25
452.207	81.25
452.428	100.25
452.648	106.25
452.869	116.25
453.089	102.25
453.31	85.25
453.53	105.25
453.751	103.25
453.971	99.25
454.192	85.25
454.412	81.25
454.633	81.25
454.853	77.25
455.073	97.25
455.294	79.25
455.514	96.25
455.734	98.25
455.955	79.25
456.175	71.25
456.395	84.25
456.616	77.25
456.836	83.25
457.056	78.25
457.276	80.25
457.497	98.25
457.717	90.25
457.937	92.25
458.157	110.25
458.377	124.25
458.598	119.25
458.818	128.25
459.038	105.25
459.258	84.25
459.478	87.25
459.698	89.25
459.918	77.25
460.138	77.25
460.358	84.25
460.578	93.25
460.798	124.25
461.018	112.25
461.238	92.25
461.458	81.25
461.678	87.25
461.898	75.25
462.118	71.25
462.338	87.25
462.558	94.25
462.777	98.25
462.997	81.25
463.217	88.25
463.437	82.25
463.657	88.25
463.876	83.25
464.096	74.25
464.316	79.25
464.536	87.25
464.755	81.25
464.975	86.25
465.195	84.25
465.414	84.25
465.634	95.25
465.854	75.25
466.073	89.25
466.293	84.25
466.512	65.25
466.732	80.25
466.951	86.25
467.171	93.25
467.391	80.25
467.61	90.25
467.829	87.25
468.049	95.25
468.268	102.25
468.488	93.25
468.707	92.25
468.927	96.25
469.146	78.25
469.365	92.25
469.585	75.25
469.804	74.25
470.023	89.25
470.243	95.25
470.462	80.25
470.681	99.25
470.901	82.25
471.12	91.25
471.339	94.25
471.558	75.25
471.777	77.25
471.997	96.25
472.216	86.25
472.435	73.25
472.654	81.25
472.873	95.25
473.092	89.25
473.311	88.25
473.53	101.25
473.749	88.25
473.968	99.25
474.187	89.25
474.406	79.25
474.625	84.25
474.844	98.25
475.063	80.25
475.282	82.25
475.501	84.25
475.72	87.25
475.939	85.25
476.158	81.25
476.377	81.25
476.596	92.25
476.814	85.25
477.033	89.25
477.252	90.25
477.471	84.25
477.69	88.25
477.908	94.25
478.127	96.25
478.346	82.25
478.564	90.25
478.783	83.25
479.002	92.25
479.22	79.25
479.439	97.25
479.658	71.25
479.876	94.25
480.095	93.25
480.313	82.25
480.532	84.25
480.751	87.25
480.969	90.25
481.188	88.25
481.406	91.25
481.624	82.25
481.843	64.25
482.061	89.25
482.28	79.25
482.498	84.25
482.717	87.25
482.935	86.25
483.153	74.25
483.372	97.25
483.59	90.25
483.808	86.25
484.027	82.25
484.245	97.25
484.463	81.25
484.681	93.25
484.9	88.25
485.118	94.25
485.336	86.25
485.554	77.25
485.772	72.25
485.99	92.25
486.209	86.25
486.427	86.25
486.645	80.25
486.863	93.25
487.081	89.25
487.299	90.25
487.517	106.25
487.735	120.25
487.953	184.25
488.171	166.25
488.389	110.25
488.607	93.25
488.825	75.25
489.043	93.25
489.261	118.25
489.479	92.25
489.696	67.25
489.914	93.25
490.132	90.25
490.35	96.25
490.568	92.25
490.786	106.25
491.003	87.25
491.221	88.25
491.439	95.25
491.657	94.25
491.874	84.25
492.092	90.25
492.31	78.25
492.527	86.25
492.745	78.25
492.963	92.25
493.18	100.25
493.398	101.25
493.615	115.25
493.833	102.25
494.05	92.25
494.268	86.25
494.485	82.25
494.703	81.25
494.92	78.25
495.138	108.25
495.355	92.25
495.573	99.25
495.79	88.25
496.008	94.25
496.225	96.25
496.442	108.25
496.66	104.25
496.877	98.25
497.094	94.25
497.312	91.25
497.529	94.25
497.746	99.25
497.963	92.25
498.181	102.25
498.398	91.25
498.615	91.25
498.832	78.25
499.049	92.25
499.267	108.25
499.484	93.25
499.701	96.25
499.918	79.25
500.135	84.25
500.352	99.25
500.569	104.25
500.786	105.25
501.003	94.25
501.22	101.25
501.437	88.25
501.654	96.25
501.871	100.25
502.088	91.25
502.305	105.25
502.522	94.25
502.739	94.25
502.956	78.25
503.172	95.25
503.389	89.25
503.606	86.25
503.823	97.25
504.04	124.25
504.256	144.25
504.473	142.25
504.69	95.25
504.907	106.25
505.123	82.25
505.34	99.25
505.557	98.25
505.773	78.25
505.99	93.25
506.207	72.25
506.423	86.25
506.64	98.25
506.856	94.25
507.073	91.25
507.289	107.25
507.506	80.25
507.722	82.25
507.939	92.25
508.155	94.25
508.372	95.25
508.588	83.25
508.805	90.25
509.021	87.25
509.238	101.25
509.454	96.25
509.67	94.25
509.887	88.25
510.103	95.25
510.319	77.25
510.536	95.25
510.752	103.25
510.968	87.25
511.184	97.25
511.401	92.25
511.617	96.25
511.833	88.25
512.049	96.25
512.265	105.25
512.481	98.25
512.698	92.25
512.914	101.25
513.13	80.25
513.346	96.25
513.562	85.25
513.778	103.25
513.994	83.25
514.21	84.25
514.426	96.25
514.642	86.25
514.858	80.25
515.074	85.25
515.29	91.25
515.506	94.25
515.721	94.25
515.937	111.25
516.153	84.25
516.369	100.25
516.585	95.25
516.801	91.25
517.016	110.25
517.232	80.25
517.448	97.25
517.664	103.25
