Data from 10100_1_HRD10591_00011.txt Node
Date: Mon Jan 19 14:00:30 EST 2026
User: Yrep
Spectrometer: HR+D1059
Trigger mode: 1
Integration Time (sec): 1.000000E-1
Scans to average: 1
Electric dark correction enabled: true
Nonlinearity correction enabled: false
Boxcar width: 0
XAxis mode: Wavelengths
Number of Pixels in Spectrum: 2048
>>>>>Begin Spectral Data<<<<<
223.165	-18.56
223.4	-18.56
223.635	-18.56
223.869	-14.56
224.104	-18.56
224.338	-24.56
224.573	-14.56
224.808	-15.56
225.042	-2.56
225.277	-5.56
225.511	-0.56
225.746	0.44
225.98	11.44
226.215	5.44
226.449	7.44
226.683	21.44
226.918	28.44
227.152	40.44
227.387	25.44
227.621	36.44
227.856	35.44
228.09	56.44
228.324	42.44
228.559	62.44
228.793	51.44
229.027	60.44
229.262	45.44
229.496	57.44
229.73	75.44
229.964	72.44
230.199	69.44
230.433	62.44
230.667	60.44
230.901	65.44
231.136	74.44
231.37	66.44
231.604	73.44
231.838	78.44
232.072	81.44
232.306	88.44
232.541	85.44
232.775	83.44
233.009	95.44
233.243	78.44
233.477	84.44
233.711	55.44
233.945	77.44
234.179	88.44
234.413	71.44
234.647	80.44
234.881	70.44
235.115	85.44
235.349	74.44
235.583	75.44
235.817	90.44
236.051	76.44
236.285	82.44
236.519	73.44
236.753	84.44
236.987	68.44
237.221	60.44
237.455	72.44
237.689	83.44
237.922	78.44
238.156	84.44
238.39	68.44
238.624	94.44
238.858	77.44
239.091	63.44
239.325	79.44
239.559	85.44
239.793	68.44
240.027	77.44
240.26	59.44
240.494	80.44
240.728	59.44
240.961	70.44
241.195	79.44
241.429	72.44
241.662	84.44
241.896	76.44
242.13	79.44
242.363	67.44
242.597	75.44
242.83	75.44
243.064	78.44
243.298	64.44
243.531	83.44
243.765	72.44
243.998	70.44
244.232	94.44
244.465	79.44
244.699	78.44
244.932	71.44
245.166	78.44
245.399	68.44
245.633	72.44
245.866	54.44
246.099	74.44
246.333	71.44
246.566	72.44
246.8	76.44
247.033	68.44
247.266	58.44
247.5	83.44
247.733	80.44
247.966	86.44
248.2	75.44
248.433	71.44
248.666	74.44
248.899	72.44
249.133	68.44
249.366	91.44
249.599	71.44
249.832	88.44
250.066	76.44
250.299	82.44
250.532	80.44
250.765	71.44
250.998	86.44
251.231	75.44
251.465	79.44
251.698	77.44
251.931	71.44
252.164	79.44
252.397	77.44
252.63	75.44
252.863	71.44
253.096	88.44
253.329	76.44
253.562	85.44
253.795	81.44
254.028	86.44
254.261	79.44
254.494	74.44
254.727	86.44
254.96	74.44
255.193	78.44
255.426	66.44
255.659	76.44
255.892	87.44
256.124	71.44
256.357	82.44
256.59	76.44
256.823	74.44
257.056	83.44
257.289	80.44
257.521	78.44
257.754	82.44
257.987	82.44
258.22	95.44
258.452	70.44
258.685	80.44
258.918	79.44
259.151	83.44
259.383	70.44
259.616	86.44
259.849	65.44
260.081	86.44
260.314	81.44
260.547	79.44
260.779	92.44
261.012	82.44
261.244	75.44
261.477	88.44
261.71	79.44
261.942	75.44
262.175	76.44
262.407	74.44
262.64	73.44
262.872	71.44
263.105	88.44
263.337	75.44
263.57	70.44
263.802	72.44
264.035	70.44
264.267	86.44
264.499	80.44
264.732	93.44
264.964	90.44
265.197	82.44
265.429	70.44
265.661	70.44
265.894	76.44
266.126	72.44
266.358	69.44
266.591	73.44
266.823	80.44
267.055	95.44
267.287	81.44
267.52	72.44
267.752	76.44
267.984	93.44
268.216	76.44
268.448	79.44
268.681	83.44
268.913	71.44
269.145	82.44
269.377	79.44
269.609	72.44
269.841	73.44
270.073	70.44
270.306	95.44
270.538	89.44
270.77	76.44
271.002	80.44
271.234	90.44
271.466	81.44
271.698	66.44
271.93	90.44
272.162	89.44
272.394	99.44
272.626	82.44
272.858	84.44
273.09	77.44
273.322	96.44
273.553	72.44
273.785	72.44
274.017	83.44
274.249	72.44
274.481	81.44
274.713	73.44
274.945	79.44
275.176	81.44
275.408	91.44
275.64	95.44
275.872	88.44
276.104	87.44
276.335	87.44
276.567	76.44
276.799	82.44
277.031	77.44
277.262	89.44
277.494	85.44
277.726	78.44
277.957	79.44
278.189	92.44
278.421	89.44
278.652	85.44
278.884	99.44
279.115	76.44
279.347	79.44
279.579	79.44
279.81	90.44
280.042	80.44
280.273	84.44
280.505	88.44
280.736	100.44
280.968	86.44
281.199	85.44
281.431	78.44
281.662	79.44
281.894	81.44
282.125	80.44
282.356	93.44
282.588	85.44
282.819	82.44
283.051	75.44
283.282	81.44
283.513	72.44
283.745	80.44
283.976	83.44
284.207	76.44
284.439	86.44
284.67	64.44
284.901	69.44
285.132	72.44
285.364	70.44
285.595	90.44
285.826	85.44
286.057	99.44
286.288	80.44
286.52	90.44
286.751	73.44
286.982	83.44
287.213	78.44
287.444	68.44
287.675	66.44
287.906	75.44
288.138	82.44
288.369	73.44
288.6	80.44
288.831	65.44
289.062	74.44
289.293	87.44
289.524	73.44
289.755	70.44
289.986	82.44
290.217	77.44
290.448	90.44
290.679	75.44
290.91	90.44
291.141	76.44
291.371	91.44
291.602	101.44
291.833	94.44
292.064	98.44
292.295	82.44
292.526	87.44
292.757	94.44
292.987	70.44
293.218	86.44
293.449	70.44
293.68	88.44
293.91	86.44
294.141	87.44
294.372	79.44
294.603	71.44
294.833	86.44
295.064	83.44
295.295	76.44
295.525	83.44
295.756	73.44
295.987	78.44
296.217	80.44
296.448	87.44
296.679	84.44
296.909	96.44
297.14	79.44
297.37	95.44
297.601	75.44
297.831	82.44
298.062	104.44
298.292	90.44
298.523	75.44
298.753	86.44
298.984	87.44
299.214	79.44
299.445	86.44
299.675	81.44
299.905	89.44
300.136	87.44
300.366	84.44
300.597	88.44
300.827	92.44
301.057	76.44
301.288	89.44
301.518	87.44
301.748	85.44
301.979	102.44
302.209	88.44
302.439	79.44
302.669	80.44
302.9	83.44
303.13	78.44
303.36	85.44
303.59	97.44
303.82	68.44
304.051	85.44
304.281	82.44
304.511	91.44
304.741	76.44
304.971	80.44
305.201	85.44
305.431	76.44
305.661	72.44
305.891	71.44
306.121	82.44
306.352	76.44
306.582	76.44
306.812	92.44
307.042	88.44
307.272	87.44
307.502	80.44
307.731	84.44
307.961	88.44
308.191	97.44
308.421	90.44
308.651	79.44
308.881	90.44
309.111	98.44
309.341	91.44
309.571	101.44
309.8	71.44
310.03	77.44
310.26	103.44
310.49	84.44
310.72	100.44
310.949	88.44
311.179	78.44
311.409	83.44
311.639	76.44
311.868	85.44
312.098	83.44
312.328	99.44
312.557	80.44
312.787	80.44
313.017	85.44
313.246	90.44
313.476	89.44
313.706	78.44
313.935	96.44
314.165	70.44
314.394	93.44
314.624	74.44
314.853	98.44
315.083	81.44
315.312	112.44
315.542	87.44
315.771	85.44
316.001	95.44
316.23	95.44
316.46	77.44
316.689	90.44
316.919	100.44
317.148	90.44
317.377	100.44
317.607	90.44
317.836	84.44
318.065	96.44
318.295	104.44
318.524	107.44
318.753	102.44
318.983	76.44
319.212	91.44
319.441	91.44
319.67	77.44
319.9	84.44
320.129	86.44
320.358	79.44
320.587	78.44
320.816	69.44
321.046	87.44
321.275	84.44
321.504	86.44
321.733	91.44
321.962	84.44
322.191	109.44
322.42	72.44
322.649	84.44
322.878	94.44
323.108	84.44
323.337	91.44
323.566	77.44
323.795	79.44
324.024	89.44
324.253	85.44
324.482	80.44
324.71	98.44
324.939	88.44
325.168	92.44
325.397	92.44
325.626	95.44
325.855	67.44
326.084	95.44
326.313	77.44
326.542	88.44
326.77	88.44
326.999	77.44
327.228	91.44
327.457	88.44
327.686	89.44
327.914	101.44
328.143	83.44
328.372	86.44
328.6	73.44
328.829	100.44
329.058	85.44
329.287	85.44
329.515	79.44
329.744	77.44
329.972	90.44
330.201	87.44
330.43	90.44
330.658	102.44
330.887	79.44
331.115	85.44
331.344	81.44
331.572	106.44
331.801	68.44
332.03	83.44
332.258	87.44
332.486	96.44
332.715	82.44
332.943	63.44
333.172	80.44
333.4	88.44
333.629	92.44
333.857	93.44
334.085	80.44
334.314	74.44
334.542	93.44
334.771	86.44
334.999	103.44
335.227	93.44
335.455	73.44
335.684	91.44
335.912	102.44
336.14	107.44
336.369	102.44
336.597	110.44
336.825	92.44
337.053	78.44
337.281	94.44
337.51	93.44
337.738	92.44
337.966	86.44
338.194	92.44
338.422	87.44
338.65	92.44
338.878	93.44
339.106	102.44
339.334	84.44
339.562	77.44
339.79	68.44
340.018	82.44
340.246	100.44
340.474	87.44
340.702	76.44
340.93	82.44
341.158	92.44
341.386	97.44
341.614	87.44
341.842	82.44
342.07	91.44
342.298	78.44
342.526	90.44
342.754	75.44
342.981	66.44
343.209	86.44
343.437	89.44
343.665	80.44
343.893	98.44
344.12	103.44
344.348	90.44
344.576	82.44
344.804	85.44
345.031	83.44
345.259	86.44
345.487	94.44
345.714	82.44
345.942	86.44
346.17	94.44
346.397	87.44
346.625	82.44
346.853	90.44
347.08	80.44
347.308	90.44
347.535	86.44
347.763	84.44
347.99	82.44
348.218	94.44
348.445	94.44
348.673	85.44
348.9	106.44
349.128	88.44
349.355	83.44
349.583	85.44
349.81	89.44
350.037	89.44
350.265	84.44
350.492	73.44
350.72	82.44
350.947	78.44
351.174	98.44
351.402	82.44
351.629	81.44
351.856	78.44
352.083	85.44
352.311	102.44
352.538	81.44
352.765	84.44
352.992	91.44
353.22	78.44
353.447	93.44
353.674	81.44
353.901	71.44
354.128	72.44
354.355	77.44
354.583	87.44
354.81	91.44
355.037	91.44
355.264	96.44
355.491	104.44
355.718	77.44
355.945	82.44
356.172	81.44
356.399	82.44
356.626	84.44
356.853	83.44
357.08	90.44
357.307	96.44
357.534	92.44
357.761	100.44
357.988	83.44
358.215	106.44
358.441	90.44
358.668	94.44
358.895	88.44
359.122	91.44
359.349	88.44
359.576	89.44
359.802	90.44
360.029	84.44
360.256	73.44
360.483	94.44
360.709	92.44
360.936	96.44
361.163	101.44
361.39	85.44
361.616	89.44
361.843	86.44
362.07	102.44
362.296	115.44
362.523	110.44
362.749	123.44
362.976	126.44
363.203	134.44
363.429	114.44
363.656	99.44
363.882	91.44
364.109	115.44
364.335	144.44
364.562	156.44
364.788	130.44
365.015	105.44
365.241	92.44
365.468	99.44
365.694	71.44
365.92	78.44
366.147	97.44
366.373	82.44
366.599	96.44
366.826	92.44
367.052	95.44
367.278	87.44
367.505	86.44
367.731	74.44
367.957	78.44
368.184	86.44
368.41	85.44
368.636	110.44
368.862	93.44
369.089	76.44
369.315	70.44
369.541	88.44
369.767	87.44
369.993	87.44
370.219	81.44
370.445	97.44
370.672	94.44
370.898	95.44
371.124	106.44
371.35	90.44
371.576	93.44
371.802	93.44
372.028	92.44
372.254	96.44
372.48	85.44
372.706	95.44
372.932	91.44
373.158	100.44
373.384	102.44
373.61	130.44
373.835	128.44
374.061	105.44
374.287	98.44
374.513	101.44
374.739	90.44
374.965	99.44
375.191	85.44
375.416	85.44
375.642	101.44
375.868	87.44
376.094	99.44
376.319	89.44
376.545	104.44
376.771	103.44
376.997	98.44
377.222	82.44
377.448	100.44
377.674	72.44
377.899	98.44
378.125	79.44
378.35	95.44
378.576	88.44
378.802	87.44
379.027	89.44
379.253	80.44
379.478	94.44
379.704	90.44
379.929	87.44
380.155	94.44
380.38	84.44
380.606	84.44
380.831	85.44
381.057	95.44
381.282	99.44
381.507	85.44
381.733	96.44
381.958	96.44
382.184	99.44
382.409	102.44
382.634	93.44
382.86	113.44
383.085	113.44
383.31	108.44
383.535	107.44
383.761	98.44
383.986	98.44
384.211	99.44
384.436	90.44
384.662	89.44
384.887	92.44
385.112	100.44
385.337	96.44
385.562	86.44
385.787	107.44
386.013	95.44
386.238	108.44
386.463	81.44
386.688	85.44
386.913	108.44
387.138	104.44
387.363	87.44
387.588	115.44
387.813	91.44
388.038	107.44
388.263	108.44
388.488	86.44
388.713	104.44
388.938	91.44
389.163	92.44
389.387	90.44
389.612	82.44
389.837	83.44
390.062	102.44
390.287	86.44
390.512	84.44
390.736	95.44
390.961	90.44
391.186	96.44
391.411	97.44
391.636	79.44
391.86	87.44
392.085	101.44
392.31	106.44
392.534	100.44
392.759	141.44
392.984	202.44
393.208	322.44
393.433	466.44
393.658	376.44
393.882	193.44
394.107	116.44
394.331	138.44
394.556	126.44
394.78	98.44
395.005	106.44
395.229	100.44
395.454	113.44
395.678	119.44
395.903	130.44
396.127	164.44
396.352	190.44
396.576	211.44
396.801	330.44
397.025	381.44
397.249	225.44
397.474	140.44
397.698	119.44
397.922	102.44
398.147	100.44
398.371	96.44
398.595	106.44
398.82	82.44
399.044	78.44
399.268	90.44
399.492	88.44
399.717	102.44
399.941	102.44
400.165	87.44
400.389	83.44
400.613	96.44
400.837	84.44
401.062	90.44
401.286	76.44
401.51	87.44
401.734	86.44
401.958	90.44
402.182	98.44
402.406	89.44
402.63	83.44
402.854	74.44
403.078	100.44
403.302	87.44
403.526	87.44
403.75	81.44
403.974	84.44
404.198	86.44
404.422	102.44
404.645	117.44
404.869	95.44
405.093	79.44
405.317	91.44
405.541	88.44
405.765	85.44
405.988	89.44
406.212	90.44
406.436	98.44
406.66	79.44
406.883	104.44
407.107	97.44
407.331	92.44
407.555	97.44
407.778	129.44
408.002	125.44
408.226	111.44
408.449	85.44
408.673	93.44
408.896	86.44
409.12	96.44
409.344	98.44
409.567	107.44
409.791	114.44
410.014	132.44
410.238	96.44
410.461	90.44
410.685	86.44
410.908	108.44
411.132	95.44
411.355	101.44
411.578	94.44
411.802	104.44
412.025	93.44
412.249	83.44
412.472	99.44
412.695	88.44
412.919	84.44
413.142	79.44
413.365	82.44
413.589	86.44
413.812	87.44
414.035	85.44
414.258	92.44
414.482	86.44
414.705	82.44
414.928	84.44
415.151	81.44
415.374	71.44
415.597	84.44
415.821	77.44
416.044	90.44
416.267	84.44
416.49	68.44
416.713	87.44
416.936	92.44
417.159	92.44
417.382	73.44
417.605	80.44
417.828	97.44
418.051	94.44
418.274	91.44
418.497	76.44
418.72	77.44
418.943	100.44
419.166	107.44
419.389	90.44
419.611	99.44
419.834	80.44
420.057	91.44
420.28	79.44
420.503	84.44
420.726	96.44
420.948	94.44
421.171	109.44
421.394	109.44
421.617	143.44
421.839	147.44
422.062	152.44
422.285	255.44
422.507	396.44
422.73	559.44
422.953	516.44
423.175	314.44
423.398	192.44
423.621	142.44
423.843	123.44
424.066	105.44
424.288	91.44
424.511	97.44
424.733	104.44
424.956	84.44
425.178	97.44
425.401	103.44
425.623	108.44
425.846	83.44
426.068	88.44
426.291	82.44
426.513	81.44
426.735	98.44
426.958	104.44
427.18	95.44
427.402	104.44
427.625	111.44
427.847	98.44
428.069	103.44
428.292	147.44
428.514	168.44
428.736	125.44
428.958	154.44
429.181	165.44
429.403	95.44
429.625	99.44
429.847	133.44
430.069	175.44
430.292	224.44
430.514	216.44
430.736	154.44
430.958	170.44
431.18	112.44
431.402	93.44
431.624	114.44
431.846	154.44
432.068	155.44
432.29	116.44
432.512	97.44
432.734	107.44
432.956	77.44
433.178	88.44
433.4	75.44
433.622	81.44
433.844	103.44
434.066	84.44
434.287	85.44
434.509	99.44
434.731	86.44
434.953	81.44
435.175	83.44
435.397	107.44
435.618	118.44
435.84	108.44
436.062	91.44
436.284	104.44
436.505	86.44
436.727	87.44
436.949	85.44
437.17	94.44
437.392	91.44
437.614	77.44
437.835	89.44
438.057	93.44
438.278	100.44
438.5	104.44
438.721	94.44
438.943	82.44
439.165	102.44
439.386	77.44
439.608	93.44
439.829	94.44
440.05	99.44
440.272	84.44
440.493	81.44
440.715	75.44
440.936	94.44
441.158	95.44
441.379	106.44
441.6	101.44
441.822	90.44
442.043	94.44
442.264	127.44
442.486	164.44
442.707	208.44
442.928	154.44
443.149	140.44
443.371	189.44
443.592	340.44
443.813	281.44
444.034	130.44
444.255	111.44
444.476	93.44
444.698	101.44
444.919	92.44
445.14	195.44
445.361	225.44
445.582	396.44
445.803	342.44
446.024	136.44
446.245	101.44
446.466	89.44
446.687	85.44
446.908	87.44
447.129	80.44
447.35	85.44
447.571	90.44
447.792	81.44
448.013	77.44
448.234	92.44
448.455	93.44
448.675	99.44
448.896	98.44
449.117	87.44
449.338	89.44
449.559	107.44
449.779	73.44
450	87.44
450.221	79.44
450.442	94.44
450.662	81.44
450.883	101.44
451.104	83.44
451.324	77.44
451.545	86.44
451.766	92.44
451.986	85.44
452.207	90.44
452.428	97.44
452.648	103.44
452.869	126.44
453.089	106.44
453.31	108.44
453.53	106.44
453.751	87.44
453.971	76.44
454.192	82.44
454.412	75.44
454.633	81.44
454.853	92.44
455.073	107.44
455.294	86.44
455.514	108.44
455.734	79.44
455.955	79.44
456.175	80.44
456.395	85.44
456.616	92.44
456.836	88.44
457.056	96.44
457.276	81.44
457.497	82.44
457.717	102.44
457.937	124.44
458.157	148.44
458.377	145.44
458.598	150.44
458.818	171.44
459.038	103.44
459.258	95.44
459.478	93.44
459.698	79.44
459.918	87.44
460.138	91.44
460.358	98.44
460.578	103.44
460.798	143.44
461.018	124.44
461.238	116.44
461.458	84.44
461.678	95.44
461.898	85.44
462.118	92.44
462.338	90.44
462.558	102.44
462.777	87.44
462.997	104.44
463.217	82.44
463.437	88.44
463.657	76.44
463.876	81.44
464.096	82.44
464.316	83.44
464.536	95.44
464.755	95.44
464.975	86.44
465.195	74.44
465.414	77.44
465.634	80.44
465.854	79.44
466.073	91.44
466.293	86.44
466.512	86.44
466.732	94.44
466.951	95.44
467.171	75.44
467.391	97.44
467.61	73.44
467.829	100.44
468.049	97.44
468.268	93.44
468.488	97.44
468.707	97.44
468.927	86.44
469.146	90.44
469.365	78.44
469.585	95.44
469.804	79.44
470.023	85.44
470.243	77.44
470.462	88.44
470.681	88.44
470.901	75.44
471.12	99.44
471.339	85.44
471.558	90.44
471.777	92.44
471.997	101.44
472.216	110.44
472.435	84.44
472.654	88.44
472.873	74.44
473.092	93.44
473.311	100.44
473.53	63.44
473.749	99.44
473.968	104.44
474.187	71.44
474.406	97.44
474.625	98.44
474.844	96.44
475.063	87.44
475.282	93.44
475.501	85.44
475.72	97.44
475.939	76.44
476.158	86.44
476.377	88.44
476.596	94.44
476.814	86.44
477.033	96.44
477.252	89.44
477.471	84.44
477.69	76.44
477.908	83.44
478.127	78.44
478.346	90.44
478.564	90.44
478.783	86.44
479.002	86.44
479.22	87.44
479.439	91.44
479.658	102.44
479.876	93.44
480.095	95.44
480.313	86.44
480.532	83.44
480.751	82.44
480.969	106.44
481.188	94.44
481.406	90.44
481.624	102.44
481.843	86.44
482.061	87.44
482.28	91.44
482.498	86.44
482.717	85.44
482.935	94.44
483.153	89.44
483.372	101.44
483.59	103.44
483.808	101.44
484.027	117.44
484.245	113.44
484.463	93.44
484.681	105.44
484.9	102.44
485.118	100.44
485.336	95.44
485.554	87.44
485.772	91.44
485.99	99.44
486.209	97.44
486.427	90.44
486.645	90.44
486.863	97.44
487.081	96.44
487.299	101.44
487.517	125.44
487.735	139.44
487.953	248.44
488.171	200.44
488.389	101.44
488.607	96.44
488.825	108.44
489.043	111.44
489.261	99.44
489.479	106.44
489.696	94.44
489.914	106.44
490.132	106.44
490.35	110.44
490.568	96.44
490.786	84.44
491.003	83.44
491.221	102.44
491.439	84.44
491.657	108.44
491.874	103.44
492.092	94.44
492.31	104.44
492.527	89.44
492.745	96.44
492.963	92.44
493.18	90.44
493.398	93.44
493.615	101.44
493.833	91.44
494.05	81.44
494.268	104.44
494.485	97.44
494.703	107.44
494.92	85.44
495.138	86.44
495.355	91.44
495.573	82.44
495.79	97.44
496.008	94.44
496.225	99.44
496.442	100.44
496.66	108.44
496.877	90.44
497.094	95.44
497.312	76.44
497.529	82.44
497.746	84.44
497.963	98.44
498.181	87.44
498.398	112.44
498.615	95.44
498.832	102.44
499.049	96.44
499.267	104.44
499.484	84.44
499.701	94.44
499.918	98.44
500.135	112.44
500.352	91.44
500.569	92.44
500.786	95.44
501.003	108.44
501.22	93.44
501.437	83.44
501.654	101.44
501.871	86.44
502.088	77.44
502.305	111.44
502.522	99.44
502.739	87.44
502.956	98.44
503.172	110.44
503.389	80.44
503.606	99.44
503.823	109.44
504.04	120.44
504.256	180.44
504.473	170.44
504.69	121.44
504.907	101.44
505.123	97.44
505.34	95.44
505.557	96.44
505.773	91.44
505.99	98.44
506.207	89.44
506.423	101.44
506.64	102.44
506.856	92.44
507.073	88.44
507.289	88.44
507.506	87.44
507.722	90.44
507.939	85.44
508.155	96.44
508.372	94.44
508.588	109.44
508.805	110.44
509.021	92.44
509.238	83.44
509.454	81.44
509.67	79.44
509.887	101.44
510.103	98.44
510.319	91.44
510.536	86.44
510.752	91.44
510.968	86.44
511.184	83.44
511.401	95.44
511.617	83.44
511.833	85.44
512.049	87.44
512.265	87.44
512.481	100.44
512.698	107.44
512.914	97.44
513.13	103.44
513.346	102.44
513.562	110.44
513.778	107.44
513.994	96.44
514.21	97.44
514.426	101.44
514.642	99.44
514.858	90.44
515.074	94.44
515.29	104.44
515.506	104.44
515.721	95.44
515.937	99.44
516.153	85.44
516.369	90.44
