Data from 10100_1_HRD10591_00002.txt Node
Date: Mon Jan 19 14:00:25 EST 2026
User: Yrep
Spectrometer: HR+D1059
Trigger mode: 1
Integration Time (sec): 1.000000E-1
Scans to average: 1
Electric dark correction enabled: true
Nonlinearity correction enabled: false
Boxcar width: 0
XAxis mode: Wavelengths
Number of Pixels in Spectrum: 2048
>>>>>Begin Spectral Data<<<<<
223.165	-20.25
223.4	-20.25
223.635	-20.25
223.869	-13.25
224.104	-26.25
224.338	-25.25
224.573	-13.25
224.808	-5.25
225.042	-16.25
225.277	2.75
225.511	6.75
225.746	-4.25
225.98	2.75
226.215	10.75
226.449	17.75
226.683	15.75
226.918	21.75
227.152	45.75
227.387	19.75
227.621	40.75
227.856	47.75
228.09	37.75
228.324	46.75
228.559	49.75
228.793	71.75
229.027	55.75
229.262	73.75
229.496	63.75
229.73	72.75
229.964	73.75
230.199	71.75
230.433	94.75
230.667	74.75
230.901	85.75
231.136	73.75
231.37	89.75
231.604	82.75
231.838	86.75
232.072	80.75
232.306	82.75
232.541	85.75
232.775	85.75
233.009	70.75
233.243	81.75
233.477	83.75
233.711	74.75
233.945	75.75
234.179	79.75
234.413	75.75
234.647	68.75
234.881	62.75
235.115	64.75
235.349	75.75
235.583	81.75
235.817	63.75
236.051	76.75
236.285	75.75
236.519	78.75
236.753	76.75
236.987	87.75
237.221	77.75
237.455	95.75
237.689	72.75
237.922	69.75
238.156	80.75
238.39	70.75
238.624	78.75
238.858	69.75
239.091	80.75
239.325	80.75
239.559	75.75
239.793	64.75
240.027	78.75
240.26	84.75
240.494	75.75
240.728	79.75
240.961	76.75
241.195	73.75
241.429	65.75
241.662	84.75
241.896	85.75
242.13	71.75
242.363	71.75
242.597	78.75
242.83	57.75
243.064	87.75
243.298	77.75
243.531	65.75
243.765	69.75
243.998	73.75
244.232	79.75
244.465	77.75
244.699	67.75
244.932	68.75
245.166	81.75
245.399	75.75
245.633	86.75
245.866	72.75
246.099	66.75
246.333	71.75
246.566	83.75
246.8	77.75
247.033	72.75
247.266	81.75
247.5	76.75
247.733	71.75
247.966	76.75
248.2	76.75
248.433	81.75
248.666	82.75
248.899	82.75
249.133	78.75
249.366	83.75
249.599	83.75
249.832	85.75
250.066	77.75
250.299	94.75
250.532	70.75
250.765	84.75
250.998	84.75
251.231	89.75
251.465	69.75
251.698	67.75
251.931	76.75
252.164	73.75
252.397	78.75
252.63	73.75
252.863	78.75
253.096	62.75
253.329	75.75
253.562	75.75
253.795	87.75
254.028	86.75
254.261	60.75
254.494	57.75
254.727	77.75
254.96	71.75
255.193	77.75
255.426	87.75
255.659	79.75
255.892	76.75
256.124	83.75
256.357	68.75
256.59	84.75
256.823	74.75
257.056	74.75
257.289	81.75
257.521	77.75
257.754	70.75
257.987	83.75
258.22	95.75
258.452	69.75
258.685	72.75
258.918	70.75
259.151	81.75
259.383	81.75
259.616	71.75
259.849	83.75
260.081	67.75
260.314	74.75
260.547	71.75
260.779	75.75
261.012	82.75
261.244	67.75
261.477	82.75
261.71	62.75
261.942	81.75
262.175	87.75
262.407	82.75
262.64	86.75
262.872	78.75
263.105	87.75
263.337	68.75
263.57	77.75
263.802	79.75
264.035	81.75
264.267	97.75
264.499	77.75
264.732	83.75
264.964	80.75
265.197	87.75
265.429	84.75
265.661	96.75
265.894	74.75
266.126	89.75
266.358	76.75
266.591	70.75
266.823	71.75
267.055	67.75
267.287	73.75
267.52	85.75
267.752	79.75
267.984	75.75
268.216	75.75
268.448	87.75
268.681	84.75
268.913	77.75
269.145	78.75
269.377	74.75
269.609	68.75
269.841	77.75
270.073	79.75
270.306	87.75
270.538	82.75
270.77	92.75
271.002	80.75
271.234	86.75
271.466	58.75
271.698	77.75
271.93	79.75
272.162	75.75
272.394	82.75
272.626	82.75
272.858	75.75
273.09	86.75
273.322	80.75
273.553	80.75
273.785	93.75
274.017	77.75
274.249	96.75
274.481	101.75
274.713	84.75
274.945	79.75
275.176	86.75
275.408	69.75
275.64	88.75
275.872	85.75
276.104	88.75
276.335	82.75
276.567	79.75
276.799	86.75
277.031	91.75
277.262	80.75
277.494	77.75
277.726	82.75
277.957	66.75
278.189	81.75
278.421	94.75
278.652	89.75
278.884	85.75
279.115	85.75
279.347	79.75
279.579	87.75
279.81	84.75
280.042	82.75
280.273	77.75
280.505	79.75
280.736	62.75
280.968	80.75
281.199	79.75
281.431	76.75
281.662	80.75
281.894	79.75
282.125	86.75
282.356	97.75
282.588	84.75
282.819	80.75
283.051	81.75
283.282	79.75
283.513	90.75
283.745	72.75
283.976	72.75
284.207	84.75
284.439	108.75
284.67	91.75
284.901	75.75
285.132	71.75
285.364	73.75
285.595	85.75
285.826	90.75
286.057	77.75
286.288	84.75
286.52	91.75
286.751	77.75
286.982	90.75
287.213	81.75
287.444	94.75
287.675	78.75
287.906	78.75
288.138	86.75
288.369	95.75
288.6	88.75
288.831	77.75
289.062	70.75
289.293	79.75
289.524	82.75
289.755	85.75
289.986	69.75
290.217	70.75
290.448	88.75
290.679	77.75
290.91	93.75
291.141	87.75
291.371	80.75
291.602	87.75
291.833	80.75
292.064	81.75
292.295	82.75
292.526	81.75
292.757	81.75
292.987	78.75
293.218	86.75
293.449	82.75
293.68	72.75
293.91	82.75
294.141	75.75
294.372	78.75
294.603	83.75
294.833	72.75
295.064	95.75
295.295	78.75
295.525	90.75
295.756	82.75
295.987	93.75
296.217	88.75
296.448	81.75
296.679	81.75
296.909	87.75
297.14	74.75
297.37	84.75
297.601	78.75
297.831	97.75
298.062	95.75
298.292	91.75
298.523	86.75
298.753	74.75
298.984	84.75
299.214	92.75
299.445	75.75
299.675	86.75
299.905	85.75
300.136	76.75
300.366	82.75
300.597	94.75
300.827	100.75
301.057	96.75
301.288	84.75
301.518	80.75
301.748	81.75
301.979	101.75
302.209	101.75
302.439	81.75
302.669	80.75
302.9	89.75
303.13	92.75
303.36	78.75
303.59	90.75
303.82	87.75
304.051	82.75
304.281	91.75
304.511	82.75
304.741	77.75
304.971	78.75
305.201	79.75
305.431	74.75
305.661	89.75
305.891	77.75
306.121	91.75
306.352	81.75
306.582	83.75
306.812	83.75
307.042	90.75
307.272	81.75
307.502	72.75
307.731	88.75
307.961	68.75
308.191	87.75
308.421	83.75
308.651	92.75
308.881	82.75
309.111	88.75
309.341	85.75
309.571	82.75
309.8	78.75
310.03	89.75
310.26	91.75
310.49	85.75
310.72	66.75
310.949	65.75
311.179	75.75
311.409	76.75
311.639	78.75
311.868	91.75
312.098	80.75
312.328	70.75
312.557	81.75
312.787	79.75
313.017	82.75
313.246	102.75
313.476	71.75
313.706	74.75
313.935	81.75
314.165	71.75
314.394	77.75
314.624	81.75
314.853	81.75
315.083	78.75
315.312	86.75
315.542	95.75
315.771	100.75
316.001	95.75
316.23	79.75
316.46	82.75
316.689	93.75
316.919	86.75
317.148	79.75
317.377	93.75
317.607	81.75
317.836	78.75
318.065	93.75
318.295	85.75
318.524	91.75
318.753	76.75
318.983	81.75
319.212	88.75
319.441	69.75
319.67	93.75
319.9	80.75
320.129	79.75
320.358	93.75
320.587	98.75
320.816	71.75
321.046	84.75
321.275	90.75
321.504	91.75
321.733	76.75
321.962	71.75
322.191	80.75
322.42	91.75
322.649	72.75
322.878	80.75
323.108	82.75
323.337	89.75
323.566	86.75
323.795	81.75
324.024	79.75
324.253	87.75
324.482	78.75
324.71	76.75
324.939	97.75
325.168	79.75
325.397	79.75
325.626	85.75
325.855	66.75
326.084	79.75
326.313	76.75
326.542	77.75
326.77	72.75
326.999	95.75
327.228	84.75
327.457	89.75
327.686	78.75
327.914	82.75
328.143	89.75
328.372	81.75
328.6	75.75
328.829	82.75
329.058	96.75
329.287	88.75
329.515	88.75
329.744	97.75
329.972	78.75
330.201	89.75
330.43	84.75
330.658	65.75
330.887	86.75
331.115	79.75
331.344	82.75
331.572	101.75
331.801	76.75
332.03	93.75
332.258	87.75
332.486	80.75
332.715	77.75
332.943	92.75
333.172	91.75
333.4	85.75
333.629	78.75
333.857	93.75
334.085	82.75
334.314	105.75
334.542	91.75
334.771	90.75
334.999	110.75
335.227	119.75
335.455	96.75
335.684	99.75
335.912	97.75
336.14	113.75
336.369	95.75
336.597	103.75
336.825	90.75
337.053	94.75
337.281	79.75
337.51	95.75
337.738	98.75
337.966	84.75
338.194	85.75
338.422	89.75
338.65	94.75
338.878	81.75
339.106	87.75
339.334	93.75
339.562	87.75
339.79	91.75
340.018	86.75
340.246	90.75
340.474	89.75
340.702	78.75
340.93	81.75
341.158	92.75
341.386	78.75
341.614	71.75
341.842	60.75
342.07	79.75
342.298	81.75
342.526	82.75
342.754	83.75
342.981	86.75
343.209	87.75
343.437	102.75
343.665	95.75
343.893	107.75
344.12	91.75
344.348	85.75
344.576	77.75
344.804	75.75
345.031	80.75
345.259	87.75
345.487	87.75
345.714	94.75
345.942	82.75
346.17	81.75
346.397	84.75
346.625	77.75
346.853	81.75
347.08	75.75
347.308	82.75
347.535	90.75
347.763	84.75
347.99	100.75
348.218	91.75
348.445	95.75
348.673	92.75
348.9	74.75
349.128	81.75
349.355	63.75
349.583	87.75
349.81	92.75
350.037	104.75
350.265	74.75
350.492	82.75
350.72	76.75
350.947	77.75
351.174	82.75
351.402	69.75
351.629	81.75
351.856	83.75
352.083	92.75
352.311	87.75
352.538	81.75
352.765	92.75
352.992	76.75
353.22	90.75
353.447	85.75
353.674	69.75
353.901	77.75
354.128	86.75
354.355	91.75
354.583	78.75
354.81	86.75
355.037	100.75
355.264	94.75
355.491	86.75
355.718	82.75
355.945	81.75
356.172	95.75
356.399	93.75
356.626	93.75
356.853	92.75
357.08	97.75
357.307	91.75
357.534	83.75
357.761	93.75
357.988	97.75
358.215	102.75
358.441	77.75
358.668	69.75
358.895	90.75
359.122	85.75
359.349	83.75
359.576	76.75
359.802	69.75
360.029	77.75
360.256	98.75
360.483	89.75
360.709	92.75
360.936	89.75
361.163	78.75
361.39	94.75
361.616	86.75
361.843	108.75
362.07	114.75
362.296	108.75
362.523	117.75
362.749	126.75
362.976	137.75
363.203	135.75
363.429	106.75
363.656	96.75
363.882	95.75
364.109	123.75
364.335	144.75
364.562	161.75
364.788	119.75
365.015	83.75
365.241	85.75
365.468	92.75
365.694	98.75
365.92	93.75
366.147	81.75
366.373	93.75
366.599	92.75
366.826	82.75
367.052	89.75
367.278	87.75
367.505	86.75
367.731	99.75
367.957	98.75
368.184	97.75
368.41	89.75
368.636	87.75
368.862	90.75
369.089	89.75
369.315	87.75
369.541	90.75
369.767	83.75
369.993	98.75
370.219	74.75
370.445	98.75
370.672	83.75
370.898	76.75
371.124	83.75
371.35	94.75
371.576	101.75
371.802	89.75
372.028	87.75
372.254	91.75
372.48	79.75
372.706	94.75
372.932	98.75
373.158	92.75
373.384	113.75
373.61	111.75
373.835	126.75
374.061	110.75
374.287	99.75
374.513	100.75
374.739	104.75
374.965	107.75
375.191	86.75
375.416	100.75
375.642	87.75
375.868	99.75
376.094	97.75
376.319	95.75
376.545	85.75
376.771	80.75
376.997	83.75
377.222	90.75
377.448	88.75
377.674	95.75
377.899	70.75
378.125	83.75
378.35	85.75
378.576	75.75
378.802	78.75
379.027	93.75
379.253	76.75
379.478	89.75
379.704	80.75
379.929	79.75
380.155	102.75
380.38	88.75
380.606	83.75
380.831	91.75
381.057	95.75
381.282	101.75
381.507	85.75
381.733	107.75
381.958	100.75
382.184	92.75
382.409	97.75
382.634	115.75
382.86	91.75
383.085	100.75
383.31	94.75
383.535	101.75
383.761	89.75
383.986	84.75
384.211	98.75
384.436	82.75
384.662	86.75
384.887	91.75
385.112	74.75
385.337	97.75
385.562	91.75
385.787	103.75
386.013	97.75
386.238	91.75
386.463	88.75
386.688	95.75
386.913	89.75
387.138	107.75
387.363	100.75
387.588	113.75
387.813	94.75
388.038	109.75
388.263	94.75
388.488	97.75
388.713	105.75
388.938	91.75
389.163	69.75
389.387	81.75
389.612	90.75
389.837	89.75
390.062	89.75
390.287	91.75
390.512	93.75
390.736	85.75
390.961	90.75
391.186	97.75
391.411	100.75
391.636	83.75
391.86	97.75
392.085	107.75
392.31	95.75
392.534	116.75
392.759	130.75
392.984	179.75
393.208	289.75
393.433	388.75
393.658	313.75
393.882	167.75
394.107	113.75
394.331	120.75
394.556	151.75
394.78	110.75
395.005	108.75
395.229	99.75
395.454	99.75
395.678	121.75
395.903	139.75
396.127	145.75
396.352	161.75
396.576	195.75
396.801	281.75
397.025	308.75
397.249	205.75
397.474	136.75
397.698	114.75
397.922	93.75
398.147	89.75
398.371	93.75
398.595	86.75
398.82	79.75
399.044	92.75
399.268	81.75
399.492	83.75
399.717	80.75
399.941	89.75
400.165	102.75
400.389	93.75
400.613	83.75
400.837	82.75
401.062	85.75
401.286	81.75
401.51	83.75
401.734	87.75
401.958	86.75
402.182	75.75
402.406	78.75
402.63	98.75
402.854	89.75
403.078	90.75
403.302	93.75
403.526	83.75
403.75	84.75
403.974	94.75
404.198	87.75
404.422	92.75
404.645	110.75
404.869	90.75
405.093	79.75
405.317	95.75
405.541	93.75
405.765	93.75
405.988	78.75
406.212	93.75
406.436	91.75
406.66	88.75
406.883	93.75
407.107	94.75
407.331	87.75
407.555	85.75
407.778	110.75
408.002	111.75
408.226	100.75
408.449	95.75
408.673	78.75
408.896	91.75
409.12	86.75
409.344	98.75
409.567	113.75
409.791	132.75
410.014	124.75
410.238	123.75
410.461	86.75
410.685	84.75
410.908	87.75
411.132	79.75
411.355	80.75
411.578	78.75
411.802	89.75
412.025	90.75
412.249	77.75
412.472	80.75
412.695	92.75
412.919	86.75
413.142	83.75
413.365	89.75
413.589	91.75
413.812	91.75
414.035	90.75
414.258	84.75
414.482	89.75
414.705	92.75
414.928	89.75
415.151	87.75
415.374	92.75
415.597	80.75
415.821	100.75
416.044	86.75
416.267	75.75
416.49	71.75
416.713	89.75
416.936	83.75
417.159	95.75
417.382	85.75
417.605	87.75
417.828	93.75
418.051	78.75
418.274	85.75
418.497	74.75
418.72	66.75
418.943	81.75
419.166	95.75
419.389	101.75
419.611	97.75
419.834	94.75
420.057	87.75
420.28	89.75
420.503	100.75
420.726	93.75
420.948	102.75
421.171	113.75
421.394	124.75
421.617	146.75
421.839	140.75
422.062	162.75
422.285	224.75
422.507	358.75
422.73	443.75
422.953	439.75
423.175	267.75
423.398	181.75
423.621	146.75
423.843	130.75
424.066	114.75
424.288	98.75
424.511	103.75
424.733	101.75
424.956	98.75
425.178	89.75
425.401	84.75
425.623	84.75
425.846	91.75
426.068	85.75
426.291	83.75
426.513	89.75
426.735	87.75
426.958	86.75
427.18	93.75
427.402	95.75
427.625	94.75
427.847	89.75
428.069	113.75
428.292	146.75
428.514	153.75
428.736	131.75
428.958	131.75
429.181	148.75
429.403	120.75
429.625	110.75
429.847	146.75
430.069	200.75
430.292	205.75
430.514	196.75
430.736	132.75
430.958	174.75
431.18	112.75
431.402	105.75
431.624	99.75
431.846	146.75
432.068	154.75
432.29	95.75
432.512	86.75
432.734	77.75
432.956	78.75
433.178	91.75
433.4	94.75
433.622	89.75
433.844	90.75
434.066	95.75
434.287	91.75
434.509	84.75
434.731	53.75
434.953	78.75
435.175	85.75
435.397	120.75
435.618	109.75
435.84	95.75
436.062	92.75
436.284	81.75
436.505	90.75
436.727	81.75
436.949	86.75
437.17	84.75
437.392	89.75
437.614	91.75
437.835	97.75
438.057	94.75
438.278	72.75
438.5	100.75
438.721	73.75
438.943	101.75
439.165	80.75
439.386	91.75
439.608	105.75
439.829	89.75
440.05	94.75
440.272	91.75
440.493	76.75
440.715	75.75
440.936	94.75
441.158	98.75
441.379	84.75
441.6	90.75
441.822	96.75
442.043	84.75
442.264	95.75
442.486	164.75
442.707	218.75
442.928	157.75
443.149	118.75
443.371	192.75
443.592	320.75
443.813	282.75
444.034	116.75
444.255	99.75
444.476	91.75
444.698	91.75
444.919	101.75
445.14	191.75
445.361	252.75
445.582	372.75
445.803	347.75
446.024	155.75
446.245	107.75
446.466	98.75
446.687	78.75
446.908	82.75
447.129	78.75
447.35	94.75
447.571	75.75
447.792	81.75
448.013	71.75
448.234	85.75
448.455	98.75
448.675	78.75
448.896	82.75
449.117	71.75
449.338	69.75
449.559	82.75
449.779	90.75
450	69.75
450.221	81.75
450.442	82.75
450.662	81.75
450.883	83.75
451.104	93.75
451.324	91.75
451.545	91.75
451.766	71.75
451.986	66.75
452.207	93.75
452.428	89.75
452.648	97.75
452.869	131.75
453.089	99.75
453.31	91.75
453.53	86.75
453.751	90.75
453.971	81.75
454.192	86.75
454.412	102.75
454.633	85.75
454.853	99.75
455.073	90.75
455.294	79.75
455.514	97.75
455.734	81.75
455.955	68.75
456.175	77.75
456.395	81.75
456.616	91.75
456.836	86.75
457.056	81.75
457.276	78.75
457.497	86.75
457.717	102.75
457.937	117.75
458.157	156.75
458.377	163.75
458.598	147.75
458.818	181.75
459.038	97.75
459.258	91.75
459.478	92.75
459.698	74.75
459.918	86.75
460.138	97.75
460.358	77.75
460.578	85.75
460.798	131.75
461.018	110.75
461.238	97.75
461.458	85.75
461.678	74.75
461.898	71.75
462.118	75.75
462.338	77.75
462.558	82.75
462.777	83.75
462.997	93.75
463.217	83.75
463.437	77.75
463.657	75.75
463.876	94.75
464.096	93.75
464.316	74.75
464.536	75.75
464.755	89.75
464.975	96.75
465.195	83.75
465.414	86.75
465.634	78.75
465.854	95.75
466.073	89.75
466.293	90.75
466.512	86.75
466.732	84.75
466.951	87.75
467.171	85.75
467.391	94.75
467.61	82.75
467.829	85.75
468.049	95.75
468.268	83.75
468.488	92.75
468.707	89.75
468.927	84.75
469.146	89.75
469.365	77.75
469.585	94.75
469.804	92.75
470.023	89.75
470.243	80.75
470.462	68.75
470.681	82.75
470.901	79.75
471.12	90.75
471.339	92.75
471.558	78.75
471.777	92.75
471.997	74.75
472.216	83.75
472.435	90.75
472.654	76.75
472.873	89.75
473.092	83.75
473.311	87.75
473.53	81.75
473.749	84.75
473.968	100.75
474.187	86.75
474.406	93.75
474.625	89.75
474.844	87.75
475.063	79.75
475.282	90.75
475.501	87.75
475.72	78.75
475.939	93.75
476.158	89.75
476.377	85.75
476.596	92.75
476.814	95.75
477.033	95.75
477.252	92.75
477.471	83.75
477.69	81.75
477.908	96.75
478.127	85.75
478.346	90.75
478.564	89.75
478.783	83.75
479.002	106.75
479.22	98.75
479.439	78.75
479.658	87.75
479.876	88.75
480.095	77.75
480.313	85.75
480.532	86.75
480.751	94.75
480.969	84.75
481.188	90.75
481.406	93.75
481.624	89.75
481.843	105.75
482.061	89.75
482.28	87.75
482.498	91.75
482.717	96.75
482.935	88.75
483.153	87.75
483.372	91.75
483.59	83.75
483.808	89.75
484.027	82.75
484.245	109.75
484.463	77.75
484.681	93.75
484.9	89.75
485.118	89.75
485.336	105.75
485.554	90.75
485.772	92.75
485.99	88.75
486.209	99.75
486.427	85.75
486.645	86.75
486.863	82.75
487.081	89.75
487.299	91.75
487.517	121.75
487.735	150.75
487.953	265.75
488.171	195.75
488.389	110.75
488.607	85.75
488.825	94.75
489.043	83.75
489.261	94.75
489.479	84.75
489.696	78.75
489.914	78.75
490.132	92.75
490.35	80.75
490.568	89.75
490.786	84.75
491.003	94.75
491.221	83.75
491.439	93.75
491.657	87.75
491.874	89.75
492.092	105.75
492.31	103.75
492.527	97.75
492.745	85.75
492.963	84.75
493.18	87.75
493.398	101.75
493.615	107.75
493.833	81.75
494.05	95.75
494.268	94.75
494.485	97.75
494.703	99.75
494.92	90.75
495.138	93.75
495.355	98.75
495.573	98.75
495.79	95.75
496.008	96.75
496.225	80.75
496.442	89.75
496.66	84.75
496.877	85.75
497.094	94.75
497.312	90.75
497.529	101.75
497.746	97.75
497.963	102.75
498.181	89.75
498.398	102.75
498.615	90.75
498.832	91.75
499.049	80.75
499.267	112.75
499.484	101.75
499.701	100.75
499.918	88.75
500.135	88.75
500.352	85.75
500.569	90.75
500.786	89.75
501.003	100.75
501.22	88.75
501.437	101.75
501.654	93.75
501.871	95.75
502.088	88.75
502.305	89.75
502.522	106.75
502.739	89.75
502.956	89.75
503.172	98.75
503.389	95.75
503.606	99.75
503.823	96.75
504.04	119.75
504.256	172.75
504.473	183.75
504.69	113.75
504.907	117.75
505.123	99.75
505.34	93.75
505.557	76.75
505.773	90.75
505.99	93.75
506.207	89.75
506.423	98.75
506.64	83.75
506.856	89.75
507.073	83.75
507.289	94.75
507.506	89.75
507.722	93.75
507.939	87.75
508.155	87.75
508.372	85.75
508.588	78.75
508.805	85.75
509.021	89.75
509.238	82.75
509.454	87.75
509.67	96.75
509.887	98.75
510.103	83.75
510.319	96.75
510.536	84.75
510.752	86.75
510.968	77.75
511.184	85.75
511.401	88.75
511.617	97.75
511.833	90.75
512.049	80.75
512.265	91.75
512.481	83.75
512.698	91.75
512.914	103.75
513.13	101.75
513.346	82.75
513.562	90.75
513.778	83.75
513.994	93.75
514.21	85.75
514.426	76.75
514.642	95.75
514.858	83.75
515.074	93.75
515.29	84.75
515.506	98.75
515.721	89.75
515.937	95.75
516.153	84.75
516.369	99.75
516.585	94.75
516.801	84.75
517.016	100.75
517.232	91.75
517.448	106.75
517.664	89.75
