Data from 10100_1_HRD10591_00007.txt Node
Date: Mon Jan 19 14:00:28 EST 2026
User: Yrep
Spectrometer: HR+D1059
Trigger mode: 1
Integration Time (sec): 1.000000E-1
Scans to average: 1
Electric dark correction enabled: true
Nonlinearity correction enabled: false
Boxcar width: 0
XAxis mode: Wavelengths
Number of Pixels in Spectrum: 2048
>>>>>Begin Spectral Data<<<<<
223.165	-14.12
223.4	-14.12
223.635	-14.12
223.869	-29.12
224.104	-8.12
224.338	-15.12
224.573	-16.12
224.808	-10.12
225.042	-20.12
225.277	-7.12
225.511	-2.12
225.746	2.88
225.98	14.88
226.215	-1.12
226.449	11.88
226.683	28.88
226.918	24.88
227.152	39.88
227.387	32.88
227.621	39.88
227.856	46.88
228.09	56.88
228.324	56.88
228.559	61.88
228.793	75.88
229.027	68.88
229.262	55.88
229.496	57.88
229.73	67.88
229.964	65.88
230.199	71.88
230.433	86.88
230.667	79.88
230.901	68.88
231.136	88.88
231.37	92.88
231.604	92.88
231.838	71.88
232.072	79.88
232.306	88.88
232.541	88.88
232.775	79.88
233.009	83.88
233.243	80.88
233.477	92.88
233.711	68.88
233.945	71.88
234.179	78.88
234.413	86.88
234.647	66.88
234.881	62.88
235.115	76.88
235.349	86.88
235.583	76.88
235.817	68.88
236.051	86.88
236.285	78.88
236.519	67.88
236.753	84.88
236.987	77.88
237.221	74.88
237.455	84.88
237.689	72.88
237.922	80.88
238.156	69.88
238.39	77.88
238.624	80.88
238.858	77.88
239.091	55.88
239.325	82.88
239.559	72.88
239.793	73.88
240.027	82.88
240.26	66.88
240.494	76.88
240.728	64.88
240.961	83.88
241.195	79.88
241.429	77.88
241.662	88.88
241.896	87.88
242.13	86.88
242.363	71.88
242.597	62.88
242.83	74.88
243.064	77.88
243.298	65.88
243.531	85.88
243.765	80.88
243.998	78.88
244.232	78.88
244.465	96.88
244.699	69.88
244.932	78.88
245.166	73.88
245.399	91.88
245.633	66.88
245.866	93.88
246.099	68.88
246.333	76.88
246.566	71.88
246.8	62.88
247.033	87.88
247.266	78.88
247.5	68.88
247.733	73.88
247.966	73.88
248.2	76.88
248.433	80.88
248.666	66.88
248.899	63.88
249.133	73.88
249.366	61.88
249.599	87.88
249.832	77.88
250.066	83.88
250.299	72.88
250.532	92.88
250.765	80.88
250.998	75.88
251.231	72.88
251.465	78.88
251.698	76.88
251.931	74.88
252.164	89.88
252.397	78.88
252.63	88.88
252.863	55.88
253.096	71.88
253.329	79.88
253.562	72.88
253.795	84.88
254.028	73.88
254.261	78.88
254.494	72.88
254.727	65.88
254.96	86.88
255.193	72.88
255.426	75.88
255.659	74.88
255.892	78.88
256.124	84.88
256.357	84.88
256.59	82.88
256.823	78.88
257.056	71.88
257.289	76.88
257.521	82.88
257.754	80.88
257.987	88.88
258.22	84.88
258.452	81.88
258.685	67.88
258.918	83.88
259.151	72.88
259.383	86.88
259.616	70.88
259.849	81.88
260.081	70.88
260.314	93.88
260.547	78.88
260.779	74.88
261.012	75.88
261.244	69.88
261.477	73.88
261.71	70.88
261.942	73.88
262.175	80.88
262.407	83.88
262.64	78.88
262.872	84.88
263.105	82.88
263.337	80.88
263.57	80.88
263.802	66.88
264.035	74.88
264.267	68.88
264.499	86.88
264.732	78.88
264.964	76.88
265.197	89.88
265.429	86.88
265.661	82.88
265.894	73.88
266.126	72.88
266.358	96.88
266.591	82.88
266.823	73.88
267.055	84.88
267.287	92.88
267.52	73.88
267.752	88.88
267.984	91.88
268.216	81.88
268.448	90.88
268.681	74.88
268.913	85.88
269.145	76.88
269.377	83.88
269.609	86.88
269.841	77.88
270.073	77.88
270.306	77.88
270.538	84.88
270.77	81.88
271.002	72.88
271.234	70.88
271.466	69.88
271.698	76.88
271.93	87.88
272.162	80.88
272.394	82.88
272.626	79.88
272.858	82.88
273.09	81.88
273.322	73.88
273.553	84.88
273.785	93.88
274.017	74.88
274.249	72.88
274.481	87.88
274.713	92.88
274.945	82.88
275.176	86.88
275.408	82.88
275.64	96.88
275.872	73.88
276.104	85.88
276.335	88.88
276.567	86.88
276.799	93.88
277.031	88.88
277.262	84.88
277.494	73.88
277.726	90.88
277.957	80.88
278.189	77.88
278.421	84.88
278.652	68.88
278.884	87.88
279.115	79.88
279.347	81.88
279.579	90.88
279.81	78.88
280.042	80.88
280.273	89.88
280.505	76.88
280.736	60.88
280.968	81.88
281.199	81.88
281.431	88.88
281.662	80.88
281.894	88.88
282.125	89.88
282.356	69.88
282.588	76.88
282.819	80.88
283.051	99.88
283.282	71.88
283.513	81.88
283.745	84.88
283.976	81.88
284.207	77.88
284.439	81.88
284.67	70.88
284.901	84.88
285.132	94.88
285.364	85.88
285.595	85.88
285.826	81.88
286.057	90.88
286.288	76.88
286.52	64.88
286.751	82.88
286.982	89.88
287.213	91.88
287.444	87.88
287.675	69.88
287.906	92.88
288.138	89.88
288.369	88.88
288.6	89.88
288.831	75.88
289.062	74.88
289.293	81.88
289.524	80.88
289.755	80.88
289.986	85.88
290.217	88.88
290.448	76.88
290.679	81.88
290.91	81.88
291.141	86.88
291.371	86.88
291.602	87.88
291.833	81.88
292.064	92.88
292.295	86.88
292.526	95.88
292.757	80.88
292.987	83.88
293.218	74.88
293.449	80.88
293.68	86.88
293.91	70.88
294.141	84.88
294.372	71.88
294.603	88.88
294.833	89.88
295.064	81.88
295.295	74.88
295.525	69.88
295.756	85.88
295.987	79.88
296.217	81.88
296.448	76.88
296.679	92.88
296.909	80.88
297.14	79.88
297.37	73.88
297.601	87.88
297.831	79.88
298.062	77.88
298.292	88.88
298.523	92.88
298.753	81.88
298.984	73.88
299.214	79.88
299.445	80.88
299.675	88.88
299.905	77.88
300.136	80.88
300.366	82.88
300.597	77.88
300.827	85.88
301.057	82.88
301.288	80.88
301.518	89.88
301.748	73.88
301.979	84.88
302.209	84.88
302.439	81.88
302.669	79.88
302.9	81.88
303.13	87.88
303.36	87.88
303.59	90.88
303.82	85.88
304.051	86.88
304.281	77.88
304.511	68.88
304.741	82.88
304.971	71.88
305.201	94.88
305.431	82.88
305.661	73.88
305.891	83.88
306.121	82.88
306.352	80.88
306.582	79.88
306.812	77.88
307.042	94.88
307.272	81.88
307.502	74.88
307.731	81.88
307.961	87.88
308.191	87.88
308.421	93.88
308.651	88.88
308.881	91.88
309.111	100.88
309.341	87.88
309.571	85.88
309.8	82.88
310.03	89.88
310.26	77.88
310.49	86.88
310.72	83.88
310.949	72.88
311.179	88.88
311.409	91.88
311.639	84.88
311.868	78.88
312.098	84.88
312.328	94.88
312.557	101.88
312.787	92.88
313.017	100.88
313.246	84.88
313.476	89.88
313.706	76.88
313.935	74.88
314.165	84.88
314.394	87.88
314.624	77.88
314.853	73.88
315.083	79.88
315.312	82.88
315.542	86.88
315.771	95.88
316.001	100.88
316.23	80.88
316.46	86.88
316.689	88.88
316.919	91.88
317.148	82.88
317.377	88.88
317.607	90.88
317.836	84.88
318.065	79.88
318.295	83.88
318.524	78.88
318.753	84.88
318.983	71.88
319.212	82.88
319.441	97.88
319.67	90.88
319.9	90.88
320.129	86.88
320.358	100.88
320.587	70.88
320.816	88.88
321.046	82.88
321.275	93.88
321.504	101.88
321.733	80.88
321.962	78.88
322.191	95.88
322.42	93.88
322.649	88.88
322.878	80.88
323.108	88.88
323.337	98.88
323.566	96.88
323.795	78.88
324.024	87.88
324.253	80.88
324.482	84.88
324.71	81.88
324.939	103.88
325.168	84.88
325.397	85.88
325.626	89.88
325.855	81.88
326.084	87.88
326.313	102.88
326.542	86.88
326.77	81.88
326.999	88.88
327.228	73.88
327.457	80.88
327.686	91.88
327.914	88.88
328.143	88.88
328.372	74.88
328.6	77.88
328.829	79.88
329.058	79.88
329.287	85.88
329.515	75.88
329.744	92.88
329.972	80.88
330.201	87.88
330.43	72.88
330.658	82.88
330.887	81.88
331.115	93.88
331.344	70.88
331.572	88.88
331.801	98.88
332.03	86.88
332.258	96.88
332.486	75.88
332.715	98.88
332.943	71.88
333.172	84.88
333.4	84.88
333.629	107.88
333.857	106.88
334.085	102.88
334.314	100.88
334.542	88.88
334.771	99.88
334.999	103.88
335.227	104.88
335.455	89.88
335.684	82.88
335.912	98.88
336.14	88.88
336.369	95.88
336.597	88.88
336.825	90.88
337.053	80.88
337.281	84.88
337.51	94.88
337.738	90.88
337.966	82.88
338.194	82.88
338.422	87.88
338.65	92.88
338.878	86.88
339.106	95.88
339.334	86.88
339.562	78.88
339.79	95.88
340.018	80.88
340.246	89.88
340.474	80.88
340.702	80.88
340.93	86.88
341.158	82.88
341.386	81.88
341.614	80.88
341.842	91.88
342.07	82.88
342.298	79.88
342.526	86.88
342.754	82.88
342.981	80.88
343.209	96.88
343.437	84.88
343.665	76.88
343.893	70.88
344.12	90.88
344.348	88.88
344.576	88.88
344.804	96.88
345.031	88.88
345.259	96.88
345.487	102.88
345.714	81.88
345.942	90.88
346.17	98.88
346.397	97.88
346.625	95.88
346.853	87.88
347.08	76.88
347.308	73.88
347.535	92.88
347.763	84.88
347.99	89.88
348.218	98.88
348.445	85.88
348.673	100.88
348.9	110.88
349.128	89.88
349.355	92.88
349.583	73.88
349.81	100.88
350.037	88.88
350.265	90.88
350.492	85.88
350.72	90.88
350.947	82.88
351.174	97.88
351.402	89.88
351.629	92.88
351.856	79.88
352.083	98.88
352.311	84.88
352.538	74.88
352.765	89.88
352.992	88.88
353.22	87.88
353.447	88.88
353.674	85.88
353.901	82.88
354.128	98.88
354.355	93.88
354.583	73.88
354.81	98.88
355.037	86.88
355.264	83.88
355.491	80.88
355.718	81.88
355.945	86.88
356.172	86.88
356.399	82.88
356.626	81.88
356.853	77.88
357.08	87.88
357.307	89.88
357.534	87.88
357.761	73.88
357.988	74.88
358.215	88.88
358.441	89.88
358.668	97.88
358.895	82.88
359.122	70.88
359.349	85.88
359.576	92.88
359.802	72.88
360.029	78.88
360.256	91.88
360.483	76.88
360.709	73.88
360.936	103.88
361.163	96.88
361.39	86.88
361.616	81.88
361.843	94.88
362.07	88.88
362.296	81.88
362.523	91.88
362.749	110.88
362.976	101.88
363.203	129.88
363.429	84.88
363.656	99.88
363.882	101.88
364.109	100.88
364.335	130.88
364.562	138.88
364.788	115.88
365.015	91.88
365.241	95.88
365.468	99.88
365.694	92.88
365.92	90.88
366.147	78.88
366.373	86.88
366.599	85.88
366.826	79.88
367.052	79.88
367.278	81.88
367.505	85.88
367.731	89.88
367.957	92.88
368.184	92.88
368.41	74.88
368.636	102.88
368.862	92.88
369.089	80.88
369.315	78.88
369.541	91.88
369.767	89.88
369.993	74.88
370.219	95.88
370.445	93.88
370.672	88.88
370.898	90.88
371.124	89.88
371.35	97.88
371.576	85.88
371.802	101.88
372.028	93.88
372.254	94.88
372.48	76.88
372.706	93.88
372.932	101.88
373.158	96.88
373.384	99.88
373.61	90.88
373.835	106.88
374.061	92.88
374.287	85.88
374.513	112.88
374.739	90.88
374.965	114.88
375.191	100.88
375.416	108.88
375.642	86.88
375.868	101.88
376.094	106.88
376.319	90.88
376.545	86.88
376.771	84.88
376.997	92.88
377.222	87.88
377.448	82.88
377.674	86.88
377.899	78.88
378.125	80.88
378.35	108.88
378.576	92.88
378.802	84.88
379.027	73.88
379.253	88.88
379.478	96.88
379.704	99.88
379.929	85.88
380.155	83.88
380.38	68.88
380.606	85.88
380.831	97.88
381.057	99.88
381.282	80.88
381.507	86.88
381.733	89.88
381.958	97.88
382.184	92.88
382.409	96.88
382.634	96.88
382.86	84.88
383.085	89.88
383.31	100.88
383.535	89.88
383.761	115.88
383.986	105.88
384.211	94.88
384.436	102.88
384.662	102.88
384.887	96.88
385.112	99.88
385.337	88.88
385.562	93.88
385.787	92.88
386.013	79.88
386.238	100.88
386.463	81.88
386.688	108.88
386.913	84.88
387.138	88.88
387.363	90.88
387.588	113.88
387.813	101.88
388.038	111.88
388.263	96.88
388.488	89.88
388.713	108.88
388.938	99.88
389.163	89.88
389.387	71.88
389.612	76.88
389.837	86.88
390.062	95.88
390.287	80.88
390.512	89.88
390.736	80.88
390.961	82.88
391.186	82.88
391.411	87.88
391.636	88.88
391.86	82.88
392.085	98.88
392.31	99.88
392.534	101.88
392.759	105.88
392.984	137.88
393.208	211.88
393.433	263.88
393.658	233.88
393.882	116.88
394.107	103.88
394.331	110.88
394.556	114.88
394.78	109.88
395.005	85.88
395.229	84.88
395.454	92.88
395.678	100.88
395.903	116.88
396.127	118.88
396.352	132.88
396.576	151.88
396.801	200.88
397.025	230.88
397.249	150.88
397.474	112.88
397.698	107.88
397.922	92.88
398.147	108.88
398.371	95.88
398.595	104.88
398.82	82.88
399.044	71.88
399.268	88.88
399.492	78.88
399.717	85.88
399.941	97.88
400.165	100.88
400.389	88.88
400.613	100.88
400.837	90.88
401.062	85.88
401.286	74.88
401.51	68.88
401.734	90.88
401.958	84.88
402.182	81.88
402.406	83.88
402.63	79.88
402.854	86.88
403.078	80.88
403.302	93.88
403.526	88.88
403.75	86.88
403.974	81.88
404.198	88.88
404.422	102.88
404.645	108.88
404.869	88.88
405.093	95.88
405.317	89.88
405.541	94.88
405.765	80.88
405.988	83.88
406.212	89.88
406.436	83.88
406.66	90.88
406.883	75.88
407.107	90.88
407.331	86.88
407.555	79.88
407.778	95.88
408.002	109.88
408.226	87.88
408.449	92.88
408.673	83.88
408.896	108.88
409.12	73.88
409.344	98.88
409.567	99.88
409.791	116.88
410.014	92.88
410.238	92.88
410.461	108.88
410.685	102.88
410.908	77.88
411.132	87.88
411.355	83.88
411.578	86.88
411.802	73.88
412.025	86.88
412.249	81.88
412.472	85.88
412.695	89.88
412.919	84.88
413.142	80.88
413.365	83.88
413.589	87.88
413.812	93.88
414.035	102.88
414.258	92.88
414.482	94.88
414.705	97.88
414.928	105.88
415.151	85.88
415.374	91.88
415.597	88.88
415.821	89.88
416.044	84.88
416.267	90.88
416.49	91.88
416.713	91.88
416.936	93.88
417.159	77.88
417.382	75.88
417.605	77.88
417.828	89.88
418.051	89.88
418.274	84.88
418.497	88.88
418.72	94.88
418.943	86.88
419.166	80.88
419.389	81.88
419.611	89.88
419.834	87.88
420.057	88.88
420.28	100.88
420.503	88.88
420.726	84.88
420.948	95.88
421.171	101.88
421.394	112.88
421.617	107.88
421.839	116.88
422.062	133.88
422.285	152.88
422.507	250.88
422.73	282.88
422.953	273.88
423.175	206.88
423.398	150.88
423.621	101.88
423.843	99.88
424.066	104.88
424.288	104.88
424.511	83.88
424.733	82.88
424.956	99.88
425.178	108.88
425.401	96.88
425.623	83.88
425.846	94.88
426.068	96.88
426.291	99.88
426.513	91.88
426.735	83.88
426.958	89.88
427.18	101.88
427.402	96.88
427.625	84.88
427.847	92.88
428.069	105.88
428.292	129.88
428.514	134.88
428.736	106.88
428.958	115.88
429.181	125.88
429.403	103.88
429.625	87.88
429.847	120.88
430.069	138.88
430.292	158.88
430.514	163.88
430.736	122.88
430.958	142.88
431.18	97.88
431.402	96.88
431.624	90.88
431.846	103.88
432.068	128.88
432.29	80.88
432.512	88.88
432.734	93.88
432.956	85.88
433.178	94.88
433.4	100.88
433.622	88.88
433.844	86.88
434.066	92.88
434.287	85.88
434.509	85.88
434.731	86.88
434.953	74.88
435.175	101.88
435.397	87.88
435.618	98.88
435.84	96.88
436.062	87.88
436.284	82.88
436.505	72.88
436.727	78.88
436.949	84.88
437.17	99.88
437.392	79.88
437.614	82.88
437.835	83.88
438.057	82.88
438.278	94.88
438.5	98.88
438.721	95.88
438.943	92.88
439.165	100.88
439.386	82.88
439.608	83.88
439.829	82.88
440.05	87.88
440.272	81.88
440.493	96.88
440.715	88.88
440.936	89.88
441.158	89.88
441.379	96.88
441.6	85.88
441.822	99.88
442.043	98.88
442.264	102.88
442.486	144.88
442.707	176.88
442.928	121.88
443.149	102.88
443.371	147.88
443.592	231.88
443.813	212.88
444.034	112.88
444.255	90.88
444.476	84.88
444.698	84.88
444.919	106.88
445.14	177.88
445.361	191.88
445.582	261.88
445.803	235.88
446.024	118.88
446.245	101.88
446.466	86.88
446.687	87.88
446.908	100.88
447.129	92.88
447.35	85.88
447.571	83.88
447.792	86.88
448.013	81.88
448.234	80.88
448.455	81.88
448.675	82.88
448.896	85.88
449.117	100.88
449.338	82.88
449.559	84.88
449.779	100.88
450	90.88
450.221	88.88
450.442	79.88
450.662	93.88
450.883	83.88
451.104	82.88
451.324	99.88
451.545	82.88
451.766	89.88
451.986	89.88
452.207	91.88
452.428	72.88
452.648	93.88
452.869	124.88
453.089	95.88
453.31	98.88
453.53	88.88
453.751	110.88
453.971	80.88
454.192	88.88
454.412	86.88
454.633	88.88
454.853	101.88
455.073	89.88
455.294	82.88
455.514	93.88
455.734	83.88
455.955	88.88
456.175	90.88
456.395	93.88
456.616	88.88
456.836	85.88
457.056	84.88
457.276	73.88
457.497	80.88
457.717	103.88
457.937	112.88
458.157	125.88
458.377	137.88
458.598	127.88
458.818	144.88
459.038	101.88
459.258	84.88
459.478	77.88
459.698	90.88
459.918	80.88
460.138	92.88
460.358	97.88
460.578	92.88
460.798	112.88
461.018	121.88
461.238	94.88
461.458	78.88
461.678	80.88
461.898	82.88
462.118	91.88
462.338	92.88
462.558	83.88
462.777	80.88
462.997	91.88
463.217	86.88
463.437	94.88
463.657	76.88
463.876	78.88
464.096	97.88
464.316	77.88
464.536	86.88
464.755	72.88
464.975	75.88
465.195	87.88
465.414	84.88
465.634	84.88
465.854	85.88
466.073	96.88
466.293	74.88
466.512	80.88
466.732	82.88
466.951	81.88
467.171	97.88
467.391	89.88
467.61	82.88
467.829	88.88
468.049	72.88
468.268	96.88
468.488	99.88
468.707	92.88
468.927	99.88
469.146	72.88
469.365	80.88
469.585	96.88
469.804	83.88
470.023	103.88
470.243	91.88
470.462	74.88
470.681	90.88
470.901	91.88
471.12	92.88
471.339	78.88
471.558	80.88
471.777	69.88
471.997	88.88
472.216	86.88
472.435	86.88
472.654	84.88
472.873	93.88
473.092	80.88
473.311	74.88
473.53	81.88
473.749	83.88
473.968	90.88
474.187	88.88
474.406	86.88
474.625	90.88
474.844	93.88
475.063	99.88
475.282	104.88
475.501	82.88
475.72	82.88
475.939	108.88
476.158	98.88
476.377	86.88
476.596	83.88
476.814	92.88
477.033	80.88
477.252	82.88
477.471	84.88
477.69	93.88
477.908	83.88
478.127	87.88
478.346	101.88
478.564	95.88
478.783	86.88
479.002	94.88
479.22	84.88
479.439	80.88
479.658	84.88
479.876	82.88
480.095	77.88
480.313	83.88
480.532	87.88
480.751	90.88
480.969	99.88
481.188	92.88
481.406	109.88
481.624	91.88
481.843	96.88
482.061	77.88
482.28	92.88
482.498	86.88
482.717	90.88
482.935	93.88
483.153	100.88
483.372	97.88
483.59	85.88
483.808	90.88
484.027	100.88
484.245	93.88
484.463	85.88
484.681	90.88
484.9	97.88
485.118	88.88
485.336	78.88
485.554	101.88
485.772	78.88
485.99	87.88
486.209	92.88
486.427	102.88
486.645	90.88
486.863	77.88
487.081	87.88
487.299	84.88
487.517	107.88
487.735	103.88
487.953	197.88
488.171	175.88
488.389	96.88
488.607	88.88
488.825	85.88
489.043	77.88
489.261	86.88
489.479	101.88
489.696	89.88
489.914	96.88
490.132	92.88
490.35	93.88
490.568	101.88
490.786	90.88
491.003	97.88
491.221	93.88
491.439	95.88
491.657	102.88
491.874	78.88
492.092	110.88
492.31	94.88
492.527	72.88
492.745	92.88
492.963	99.88
493.18	105.88
493.398	107.88
493.615	102.88
493.833	91.88
494.05	95.88
494.268	88.88
494.485	88.88
494.703	77.88
494.92	81.88
495.138	82.88
495.355	84.88
495.573	101.88
495.79	85.88
496.008	95.88
496.225	95.88
496.442	96.88
496.66	99.88
496.877	94.88
497.094	101.88
497.312	103.88
497.529	94.88
497.746	82.88
497.963	87.88
498.181	88.88
498.398	100.88
498.615	94.88
498.832	87.88
499.049	91.88
499.267	104.88
499.484	89.88
499.701	99.88
499.918	92.88
500.135	100.88
500.352	95.88
500.569	95.88
500.786	107.88
501.003	122.88
501.22	95.88
501.437	98.88
501.654	91.88
501.871	97.88
502.088	92.88
502.305	99.88
502.522	108.88
502.739	92.88
502.956	95.88
503.172	101.88
503.389	94.88
503.606	96.88
503.823	90.88
504.04	113.88
504.256	130.88
504.473	152.88
504.69	106.88
504.907	103.88
505.123	91.88
505.34	89.88
505.557	94.88
505.773	88.88
505.99	78.88
506.207	91.88
506.423	91.88
506.64	100.88
506.856	84.88
507.073	96.88
507.289	85.88
507.506	90.88
507.722	93.88
507.939	90.88
508.155	82.88
508.372	95.88
508.588	86.88
508.805	87.88
509.021	100.88
509.238	91.88
509.454	87.88
509.67	77.88
509.887	91.88
510.103	79.88
510.319	92.88
510.536	94.88
510.752	88.88
510.968	83.88
511.184	78.88
511.401	90.88
511.617	90.88
511.833	104.88
512.049	76.88
512.265	96.88
512.481	82.88
512.698	92.88
512.914	100.88
513.13	88.88
513.346	95.88
513.562	89.88
513.778	84.88
513.994	92.88
514.21	79.88
514.426	95.88
514.642	89.88
514.858	85.88
515.074	81.88
515.29	94.88
515.506	92.88
515.721	80.88
515.937	89.88
516.153	90.88
516.369	96.88
516.585	87.88
516.801	92.88
517.016	96.88
517.232	104.88
517.448	93.88
