Data from 10100_1_HRD10591_00017.txt Node
Date: Mon Jan 19 14:00:33 EST 2026
User: Yrep
Spectrometer: HR+D1059
Trigger mode: 1
Integration Time (sec): 1.000000E-1
Scans to average: 1
Electric dark correction enabled: true
Nonlinearity correction enabled: false
Boxcar width: 0
XAxis mode: Wavelengths
Number of Pixels in Spectrum: 2048
>>>>>Begin Spectral Data<<<<<
223.165	-16.62
223.4	-16.62
223.635	-16.62
223.869	-6.62
224.104	-11.62
224.338	-3.62
224.573	-19.62
224.808	-13.62
225.042	-22.62
225.277	-21.62
225.511	-1.62
225.746	11.38
225.98	-7.62
226.215	7.38
226.449	23.38
226.683	17.38
226.918	37.38
227.152	28.38
227.387	36.38
227.621	32.38
227.856	35.38
228.09	45.38
228.324	58.38
228.559	62.38
228.793	57.38
229.027	62.38
229.262	72.38
229.496	79.38
229.73	65.38
229.964	77.38
230.199	68.38
230.433	80.38
230.667	92.38
230.901	78.38
231.136	74.38
231.37	68.38
231.604	78.38
231.838	83.38
232.072	93.38
232.306	63.38
232.541	70.38
232.775	84.38
233.009	101.38
233.243	89.38
233.477	81.38
233.711	74.38
233.945	81.38
234.179	87.38
234.413	90.38
234.647	81.38
234.881	74.38
235.115	65.38
235.349	76.38
235.583	79.38
235.817	73.38
236.051	84.38
236.285	83.38
236.519	81.38
236.753	71.38
236.987	93.38
237.221	72.38
237.455	78.38
237.689	80.38
237.922	71.38
238.156	69.38
238.39	88.38
238.624	70.38
238.858	81.38
239.091	87.38
239.325	82.38
239.559	78.38
239.793	85.38
240.027	81.38
240.26	88.38
240.494	76.38
240.728	81.38
240.961	77.38
241.195	79.38
241.429	69.38
241.662	58.38
241.896	64.38
242.13	58.38
242.363	62.38
242.597	80.38
242.83	98.38
243.064	71.38
243.298	65.38
243.531	77.38
243.765	75.38
243.998	73.38
244.232	68.38
244.465	73.38
244.699	89.38
244.932	74.38
245.166	85.38
245.399	77.38
245.633	84.38
245.866	92.38
246.099	72.38
246.333	82.38
246.566	64.38
246.8	81.38
247.033	69.38
247.266	71.38
247.5	80.38
247.733	84.38
247.966	71.38
248.2	86.38
248.433	78.38
248.666	87.38
248.899	81.38
249.133	78.38
249.366	78.38
249.599	82.38
249.832	92.38
250.066	81.38
250.299	76.38
250.532	70.38
250.765	73.38
250.998	79.38
251.231	80.38
251.465	91.38
251.698	88.38
251.931	80.38
252.164	87.38
252.397	67.38
252.63	77.38
252.863	85.38
253.096	71.38
253.329	86.38
253.562	102.38
253.795	94.38
254.028	71.38
254.261	66.38
254.494	84.38
254.727	80.38
254.96	85.38
255.193	84.38
255.426	86.38
255.659	84.38
255.892	72.38
256.124	87.38
256.357	85.38
256.59	86.38
256.823	77.38
257.056	69.38
257.289	83.38
257.521	86.38
257.754	61.38
257.987	73.38
258.22	86.38
258.452	69.38
258.685	82.38
258.918	79.38
259.151	69.38
259.383	84.38
259.616	88.38
259.849	95.38
260.081	73.38
260.314	88.38
260.547	72.38
260.779	68.38
261.012	77.38
261.244	86.38
261.477	87.38
261.71	76.38
261.942	71.38
262.175	79.38
262.407	74.38
262.64	75.38
262.872	87.38
263.105	74.38
263.337	94.38
263.57	77.38
263.802	70.38
264.035	71.38
264.267	71.38
264.499	61.38
264.732	76.38
264.964	82.38
265.197	81.38
265.429	86.38
265.661	70.38
265.894	89.38
266.126	77.38
266.358	73.38
266.591	84.38
266.823	72.38
267.055	81.38
267.287	70.38
267.52	70.38
267.752	75.38
267.984	81.38
268.216	81.38
268.448	69.38
268.681	69.38
268.913	81.38
269.145	83.38
269.377	69.38
269.609	86.38
269.841	88.38
270.073	81.38
270.306	94.38
270.538	85.38
270.77	76.38
271.002	90.38
271.234	65.38
271.466	86.38
271.698	80.38
271.93	73.38
272.162	80.38
272.394	105.38
272.626	85.38
272.858	77.38
273.09	70.38
273.322	75.38
273.553	72.38
273.785	82.38
274.017	68.38
274.249	82.38
274.481	87.38
274.713	82.38
274.945	71.38
275.176	76.38
275.408	82.38
275.64	72.38
275.872	76.38
276.104	87.38
276.335	74.38
276.567	74.38
276.799	82.38
277.031	80.38
277.262	86.38
277.494	94.38
277.726	85.38
277.957	78.38
278.189	70.38
278.421	76.38
278.652	80.38
278.884	74.38
279.115	91.38
279.347	88.38
279.579	85.38
279.81	85.38
280.042	74.38
280.273	86.38
280.505	78.38
280.736	85.38
280.968	87.38
281.199	91.38
281.431	80.38
281.662	74.38
281.894	100.38
282.125	94.38
282.356	68.38
282.588	80.38
282.819	91.38
283.051	83.38
283.282	74.38
283.513	95.38
283.745	86.38
283.976	86.38
284.207	77.38
284.439	87.38
284.67	95.38
284.901	88.38
285.132	87.38
285.364	91.38
285.595	82.38
285.826	82.38
286.057	89.38
286.288	84.38
286.52	76.38
286.751	84.38
286.982	80.38
287.213	79.38
287.444	79.38
287.675	81.38
287.906	85.38
288.138	84.38
288.369	77.38
288.6	104.38
288.831	82.38
289.062	71.38
289.293	87.38
289.524	82.38
289.755	90.38
289.986	85.38
290.217	68.38
290.448	83.38
290.679	87.38
290.91	83.38
291.141	92.38
291.371	90.38
291.602	87.38
291.833	87.38
292.064	60.38
292.295	71.38
292.526	73.38
292.757	88.38
292.987	86.38
293.218	79.38
293.449	68.38
293.68	81.38
293.91	73.38
294.141	84.38
294.372	92.38
294.603	78.38
294.833	83.38
295.064	85.38
295.295	78.38
295.525	88.38
295.756	89.38
295.987	71.38
296.217	94.38
296.448	88.38
296.679	88.38
296.909	99.38
297.14	90.38
297.37	85.38
297.601	75.38
297.831	88.38
298.062	75.38
298.292	88.38
298.523	84.38
298.753	73.38
298.984	85.38
299.214	92.38
299.445	78.38
299.675	86.38
299.905	97.38
300.136	89.38
300.366	60.38
300.597	89.38
300.827	83.38
301.057	73.38
301.288	70.38
301.518	92.38
301.748	92.38
301.979	89.38
302.209	93.38
302.439	87.38
302.669	88.38
302.9	68.38
303.13	78.38
303.36	92.38
303.59	79.38
303.82	79.38
304.051	74.38
304.281	81.38
304.511	89.38
304.741	87.38
304.971	89.38
305.201	95.38
305.431	78.38
305.661	84.38
305.891	78.38
306.121	94.38
306.352	89.38
306.582	85.38
306.812	81.38
307.042	74.38
307.272	95.38
307.502	78.38
307.731	80.38
307.961	89.38
308.191	105.38
308.421	74.38
308.651	86.38
308.881	69.38
309.111	83.38
309.341	85.38
309.571	89.38
309.8	76.38
310.03	81.38
310.26	83.38
310.49	92.38
310.72	77.38
310.949	93.38
311.179	76.38
311.409	69.38
311.639	82.38
311.868	84.38
312.098	85.38
312.328	82.38
312.557	86.38
312.787	81.38
313.017	95.38
313.246	88.38
313.476	79.38
313.706	78.38
313.935	62.38
314.165	82.38
314.394	78.38
314.624	88.38
314.853	100.38
315.083	86.38
315.312	77.38
315.542	84.38
315.771	75.38
316.001	80.38
316.23	89.38
316.46	88.38
316.689	69.38
316.919	82.38
317.148	87.38
317.377	94.38
317.607	87.38
317.836	92.38
318.065	86.38
318.295	83.38
318.524	84.38
318.753	86.38
318.983	75.38
319.212	98.38
319.441	74.38
319.67	79.38
319.9	87.38
320.129	88.38
320.358	88.38
320.587	80.38
320.816	69.38
321.046	96.38
321.275	79.38
321.504	88.38
321.733	82.38
321.962	79.38
322.191	81.38
322.42	87.38
322.649	83.38
322.878	93.38
323.108	97.38
323.337	86.38
323.566	78.38
323.795	89.38
324.024	86.38
324.253	85.38
324.482	80.38
324.71	70.38
324.939	74.38
325.168	94.38
325.397	85.38
325.626	74.38
325.855	74.38
326.084	90.38
326.313	78.38
326.542	73.38
326.77	74.38
326.999	79.38
327.228	91.38
327.457	96.38
327.686	81.38
327.914	90.38
328.143	80.38
328.372	87.38
328.6	87.38
328.829	93.38
329.058	98.38
329.287	73.38
329.515	87.38
329.744	89.38
329.972	77.38
330.201	68.38
330.43	81.38
330.658	84.38
330.887	84.38
331.115	71.38
331.344	86.38
331.572	88.38
331.801	87.38
332.03	77.38
332.258	84.38
332.486	83.38
332.715	83.38
332.943	88.38
333.172	72.38
333.4	75.38
333.629	83.38
333.857	83.38
334.085	83.38
334.314	93.38
334.542	76.38
334.771	86.38
334.999	73.38
335.227	88.38
335.455	83.38
335.684	92.38
335.912	95.38
336.14	104.38
336.369	96.38
336.597	86.38
336.825	70.38
337.053	81.38
337.281	88.38
337.51	63.38
337.738	91.38
337.966	80.38
338.194	76.38
338.422	70.38
338.65	77.38
338.878	78.38
339.106	77.38
339.334	89.38
339.562	77.38
339.79	82.38
340.018	78.38
340.246	66.38
340.474	81.38
340.702	93.38
340.93	88.38
341.158	82.38
341.386	77.38
341.614	88.38
341.842	80.38
342.07	81.38
342.298	90.38
342.526	87.38
342.754	76.38
342.981	66.38
343.209	73.38
343.437	90.38
343.665	88.38
343.893	86.38
344.12	73.38
344.348	89.38
344.576	82.38
344.804	89.38
345.031	89.38
345.259	68.38
345.487	92.38
345.714	72.38
345.942	82.38
346.17	92.38
346.397	77.38
346.625	88.38
346.853	82.38
347.08	84.38
347.308	84.38
347.535	87.38
347.763	91.38
347.99	85.38
348.218	93.38
348.445	83.38
348.673	86.38
348.9	101.38
349.128	93.38
349.355	83.38
349.583	92.38
349.81	74.38
350.037	85.38
350.265	78.38
350.492	87.38
350.72	88.38
350.947	85.38
351.174	78.38
351.402	74.38
351.629	83.38
351.856	87.38
352.083	80.38
352.311	87.38
352.538	90.38
352.765	89.38
352.992	93.38
353.22	88.38
353.447	69.38
353.674	96.38
353.901	78.38
354.128	81.38
354.355	96.38
354.583	87.38
354.81	88.38
355.037	90.38
355.264	80.38
355.491	78.38
355.718	86.38
355.945	81.38
356.172	77.38
356.399	102.38
356.626	84.38
356.853	73.38
357.08	90.38
357.307	88.38
357.534	84.38
357.761	89.38
357.988	101.38
358.215	85.38
358.441	81.38
358.668	86.38
358.895	82.38
359.122	90.38
359.349	81.38
359.576	84.38
359.802	77.38
360.029	72.38
360.256	94.38
360.483	83.38
360.709	78.38
360.936	89.38
361.163	93.38
361.39	71.38
361.616	75.38
361.843	68.38
362.07	91.38
362.296	93.38
362.523	91.38
362.749	80.38
362.976	89.38
363.203	97.38
363.429	96.38
363.656	68.38
363.882	90.38
364.109	89.38
364.335	87.38
364.562	93.38
364.788	85.38
365.015	88.38
365.241	85.38
365.468	84.38
365.694	77.38
365.92	88.38
366.147	80.38
366.373	80.38
366.599	92.38
366.826	86.38
367.052	82.38
367.278	87.38
367.505	78.38
367.731	82.38
367.957	82.38
368.184	69.38
368.41	89.38
368.636	77.38
368.862	82.38
369.089	84.38
369.315	71.38
369.541	77.38
369.767	83.38
369.993	77.38
370.219	78.38
370.445	89.38
370.672	89.38
370.898	88.38
371.124	84.38
371.35	91.38
371.576	72.38
371.802	79.38
372.028	91.38
372.254	94.38
372.48	94.38
372.706	87.38
372.932	84.38
373.158	82.38
373.384	89.38
373.61	89.38
373.835	77.38
374.061	93.38
374.287	70.38
374.513	106.38
374.739	83.38
374.965	69.38
375.191	78.38
375.416	82.38
375.642	78.38
375.868	91.38
376.094	72.38
376.319	95.38
376.545	94.38
376.771	84.38
376.997	88.38
377.222	85.38
377.448	87.38
377.674	81.38
377.899	83.38
378.125	80.38
378.35	83.38
378.576	73.38
378.802	78.38
379.027	84.38
379.253	64.38
379.478	84.38
379.704	82.38
379.929	82.38
380.155	88.38
380.38	73.38
380.606	89.38
380.831	82.38
381.057	74.38
381.282	73.38
381.507	81.38
381.733	79.38
381.958	95.38
382.184	74.38
382.409	74.38
382.634	87.38
382.86	86.38
383.085	83.38
383.31	90.38
383.535	93.38
383.761	82.38
383.986	93.38
384.211	92.38
384.436	60.38
384.662	82.38
384.887	73.38
385.112	96.38
385.337	88.38
385.562	82.38
385.787	80.38
386.013	93.38
386.238	86.38
386.463	82.38
386.688	89.38
386.913	86.38
387.138	80.38
387.363	85.38
387.588	113.38
387.813	88.38
388.038	94.38
388.263	84.38
388.488	78.38
388.713	98.38
388.938	87.38
389.163	80.38
389.387	78.38
389.612	84.38
389.837	70.38
390.062	83.38
390.287	87.38
390.512	82.38
390.736	81.38
390.961	80.38
391.186	88.38
391.411	104.38
391.636	95.38
391.86	78.38
392.085	88.38
392.31	64.38
392.534	84.38
392.759	100.38
392.984	103.38
393.208	121.38
393.433	158.38
393.658	132.38
393.882	94.38
394.107	97.38
394.331	85.38
394.556	95.38
394.78	84.38
395.005	70.38
395.229	68.38
395.454	81.38
395.678	80.38
395.903	90.38
396.127	97.38
396.352	99.38
396.576	103.38
396.801	120.38
397.025	132.38
397.249	116.38
397.474	96.38
397.698	77.38
397.922	91.38
398.147	86.38
398.371	88.38
398.595	88.38
398.82	92.38
399.044	74.38
399.268	105.38
399.492	82.38
399.717	80.38
399.941	79.38
400.165	89.38
400.389	67.38
400.613	82.38
400.837	81.38
401.062	71.38
401.286	81.38
401.51	94.38
401.734	92.38
401.958	86.38
402.182	77.38
402.406	71.38
402.63	86.38
402.854	81.38
403.078	93.38
403.302	89.38
403.526	79.38
403.75	79.38
403.974	70.38
404.198	79.38
404.422	74.38
404.645	73.38
404.869	84.38
405.093	71.38
405.317	91.38
405.541	73.38
405.765	98.38
405.988	89.38
406.212	79.38
406.436	66.38
406.66	82.38
406.883	82.38
407.107	86.38
407.331	72.38
407.555	86.38
407.778	86.38
408.002	87.38
408.226	77.38
408.449	84.38
408.673	89.38
408.896	74.38
409.12	80.38
409.344	101.38
409.567	82.38
409.791	94.38
410.014	94.38
410.238	92.38
410.461	91.38
410.685	96.38
410.908	95.38
411.132	98.38
411.355	93.38
411.578	84.38
411.802	74.38
412.025	76.38
412.249	84.38
412.472	93.38
412.695	81.38
412.919	90.38
413.142	99.38
413.365	75.38
413.589	67.38
413.812	97.38
414.035	80.38
414.258	84.38
414.482	91.38
414.705	75.38
414.928	86.38
415.151	74.38
415.374	77.38
415.597	84.38
415.821	99.38
416.044	87.38
416.267	82.38
416.49	94.38
416.713	75.38
416.936	70.38
417.159	85.38
417.382	89.38
417.605	87.38
417.828	84.38
418.051	92.38
418.274	70.38
418.497	77.38
418.72	89.38
418.943	83.38
419.166	81.38
419.389	86.38
419.611	87.38
419.834	83.38
420.057	94.38
420.28	78.38
420.503	92.38
420.726	71.38
420.948	87.38
421.171	86.38
421.394	85.38
421.617	93.38
421.839	112.38
422.062	106.38
422.285	117.38
422.507	162.38
422.73	213.38
422.953	206.38
423.175	120.38
423.398	106.38
423.621	89.38
423.843	89.38
424.066	87.38
424.288	87.38
424.511	75.38
424.733	88.38
424.956	88.38
425.178	84.38
425.401	92.38
425.623	91.38
425.846	86.38
426.068	106.38
426.291	68.38
426.513	90.38
426.735	80.38
426.958	82.38
427.18	78.38
427.402	96.38
427.625	98.38
427.847	83.38
428.069	82.38
428.292	86.38
428.514	84.38
428.736	96.38
428.958	95.38
429.181	108.38
429.403	86.38
429.625	98.38
429.847	81.38
430.069	121.38
430.292	115.38
430.514	114.38
430.736	112.38
430.958	107.38
431.18	80.38
431.402	69.38
431.624	84.38
431.846	88.38
432.068	103.38
432.29	94.38
432.512	95.38
432.734	79.38
432.956	89.38
433.178	85.38
433.4	68.38
433.622	80.38
433.844	83.38
434.066	82.38
434.287	79.38
434.509	60.38
434.731	80.38
434.953	72.38
435.175	71.38
435.397	76.38
435.618	86.38
435.84	88.38
436.062	93.38
436.284	68.38
436.505	76.38
436.727	86.38
436.949	102.38
437.17	88.38
437.392	74.38
437.614	78.38
437.835	89.38
438.057	80.38
438.278	86.38
438.5	92.38
438.721	84.38
438.943	84.38
439.165	82.38
439.386	86.38
439.608	86.38
439.829	76.38
440.05	104.38
440.272	82.38
440.493	88.38
440.715	80.38
440.936	82.38
441.158	80.38
441.379	94.38
441.6	84.38
441.822	79.38
442.043	89.38
442.264	82.38
442.486	90.38
442.707	110.38
442.928	109.38
443.149	96.38
443.371	100.38
443.592	149.38
443.813	116.38
444.034	94.38
444.255	85.38
444.476	65.38
444.698	84.38
444.919	86.38
445.14	147.38
445.361	148.38
445.582	145.38
445.803	139.38
446.024	90.38
446.245	88.38
446.466	93.38
446.687	74.38
446.908	108.38
447.129	78.38
447.35	82.38
447.571	87.38
447.792	74.38
448.013	89.38
448.234	75.38
448.455	80.38
448.675	86.38
448.896	84.38
449.117	82.38
449.338	86.38
449.559	67.38
449.779	81.38
450	86.38
450.221	93.38
450.442	82.38
450.662	86.38
450.883	92.38
451.104	101.38
451.324	74.38
451.545	74.38
451.766	87.38
451.986	83.38
452.207	97.38
452.428	73.38
452.648	75.38
452.869	101.38
453.089	72.38
453.31	77.38
453.53	70.38
453.751	83.38
453.971	79.38
454.192	87.38
454.412	92.38
454.633	85.38
454.853	81.38
455.073	93.38
455.294	77.38
455.514	78.38
455.734	88.38
455.955	87.38
456.175	80.38
456.395	81.38
456.616	73.38
456.836	88.38
457.056	95.38
457.276	83.38
457.497	82.38
457.717	90.38
457.937	88.38
458.157	100.38
458.377	101.38
458.598	88.38
458.818	95.38
459.038	73.38
459.258	87.38
459.478	85.38
459.698	86.38
459.918	96.38
460.138	77.38
460.358	78.38
460.578	95.38
460.798	106.38
461.018	94.38
461.238	87.38
461.458	100.38
461.678	89.38
461.898	74.38
462.118	75.38
462.338	100.38
462.558	76.38
462.777	85.38
462.997	88.38
463.217	78.38
463.437	85.38
463.657	70.38
463.876	79.38
464.096	91.38
464.316	80.38
464.536	85.38
464.755	87.38
464.975	90.38
465.195	88.38
465.414	90.38
465.634	69.38
465.854	72.38
466.073	85.38
466.293	80.38
466.512	74.38
466.732	80.38
466.951	82.38
467.171	92.38
467.391	78.38
467.61	85.38
467.829	91.38
468.049	81.38
468.268	99.38
468.488	92.38
468.707	97.38
468.927	79.38
469.146	78.38
469.365	80.38
469.585	75.38
469.804	106.38
470.023	97.38
470.243	78.38
470.462	72.38
470.681	84.38
470.901	89.38
471.12	81.38
471.339	76.38
471.558	97.38
471.777	93.38
471.997	72.38
472.216	80.38
472.435	94.38
472.654	94.38
472.873	95.38
473.092	76.38
473.311	79.38
473.53	87.38
473.749	87.38
473.968	89.38
474.187	98.38
474.406	81.38
474.625	79.38
474.844	99.38
475.063	72.38
475.282	88.38
475.501	95.38
475.72	87.38
475.939	93.38
476.158	83.38
476.377	94.38
476.596	70.38
476.814	92.38
477.033	81.38
477.252	85.38
477.471	86.38
477.69	77.38
477.908	83.38
478.127	78.38
478.346	76.38
478.564	66.38
478.783	78.38
479.002	91.38
479.22	81.38
479.439	75.38
479.658	72.38
479.876	80.38
480.095	65.38
480.313	94.38
480.532	77.38
480.751	86.38
480.969	80.38
481.188	66.38
481.406	71.38
481.624	90.38
481.843	88.38
482.061	90.38
482.28	73.38
482.498	82.38
482.717	81.38
482.935	101.38
483.153	90.38
483.372	94.38
483.59	81.38
483.808	87.38
484.027	78.38
484.245	85.38
484.463	81.38
484.681	92.38
484.9	92.38
485.118	90.38
485.336	94.38
485.554	82.38
485.772	84.38
485.99	85.38
486.209	92.38
486.427	83.38
486.645	91.38
486.863	86.38
487.081	82.38
487.299	92.38
487.517	82.38
487.735	89.38
487.953	117.38
488.171	113.38
488.389	95.38
488.607	86.38
488.825	77.38
489.043	93.38
489.261	89.38
489.479	75.38
489.696	90.38
489.914	99.38
490.132	84.38
490.35	92.38
490.568	92.38
490.786	74.38
491.003	82.38
491.221	81.38
491.439	74.38
491.657	94.38
491.874	84.38
492.092	86.38
492.31	90.38
492.527	92.38
492.745	90.38
492.963	88.38
493.18	92.38
493.398	82.38
493.615	84.38
493.833	84.38
494.05	89.38
494.268	93.38
494.485	96.38
494.703	88.38
494.92	87.38
495.138	86.38
495.355	92.38
495.573	81.38
495.79	85.38
496.008	80.38
496.225	97.38
496.442	110.38
496.66	82.38
496.877	97.38
497.094	85.38
497.312	92.38
497.529	93.38
497.746	74.38
497.963	95.38
498.181	88.38
498.398	80.38
498.615	80.38
498.832	88.38
499.049	76.38
499.267	93.38
499.484	78.38
499.701	96.38
499.918	97.38
500.135	98.38
500.352	82.38
500.569	85.38
500.786	95.38
501.003	86.38
501.22	86.38
501.437	87.38
501.654	86.38
501.871	68.38
502.088	73.38
502.305	93.38
502.522	97.38
502.739	83.38
502.956	69.38
503.172	87.38
503.389	83.38
503.606	79.38
503.823	81.38
504.04	101.38
504.256	116.38
504.473	108.38
504.69	89.38
504.907	87.38
505.123	86.38
505.34	94.38
505.557	77.38
505.773	82.38
505.99	81.38
506.207	71.38
506.423	89.38
506.64	76.38
506.856	93.38
507.073	87.38
507.289	93.38
507.506	80.38
507.722	83.38
507.939	90.38
508.155	82.38
508.372	88.38
508.588	83.38
508.805	110.38
509.021	87.38
509.238	93.38
509.454	97.38
509.67	86.38
509.887	87.38
510.103	89.38
510.319	87.38
510.536	81.38
510.752	74.38
510.968	76.38
511.184	91.38
511.401	80.38
511.617	90.38
511.833	92.38
512.049	85.38
512.265	89.38
512.481	101.38
512.698	89.38
512.914	86.38
513.13	90.38
513.346	88.38
513.562	86.38
513.778	75.38
513.994	92.38
514.21	89.38
514.426	83.38
514.642	90.38
514.858	85.38
515.074	90.38
515.29	91.38
515.506	76.38
515.721	89.38
515.937	86.38
516.153	92.38
516.369	82.38
516.585	90.38
516.801	89.38
517.016	98.38
517.232	87.38
517.448	95.38
517.664	82.38
517.879	90.38
518.095	94.38
518.311	86.38
518.527	82.38
518.742	91.38
518.958	112.38
519.173	117.38
