Data from 10100_1_HRD10591_00024.txt Node
Date: Mon Jan 19 14:00:36 EST 2026
User: Yrep
Spectrometer: HR+D1059
Trigger mode: 1
Integration Time (sec): 1.000000E-1
Scans to average: 1
Electric dark correction enabled: true
Nonlinearity correction enabled: false
Boxcar width: 0
XAxis mode: Wavelengths
Number of Pixels in Spectrum: 2048
>>>>>Begin Spectral Data<<<<<
223.165	-12.5
223.4	-12.5
223.635	-12.5
223.869	-22.5
224.104	-29.5
224.338	-15.5
224.573	-14.5
224.808	-8.5
225.042	-0.5
225.277	2.5
225.511	-15.5
225.746	3.5
225.98	4.5
226.215	3.5
226.449	16.5
226.683	23.5
226.918	28.5
227.152	36.5
227.387	36.5
227.621	34.5
227.856	38.5
228.09	37.5
228.324	40.5
228.559	53.5
228.793	57.5
229.027	43.5
229.262	66.5
229.496	62.5
229.73	69.5
229.964	59.5
230.199	77.5
230.433	50.5
230.667	84.5
230.901	67.5
231.136	72.5
231.37	84.5
231.604	84.5
231.838	81.5
232.072	83.5
232.306	66.5
232.541	82.5
232.775	79.5
233.009	76.5
233.243	94.5
233.477	78.5
233.711	81.5
233.945	72.5
234.179	84.5
234.413	84.5
234.647	68.5
234.881	87.5
235.115	86.5
235.349	64.5
235.583	81.5
235.817	86.5
236.051	81.5
236.285	76.5
236.519	77.5
236.753	78.5
236.987	67.5
237.221	68.5
237.455	69.5
237.689	75.5
237.922	62.5
238.156	73.5
238.39	65.5
238.624	72.5
238.858	90.5
239.091	77.5
239.325	58.5
239.559	78.5
239.793	75.5
240.027	77.5
240.26	55.5
240.494	64.5
240.728	73.5
240.961	76.5
241.195	77.5
241.429	77.5
241.662	74.5
241.896	83.5
242.13	74.5
242.363	79.5
242.597	70.5
242.83	81.5
243.064	84.5
243.298	72.5
243.531	64.5
243.765	79.5
243.998	68.5
244.232	83.5
244.465	74.5
244.699	84.5
244.932	77.5
245.166	70.5
245.399	85.5
245.633	84.5
245.866	74.5
246.099	83.5
246.333	86.5
246.566	88.5
246.8	71.5
247.033	68.5
247.266	63.5
247.5	77.5
247.733	67.5
247.966	83.5
248.2	76.5
248.433	76.5
248.666	80.5
248.899	76.5
249.133	88.5
249.366	83.5
249.599	79.5
249.832	76.5
250.066	64.5
250.299	61.5
250.532	85.5
250.765	79.5
250.998	81.5
251.231	78.5
251.465	78.5
251.698	75.5
251.931	87.5
252.164	72.5
252.397	70.5
252.63	76.5
252.863	73.5
253.096	85.5
253.329	72.5
253.562	71.5
253.795	73.5
254.028	87.5
254.261	85.5
254.494	79.5
254.727	88.5
254.96	72.5
255.193	85.5
255.426	77.5
255.659	67.5
255.892	83.5
256.124	97.5
256.357	81.5
256.59	87.5
256.823	90.5
257.056	75.5
257.289	78.5
257.521	75.5
257.754	83.5
257.987	81.5
258.22	71.5
258.452	96.5
258.685	73.5
258.918	64.5
259.151	88.5
259.383	88.5
259.616	78.5
259.849	70.5
260.081	80.5
260.314	72.5
260.547	62.5
260.779	82.5
261.012	89.5
261.244	79.5
261.477	82.5
261.71	92.5
261.942	84.5
262.175	72.5
262.407	74.5
262.64	72.5
262.872	57.5
263.105	82.5
263.337	75.5
263.57	83.5
263.802	77.5
264.035	82.5
264.267	88.5
264.499	87.5
264.732	71.5
264.964	75.5
265.197	70.5
265.429	85.5
265.661	74.5
265.894	79.5
266.126	73.5
266.358	88.5
266.591	81.5
266.823	75.5
267.055	71.5
267.287	80.5
267.52	65.5
267.752	80.5
267.984	70.5
268.216	75.5
268.448	79.5
268.681	77.5
268.913	76.5
269.145	80.5
269.377	88.5
269.609	73.5
269.841	68.5
270.073	71.5
270.306	86.5
270.538	87.5
270.77	74.5
271.002	83.5
271.234	92.5
271.466	86.5
271.698	85.5
271.93	76.5
272.162	93.5
272.394	73.5
272.626	84.5
272.858	78.5
273.09	64.5
273.322	78.5
273.553	72.5
273.785	83.5
274.017	74.5
274.249	89.5
274.481	99.5
274.713	73.5
274.945	73.5
275.176	86.5
275.408	76.5
275.64	67.5
275.872	85.5
276.104	80.5
276.335	76.5
276.567	74.5
276.799	78.5
277.031	90.5
277.262	83.5
277.494	94.5
277.726	83.5
277.957	85.5
278.189	86.5
278.421	91.5
278.652	84.5
278.884	81.5
279.115	79.5
279.347	79.5
279.579	88.5
279.81	82.5
280.042	75.5
280.273	86.5
280.505	79.5
280.736	77.5
280.968	79.5
281.199	78.5
281.431	68.5
281.662	79.5
281.894	81.5
282.125	93.5
282.356	95.5
282.588	77.5
282.819	85.5
283.051	81.5
283.282	75.5
283.513	83.5
283.745	81.5
283.976	72.5
284.207	81.5
284.439	79.5
284.67	81.5
284.901	98.5
285.132	89.5
285.364	85.5
285.595	84.5
285.826	78.5
286.057	85.5
286.288	67.5
286.52	86.5
286.751	79.5
286.982	88.5
287.213	74.5
287.444	86.5
287.675	98.5
287.906	87.5
288.138	69.5
288.369	91.5
288.6	80.5
288.831	75.5
289.062	74.5
289.293	77.5
289.524	86.5
289.755	96.5
289.986	71.5
290.217	85.5
290.448	77.5
290.679	94.5
290.91	86.5
291.141	89.5
291.371	90.5
291.602	81.5
291.833	65.5
292.064	88.5
292.295	63.5
292.526	79.5
292.757	80.5
292.987	87.5
293.218	85.5
293.449	85.5
293.68	85.5
293.91	87.5
294.141	85.5
294.372	80.5
294.603	74.5
294.833	79.5
295.064	74.5
295.295	79.5
295.525	74.5
295.756	79.5
295.987	72.5
296.217	76.5
296.448	80.5
296.679	83.5
296.909	83.5
297.14	82.5
297.37	82.5
297.601	88.5
297.831	71.5
298.062	70.5
298.292	84.5
298.523	86.5
298.753	91.5
298.984	93.5
299.214	70.5
299.445	77.5
299.675	73.5
299.905	98.5
300.136	95.5
300.366	88.5
300.597	103.5
300.827	85.5
301.057	74.5
301.288	89.5
301.518	90.5
301.748	71.5
301.979	93.5
302.209	87.5
302.439	83.5
302.669	86.5
302.9	76.5
303.13	77.5
303.36	78.5
303.59	84.5
303.82	79.5
304.051	84.5
304.281	81.5
304.511	85.5
304.741	96.5
304.971	93.5
305.201	76.5
305.431	85.5
305.661	100.5
305.891	97.5
306.121	88.5
306.352	81.5
306.582	70.5
306.812	76.5
307.042	85.5
307.272	90.5
307.502	97.5
307.731	80.5
307.961	75.5
308.191	72.5
308.421	88.5
308.651	94.5
308.881	86.5
309.111	79.5
309.341	85.5
309.571	86.5
309.8	79.5
310.03	85.5
310.26	83.5
310.49	76.5
310.72	68.5
310.949	80.5
311.179	84.5
311.409	83.5
311.639	86.5
311.868	73.5
312.098	76.5
312.328	90.5
312.557	85.5
312.787	84.5
313.017	83.5
313.246	73.5
313.476	76.5
313.706	79.5
313.935	85.5
314.165	75.5
314.394	82.5
314.624	91.5
314.853	74.5
315.083	81.5
315.312	85.5
315.542	81.5
315.771	81.5
316.001	87.5
316.23	92.5
316.46	83.5
316.689	78.5
316.919	81.5
317.148	74.5
317.377	95.5
317.607	87.5
317.836	83.5
318.065	84.5
318.295	93.5
318.524	91.5
318.753	83.5
318.983	72.5
319.212	91.5
319.441	87.5
319.67	94.5
319.9	81.5
320.129	94.5
320.358	85.5
320.587	80.5
320.816	90.5
321.046	72.5
321.275	93.5
321.504	91.5
321.733	77.5
321.962	79.5
322.191	91.5
322.42	92.5
322.649	111.5
322.878	79.5
323.108	87.5
323.337	84.5
323.566	71.5
323.795	84.5
324.024	85.5
324.253	74.5
324.482	81.5
324.71	86.5
324.939	86.5
325.168	85.5
325.397	85.5
325.626	99.5
325.855	72.5
326.084	74.5
326.313	89.5
326.542	84.5
326.77	89.5
326.999	87.5
327.228	107.5
327.457	79.5
327.686	80.5
327.914	86.5
328.143	107.5
328.372	87.5
328.6	82.5
328.829	83.5
329.058	84.5
329.287	82.5
329.515	87.5
329.744	86.5
329.972	84.5
330.201	77.5
330.43	80.5
330.658	91.5
330.887	79.5
331.115	89.5
331.344	91.5
331.572	80.5
331.801	67.5
332.03	79.5
332.258	91.5
332.486	84.5
332.715	93.5
332.943	95.5
333.172	98.5
333.4	80.5
333.629	92.5
333.857	92.5
334.085	88.5
334.314	96.5
334.542	85.5
334.771	88.5
334.999	93.5
335.227	83.5
335.455	79.5
335.684	107.5
335.912	88.5
336.14	96.5
336.369	92.5
336.597	87.5
336.825	91.5
337.053	82.5
337.281	98.5
337.51	95.5
337.738	116.5
337.966	79.5
338.194	73.5
338.422	83.5
338.65	87.5
338.878	82.5
339.106	85.5
339.334	84.5
339.562	86.5
339.79	88.5
340.018	87.5
340.246	83.5
340.474	82.5
340.702	70.5
340.93	79.5
341.158	95.5
341.386	76.5
341.614	96.5
341.842	83.5
342.07	79.5
342.298	84.5
342.526	88.5
342.754	72.5
342.981	80.5
343.209	74.5
343.437	94.5
343.665	81.5
343.893	81.5
344.12	112.5
344.348	87.5
344.576	85.5
344.804	73.5
345.031	100.5
345.259	89.5
345.487	77.5
345.714	67.5
345.942	81.5
346.17	73.5
346.397	84.5
346.625	96.5
346.853	67.5
347.08	83.5
347.308	88.5
347.535	83.5
347.763	84.5
347.99	78.5
348.218	82.5
348.445	74.5
348.673	100.5
348.9	83.5
349.128	104.5
349.355	87.5
349.583	83.5
349.81	83.5
350.037	86.5
350.265	91.5
350.492	87.5
350.72	77.5
350.947	81.5
351.174	84.5
351.402	96.5
351.629	78.5
351.856	96.5
352.083	91.5
352.311	86.5
352.538	86.5
352.765	87.5
352.992	93.5
353.22	86.5
353.447	89.5
353.674	92.5
353.901	70.5
354.128	71.5
354.355	73.5
354.583	79.5
354.81	84.5
355.037	91.5
355.264	92.5
355.491	78.5
355.718	77.5
355.945	81.5
356.172	71.5
356.399	88.5
356.626	63.5
356.853	83.5
357.08	83.5
357.307	87.5
357.534	88.5
357.761	89.5
357.988	95.5
358.215	92.5
358.441	90.5
358.668	84.5
358.895	80.5
359.122	87.5
359.349	85.5
359.576	78.5
359.802	71.5
360.029	81.5
360.256	79.5
360.483	86.5
360.709	92.5
360.936	91.5
361.163	81.5
361.39	91.5
361.616	94.5
361.843	94.5
362.07	79.5
362.296	87.5
362.523	89.5
362.749	92.5
362.976	110.5
363.203	113.5
363.429	93.5
363.656	91.5
363.882	99.5
364.109	105.5
364.335	120.5
364.562	123.5
364.788	109.5
365.015	93.5
365.241	96.5
365.468	75.5
365.694	79.5
365.92	79.5
366.147	85.5
366.373	81.5
366.599	82.5
366.826	75.5
367.052	73.5
367.278	85.5
367.505	84.5
367.731	103.5
367.957	95.5
368.184	84.5
368.41	81.5
368.636	88.5
368.862	101.5
369.089	78.5
369.315	78.5
369.541	86.5
369.767	107.5
369.993	103.5
370.219	82.5
370.445	81.5
370.672	94.5
370.898	89.5
371.124	82.5
371.35	95.5
371.576	69.5
371.802	88.5
372.028	87.5
372.254	109.5
372.48	87.5
372.706	102.5
372.932	95.5
373.158	85.5
373.384	93.5
373.61	103.5
373.835	101.5
374.061	104.5
374.287	101.5
374.513	72.5
374.739	86.5
374.965	92.5
375.191	91.5
375.416	93.5
375.642	94.5
375.868	94.5
376.094	92.5
376.319	96.5
376.545	93.5
376.771	97.5
376.997	96.5
377.222	85.5
377.448	95.5
377.674	85.5
377.899	84.5
378.125	87.5
378.35	79.5
378.576	85.5
378.802	88.5
379.027	83.5
379.253	71.5
379.478	77.5
379.704	85.5
379.929	81.5
380.155	88.5
380.38	82.5
380.606	92.5
380.831	69.5
381.057	80.5
381.282	80.5
381.507	88.5
381.733	87.5
381.958	72.5
382.184	92.5
382.409	83.5
382.634	99.5
382.86	79.5
383.085	96.5
383.31	91.5
383.535	87.5
383.761	81.5
383.986	92.5
384.211	99.5
384.436	79.5
384.662	91.5
384.887	87.5
385.112	83.5
385.337	65.5
385.562	86.5
385.787	95.5
386.013	99.5
386.238	88.5
386.463	88.5
386.688	93.5
386.913	86.5
387.138	85.5
387.363	90.5
387.588	83.5
387.813	86.5
388.038	85.5
388.263	92.5
388.488	74.5
388.713	83.5
388.938	101.5
389.163	100.5
389.387	78.5
389.612	81.5
389.837	90.5
390.062	74.5
390.287	85.5
390.512	85.5
390.736	72.5
390.961	97.5
391.186	88.5
391.411	102.5
391.636	83.5
391.86	88.5
392.085	94.5
392.31	80.5
392.534	90.5
392.759	105.5
392.984	131.5
393.208	183.5
393.433	238.5
393.658	195.5
393.882	115.5
394.107	111.5
394.331	104.5
394.556	99.5
394.78	98.5
395.005	99.5
395.229	102.5
395.454	83.5
395.678	94.5
395.903	101.5
396.127	107.5
396.352	111.5
396.576	136.5
396.801	177.5
397.025	206.5
397.249	131.5
397.474	91.5
397.698	96.5
397.922	88.5
398.147	91.5
398.371	85.5
398.595	94.5
398.82	69.5
399.044	78.5
399.268	88.5
399.492	78.5
399.717	73.5
399.941	94.5
400.165	81.5
400.389	85.5
400.613	75.5
400.837	77.5
401.062	82.5
401.286	93.5
401.51	94.5
401.734	87.5
401.958	80.5
402.182	81.5
402.406	75.5
402.63	63.5
402.854	79.5
403.078	77.5
403.302	87.5
403.526	64.5
403.75	74.5
403.974	87.5
404.198	97.5
404.422	98.5
404.645	93.5
404.869	88.5
405.093	93.5
405.317	80.5
405.541	77.5
405.765	79.5
405.988	79.5
406.212	90.5
406.436	71.5
406.66	87.5
406.883	95.5
407.107	85.5
407.331	89.5
407.555	87.5
407.778	90.5
408.002	97.5
408.226	86.5
408.449	80.5
408.673	99.5
408.896	79.5
409.12	80.5
409.344	93.5
409.567	90.5
409.791	105.5
410.014	72.5
410.238	97.5
410.461	91.5
410.685	87.5
410.908	75.5
411.132	75.5
411.355	95.5
411.578	81.5
411.802	87.5
412.025	70.5
412.249	74.5
412.472	78.5
412.695	86.5
412.919	92.5
413.142	68.5
413.365	87.5
413.589	88.5
413.812	84.5
414.035	89.5
414.258	79.5
414.482	95.5
414.705	89.5
414.928	76.5
415.151	84.5
415.374	96.5
415.597	86.5
415.821	81.5
416.044	77.5
416.267	83.5
416.49	80.5
416.713	88.5
416.936	104.5
417.159	92.5
417.382	85.5
417.605	87.5
417.828	81.5
418.051	71.5
418.274	85.5
418.497	91.5
418.72	80.5
418.943	93.5
419.166	96.5
419.389	88.5
419.611	95.5
419.834	94.5
420.057	87.5
420.28	98.5
420.503	74.5
420.726	89.5
420.948	88.5
421.171	92.5
421.394	103.5
421.617	97.5
421.839	115.5
422.062	101.5
422.285	144.5
422.507	219.5
422.73	299.5
422.953	288.5
423.175	179.5
423.398	125.5
423.621	111.5
423.843	92.5
424.066	98.5
424.288	101.5
424.511	89.5
424.733	83.5
424.956	85.5
425.178	77.5
425.401	85.5
425.623	99.5
425.846	81.5
426.068	91.5
426.291	86.5
426.513	89.5
426.735	78.5
426.958	93.5
427.18	91.5
427.402	101.5
427.625	73.5
427.847	78.5
428.069	97.5
428.292	102.5
428.514	108.5
428.736	95.5
428.958	117.5
429.181	113.5
429.403	100.5
429.625	95.5
429.847	109.5
430.069	130.5
430.292	150.5
430.514	149.5
430.736	118.5
430.958	123.5
431.18	98.5
431.402	84.5
431.624	83.5
431.846	120.5
432.068	107.5
432.29	101.5
432.512	91.5
432.734	87.5
432.956	81.5
433.178	89.5
433.4	87.5
433.622	92.5
433.844	83.5
434.066	71.5
434.287	91.5
434.509	68.5
434.731	81.5
434.953	74.5
435.175	87.5
435.397	91.5
435.618	90.5
435.84	83.5
436.062	82.5
436.284	84.5
436.505	99.5
436.727	78.5
436.949	88.5
437.17	84.5
437.392	75.5
437.614	89.5
437.835	78.5
438.057	76.5
438.278	80.5
438.5	96.5
438.721	72.5
438.943	68.5
439.165	80.5
439.386	67.5
439.608	84.5
439.829	83.5
440.05	78.5
440.272	83.5
440.493	84.5
440.715	83.5
440.936	74.5
441.158	98.5
441.379	81.5
441.6	74.5
441.822	96.5
442.043	92.5
442.264	95.5
442.486	117.5
442.707	133.5
442.928	104.5
443.149	104.5
443.371	124.5
443.592	192.5
443.813	180.5
444.034	97.5
444.255	110.5
444.476	81.5
444.698	81.5
444.919	81.5
445.14	158.5
445.361	147.5
445.582	212.5
445.803	186.5
446.024	107.5
446.245	92.5
446.466	75.5
446.687	79.5
446.908	84.5
447.129	82.5
447.35	80.5
447.571	70.5
447.792	83.5
448.013	87.5
448.234	80.5
448.455	79.5
448.675	92.5
448.896	81.5
449.117	75.5
449.338	91.5
449.559	91.5
449.779	88.5
450	82.5
450.221	80.5
450.442	81.5
450.662	73.5
450.883	82.5
451.104	72.5
451.324	84.5
451.545	67.5
451.766	85.5
451.986	79.5
452.207	81.5
452.428	79.5
452.648	76.5
452.869	88.5
453.089	75.5
453.31	91.5
453.53	87.5
453.751	86.5
453.971	87.5
454.192	93.5
454.412	100.5
454.633	87.5
454.853	92.5
455.073	85.5
455.294	85.5
455.514	80.5
455.734	86.5
455.955	81.5
456.175	84.5
456.395	83.5
456.616	84.5
456.836	94.5
457.056	83.5
457.276	80.5
457.497	94.5
457.717	84.5
457.937	110.5
458.157	112.5
458.377	113.5
458.598	100.5
458.818	119.5
459.038	103.5
459.258	83.5
459.478	87.5
459.698	75.5
459.918	69.5
460.138	86.5
460.358	81.5
460.578	104.5
460.798	103.5
461.018	97.5
461.238	96.5
461.458	99.5
461.678	96.5
461.898	86.5
462.118	80.5
462.338	88.5
462.558	81.5
462.777	86.5
462.997	75.5
463.217	95.5
463.437	77.5
463.657	78.5
463.876	87.5
464.096	81.5
464.316	84.5
464.536	76.5
464.755	84.5
464.975	69.5
465.195	75.5
465.414	85.5
465.634	84.5
465.854	77.5
466.073	74.5
466.293	81.5
466.512	89.5
466.732	86.5
466.951	77.5
467.171	72.5
467.391	86.5
467.61	83.5
467.829	93.5
468.049	77.5
468.268	94.5
468.488	72.5
468.707	85.5
468.927	81.5
469.146	91.5
469.365	85.5
469.585	83.5
469.804	88.5
470.023	89.5
470.243	87.5
470.462	85.5
470.681	65.5
470.901	72.5
471.12	88.5
471.339	71.5
471.558	89.5
471.777	83.5
471.997	104.5
472.216	88.5
472.435	97.5
472.654	80.5
472.873	73.5
473.092	71.5
473.311	85.5
473.53	83.5
473.749	84.5
473.968	93.5
474.187	97.5
474.406	85.5
474.625	77.5
474.844	71.5
475.063	85.5
475.282	77.5
475.501	82.5
475.72	83.5
475.939	80.5
476.158	97.5
476.377	94.5
476.596	95.5
476.814	91.5
477.033	82.5
477.252	80.5
477.471	80.5
477.69	87.5
477.908	96.5
478.127	78.5
478.346	90.5
478.564	76.5
478.783	91.5
479.002	83.5
479.22	83.5
479.439	88.5
479.658	88.5
479.876	77.5
480.095	84.5
480.313	82.5
480.532	80.5
480.751	79.5
480.969	70.5
481.188	91.5
481.406	91.5
481.624	91.5
481.843	75.5
482.061	81.5
482.28	79.5
482.498	102.5
482.717	93.5
482.935	91.5
483.153	93.5
483.372	76.5
483.59	86.5
483.808	86.5
484.027	91.5
484.245	85.5
484.463	86.5
484.681	92.5
484.9	103.5
485.118	94.5
485.336	89.5
485.554	79.5
485.772	83.5
485.99	78.5
486.209	85.5
486.427	93.5
486.645	87.5
486.863	89.5
487.081	97.5
487.299	96.5
487.517	91.5
487.735	113.5
487.953	151.5
488.171	129.5
488.389	99.5
488.607	83.5
488.825	75.5
489.043	95.5
489.261	97.5
489.479	94.5
489.696	84.5
489.914	89.5
490.132	88.5
490.35	91.5
490.568	88.5
490.786	95.5
491.003	86.5
491.221	84.5
491.439	95.5
491.657	91.5
491.874	71.5
492.092	85.5
492.31	96.5
492.527	92.5
492.745	79.5
492.963	94.5
493.18	91.5
493.398	92.5
493.615	89.5
493.833	92.5
494.05	81.5
494.268	81.5
494.485	84.5
494.703	84.5
494.92	91.5
495.138	96.5
495.355	80.5
495.573	93.5
495.79	99.5
496.008	94.5
496.225	81.5
496.442	99.5
496.66	87.5
496.877	81.5
497.094	91.5
497.312	83.5
497.529	76.5
497.746	78.5
497.963	92.5
498.181	95.5
498.398	98.5
498.615	91.5
498.832	86.5
499.049	102.5
499.267	93.5
499.484	95.5
499.701	104.5
499.918	79.5
500.135	95.5
500.352	81.5
500.569	73.5
500.786	96.5
501.003	92.5
501.22	93.5
501.437	101.5
501.654	91.5
501.871	100.5
502.088	84.5
502.305	91.5
502.522	83.5
502.739	94.5
502.956	85.5
503.172	83.5
503.389	91.5
503.606	87.5
503.823	98.5
504.04	99.5
504.256	120.5
504.473	117.5
504.69	90.5
504.907	91.5
505.123	95.5
505.34	90.5
505.557	87.5
505.773	93.5
505.99	82.5
506.207	78.5
506.423	91.5
506.64	89.5
506.856	87.5
507.073	91.5
507.289	85.5
507.506	95.5
507.722	69.5
507.939	88.5
508.155	101.5
508.372	83.5
508.588	86.5
508.805	88.5
509.021	78.5
509.238	97.5
509.454	88.5
509.67	90.5
509.887	83.5
510.103	81.5
510.319	83.5
510.536	94.5
510.752	82.5
510.968	91.5
511.184	83.5
511.401	88.5
511.617	88.5
511.833	79.5
512.049	89.5
512.265	79.5
512.481	86.5
512.698	91.5
512.914	83.5
513.13	82.5
513.346	99.5
513.562	92.5
513.778	83.5
513.994	78.5
514.21	85.5
514.426	83.5
514.642	84.5
514.858	87.5
515.074	103.5
515.29	82.5
515.506	85.5
515.721	95.5
515.937	94.5
516.153	97.5
516.369	95.5
516.585	86.5
516.801	87.5
517.016	98.5
517.232	99.5
517.448	93.5
517.664	89.5
517.879	85.5
518.095	83.5
518.311	88.5
518.527	109.5
518.742	97.5
518.958	136.5
519.173	142.5
519.389	91.5
519.605	92.5
519.82	81.5
520.036	81.5
520.251	94.5
520.467	81.5
520.682	93.5
520.898	85.5
521.113	99.5
521.329	105.5
521.544	80.5
521.76	81.5
521.975	62.5
522.19	79.5
522.406	86.5
522.621	95.5
522.836	101.5
523.052	70.5
523.267	83.5
523.482	77.5
523.698	79.5
523.913	103.5
524.128	98.5
524.343	101.5
524.559	89.5
524.774	95.5
524.989	108.5
525.204	93.5
525.419	94.5
525.634	80.5
525.849	102.5
526.064	120.5
526.28	167.5
526.495	241.5
526.71	246.5
526.925	172.5
527.14	222.5
527.355	196.5
527.57	94.5
527.785	92.5
527.999	83.5
528.214	103.5
528.429	87.5
528.644	99.5
528.859	82.5
529.074	94.5
529.289	88.5
529.503	110.5
529.718	95.5
529.933	93.5
530.148	94.5
530.363	102.5
530.577	89.5
530.792	92.5
531.007	93.5
531.221	95.5
531.436	92.5
531.651	99.5
531.865	104.5
532.08	107.5
532.295	94.5
532.509	115.5
532.724	111.5
532.938	97.5
533.153	107.5
533.367	84.5
533.582	101.5
533.796	102.5
534.011	97.5
534.225	119.5
534.44	101.5
534.654	102.5
534.868	108.5
535.083	144.5
535.297	122.5
535.511	99.5
535.726	103.5
535.94	102.5
536.154	109.5
536.369	93.5
536.583	99.5
536.797	90.5
537.011	110.5
537.225	111.5
537.44	98.5
537.654	97.5
537.868	92.5
538.082	111.5
538.296	99.5
538.51	104.5
