Data from 10100_1_HRD10591_00010.txt Node
Date: Mon Jan 19 14:00:29 EST 2026
User: Yrep
Spectrometer: HR+D1059
Trigger mode: 1
Integration Time (sec): 1.000000E-1
Scans to average: 1
Electric dark correction enabled: true
Nonlinearity correction enabled: false
Boxcar width: 0
XAxis mode: Wavelengths
Number of Pixels in Spectrum: 2048
>>>>>Begin Spectral Data<<<<<
223.165	-25.88
223.4	-25.88
223.635	-25.88
223.869	-22.88
224.104	-12.88
224.338	-5.88
224.573	-17.88
224.808	-14.88
225.042	-3.88
225.277	-3.88
225.511	-0.88
225.746	4.12
225.98	-0.88
226.215	15.12
226.449	29.12
226.683	25.12
226.918	19.12
227.152	17.12
227.387	21.12
227.621	35.12
227.856	42.12
228.09	65.12
228.324	68.12
228.559	61.12
228.793	54.12
229.027	56.12
229.262	62.12
229.496	49.12
229.73	64.12
229.964	80.12
230.199	62.12
230.433	68.12
230.667	71.12
230.901	71.12
231.136	87.12
231.37	71.12
231.604	84.12
231.838	79.12
232.072	71.12
232.306	68.12
232.541	78.12
232.775	81.12
233.009	71.12
233.243	71.12
233.477	86.12
233.711	69.12
233.945	89.12
234.179	81.12
234.413	85.12
234.647	80.12
234.881	73.12
235.115	76.12
235.349	82.12
235.583	72.12
235.817	75.12
236.051	83.12
236.285	68.12
236.519	71.12
236.753	83.12
236.987	71.12
237.221	85.12
237.455	69.12
237.689	80.12
237.922	80.12
238.156	74.12
238.39	70.12
238.624	68.12
238.858	65.12
239.091	84.12
239.325	79.12
239.559	69.12
239.793	74.12
240.027	75.12
240.26	75.12
240.494	75.12
240.728	60.12
240.961	82.12
241.195	67.12
241.429	61.12
241.662	79.12
241.896	75.12
242.13	82.12
242.363	77.12
242.597	78.12
242.83	89.12
243.064	73.12
243.298	64.12
243.531	76.12
243.765	75.12
243.998	82.12
244.232	76.12
244.465	82.12
244.699	75.12
244.932	68.12
245.166	65.12
245.399	64.12
245.633	75.12
245.866	78.12
246.099	66.12
246.333	59.12
246.566	63.12
246.8	74.12
247.033	66.12
247.266	71.12
247.5	70.12
247.733	69.12
247.966	69.12
248.2	63.12
248.433	84.12
248.666	69.12
248.899	77.12
249.133	75.12
249.366	86.12
249.599	77.12
249.832	78.12
250.066	88.12
250.299	69.12
250.532	74.12
250.765	86.12
250.998	69.12
251.231	70.12
251.465	70.12
251.698	69.12
251.931	66.12
252.164	79.12
252.397	67.12
252.63	69.12
252.863	76.12
253.096	69.12
253.329	73.12
253.562	83.12
253.795	68.12
254.028	83.12
254.261	74.12
254.494	78.12
254.727	76.12
254.96	81.12
255.193	60.12
255.426	77.12
255.659	76.12
255.892	81.12
256.124	89.12
256.357	76.12
256.59	78.12
256.823	74.12
257.056	66.12
257.289	56.12
257.521	92.12
257.754	74.12
257.987	70.12
258.22	76.12
258.452	71.12
258.685	94.12
258.918	67.12
259.151	70.12
259.383	86.12
259.616	95.12
259.849	84.12
260.081	89.12
260.314	77.12
260.547	78.12
260.779	69.12
261.012	77.12
261.244	65.12
261.477	83.12
261.71	69.12
261.942	77.12
262.175	81.12
262.407	77.12
262.64	67.12
262.872	92.12
263.105	80.12
263.337	80.12
263.57	72.12
263.802	78.12
264.035	69.12
264.267	76.12
264.499	77.12
264.732	83.12
264.964	74.12
265.197	85.12
265.429	77.12
265.661	67.12
265.894	67.12
266.126	73.12
266.358	80.12
266.591	80.12
266.823	71.12
267.055	86.12
267.287	89.12
267.52	86.12
267.752	75.12
267.984	82.12
268.216	71.12
268.448	81.12
268.681	82.12
268.913	84.12
269.145	83.12
269.377	83.12
269.609	54.12
269.841	75.12
270.073	81.12
270.306	89.12
270.538	71.12
270.77	78.12
271.002	78.12
271.234	86.12
271.466	81.12
271.698	67.12
271.93	72.12
272.162	83.12
272.394	85.12
272.626	80.12
272.858	87.12
273.09	70.12
273.322	83.12
273.553	81.12
273.785	83.12
274.017	83.12
274.249	78.12
274.481	84.12
274.713	78.12
274.945	89.12
275.176	83.12
275.408	83.12
275.64	71.12
275.872	76.12
276.104	77.12
276.335	66.12
276.567	74.12
276.799	79.12
277.031	79.12
277.262	74.12
277.494	76.12
277.726	87.12
277.957	69.12
278.189	84.12
278.421	91.12
278.652	76.12
278.884	88.12
279.115	84.12
279.347	90.12
279.579	74.12
279.81	88.12
280.042	69.12
280.273	85.12
280.505	86.12
280.736	72.12
280.968	75.12
281.199	79.12
281.431	83.12
281.662	71.12
281.894	76.12
282.125	77.12
282.356	92.12
282.588	85.12
282.819	69.12
283.051	66.12
283.282	78.12
283.513	99.12
283.745	73.12
283.976	71.12
284.207	70.12
284.439	72.12
284.67	70.12
284.901	89.12
285.132	88.12
285.364	78.12
285.595	92.12
285.826	77.12
286.057	72.12
286.288	74.12
286.52	72.12
286.751	78.12
286.982	77.12
287.213	82.12
287.444	89.12
287.675	82.12
287.906	67.12
288.138	89.12
288.369	80.12
288.6	80.12
288.831	76.12
289.062	83.12
289.293	85.12
289.524	81.12
289.755	84.12
289.986	79.12
290.217	85.12
290.448	84.12
290.679	83.12
290.91	77.12
291.141	77.12
291.371	81.12
291.602	90.12
291.833	77.12
292.064	79.12
292.295	86.12
292.526	61.12
292.757	80.12
292.987	67.12
293.218	69.12
293.449	90.12
293.68	88.12
293.91	72.12
294.141	76.12
294.372	84.12
294.603	80.12
294.833	82.12
295.064	96.12
295.295	92.12
295.525	81.12
295.756	82.12
295.987	85.12
296.217	77.12
296.448	86.12
296.679	88.12
296.909	89.12
297.14	90.12
297.37	73.12
297.601	76.12
297.831	85.12
298.062	95.12
298.292	79.12
298.523	87.12
298.753	86.12
298.984	90.12
299.214	77.12
299.445	89.12
299.675	89.12
299.905	88.12
300.136	89.12
300.366	87.12
300.597	73.12
300.827	74.12
301.057	84.12
301.288	82.12
301.518	89.12
301.748	74.12
301.979	109.12
302.209	78.12
302.439	85.12
302.669	78.12
302.9	76.12
303.13	76.12
303.36	87.12
303.59	74.12
303.82	82.12
304.051	70.12
304.281	89.12
304.511	95.12
304.741	88.12
304.971	73.12
305.201	83.12
305.431	90.12
305.661	81.12
305.891	72.12
306.121	107.12
306.352	77.12
306.582	87.12
306.812	83.12
307.042	73.12
307.272	92.12
307.502	80.12
307.731	80.12
307.961	84.12
308.191	81.12
308.421	82.12
308.651	69.12
308.881	74.12
309.111	76.12
309.341	93.12
309.571	84.12
309.8	86.12
310.03	82.12
310.26	81.12
310.49	89.12
310.72	91.12
310.949	84.12
311.179	84.12
311.409	65.12
311.639	78.12
311.868	77.12
312.098	77.12
312.328	79.12
312.557	97.12
312.787	71.12
313.017	89.12
313.246	77.12
313.476	81.12
313.706	87.12
313.935	82.12
314.165	100.12
314.394	80.12
314.624	68.12
314.853	80.12
315.083	81.12
315.312	94.12
315.542	93.12
315.771	84.12
316.001	64.12
316.23	74.12
316.46	93.12
316.689	77.12
316.919	83.12
317.148	85.12
317.377	67.12
317.607	88.12
317.836	89.12
318.065	94.12
318.295	76.12
318.524	85.12
318.753	92.12
318.983	85.12
319.212	89.12
319.441	78.12
319.67	86.12
319.9	82.12
320.129	82.12
320.358	91.12
320.587	85.12
320.816	79.12
321.046	86.12
321.275	84.12
321.504	87.12
321.733	83.12
321.962	82.12
322.191	89.12
322.42	87.12
322.649	95.12
322.878	81.12
323.108	84.12
323.337	77.12
323.566	79.12
323.795	85.12
324.024	84.12
324.253	88.12
324.482	79.12
324.71	83.12
324.939	89.12
325.168	83.12
325.397	82.12
325.626	75.12
325.855	87.12
326.084	84.12
326.313	83.12
326.542	77.12
326.77	80.12
326.999	81.12
327.228	102.12
327.457	70.12
327.686	93.12
327.914	64.12
328.143	79.12
328.372	93.12
328.6	77.12
328.829	78.12
329.058	86.12
329.287	71.12
329.515	84.12
329.744	95.12
329.972	86.12
330.201	87.12
330.43	83.12
330.658	86.12
330.887	94.12
331.115	86.12
331.344	95.12
331.572	93.12
331.801	85.12
332.03	86.12
332.258	73.12
332.486	81.12
332.715	87.12
332.943	79.12
333.172	93.12
333.4	78.12
333.629	74.12
333.857	90.12
334.085	77.12
334.314	75.12
334.542	101.12
334.771	81.12
334.999	82.12
335.227	99.12
335.455	98.12
335.684	82.12
335.912	99.12
336.14	100.12
336.369	107.12
336.597	87.12
336.825	94.12
337.053	75.12
337.281	89.12
337.51	86.12
337.738	84.12
337.966	94.12
338.194	98.12
338.422	93.12
338.65	73.12
338.878	94.12
339.106	93.12
339.334	95.12
339.562	90.12
339.79	87.12
340.018	87.12
340.246	75.12
340.474	77.12
340.702	77.12
340.93	93.12
341.158	77.12
341.386	80.12
341.614	70.12
341.842	86.12
342.07	89.12
342.298	91.12
342.526	68.12
342.754	85.12
342.981	77.12
343.209	84.12
343.437	89.12
343.665	90.12
343.893	76.12
344.12	88.12
344.348	88.12
344.576	83.12
344.804	85.12
345.031	89.12
345.259	94.12
345.487	84.12
345.714	77.12
345.942	71.12
346.17	97.12
346.397	86.12
346.625	84.12
346.853	91.12
347.08	90.12
347.308	78.12
347.535	90.12
347.763	95.12
347.99	91.12
348.218	83.12
348.445	91.12
348.673	97.12
348.9	87.12
349.128	77.12
349.355	89.12
349.583	89.12
349.81	82.12
350.037	83.12
350.265	84.12
350.492	86.12
350.72	81.12
350.947	86.12
351.174	87.12
351.402	81.12
351.629	85.12
351.856	91.12
352.083	92.12
352.311	79.12
352.538	81.12
352.765	91.12
352.992	88.12
353.22	83.12
353.447	81.12
353.674	79.12
353.901	89.12
354.128	73.12
354.355	89.12
354.583	82.12
354.81	84.12
355.037	91.12
355.264	71.12
355.491	83.12
355.718	86.12
355.945	90.12
356.172	86.12
356.399	91.12
356.626	95.12
356.853	95.12
357.08	96.12
357.307	76.12
357.534	86.12
357.761	84.12
357.988	76.12
358.215	102.12
358.441	87.12
358.668	78.12
358.895	90.12
359.122	96.12
359.349	72.12
359.576	89.12
359.802	85.12
360.029	85.12
360.256	80.12
360.483	83.12
360.709	91.12
360.936	100.12
361.163	75.12
361.39	75.12
361.616	97.12
361.843	94.12
362.07	86.12
362.296	98.12
362.523	111.12
362.749	109.12
362.976	129.12
363.203	135.12
363.429	97.12
363.656	93.12
363.882	92.12
364.109	103.12
364.335	136.12
364.562	145.12
364.788	98.12
365.015	86.12
365.241	70.12
365.468	83.12
365.694	86.12
365.92	76.12
366.147	103.12
366.373	87.12
366.599	81.12
366.826	84.12
367.052	100.12
367.278	95.12
367.505	88.12
367.731	83.12
367.957	83.12
368.184	92.12
368.41	83.12
368.636	75.12
368.862	90.12
369.089	82.12
369.315	76.12
369.541	85.12
369.767	81.12
369.993	87.12
370.219	85.12
370.445	106.12
370.672	97.12
370.898	94.12
371.124	92.12
371.35	75.12
371.576	73.12
371.802	85.12
372.028	93.12
372.254	101.12
372.48	86.12
372.706	79.12
372.932	87.12
373.158	84.12
373.384	108.12
373.61	103.12
373.835	109.12
374.061	81.12
374.287	81.12
374.513	95.12
374.739	107.12
374.965	101.12
375.191	98.12
375.416	93.12
375.642	86.12
375.868	93.12
376.094	99.12
376.319	77.12
376.545	100.12
376.771	86.12
376.997	87.12
377.222	89.12
377.448	85.12
377.674	72.12
377.899	79.12
378.125	90.12
378.35	90.12
378.576	91.12
378.802	84.12
379.027	97.12
379.253	86.12
379.478	77.12
379.704	79.12
379.929	98.12
380.155	86.12
380.38	71.12
380.606	92.12
380.831	84.12
381.057	89.12
381.282	87.12
381.507	97.12
381.733	80.12
381.958	100.12
382.184	87.12
382.409	99.12
382.634	92.12
382.86	98.12
383.085	98.12
383.31	99.12
383.535	100.12
383.761	85.12
383.986	96.12
384.211	85.12
384.436	91.12
384.662	92.12
384.887	98.12
385.112	90.12
385.337	84.12
385.562	82.12
385.787	91.12
386.013	85.12
386.238	85.12
386.463	92.12
386.688	89.12
386.913	91.12
387.138	73.12
387.363	92.12
387.588	87.12
387.813	81.12
388.038	103.12
388.263	80.12
388.488	82.12
388.713	84.12
388.938	90.12
389.163	88.12
389.387	91.12
389.612	83.12
389.837	92.12
390.062	81.12
390.287	89.12
390.512	100.12
390.736	85.12
390.961	92.12
391.186	87.12
391.411	85.12
391.636	92.12
391.86	96.12
392.085	87.12
392.31	96.12
392.534	100.12
392.759	127.12
392.984	134.12
393.208	222.12
393.433	334.12
393.658	240.12
393.882	146.12
394.107	115.12
394.331	98.12
394.556	119.12
394.78	100.12
395.005	89.12
395.229	80.12
395.454	86.12
395.678	109.12
395.903	139.12
396.127	127.12
396.352	135.12
396.576	171.12
396.801	241.12
397.025	258.12
397.249	178.12
397.474	135.12
397.698	109.12
397.922	96.12
398.147	71.12
398.371	64.12
398.595	98.12
398.82	89.12
399.044	93.12
399.268	96.12
399.492	84.12
399.717	97.12
399.941	81.12
400.165	91.12
400.389	82.12
400.613	95.12
400.837	86.12
401.062	86.12
401.286	82.12
401.51	92.12
401.734	86.12
401.958	80.12
402.182	87.12
402.406	79.12
402.63	89.12
402.854	78.12
403.078	93.12
403.302	90.12
403.526	95.12
403.75	85.12
403.974	79.12
404.198	83.12
404.422	105.12
404.645	89.12
404.869	89.12
405.093	87.12
405.317	86.12
405.541	73.12
405.765	92.12
405.988	70.12
406.212	101.12
406.436	72.12
406.66	85.12
406.883	84.12
407.107	94.12
407.331	82.12
407.555	89.12
407.778	113.12
408.002	101.12
408.226	89.12
408.449	80.12
408.673	79.12
408.896	87.12
409.12	87.12
409.344	108.12
409.567	105.12
409.791	106.12
410.014	116.12
410.238	95.12
410.461	85.12
410.685	94.12
410.908	83.12
411.132	81.12
411.355	90.12
411.578	86.12
411.802	89.12
412.025	86.12
412.249	81.12
412.472	82.12
412.695	87.12
412.919	87.12
413.142	86.12
413.365	72.12
413.589	83.12
413.812	86.12
414.035	78.12
414.258	73.12
414.482	77.12
414.705	85.12
414.928	89.12
415.151	93.12
415.374	90.12
415.597	87.12
415.821	97.12
416.044	85.12
416.267	78.12
416.49	69.12
416.713	82.12
416.936	77.12
417.159	80.12
417.382	76.12
417.605	82.12
417.828	83.12
418.051	94.12
418.274	80.12
418.497	72.12
418.72	111.12
418.943	107.12
419.166	85.12
419.389	91.12
419.611	81.12
419.834	89.12
420.057	92.12
420.28	102.12
420.503	81.12
420.726	83.12
420.948	97.12
421.171	100.12
421.394	117.12
421.617	110.12
421.839	134.12
422.062	150.12
422.285	209.12
422.507	333.12
422.73	457.12
422.953	425.12
423.175	266.12
423.398	176.12
423.621	126.12
423.843	127.12
424.066	110.12
424.288	103.12
424.511	91.12
424.733	103.12
424.956	89.12
425.178	93.12
425.401	92.12
425.623	101.12
425.846	95.12
426.068	90.12
426.291	93.12
426.513	80.12
426.735	82.12
426.958	78.12
427.18	80.12
427.402	85.12
427.625	87.12
427.847	84.12
428.069	99.12
428.292	138.12
428.514	147.12
428.736	112.12
428.958	115.12
429.181	135.12
429.403	105.12
429.625	84.12
429.847	120.12
430.069	170.12
430.292	195.12
430.514	182.12
430.736	141.12
430.958	151.12
431.18	108.12
431.402	95.12
431.624	94.12
431.846	122.12
432.068	137.12
432.29	105.12
432.512	97.12
432.734	96.12
432.956	67.12
433.178	75.12
433.4	83.12
433.622	99.12
433.844	92.12
434.066	85.12
434.287	69.12
434.509	77.12
434.731	81.12
434.953	72.12
435.175	93.12
435.397	99.12
435.618	79.12
435.84	86.12
436.062	89.12
436.284	81.12
436.505	85.12
436.727	79.12
436.949	61.12
437.17	88.12
437.392	85.12
437.614	86.12
437.835	71.12
438.057	90.12
438.278	81.12
438.5	78.12
438.721	88.12
438.943	81.12
439.165	84.12
439.386	89.12
439.608	91.12
439.829	80.12
440.05	96.12
440.272	90.12
440.493	66.12
440.715	88.12
440.936	83.12
441.158	89.12
441.379	86.12
441.6	75.12
441.822	74.12
442.043	91.12
442.264	96.12
442.486	141.12
442.707	196.12
442.928	134.12
443.149	115.12
443.371	159.12
443.592	267.12
443.813	252.12
444.034	113.12
444.255	108.12
444.476	101.12
444.698	91.12
444.919	95.12
445.14	165.12
445.361	219.12
445.582	311.12
445.803	302.12
446.024	139.12
446.245	99.12
446.466	93.12
446.687	72.12
446.908	90.12
447.129	83.12
447.35	89.12
447.571	79.12
447.792	92.12
448.013	69.12
448.234	82.12
448.455	86.12
448.675	71.12
448.896	81.12
449.117	76.12
449.338	76.12
449.559	84.12
449.779	90.12
450	91.12
450.221	71.12
450.442	91.12
450.662	88.12
450.883	84.12
451.104	84.12
451.324	83.12
451.545	79.12
451.766	82.12
451.986	76.12
452.207	89.12
452.428	92.12
452.648	81.12
452.869	97.12
453.089	93.12
453.31	89.12
453.53	106.12
453.751	76.12
453.971	83.12
454.192	78.12
454.412	90.12
454.633	102.12
454.853	72.12
455.073	90.12
455.294	97.12
455.514	90.12
455.734	91.12
455.955	92.12
456.175	82.12
456.395	82.12
456.616	86.12
456.836	74.12
457.056	95.12
457.276	80.12
457.497	82.12
457.717	98.12
457.937	125.12
458.157	132.12
458.377	142.12
458.598	135.12
458.818	144.12
459.038	90.12
459.258	89.12
459.478	86.12
459.698	92.12
459.918	83.12
460.138	89.12
460.358	82.12
460.578	99.12
460.798	114.12
461.018	111.12
461.238	109.12
461.458	82.12
461.678	83.12
461.898	90.12
462.118	96.12
462.338	94.12
462.558	80.12
462.777	94.12
462.997	81.12
463.217	77.12
463.437	85.12
463.657	73.12
463.876	81.12
464.096	77.12
464.316	75.12
464.536	77.12
464.755	85.12
464.975	74.12
465.195	77.12
465.414	77.12
465.634	98.12
465.854	84.12
466.073	96.12
466.293	75.12
466.512	93.12
466.732	81.12
466.951	89.12
467.171	61.12
467.391	74.12
467.61	75.12
467.829	82.12
468.049	86.12
468.268	80.12
468.488	81.12
468.707	92.12
468.927	99.12
469.146	77.12
469.365	81.12
469.585	78.12
469.804	97.12
470.023	81.12
470.243	95.12
470.462	92.12
470.681	90.12
470.901	84.12
471.12	77.12
471.339	75.12
471.558	101.12
471.777	70.12
471.997	82.12
472.216	86.12
472.435	91.12
472.654	73.12
472.873	99.12
473.092	84.12
473.311	95.12
473.53	77.12
473.749	78.12
473.968	81.12
474.187	91.12
474.406	85.12
474.625	83.12
474.844	109.12
475.063	82.12
475.282	93.12
475.501	79.12
475.72	94.12
475.939	85.12
476.158	84.12
476.377	85.12
476.596	91.12
476.814	77.12
477.033	96.12
477.252	89.12
477.471	65.12
477.69	81.12
477.908	92.12
478.127	101.12
478.346	85.12
478.564	84.12
478.783	85.12
479.002	71.12
479.22	60.12
479.439	81.12
479.658	89.12
479.876	91.12
480.095	76.12
480.313	83.12
480.532	85.12
480.751	90.12
480.969	87.12
481.188	92.12
481.406	82.12
481.624	95.12
481.843	93.12
482.061	86.12
482.28	92.12
482.498	85.12
482.717	79.12
482.935	82.12
483.153	84.12
483.372	90.12
483.59	93.12
483.808	91.12
484.027	90.12
484.245	95.12
484.463	95.12
484.681	101.12
484.9	93.12
485.118	87.12
485.336	99.12
485.554	84.12
485.772	103.12
485.99	95.12
486.209	96.12
486.427	79.12
486.645	68.12
486.863	81.12
487.081	78.12
487.299	86.12
487.517	97.12
487.735	141.12
487.953	208.12
488.171	170.12
488.389	92.12
488.607	86.12
488.825	94.12
489.043	83.12
489.261	85.12
489.479	105.12
489.696	77.12
489.914	83.12
490.132	102.12
490.35	94.12
490.568	94.12
490.786	78.12
491.003	95.12
491.221	84.12
491.439	78.12
491.657	98.12
491.874	82.12
492.092	83.12
492.31	100.12
492.527	89.12
492.745	96.12
492.963	90.12
493.18	113.12
493.398	85.12
493.615	105.12
493.833	94.12
494.05	96.12
494.268	92.12
494.485	78.12
494.703	88.12
494.92	83.12
495.138	84.12
495.355	89.12
495.573	94.12
495.79	94.12
496.008	85.12
496.225	94.12
496.442	93.12
496.66	94.12
496.877	83.12
497.094	85.12
497.312	79.12
497.529	89.12
497.746	72.12
497.963	102.12
498.181	106.12
498.398	87.12
498.615	81.12
498.832	82.12
499.049	87.12
499.267	96.12
499.484	87.12
499.701	86.12
499.918	92.12
500.135	93.12
500.352	95.12
500.569	71.12
500.786	90.12
501.003	89.12
501.22	80.12
501.437	95.12
501.654	101.12
501.871	99.12
502.088	76.12
502.305	85.12
502.522	80.12
502.739	99.12
502.956	81.12
503.172	113.12
503.389	92.12
503.606	89.12
503.823	81.12
504.04	113.12
504.256	153.12
504.473	177.12
504.69	107.12
504.907	96.12
505.123	90.12
505.34	83.12
505.557	87.12
505.773	89.12
505.99	97.12
506.207	77.12
506.423	89.12
506.64	99.12
506.856	85.12
507.073	105.12
507.289	77.12
507.506	82.12
507.722	99.12
507.939	92.12
508.155	94.12
508.372	79.12
508.588	105.12
508.805	88.12
509.021	85.12
509.238	96.12
509.454	91.12
509.67	89.12
509.887	93.12
510.103	79.12
510.319	98.12
510.536	80.12
510.752	93.12
510.968	80.12
511.184	67.12
511.401	76.12
511.617	99.12
511.833	89.12
512.049	85.12
512.265	77.12
512.481	85.12
512.698	80.12
512.914	85.12
513.13	77.12
513.346	82.12
513.562	86.12
513.778	95.12
513.994	76.12
514.21	96.12
514.426	91.12
514.642	79.12
514.858	79.12
515.074	86.12
515.29	113.12
515.506	90.12
515.721	85.12
515.937	99.12
516.153	83.12
516.369	89.12
516.585	89.12
516.801	104.12
517.016	99.12
517.232	102.12
517.448	99.12
517.664	88.12
517.879	83.12
518.095	97.12
518.311	89.12
