Data from 10100_1_HRD10591_00036.txt Node
Date: Mon Jan 19 14:00:42 EST 2026
User: Yrep
Spectrometer: HR+D1059
Trigger mode: 1
Integration Time (sec): 1.000000E-1
Scans to average: 1
Electric dark correction enabled: true
Nonlinearity correction enabled: false
Boxcar width: 0
XAxis mode: Wavelengths
Number of Pixels in Spectrum: 2048
>>>>>Begin Spectral Data<<<<<
223.165	-31.94
223.4	-31.94
223.635	-31.94
223.869	-15.94
224.104	-29.94
224.338	-8.94
224.573	-9.94
224.808	-9.94
225.042	-9.94
225.277	-11.94
225.511	-8.94
225.746	4.06
225.98	9.06
226.215	22.06
226.449	26.06
226.683	33.06
226.918	28.06
227.152	15.06
227.387	35.06
227.621	32.06
227.856	49.06
228.09	33.06
228.324	62.06
228.559	61.06
228.793	64.06
229.027	61.06
229.262	73.06
229.496	81.06
229.73	66.06
229.964	86.06
230.199	77.06
230.433	75.06
230.667	79.06
230.901	74.06
231.136	71.06
231.37	83.06
231.604	66.06
231.838	78.06
232.072	85.06
232.306	89.06
232.541	86.06
232.775	90.06
233.009	77.06
233.243	89.06
233.477	88.06
233.711	82.06
233.945	71.06
234.179	73.06
234.413	78.06
234.647	79.06
234.881	79.06
235.115	89.06
235.349	67.06
235.583	69.06
235.817	66.06
236.051	61.06
236.285	75.06
236.519	82.06
236.753	75.06
236.987	85.06
237.221	79.06
237.455	85.06
237.689	76.06
237.922	70.06
238.156	74.06
238.39	73.06
238.624	81.06
238.858	79.06
239.091	84.06
239.325	75.06
239.559	81.06
239.793	82.06
240.027	91.06
240.26	83.06
240.494	84.06
240.728	73.06
240.961	70.06
241.195	66.06
241.429	60.06
241.662	78.06
241.896	92.06
242.13	69.06
242.363	70.06
242.597	91.06
242.83	71.06
243.064	83.06
243.298	69.06
243.531	75.06
243.765	87.06
243.998	79.06
244.232	81.06
244.465	78.06
244.699	76.06
244.932	65.06
245.166	79.06
245.399	82.06
245.633	70.06
245.866	82.06
246.099	75.06
246.333	83.06
246.566	73.06
246.8	87.06
247.033	75.06
247.266	77.06
247.5	71.06
247.733	93.06
247.966	90.06
248.2	72.06
248.433	73.06
248.666	62.06
248.899	83.06
249.133	90.06
249.366	76.06
249.599	66.06
249.832	83.06
250.066	71.06
250.299	79.06
250.532	92.06
250.765	85.06
250.998	77.06
251.231	97.06
251.465	83.06
251.698	80.06
251.931	86.06
252.164	89.06
252.397	85.06
252.63	78.06
252.863	88.06
253.096	81.06
253.329	79.06
253.562	72.06
253.795	79.06
254.028	71.06
254.261	65.06
254.494	82.06
254.727	65.06
254.96	87.06
255.193	81.06
255.426	90.06
255.659	69.06
255.892	83.06
256.124	87.06
256.357	89.06
256.59	96.06
256.823	99.06
257.056	85.06
257.289	81.06
257.521	83.06
257.754	79.06
257.987	76.06
258.22	89.06
258.452	79.06
258.685	77.06
258.918	81.06
259.151	72.06
259.383	83.06
259.616	75.06
259.849	85.06
260.081	85.06
260.314	71.06
260.547	84.06
260.779	70.06
261.012	74.06
261.244	93.06
261.477	77.06
261.71	86.06
261.942	80.06
262.175	80.06
262.407	76.06
262.64	86.06
262.872	92.06
263.105	95.06
263.337	74.06
263.57	95.06
263.802	93.06
264.035	79.06
264.267	81.06
264.499	83.06
264.732	94.06
264.964	93.06
265.197	68.06
265.429	73.06
265.661	79.06
265.894	83.06
266.126	95.06
266.358	94.06
266.591	88.06
266.823	73.06
267.055	79.06
267.287	89.06
267.52	85.06
267.752	82.06
267.984	87.06
268.216	77.06
268.448	83.06
268.681	86.06
268.913	80.06
269.145	80.06
269.377	74.06
269.609	68.06
269.841	77.06
270.073	89.06
270.306	79.06
270.538	83.06
270.77	89.06
271.002	86.06
271.234	94.06
271.466	85.06
271.698	88.06
271.93	83.06
272.162	67.06
272.394	79.06
272.626	71.06
272.858	81.06
273.09	85.06
273.322	72.06
273.553	74.06
273.785	91.06
274.017	81.06
274.249	99.06
274.481	72.06
274.713	77.06
274.945	74.06
275.176	83.06
275.408	87.06
275.64	76.06
275.872	95.06
276.104	81.06
276.335	72.06
276.567	81.06
276.799	86.06
277.031	89.06
277.262	85.06
277.494	92.06
277.726	79.06
277.957	80.06
278.189	97.06
278.421	82.06
278.652	84.06
278.884	76.06
279.115	83.06
279.347	101.06
279.579	79.06
279.81	99.06
280.042	83.06
280.273	84.06
280.505	91.06
280.736	93.06
280.968	73.06
281.199	79.06
281.431	81.06
281.662	85.06
281.894	85.06
282.125	83.06
282.356	57.06
282.588	91.06
282.819	84.06
283.051	85.06
283.282	83.06
283.513	89.06
283.745	91.06
283.976	89.06
284.207	87.06
284.439	83.06
284.67	82.06
284.901	85.06
285.132	76.06
285.364	96.06
285.595	104.06
285.826	88.06
286.057	86.06
286.288	92.06
286.52	98.06
286.751	81.06
286.982	89.06
287.213	85.06
287.444	99.06
287.675	80.06
287.906	88.06
288.138	90.06
288.369	89.06
288.6	76.06
288.831	69.06
289.062	101.06
289.293	83.06
289.524	85.06
289.755	93.06
289.986	85.06
290.217	86.06
290.448	78.06
290.679	78.06
290.91	85.06
291.141	79.06
291.371	77.06
291.602	92.06
291.833	82.06
292.064	93.06
292.295	101.06
292.526	97.06
292.757	89.06
292.987	91.06
293.218	90.06
293.449	90.06
293.68	81.06
293.91	83.06
294.141	98.06
294.372	82.06
294.603	82.06
294.833	93.06
295.064	77.06
295.295	92.06
295.525	80.06
295.756	90.06
295.987	73.06
296.217	81.06
296.448	84.06
296.679	97.06
296.909	76.06
297.14	87.06
297.37	96.06
297.601	90.06
297.831	89.06
298.062	81.06
298.292	83.06
298.523	89.06
298.753	88.06
298.984	94.06
299.214	89.06
299.445	89.06
299.675	101.06
299.905	96.06
300.136	87.06
300.366	75.06
300.597	94.06
300.827	101.06
301.057	82.06
301.288	89.06
301.518	86.06
301.748	97.06
301.979	99.06
302.209	83.06
302.439	81.06
302.669	87.06
302.9	77.06
303.13	99.06
303.36	92.06
303.59	85.06
303.82	96.06
304.051	93.06
304.281	77.06
304.511	95.06
304.741	95.06
304.971	85.06
305.201	97.06
305.431	89.06
305.661	98.06
305.891	81.06
306.121	100.06
306.352	82.06
306.582	92.06
306.812	85.06
307.042	106.06
307.272	89.06
307.502	89.06
307.731	79.06
307.961	82.06
308.191	93.06
308.421	91.06
308.651	84.06
308.881	84.06
309.111	91.06
309.341	81.06
309.571	90.06
309.8	88.06
310.03	83.06
310.26	82.06
310.49	86.06
310.72	81.06
310.949	86.06
311.179	73.06
311.409	67.06
311.639	87.06
311.868	83.06
312.098	73.06
312.328	74.06
312.557	78.06
312.787	81.06
313.017	74.06
313.246	85.06
313.476	87.06
313.706	86.06
313.935	81.06
314.165	65.06
314.394	86.06
314.624	87.06
314.853	94.06
315.083	73.06
315.312	89.06
315.542	93.06
315.771	91.06
316.001	107.06
316.23	81.06
316.46	90.06
316.689	75.06
316.919	101.06
317.148	81.06
317.377	91.06
317.607	90.06
317.836	103.06
318.065	124.06
318.295	110.06
318.524	85.06
318.753	99.06
318.983	82.06
319.212	91.06
319.441	85.06
319.67	89.06
319.9	95.06
320.129	92.06
320.358	94.06
320.587	85.06
320.816	81.06
321.046	97.06
321.275	81.06
321.504	97.06
321.733	87.06
321.962	89.06
322.191	92.06
322.42	83.06
322.649	86.06
322.878	81.06
323.108	93.06
323.337	89.06
323.566	73.06
323.795	93.06
324.024	89.06
324.253	84.06
324.482	81.06
324.71	83.06
324.939	82.06
325.168	89.06
325.397	91.06
325.626	90.06
325.855	85.06
326.084	92.06
326.313	96.06
326.542	87.06
326.77	81.06
326.999	75.06
327.228	90.06
327.457	80.06
327.686	87.06
327.914	100.06
328.143	83.06
328.372	75.06
328.6	85.06
328.829	81.06
329.058	86.06
329.287	81.06
329.515	82.06
329.744	68.06
329.972	80.06
330.201	87.06
330.43	91.06
330.658	84.06
330.887	77.06
331.115	83.06
331.344	82.06
331.572	86.06
331.801	72.06
332.03	84.06
332.258	79.06
332.486	81.06
332.715	94.06
332.943	98.06
333.172	74.06
333.4	82.06
333.629	87.06
333.857	92.06
334.085	83.06
334.314	87.06
334.542	80.06
334.771	92.06
334.999	81.06
335.227	88.06
335.455	89.06
335.684	93.06
335.912	87.06
336.14	98.06
336.369	79.06
336.597	76.06
336.825	75.06
337.053	88.06
337.281	92.06
337.51	105.06
337.738	89.06
337.966	87.06
338.194	78.06
338.422	81.06
338.65	89.06
338.878	85.06
339.106	81.06
339.334	85.06
339.562	74.06
339.79	91.06
340.018	86.06
340.246	90.06
340.474	90.06
340.702	83.06
340.93	89.06
341.158	82.06
341.386	83.06
341.614	85.06
341.842	88.06
342.07	82.06
342.298	85.06
342.526	94.06
342.754	73.06
342.981	90.06
343.209	81.06
343.437	88.06
343.665	86.06
343.893	75.06
344.12	97.06
344.348	78.06
344.576	88.06
344.804	74.06
345.031	87.06
345.259	99.06
345.487	86.06
345.714	73.06
345.942	85.06
346.17	66.06
346.397	87.06
346.625	94.06
346.853	85.06
347.08	86.06
347.308	95.06
347.535	89.06
347.763	83.06
347.99	96.06
348.218	95.06
348.445	81.06
348.673	91.06
348.9	84.06
349.128	78.06
349.355	85.06
349.583	84.06
349.81	91.06
350.037	83.06
350.265	86.06
350.492	74.06
350.72	72.06
350.947	84.06
351.174	77.06
351.402	73.06
351.629	66.06
351.856	97.06
352.083	85.06
352.311	81.06
352.538	75.06
352.765	89.06
352.992	86.06
353.22	79.06
353.447	81.06
353.674	87.06
353.901	85.06
354.128	79.06
354.355	76.06
354.583	75.06
354.81	79.06
355.037	87.06
355.264	73.06
355.491	82.06
355.718	76.06
355.945	104.06
356.172	79.06
356.399	81.06
356.626	83.06
356.853	84.06
357.08	83.06
357.307	85.06
357.534	93.06
357.761	84.06
357.988	81.06
358.215	98.06
358.441	95.06
358.668	99.06
358.895	93.06
359.122	95.06
359.349	85.06
359.576	98.06
359.802	74.06
360.029	86.06
360.256	80.06
360.483	72.06
360.709	81.06
360.936	89.06
361.163	78.06
361.39	84.06
361.616	80.06
361.843	87.06
362.07	93.06
362.296	77.06
362.523	89.06
362.749	93.06
362.976	96.06
363.203	106.06
363.429	100.06
363.656	93.06
363.882	77.06
364.109	80.06
364.335	103.06
364.562	110.06
364.788	87.06
365.015	91.06
365.241	65.06
365.468	80.06
365.694	72.06
365.92	73.06
366.147	80.06
366.373	85.06
366.599	73.06
366.826	87.06
367.052	97.06
367.278	76.06
367.505	83.06
367.731	86.06
367.957	105.06
368.184	89.06
368.41	73.06
368.636	89.06
368.862	93.06
369.089	67.06
369.315	84.06
369.541	83.06
369.767	82.06
369.993	78.06
370.219	80.06
370.445	86.06
370.672	98.06
370.898	86.06
371.124	91.06
371.35	72.06
371.576	87.06
371.802	84.06
372.028	79.06
372.254	69.06
372.48	77.06
372.706	88.06
372.932	81.06
373.158	90.06
373.384	93.06
373.61	110.06
373.835	101.06
374.061	88.06
374.287	89.06
374.513	87.06
374.739	92.06
374.965	88.06
375.191	87.06
375.416	95.06
375.642	83.06
375.868	76.06
376.094	91.06
376.319	93.06
376.545	75.06
376.771	78.06
376.997	93.06
377.222	76.06
377.448	75.06
377.674	69.06
377.899	82.06
378.125	75.06
378.35	88.06
378.576	82.06
378.802	75.06
379.027	72.06
379.253	87.06
379.478	91.06
379.704	83.06
379.929	81.06
380.155	86.06
380.38	88.06
380.606	81.06
380.831	81.06
381.057	82.06
381.282	82.06
381.507	72.06
381.733	93.06
381.958	105.06
382.184	89.06
382.409	109.06
382.634	86.06
382.86	103.06
383.085	93.06
383.31	84.06
383.535	80.06
383.761	95.06
383.986	81.06
384.211	81.06
384.436	77.06
384.662	103.06
384.887	90.06
385.112	76.06
385.337	95.06
385.562	85.06
385.787	93.06
386.013	98.06
386.238	89.06
386.463	91.06
386.688	104.06
386.913	80.06
387.138	95.06
387.363	93.06
387.588	83.06
387.813	77.06
388.038	72.06
388.263	89.06
388.488	88.06
388.713	83.06
388.938	81.06
389.163	81.06
389.387	97.06
389.612	101.06
389.837	90.06
390.062	84.06
390.287	106.06
390.512	89.06
390.736	69.06
390.961	93.06
391.186	84.06
391.411	70.06
391.636	79.06
391.86	95.06
392.085	84.06
392.31	89.06
392.534	103.06
392.759	122.06
392.984	172.06
393.208	267.06
393.433	380.06
393.658	288.06
393.882	120.06
394.107	114.06
394.331	105.06
394.556	94.06
394.78	87.06
395.005	105.06
395.229	94.06
395.454	83.06
395.678	85.06
395.903	103.06
396.127	104.06
396.352	125.06
396.576	165.06
396.801	252.06
397.025	305.06
397.249	169.06
397.474	119.06
397.698	106.06
397.922	76.06
398.147	89.06
398.371	86.06
398.595	90.06
398.82	90.06
399.044	96.06
399.268	91.06
399.492	75.06
399.717	94.06
399.941	85.06
400.165	93.06
400.389	73.06
400.613	78.06
400.837	79.06
401.062	88.06
401.286	86.06
401.51	98.06
401.734	76.06
401.958	80.06
402.182	86.06
402.406	82.06
402.63	83.06
402.854	85.06
403.078	82.06
403.302	73.06
403.526	84.06
403.75	83.06
403.974	73.06
404.198	96.06
404.422	84.06
404.645	87.06
404.869	85.06
405.093	79.06
405.317	88.06
405.541	81.06
405.765	81.06
405.988	85.06
406.212	81.06
406.436	72.06
406.66	85.06
406.883	72.06
407.107	75.06
407.331	89.06
407.555	97.06
407.778	81.06
408.002	98.06
408.226	96.06
408.449	72.06
408.673	80.06
408.896	89.06
409.12	97.06
409.344	79.06
409.567	75.06
409.791	90.06
410.014	103.06
410.238	102.06
410.461	97.06
410.685	89.06
410.908	81.06
411.132	82.06
411.355	80.06
411.578	82.06
411.802	78.06
412.025	99.06
412.249	97.06
412.472	90.06
412.695	95.06
412.919	85.06
413.142	89.06
413.365	70.06
413.589	73.06
413.812	80.06
414.035	86.06
414.258	83.06
414.482	85.06
414.705	71.06
414.928	87.06
415.151	91.06
415.374	78.06
415.597	97.06
415.821	89.06
416.044	88.06
416.267	85.06
416.49	86.06
416.713	72.06
416.936	83.06
417.159	76.06
417.382	74.06
417.605	89.06
417.828	81.06
418.051	87.06
418.274	101.06
418.497	94.06
418.72	94.06
418.943	87.06
419.166	82.06
419.389	98.06
419.611	89.06
419.834	75.06
420.057	79.06
420.28	93.06
420.503	89.06
420.726	84.06
420.948	79.06
421.171	89.06
421.394	72.06
421.617	103.06
421.839	86.06
422.062	99.06
422.285	117.06
422.507	161.06
422.73	232.06
422.953	237.06
423.175	109.06
423.398	89.06
423.621	103.06
423.843	85.06
424.066	87.06
424.288	98.06
424.511	89.06
424.733	99.06
424.956	79.06
425.178	89.06
425.401	75.06
425.623	86.06
425.846	88.06
426.068	87.06
426.291	81.06
426.513	91.06
426.735	78.06
426.958	90.06
427.18	79.06
427.402	80.06
427.625	86.06
427.847	96.06
428.069	76.06
428.292	113.06
428.514	117.06
428.736	110.06
428.958	113.06
429.181	112.06
429.403	78.06
429.625	85.06
429.847	89.06
430.069	134.06
430.292	125.06
430.514	112.06
430.736	115.06
430.958	111.06
431.18	95.06
431.402	84.06
431.624	80.06
431.846	100.06
432.068	107.06
432.29	93.06
432.512	80.06
432.734	72.06
432.956	84.06
433.178	81.06
433.4	83.06
433.622	96.06
433.844	81.06
434.066	89.06
434.287	85.06
434.509	94.06
434.731	81.06
434.953	92.06
435.175	90.06
435.397	95.06
435.618	88.06
435.84	73.06
436.062	70.06
436.284	92.06
436.505	83.06
436.727	90.06
436.949	75.06
437.17	83.06
437.392	81.06
437.614	65.06
437.835	76.06
438.057	67.06
438.278	87.06
438.5	89.06
438.721	80.06
438.943	90.06
439.165	75.06
439.386	80.06
439.608	79.06
439.829	80.06
440.05	89.06
440.272	84.06
440.493	88.06
440.715	81.06
440.936	82.06
441.158	86.06
441.379	82.06
441.6	91.06
441.822	75.06
442.043	88.06
442.264	98.06
442.486	101.06
442.707	110.06
442.928	98.06
443.149	90.06
443.371	109.06
443.592	157.06
443.813	145.06
444.034	104.06
444.255	91.06
444.476	83.06
444.698	79.06
444.919	90.06
445.14	158.06
445.361	131.06
445.582	183.06
445.803	162.06
446.024	102.06
446.245	85.06
446.466	69.06
446.687	74.06
446.908	94.06
447.129	93.06
447.35	80.06
447.571	93.06
447.792	75.06
448.013	79.06
448.234	75.06
448.455	84.06
448.675	95.06
448.896	90.06
449.117	90.06
449.338	87.06
449.559	95.06
449.779	89.06
450	89.06
450.221	82.06
450.442	94.06
450.662	79.06
450.883	76.06
451.104	83.06
451.324	77.06
451.545	88.06
451.766	84.06
451.986	85.06
452.207	91.06
452.428	100.06
452.648	79.06
452.869	95.06
453.089	75.06
453.31	83.06
453.53	74.06
453.751	70.06
453.971	85.06
454.192	86.06
454.412	86.06
454.633	89.06
454.853	77.06
455.073	93.06
455.294	89.06
455.514	89.06
455.734	76.06
455.955	91.06
456.175	97.06
456.395	79.06
456.616	83.06
456.836	85.06
457.056	91.06
457.276	86.06
457.497	90.06
457.717	98.06
457.937	99.06
458.157	100.06
458.377	99.06
458.598	94.06
458.818	104.06
459.038	79.06
459.258	87.06
459.478	94.06
459.698	66.06
459.918	93.06
460.138	89.06
460.358	79.06
460.578	82.06
460.798	101.06
461.018	87.06
461.238	83.06
461.458	89.06
461.678	70.06
461.898	81.06
462.118	93.06
462.338	79.06
462.558	79.06
462.777	89.06
462.997	85.06
463.217	73.06
463.437	95.06
463.657	69.06
463.876	85.06
464.096	79.06
464.316	87.06
464.536	82.06
464.755	90.06
464.975	85.06
465.195	90.06
465.414	79.06
465.634	75.06
465.854	82.06
466.073	74.06
466.293	86.06
466.512	84.06
466.732	90.06
466.951	83.06
467.171	103.06
467.391	89.06
467.61	69.06
467.829	90.06
468.049	95.06
468.268	90.06
468.488	86.06
468.707	74.06
468.927	86.06
469.146	96.06
469.365	77.06
469.585	86.06
469.804	100.06
470.023	81.06
470.243	62.06
470.462	87.06
470.681	83.06
470.901	95.06
471.12	75.06
471.339	95.06
471.558	92.06
471.777	98.06
471.997	95.06
472.216	78.06
472.435	89.06
472.654	93.06
472.873	91.06
473.092	85.06
473.311	86.06
473.53	84.06
473.749	89.06
473.968	83.06
474.187	77.06
474.406	75.06
474.625	101.06
474.844	111.06
475.063	90.06
475.282	75.06
475.501	82.06
475.72	84.06
475.939	86.06
476.158	81.06
476.377	87.06
476.596	97.06
476.814	83.06
477.033	79.06
477.252	78.06
477.471	75.06
477.69	81.06
477.908	67.06
478.127	93.06
478.346	83.06
478.564	79.06
478.783	81.06
479.002	89.06
479.22	87.06
479.439	86.06
479.658	67.06
479.876	92.06
480.095	88.06
480.313	71.06
480.532	86.06
480.751	90.06
480.969	97.06
481.188	79.06
481.406	86.06
481.624	84.06
481.843	87.06
482.061	79.06
482.28	80.06
482.498	80.06
482.717	86.06
482.935	89.06
483.153	85.06
483.372	78.06
483.59	88.06
483.808	66.06
484.027	96.06
484.245	105.06
484.463	91.06
484.681	94.06
484.9	76.06
485.118	70.06
485.336	80.06
485.554	79.06
485.772	94.06
485.99	82.06
486.209	77.06
486.427	93.06
486.645	105.06
486.863	69.06
487.081	83.06
487.299	87.06
487.517	94.06
487.735	87.06
487.953	119.06
488.171	87.06
488.389	76.06
488.607	87.06
488.825	83.06
489.043	96.06
489.261	97.06
489.479	95.06
489.696	81.06
489.914	89.06
490.132	89.06
490.35	94.06
490.568	85.06
490.786	93.06
491.003	79.06
491.221	89.06
491.439	89.06
491.657	82.06
491.874	89.06
492.092	80.06
492.31	84.06
492.527	94.06
492.745	68.06
492.963	88.06
493.18	79.06
493.398	88.06
493.615	86.06
493.833	84.06
494.05	93.06
494.268	76.06
494.485	90.06
494.703	84.06
494.92	83.06
495.138	81.06
495.355	93.06
495.573	86.06
495.79	85.06
496.008	77.06
496.225	97.06
496.442	75.06
496.66	79.06
496.877	84.06
497.094	74.06
497.312	73.06
497.529	86.06
497.746	75.06
497.963	92.06
498.181	91.06
498.398	92.06
498.615	95.06
498.832	88.06
499.049	83.06
499.267	104.06
499.484	82.06
499.701	90.06
499.918	84.06
500.135	89.06
500.352	84.06
500.569	68.06
500.786	91.06
501.003	104.06
501.22	79.06
501.437	90.06
501.654	94.06
501.871	89.06
502.088	86.06
502.305	98.06
502.522	85.06
502.739	87.06
502.956	85.06
503.172	100.06
503.389	87.06
503.606	92.06
503.823	93.06
504.04	91.06
504.256	119.06
504.473	113.06
504.69	98.06
504.907	93.06
505.123	99.06
505.34	90.06
505.557	94.06
505.773	93.06
505.99	90.06
506.207	89.06
506.423	89.06
506.64	87.06
506.856	90.06
507.073	91.06
507.289	81.06
507.506	88.06
507.722	97.06
507.939	90.06
508.155	90.06
508.372	91.06
508.588	95.06
508.805	85.06
509.021	72.06
509.238	86.06
509.454	79.06
509.67	79.06
509.887	67.06
510.103	83.06
510.319	93.06
510.536	103.06
510.752	92.06
510.968	96.06
511.184	83.06
511.401	94.06
511.617	98.06
511.833	90.06
512.049	92.06
512.265	83.06
512.481	109.06
512.698	106.06
512.914	77.06
513.13	89.06
513.346	94.06
513.562	97.06
513.778	75.06
513.994	71.06
514.21	82.06
514.426	94.06
514.642	84.06
514.858	59.06
515.074	86.06
515.29	87.06
515.506	80.06
515.721	93.06
515.937	87.06
516.153	93.06
516.369	85.06
516.585	89.06
516.801	81.06
517.016	72.06
517.232	99.06
517.448	91.06
517.664	78.06
517.879	99.06
518.095	93.06
518.311	88.06
518.527	100.06
518.742	101.06
