Data from 10100_1_HRD10591_00019.txt Node
Date: Mon Jan 19 14:00:34 EST 2026
User: Yrep
Spectrometer: HR+D1059
Trigger mode: 1
Integration Time (sec): 1.000000E-1
Scans to average: 1
Electric dark correction enabled: true
Nonlinearity correction enabled: false
Boxcar width: 0
XAxis mode: Wavelengths
Number of Pixels in Spectrum: 2048
>>>>>Begin Spectral Data<<<<<
223.165	-21.75
223.4	-21.75
223.635	-21.75
223.869	-23.75
224.104	-24.75
224.338	-17.75
224.573	-18.75
224.808	-10.75
225.042	-5.75
225.277	-6.75
225.511	2.25
225.746	9.25
225.98	3.25
226.215	15.25
226.449	23.25
226.683	9.25
226.918	25.25
227.152	42.25
227.387	29.25
227.621	33.25
227.856	53.25
228.09	46.25
228.324	58.25
228.559	63.25
228.793	69.25
229.027	74.25
229.262	69.25
229.496	51.25
229.73	54.25
229.964	81.25
230.199	83.25
230.433	59.25
230.667	77.25
230.901	82.25
231.136	74.25
231.37	84.25
231.604	75.25
231.838	77.25
232.072	78.25
232.306	75.25
232.541	76.25
232.775	95.25
233.009	93.25
233.243	97.25
233.477	73.25
233.711	62.25
233.945	76.25
234.179	85.25
234.413	72.25
234.647	73.25
234.881	66.25
235.115	66.25
235.349	83.25
235.583	87.25
235.817	85.25
236.051	82.25
236.285	71.25
236.519	88.25
236.753	77.25
236.987	86.25
237.221	80.25
237.455	64.25
237.689	74.25
237.922	76.25
238.156	83.25
238.39	70.25
238.624	80.25
238.858	70.25
239.091	87.25
239.325	88.25
239.559	79.25
239.793	75.25
240.027	62.25
240.26	78.25
240.494	75.25
240.728	84.25
240.961	78.25
241.195	85.25
241.429	71.25
241.662	73.25
241.896	82.25
242.13	76.25
242.363	71.25
242.597	82.25
242.83	71.25
243.064	79.25
243.298	91.25
243.531	67.25
243.765	73.25
243.998	72.25
244.232	86.25
244.465	75.25
244.699	74.25
244.932	65.25
245.166	75.25
245.399	78.25
245.633	88.25
245.866	76.25
246.099	80.25
246.333	84.25
246.566	85.25
246.8	82.25
247.033	78.25
247.266	79.25
247.5	96.25
247.733	74.25
247.966	78.25
248.2	63.25
248.433	74.25
248.666	78.25
248.899	69.25
249.133	71.25
249.366	81.25
249.599	75.25
249.832	77.25
250.066	90.25
250.299	73.25
250.532	76.25
250.765	78.25
250.998	72.25
251.231	80.25
251.465	84.25
251.698	73.25
251.931	73.25
252.164	74.25
252.397	80.25
252.63	78.25
252.863	83.25
253.096	81.25
253.329	82.25
253.562	82.25
253.795	71.25
254.028	71.25
254.261	90.25
254.494	87.25
254.727	82.25
254.96	80.25
255.193	80.25
255.426	82.25
255.659	88.25
255.892	74.25
256.124	93.25
256.357	82.25
256.59	86.25
256.823	68.25
257.056	71.25
257.289	78.25
257.521	83.25
257.754	76.25
257.987	86.25
258.22	87.25
258.452	81.25
258.685	72.25
258.918	69.25
259.151	90.25
259.383	80.25
259.616	89.25
259.849	91.25
260.081	68.25
260.314	71.25
260.547	83.25
260.779	79.25
261.012	82.25
261.244	86.25
261.477	98.25
261.71	87.25
261.942	70.25
262.175	76.25
262.407	71.25
262.64	73.25
262.872	82.25
263.105	86.25
263.337	84.25
263.57	81.25
263.802	80.25
264.035	67.25
264.267	80.25
264.499	84.25
264.732	81.25
264.964	86.25
265.197	90.25
265.429	78.25
265.661	85.25
265.894	81.25
266.126	83.25
266.358	77.25
266.591	65.25
266.823	94.25
267.055	68.25
267.287	87.25
267.52	90.25
267.752	84.25
267.984	73.25
268.216	83.25
268.448	92.25
268.681	89.25
268.913	95.25
269.145	87.25
269.377	76.25
269.609	78.25
269.841	90.25
270.073	75.25
270.306	73.25
270.538	80.25
270.77	69.25
271.002	88.25
271.234	81.25
271.466	99.25
271.698	74.25
271.93	75.25
272.162	64.25
272.394	78.25
272.626	80.25
272.858	90.25
273.09	103.25
273.322	93.25
273.553	75.25
273.785	86.25
274.017	77.25
274.249	86.25
274.481	83.25
274.713	94.25
274.945	90.25
275.176	85.25
275.408	95.25
275.64	79.25
275.872	82.25
276.104	77.25
276.335	65.25
276.567	82.25
276.799	74.25
277.031	88.25
277.262	75.25
277.494	93.25
277.726	78.25
277.957	94.25
278.189	86.25
278.421	88.25
278.652	106.25
278.884	69.25
279.115	75.25
279.347	105.25
279.579	82.25
279.81	98.25
280.042	96.25
280.273	80.25
280.505	90.25
280.736	90.25
280.968	90.25
281.199	81.25
281.431	82.25
281.662	77.25
281.894	87.25
282.125	82.25
282.356	78.25
282.588	80.25
282.819	87.25
283.051	86.25
283.282	79.25
283.513	94.25
283.745	86.25
283.976	82.25
284.207	76.25
284.439	89.25
284.67	89.25
284.901	84.25
285.132	74.25
285.364	97.25
285.595	85.25
285.826	77.25
286.057	80.25
286.288	94.25
286.52	73.25
286.751	77.25
286.982	79.25
287.213	95.25
287.444	84.25
287.675	96.25
287.906	93.25
288.138	88.25
288.369	81.25
288.6	96.25
288.831	85.25
289.062	87.25
289.293	80.25
289.524	84.25
289.755	79.25
289.986	91.25
290.217	94.25
290.448	78.25
290.679	80.25
290.91	88.25
291.141	95.25
291.371	75.25
291.602	85.25
291.833	85.25
292.064	82.25
292.295	87.25
292.526	86.25
292.757	74.25
292.987	81.25
293.218	72.25
293.449	88.25
293.68	74.25
293.91	92.25
294.141	81.25
294.372	94.25
294.603	76.25
294.833	83.25
295.064	85.25
295.295	78.25
295.525	85.25
295.756	97.25
295.987	96.25
296.217	78.25
296.448	81.25
296.679	77.25
296.909	93.25
297.14	86.25
297.37	83.25
297.601	83.25
297.831	85.25
298.062	84.25
298.292	83.25
298.523	101.25
298.753	80.25
298.984	105.25
299.214	86.25
299.445	86.25
299.675	98.25
299.905	96.25
300.136	88.25
300.366	89.25
300.597	72.25
300.827	89.25
301.057	96.25
301.288	86.25
301.518	92.25
301.748	89.25
301.979	106.25
302.209	93.25
302.439	90.25
302.669	80.25
302.9	79.25
303.13	105.25
303.36	79.25
303.59	93.25
303.82	67.25
304.051	81.25
304.281	96.25
304.511	98.25
304.741	73.25
304.971	90.25
305.201	102.25
305.431	90.25
305.661	98.25
305.891	82.25
306.121	81.25
306.352	87.25
306.582	87.25
306.812	89.25
307.042	91.25
307.272	83.25
307.502	78.25
307.731	96.25
307.961	79.25
308.191	99.25
308.421	95.25
308.651	97.25
308.881	92.25
309.111	100.25
309.341	95.25
309.571	90.25
309.8	81.25
310.03	87.25
310.26	82.25
310.49	74.25
310.72	82.25
310.949	88.25
311.179	93.25
311.409	65.25
311.639	84.25
311.868	95.25
312.098	82.25
312.328	82.25
312.557	76.25
312.787	88.25
313.017	75.25
313.246	93.25
313.476	82.25
313.706	89.25
313.935	92.25
314.165	104.25
314.394	86.25
314.624	72.25
314.853	89.25
315.083	97.25
315.312	71.25
315.542	83.25
315.771	76.25
316.001	90.25
316.23	93.25
316.46	94.25
316.689	85.25
316.919	90.25
317.148	111.25
317.377	81.25
317.607	96.25
317.836	84.25
318.065	103.25
318.295	97.25
318.524	92.25
318.753	89.25
318.983	93.25
319.212	101.25
319.441	76.25
319.67	89.25
319.9	91.25
320.129	73.25
320.358	79.25
320.587	94.25
320.816	74.25
321.046	81.25
321.275	83.25
321.504	87.25
321.733	79.25
321.962	86.25
322.191	80.25
322.42	74.25
322.649	73.25
322.878	81.25
323.108	79.25
323.337	82.25
323.566	96.25
323.795	72.25
324.024	99.25
324.253	80.25
324.482	82.25
324.71	83.25
324.939	75.25
325.168	81.25
325.397	85.25
325.626	86.25
325.855	83.25
326.084	78.25
326.313	94.25
326.542	82.25
326.77	82.25
326.999	80.25
327.228	89.25
327.457	84.25
327.686	83.25
327.914	105.25
328.143	106.25
328.372	89.25
328.6	89.25
328.829	92.25
329.058	79.25
329.287	96.25
329.515	82.25
329.744	82.25
329.972	93.25
330.201	81.25
330.43	90.25
330.658	85.25
330.887	97.25
331.115	74.25
331.344	89.25
331.572	95.25
331.801	89.25
332.03	79.25
332.258	83.25
332.486	81.25
332.715	82.25
332.943	93.25
333.172	83.25
333.4	68.25
333.629	83.25
333.857	77.25
334.085	88.25
334.314	85.25
334.542	89.25
334.771	88.25
334.999	90.25
335.227	83.25
335.455	83.25
335.684	75.25
335.912	85.25
336.14	96.25
336.369	103.25
336.597	83.25
336.825	92.25
337.053	82.25
337.281	86.25
337.51	89.25
337.738	90.25
337.966	87.25
338.194	85.25
338.422	80.25
338.65	83.25
338.878	86.25
339.106	91.25
339.334	80.25
339.562	95.25
339.79	87.25
340.018	82.25
340.246	86.25
340.474	75.25
340.702	84.25
340.93	93.25
341.158	71.25
341.386	73.25
341.614	80.25
341.842	87.25
342.07	81.25
342.298	85.25
342.526	87.25
342.754	87.25
342.981	89.25
343.209	93.25
343.437	85.25
343.665	99.25
343.893	80.25
344.12	80.25
344.348	83.25
344.576	79.25
344.804	89.25
345.031	93.25
345.259	70.25
345.487	85.25
345.714	85.25
345.942	76.25
346.17	84.25
346.397	78.25
346.625	78.25
346.853	80.25
347.08	88.25
347.308	90.25
347.535	94.25
347.763	79.25
347.99	86.25
348.218	83.25
348.445	91.25
348.673	91.25
348.9	93.25
349.128	86.25
349.355	95.25
349.583	90.25
349.81	82.25
350.037	90.25
350.265	86.25
350.492	86.25
350.72	89.25
350.947	90.25
351.174	76.25
351.402	82.25
351.629	83.25
351.856	79.25
352.083	80.25
352.311	74.25
352.538	83.25
352.765	79.25
352.992	86.25
353.22	90.25
353.447	82.25
353.674	84.25
353.901	85.25
354.128	78.25
354.355	80.25
354.583	96.25
354.81	101.25
355.037	88.25
355.264	82.25
355.491	94.25
355.718	82.25
355.945	97.25
356.172	75.25
356.399	90.25
356.626	90.25
356.853	98.25
357.08	99.25
357.307	98.25
357.534	84.25
357.761	85.25
357.988	90.25
358.215	88.25
358.441	89.25
358.668	84.25
358.895	101.25
359.122	83.25
359.349	74.25
359.576	86.25
359.802	85.25
360.029	86.25
360.256	72.25
360.483	89.25
360.709	87.25
360.936	86.25
361.163	93.25
361.39	85.25
361.616	86.25
361.843	89.25
362.07	93.25
362.296	105.25
362.523	97.25
362.749	119.25
362.976	120.25
363.203	120.25
363.429	110.25
363.656	91.25
363.882	95.25
364.109	111.25
364.335	114.25
364.562	145.25
364.788	103.25
365.015	97.25
365.241	85.25
365.468	102.25
365.694	98.25
365.92	81.25
366.147	95.25
366.373	90.25
366.599	70.25
366.826	83.25
367.052	97.25
367.278	96.25
367.505	80.25
367.731	94.25
367.957	83.25
368.184	90.25
368.41	88.25
368.636	76.25
368.862	98.25
369.089	93.25
369.315	81.25
369.541	89.25
369.767	88.25
369.993	79.25
370.219	101.25
370.445	89.25
370.672	97.25
370.898	103.25
371.124	76.25
371.35	79.25
371.576	79.25
371.802	82.25
372.028	88.25
372.254	91.25
372.48	94.25
372.706	100.25
372.932	98.25
373.158	82.25
373.384	97.25
373.61	101.25
373.835	110.25
374.061	92.25
374.287	89.25
374.513	91.25
374.739	93.25
374.965	102.25
375.191	99.25
375.416	89.25
375.642	96.25
375.868	93.25
376.094	93.25
376.319	74.25
376.545	97.25
376.771	93.25
376.997	105.25
377.222	88.25
377.448	84.25
377.674	92.25
377.899	97.25
378.125	93.25
378.35	79.25
378.576	67.25
378.802	78.25
379.027	81.25
379.253	91.25
379.478	81.25
379.704	87.25
379.929	82.25
380.155	93.25
380.38	81.25
380.606	69.25
380.831	74.25
381.057	86.25
381.282	68.25
381.507	86.25
381.733	94.25
381.958	103.25
382.184	97.25
382.409	82.25
382.634	93.25
382.86	101.25
383.085	85.25
383.31	98.25
383.535	102.25
383.761	117.25
383.986	117.25
384.211	93.25
384.436	91.25
384.662	86.25
384.887	95.25
385.112	91.25
385.337	84.25
385.562	87.25
385.787	91.25
386.013	116.25
386.238	98.25
386.463	90.25
386.688	81.25
386.913	80.25
387.138	93.25
387.363	94.25
387.588	104.25
387.813	102.25
388.038	95.25
388.263	104.25
388.488	88.25
388.713	100.25
388.938	104.25
389.163	94.25
389.387	99.25
389.612	83.25
389.837	86.25
390.062	83.25
390.287	86.25
390.512	78.25
390.736	93.25
390.961	82.25
391.186	96.25
391.411	80.25
391.636	81.25
391.86	105.25
392.085	100.25
392.31	98.25
392.534	103.25
392.759	105.25
392.984	153.25
393.208	215.25
393.433	316.25
393.658	251.25
393.882	140.25
394.107	114.25
394.331	105.25
394.556	115.25
394.78	88.25
395.005	87.25
395.229	97.25
395.454	93.25
395.678	114.25
395.903	130.25
396.127	137.25
396.352	147.25
396.576	169.25
396.801	227.25
397.025	251.25
397.249	163.25
397.474	127.25
397.698	105.25
397.922	86.25
398.147	110.25
398.371	85.25
398.595	94.25
398.82	87.25
399.044	75.25
399.268	95.25
399.492	93.25
399.717	98.25
399.941	92.25
400.165	96.25
400.389	95.25
400.613	85.25
400.837	97.25
401.062	98.25
401.286	74.25
401.51	80.25
401.734	84.25
401.958	98.25
402.182	83.25
402.406	81.25
402.63	81.25
402.854	80.25
403.078	78.25
403.302	89.25
403.526	93.25
403.75	81.25
403.974	76.25
404.198	86.25
404.422	88.25
404.645	97.25
404.869	103.25
405.093	84.25
405.317	72.25
405.541	90.25
405.765	99.25
405.988	91.25
406.212	97.25
406.436	103.25
406.66	79.25
406.883	86.25
407.107	91.25
407.331	86.25
407.555	93.25
407.778	121.25
408.002	108.25
408.226	87.25
408.449	101.25
408.673	79.25
408.896	81.25
409.12	99.25
409.344	98.25
409.567	106.25
409.791	104.25
410.014	106.25
410.238	94.25
410.461	94.25
410.685	79.25
410.908	81.25
411.132	96.25
411.355	88.25
411.578	86.25
411.802	81.25
412.025	93.25
412.249	77.25
412.472	77.25
412.695	75.25
412.919	94.25
413.142	97.25
413.365	86.25
413.589	103.25
413.812	86.25
414.035	89.25
414.258	91.25
414.482	81.25
414.705	86.25
414.928	78.25
415.151	85.25
415.374	86.25
415.597	90.25
415.821	88.25
416.044	96.25
416.267	84.25
416.49	82.25
416.713	85.25
416.936	83.25
417.159	74.25
417.382	76.25
417.605	91.25
417.828	88.25
418.051	82.25
418.274	89.25
418.497	88.25
418.72	67.25
418.943	88.25
419.166	100.25
419.389	89.25
419.611	88.25
419.834	84.25
420.057	85.25
420.28	89.25
420.503	100.25
420.726	90.25
420.948	82.25
421.171	109.25
421.394	92.25
421.617	129.25
421.839	129.25
422.062	150.25
422.285	202.25
422.507	335.25
422.73	477.25
422.953	433.25
423.175	227.25
423.398	135.25
423.621	147.25
423.843	114.25
424.066	115.25
424.288	116.25
424.511	101.25
424.733	99.25
424.956	95.25
425.178	87.25
425.401	83.25
425.623	96.25
425.846	91.25
426.068	96.25
426.291	102.25
426.513	96.25
426.735	92.25
426.958	102.25
427.18	97.25
427.402	86.25
427.625	85.25
427.847	93.25
428.069	98.25
428.292	128.25
428.514	146.25
428.736	119.25
428.958	139.25
429.181	142.25
429.403	94.25
429.625	97.25
429.847	131.25
430.069	164.25
430.292	182.25
430.514	170.25
430.736	134.25
430.958	145.25
431.18	99.25
431.402	88.25
431.624	90.25
431.846	126.25
432.068	143.25
432.29	98.25
432.512	86.25
432.734	92.25
432.956	88.25
433.178	85.25
433.4	74.25
433.622	85.25
433.844	83.25
434.066	79.25
434.287	93.25
434.509	76.25
434.731	70.25
434.953	89.25
435.175	89.25
435.397	87.25
435.618	89.25
435.84	93.25
436.062	81.25
436.284	89.25
436.505	75.25
436.727	85.25
436.949	96.25
437.17	76.25
437.392	70.25
437.614	73.25
437.835	82.25
438.057	75.25
438.278	83.25
438.5	100.25
438.721	82.25
438.943	92.25
439.165	75.25
439.386	84.25
439.608	85.25
439.829	76.25
440.05	82.25
440.272	91.25
440.493	87.25
440.715	93.25
440.936	82.25
441.158	87.25
441.379	81.25
441.6	90.25
441.822	82.25
442.043	78.25
442.264	109.25
442.486	144.25
442.707	171.25
442.928	130.25
443.149	126.25
443.371	177.25
443.592	273.25
443.813	254.25
444.034	119.25
444.255	106.25
444.476	86.25
444.698	93.25
444.919	103.25
445.14	193.25
445.361	197.25
445.582	304.25
445.803	276.25
446.024	150.25
446.245	97.25
446.466	87.25
446.687	82.25
446.908	89.25
447.129	74.25
447.35	73.25
447.571	86.25
447.792	79.25
448.013	79.25
448.234	82.25
448.455	100.25
448.675	93.25
448.896	95.25
449.117	88.25
449.338	81.25
449.559	82.25
449.779	78.25
450	88.25
450.221	69.25
450.442	96.25
450.662	90.25
450.883	86.25
451.104	85.25
451.324	84.25
451.545	90.25
451.766	93.25
451.986	71.25
452.207	85.25
452.428	93.25
452.648	89.25
452.869	95.25
453.089	90.25
453.31	86.25
453.53	105.25
453.751	87.25
453.971	86.25
454.192	90.25
454.412	87.25
454.633	75.25
454.853	89.25
455.073	77.25
455.294	101.25
455.514	103.25
455.734	90.25
455.955	89.25
456.175	93.25
456.395	84.25
456.616	91.25
456.836	90.25
457.056	69.25
457.276	84.25
457.497	89.25
457.717	95.25
457.937	118.25
458.157	142.25
458.377	135.25
458.598	129.25
458.818	150.25
459.038	111.25
459.258	75.25
459.478	100.25
459.698	83.25
459.918	94.25
460.138	79.25
460.358	81.25
460.578	98.25
460.798	122.25
461.018	120.25
461.238	91.25
461.458	89.25
461.678	89.25
461.898	84.25
462.118	81.25
462.338	93.25
462.558	88.25
462.777	89.25
462.997	89.25
463.217	79.25
463.437	80.25
463.657	69.25
463.876	84.25
464.096	71.25
464.316	76.25
464.536	91.25
464.755	82.25
464.975	75.25
465.195	86.25
465.414	85.25
465.634	68.25
465.854	88.25
466.073	85.25
466.293	74.25
466.512	86.25
466.732	85.25
466.951	73.25
467.171	82.25
467.391	77.25
467.61	84.25
467.829	89.25
468.049	83.25
468.268	88.25
468.488	86.25
468.707	90.25
468.927	89.25
469.146	87.25
469.365	97.25
469.585	87.25
469.804	75.25
470.023	83.25
470.243	92.25
470.462	82.25
470.681	83.25
470.901	87.25
471.12	76.25
471.339	87.25
471.558	75.25
471.777	93.25
471.997	86.25
472.216	85.25
472.435	85.25
472.654	79.25
472.873	93.25
473.092	83.25
473.311	93.25
473.53	86.25
473.749	83.25
473.968	90.25
474.187	98.25
474.406	85.25
474.625	94.25
474.844	97.25
475.063	83.25
475.282	79.25
475.501	75.25
475.72	87.25
475.939	79.25
476.158	83.25
476.377	82.25
476.596	101.25
476.814	81.25
477.033	72.25
477.252	83.25
477.471	81.25
477.69	91.25
477.908	89.25
478.127	94.25
478.346	67.25
478.564	77.25
478.783	78.25
479.002	93.25
479.22	97.25
479.439	80.25
479.658	78.25
479.876	71.25
480.095	89.25
480.313	93.25
480.532	89.25
480.751	101.25
480.969	93.25
481.188	85.25
481.406	94.25
481.624	95.25
481.843	81.25
482.061	103.25
482.28	100.25
482.498	96.25
482.717	88.25
482.935	94.25
483.153	99.25
483.372	88.25
483.59	91.25
483.808	81.25
484.027	100.25
484.245	97.25
484.463	80.25
484.681	79.25
484.9	102.25
485.118	88.25
485.336	88.25
485.554	101.25
485.772	87.25
485.99	84.25
486.209	90.25
486.427	97.25
486.645	90.25
486.863	99.25
487.081	81.25
487.299	98.25
487.517	117.25
487.735	131.25
487.953	206.25
488.171	179.25
488.389	95.25
488.607	102.25
488.825	89.25
489.043	86.25
489.261	92.25
489.479	89.25
489.696	89.25
489.914	80.25
490.132	94.25
490.35	106.25
490.568	86.25
490.786	90.25
491.003	90.25
491.221	81.25
491.439	81.25
491.657	76.25
491.874	101.25
492.092	88.25
492.31	87.25
492.527	86.25
492.745	98.25
492.963	95.25
493.18	83.25
493.398	97.25
493.615	96.25
493.833	86.25
494.05	101.25
494.268	90.25
494.485	94.25
494.703	97.25
494.92	96.25
495.138	94.25
495.355	109.25
495.573	89.25
495.79	99.25
496.008	92.25
496.225	85.25
496.442	101.25
496.66	89.25
496.877	89.25
497.094	103.25
497.312	92.25
497.529	99.25
497.746	69.25
497.963	90.25
498.181	104.25
498.398	98.25
498.615	93.25
498.832	95.25
499.049	88.25
499.267	111.25
499.484	94.25
499.701	88.25
499.918	84.25
500.135	95.25
500.352	75.25
500.569	102.25
500.786	80.25
501.003	85.25
501.22	87.25
501.437	97.25
501.654	94.25
501.871	90.25
502.088	100.25
502.305	101.25
502.522	102.25
502.739	93.25
502.956	100.25
503.172	101.25
503.389	89.25
503.606	95.25
503.823	99.25
504.04	113.25
504.256	154.25
504.473	153.25
504.69	103.25
504.907	99.25
505.123	112.25
505.34	99.25
505.557	94.25
505.773	106.25
505.99	95.25
506.207	103.25
506.423	94.25
506.64	104.25
506.856	93.25
507.073	98.25
507.289	87.25
507.506	94.25
507.722	97.25
507.939	89.25
508.155	86.25
508.372	82.25
508.588	90.25
508.805	81.25
509.021	98.25
509.238	94.25
509.454	85.25
509.67	85.25
509.887	85.25
510.103	93.25
510.319	80.25
510.536	101.25
510.752	89.25
510.968	103.25
511.184	87.25
511.401	93.25
511.617	99.25
511.833	82.25
512.049	98.25
512.265	102.25
512.481	83.25
512.698	91.25
512.914	92.25
513.13	70.25
513.346	94.25
513.562	95.25
513.778	87.25
513.994	81.25
514.21	101.25
514.426	84.25
514.642	96.25
514.858	95.25
515.074	92.25
515.29	106.25
515.506	97.25
515.721	95.25
515.937	90.25
516.153	106.25
516.369	88.25
516.585	105.25
516.801	100.25
517.016	107.25
517.232	97.25
517.448	100.25
517.664	101.25
