Data from 10100_1_HRD10591_00029.txt Node
Date: Mon Jan 19 14:00:39 EST 2026
User: Yrep
Spectrometer: HR+D1059
Trigger mode: 1
Integration Time (sec): 1.000000E-1
Scans to average: 1
Electric dark correction enabled: true
Nonlinearity correction enabled: false
Boxcar width: 0
XAxis mode: Wavelengths
Number of Pixels in Spectrum: 2048
>>>>>Begin Spectral Data<<<<<
223.165	-19.31
223.4	-19.31
223.635	-19.31
223.869	-16.31
224.104	-17.31
224.338	-23.31
224.573	-31.31
224.808	-6.31
225.042	-1.31
225.277	4.69
225.511	-6.31
225.746	-3.31
225.98	5.69
226.215	15.69
226.449	17.69
226.683	27.69
226.918	28.69
227.152	24.69
227.387	39.69
227.621	44.69
227.856	58.69
228.09	32.69
228.324	40.69
228.559	61.69
228.793	60.69
229.027	61.69
229.262	58.69
229.496	68.69
229.73	74.69
229.964	72.69
230.199	78.69
230.433	74.69
230.667	54.69
230.901	74.69
231.136	74.69
231.37	78.69
231.604	59.69
231.838	89.69
232.072	78.69
232.306	92.69
232.541	80.69
232.775	73.69
233.009	80.69
233.243	82.69
233.477	101.69
233.711	80.69
233.945	92.69
234.179	85.69
234.413	66.69
234.647	80.69
234.881	77.69
235.115	70.69
235.349	84.69
235.583	76.69
235.817	92.69
236.051	68.69
236.285	79.69
236.519	80.69
236.753	76.69
236.987	86.69
237.221	63.69
237.455	67.69
237.689	76.69
237.922	72.69
238.156	73.69
238.39	87.69
238.624	82.69
238.858	77.69
239.091	72.69
239.325	56.69
239.559	68.69
239.793	70.69
240.027	93.69
240.26	82.69
240.494	86.69
240.728	78.69
240.961	68.69
241.195	80.69
241.429	68.69
241.662	81.69
241.896	71.69
242.13	70.69
242.363	62.69
242.597	82.69
242.83	77.69
243.064	89.69
243.298	83.69
243.531	68.69
243.765	80.69
243.998	84.69
244.232	73.69
244.465	82.69
244.699	72.69
244.932	80.69
245.166	86.69
245.399	80.69
245.633	77.69
245.866	78.69
246.099	71.69
246.333	80.69
246.566	76.69
246.8	74.69
247.033	79.69
247.266	70.69
247.5	68.69
247.733	70.69
247.966	72.69
248.2	82.69
248.433	78.69
248.666	82.69
248.899	78.69
249.133	89.69
249.366	73.69
249.599	85.69
249.832	72.69
250.066	72.69
250.299	73.69
250.532	73.69
250.765	73.69
250.998	90.69
251.231	75.69
251.465	88.69
251.698	74.69
251.931	60.69
252.164	69.69
252.397	75.69
252.63	94.69
252.863	74.69
253.096	70.69
253.329	85.69
253.562	82.69
253.795	69.69
254.028	79.69
254.261	77.69
254.494	67.69
254.727	70.69
254.96	82.69
255.193	69.69
255.426	80.69
255.659	84.69
255.892	72.69
256.124	85.69
256.357	72.69
256.59	78.69
256.823	90.69
257.056	93.69
257.289	70.69
257.521	81.69
257.754	84.69
257.987	85.69
258.22	81.69
258.452	70.69
258.685	78.69
258.918	83.69
259.151	75.69
259.383	84.69
259.616	84.69
259.849	81.69
260.081	83.69
260.314	74.69
260.547	76.69
260.779	78.69
261.012	83.69
261.244	76.69
261.477	75.69
261.71	80.69
261.942	71.69
262.175	86.69
262.407	87.69
262.64	81.69
262.872	61.69
263.105	59.69
263.337	84.69
263.57	88.69
263.802	74.69
264.035	90.69
264.267	82.69
264.499	75.69
264.732	85.69
264.964	78.69
265.197	82.69
265.429	92.69
265.661	93.69
265.894	86.69
266.126	87.69
266.358	85.69
266.591	94.69
266.823	81.69
267.055	80.69
267.287	90.69
267.52	91.69
267.752	91.69
267.984	82.69
268.216	72.69
268.448	76.69
268.681	81.69
268.913	90.69
269.145	82.69
269.377	72.69
269.609	67.69
269.841	75.69
270.073	86.69
270.306	70.69
270.538	81.69
270.77	88.69
271.002	68.69
271.234	84.69
271.466	89.69
271.698	67.69
271.93	88.69
272.162	93.69
272.394	68.69
272.626	65.69
272.858	69.69
273.09	96.69
273.322	89.69
273.553	90.69
273.785	85.69
274.017	74.69
274.249	99.69
274.481	92.69
274.713	74.69
274.945	97.69
275.176	89.69
275.408	84.69
275.64	74.69
275.872	73.69
276.104	93.69
276.335	93.69
276.567	91.69
276.799	61.69
277.031	92.69
277.262	86.69
277.494	93.69
277.726	98.69
277.957	92.69
278.189	93.69
278.421	86.69
278.652	95.69
278.884	91.69
279.115	84.69
279.347	95.69
279.579	103.69
279.81	88.69
280.042	89.69
280.273	80.69
280.505	96.69
280.736	77.69
280.968	70.69
281.199	86.69
281.431	90.69
281.662	80.69
281.894	84.69
282.125	91.69
282.356	91.69
282.588	88.69
282.819	96.69
283.051	67.69
283.282	68.69
283.513	86.69
283.745	99.69
283.976	80.69
284.207	80.69
284.439	93.69
284.67	91.69
284.901	100.69
285.132	88.69
285.364	93.69
285.595	96.69
285.826	86.69
286.057	88.69
286.288	70.69
286.52	80.69
286.751	92.69
286.982	71.69
287.213	89.69
287.444	98.69
287.675	91.69
287.906	85.69
288.138	94.69
288.369	85.69
288.6	88.69
288.831	91.69
289.062	80.69
289.293	76.69
289.524	92.69
289.755	91.69
289.986	74.69
290.217	81.69
290.448	70.69
290.679	86.69
290.91	86.69
291.141	79.69
291.371	95.69
291.602	81.69
291.833	82.69
292.064	97.69
292.295	88.69
292.526	79.69
292.757	72.69
292.987	72.69
293.218	85.69
293.449	84.69
293.68	81.69
293.91	88.69
294.141	88.69
294.372	83.69
294.603	85.69
294.833	75.69
295.064	80.69
295.295	68.69
295.525	92.69
295.756	78.69
295.987	91.69
296.217	75.69
296.448	94.69
296.679	85.69
296.909	93.69
297.14	98.69
297.37	81.69
297.601	90.69
297.831	84.69
298.062	74.69
298.292	85.69
298.523	87.69
298.753	82.69
298.984	96.69
299.214	79.69
299.445	88.69
299.675	102.69
299.905	102.69
300.136	81.69
300.366	86.69
300.597	86.69
300.827	93.69
301.057	95.69
301.288	78.69
301.518	92.69
301.748	93.69
301.979	96.69
302.209	95.69
302.439	94.69
302.669	82.69
302.9	82.69
303.13	77.69
303.36	105.69
303.59	96.69
303.82	85.69
304.051	88.69
304.281	82.69
304.511	91.69
304.741	84.69
304.971	86.69
305.201	72.69
305.431	85.69
305.661	81.69
305.891	89.69
306.121	93.69
306.352	70.69
306.582	102.69
306.812	78.69
307.042	87.69
307.272	88.69
307.502	87.69
307.731	83.69
307.961	98.69
308.191	95.69
308.421	90.69
308.651	98.69
308.881	86.69
309.111	100.69
309.341	105.69
309.571	90.69
309.8	103.69
310.03	102.69
310.26	73.69
310.49	82.69
310.72	88.69
310.949	85.69
311.179	89.69
311.409	92.69
311.639	80.69
311.868	86.69
312.098	88.69
312.328	87.69
312.557	78.69
312.787	81.69
313.017	90.69
313.246	72.69
313.476	83.69
313.706	90.69
313.935	86.69
314.165	90.69
314.394	79.69
314.624	89.69
314.853	95.69
315.083	96.69
315.312	86.69
315.542	92.69
315.771	98.69
316.001	100.69
316.23	97.69
316.46	98.69
316.689	87.69
316.919	88.69
317.148	94.69
317.377	87.69
317.607	95.69
317.836	100.69
318.065	118.69
318.295	99.69
318.524	80.69
318.753	92.69
318.983	96.69
319.212	82.69
319.441	73.69
319.67	83.69
319.9	79.69
320.129	97.69
320.358	87.69
320.587	80.69
320.816	77.69
321.046	94.69
321.275	87.69
321.504	90.69
321.733	90.69
321.962	73.69
322.191	103.69
322.42	100.69
322.649	108.69
322.878	89.69
323.108	96.69
323.337	92.69
323.566	92.69
323.795	80.69
324.024	93.69
324.253	97.69
324.482	87.69
324.71	84.69
324.939	84.69
325.168	93.69
325.397	93.69
325.626	81.69
325.855	82.69
326.084	90.69
326.313	90.69
326.542	93.69
326.77	89.69
326.999	85.69
327.228	89.69
327.457	73.69
327.686	88.69
327.914	84.69
328.143	84.69
328.372	97.69
328.6	86.69
328.829	89.69
329.058	97.69
329.287	89.69
329.515	97.69
329.744	77.69
329.972	86.69
330.201	91.69
330.43	88.69
330.658	89.69
330.887	78.69
331.115	96.69
331.344	88.69
331.572	85.69
331.801	82.69
332.03	80.69
332.258	93.69
332.486	82.69
332.715	94.69
332.943	91.69
333.172	92.69
333.4	92.69
333.629	86.69
333.857	85.69
334.085	94.69
334.314	102.69
334.542	105.69
334.771	84.69
334.999	108.69
335.227	113.69
335.455	92.69
335.684	90.69
335.912	102.69
336.14	110.69
336.369	112.69
336.597	91.69
336.825	94.69
337.053	102.69
337.281	95.69
337.51	92.69
337.738	101.69
337.966	90.69
338.194	92.69
338.422	86.69
338.65	96.69
338.878	77.69
339.106	71.69
339.334	86.69
339.562	73.69
339.79	71.69
340.018	73.69
340.246	97.69
340.474	73.69
340.702	91.69
340.93	81.69
341.158	87.69
341.386	89.69
341.614	91.69
341.842	81.69
342.07	83.69
342.298	93.69
342.526	91.69
342.754	97.69
342.981	82.69
343.209	94.69
343.437	88.69
343.665	86.69
343.893	83.69
344.12	108.69
344.348	93.69
344.576	84.69
344.804	84.69
345.031	83.69
345.259	85.69
345.487	76.69
345.714	77.69
345.942	95.69
346.17	90.69
346.397	87.69
346.625	93.69
346.853	84.69
347.08	78.69
347.308	82.69
347.535	89.69
347.763	97.69
347.99	78.69
348.218	98.69
348.445	93.69
348.673	83.69
348.9	78.69
349.128	86.69
349.355	83.69
349.583	97.69
349.81	83.69
350.037	96.69
350.265	85.69
350.492	80.69
350.72	74.69
350.947	84.69
351.174	80.69
351.402	86.69
351.629	99.69
351.856	77.69
352.083	96.69
352.311	95.69
352.538	85.69
352.765	80.69
352.992	91.69
353.22	88.69
353.447	90.69
353.674	96.69
353.901	91.69
354.128	100.69
354.355	91.69
354.583	86.69
354.81	90.69
355.037	98.69
355.264	103.69
355.491	93.69
355.718	84.69
355.945	89.69
356.172	83.69
356.399	97.69
356.626	105.69
356.853	104.69
357.08	110.69
357.307	98.69
357.534	94.69
357.761	97.69
357.988	116.69
358.215	115.69
358.441	100.69
358.668	98.69
358.895	88.69
359.122	105.69
359.349	82.69
359.576	95.69
359.802	92.69
360.029	93.69
360.256	91.69
360.483	93.69
360.709	88.69
360.936	98.69
361.163	96.69
361.39	90.69
361.616	92.69
361.843	89.69
362.07	108.69
362.296	109.69
362.523	123.69
362.749	127.69
362.976	138.69
363.203	146.69
363.429	113.69
363.656	117.69
363.882	114.69
364.109	140.69
364.335	163.69
364.562	169.69
364.788	136.69
365.015	108.69
365.241	86.69
365.468	89.69
365.694	83.69
365.92	83.69
366.147	89.69
366.373	89.69
366.599	82.69
366.826	96.69
367.052	108.69
367.278	89.69
367.505	97.69
367.731	106.69
367.957	94.69
368.184	94.69
368.41	99.69
368.636	90.69
368.862	96.69
369.089	89.69
369.315	96.69
369.541	73.69
369.767	89.69
369.993	103.69
370.219	98.69
370.445	94.69
370.672	99.69
370.898	106.69
371.124	100.69
371.35	97.69
371.576	98.69
371.802	103.69
372.028	98.69
372.254	109.69
372.48	98.69
372.706	99.69
372.932	98.69
373.158	108.69
373.384	121.69
373.61	128.69
373.835	130.69
374.061	117.69
374.287	109.69
374.513	120.69
374.739	113.69
374.965	116.69
375.191	120.69
375.416	116.69
375.642	90.69
375.868	111.69
376.094	92.69
376.319	99.69
376.545	94.69
376.771	101.69
376.997	86.69
377.222	85.69
377.448	99.69
377.674	87.69
377.899	89.69
378.125	95.69
378.35	106.69
378.576	100.69
378.802	87.69
379.027	86.69
379.253	94.69
379.478	91.69
379.704	92.69
379.929	106.69
380.155	91.69
380.38	90.69
380.606	105.69
380.831	91.69
381.057	96.69
381.282	88.69
381.507	99.69
381.733	100.69
381.958	102.69
382.184	112.69
382.409	110.69
382.634	106.69
382.86	121.69
383.085	109.69
383.31	114.69
383.535	116.69
383.761	101.69
383.986	114.69
384.211	104.69
384.436	96.69
384.662	104.69
384.887	93.69
385.112	82.69
385.337	92.69
385.562	116.69
385.787	115.69
386.013	103.69
386.238	110.69
386.463	93.69
386.688	100.69
386.913	111.69
387.138	104.69
387.363	119.69
387.588	113.69
387.813	129.69
388.038	120.69
388.263	96.69
388.488	105.69
388.713	119.69
388.938	101.69
389.163	98.69
389.387	101.69
389.612	88.69
389.837	96.69
390.062	97.69
390.287	99.69
390.512	99.69
390.736	104.69
390.961	105.69
391.186	103.69
391.411	102.69
391.636	106.69
391.86	93.69
392.085	97.69
392.31	106.69
392.534	134.69
392.759	152.69
392.984	248.69
393.208	477.69
393.433	781.69
393.658	570.69
393.882	213.69
394.107	153.69
394.331	147.69
394.556	153.69
394.78	138.69
395.005	101.69
395.229	104.69
395.454	118.69
395.678	134.69
395.903	140.69
396.127	190.69
396.352	236.69
396.576	289.69
396.801	513.69
397.025	608.69
397.249	297.69
397.474	177.69
397.698	121.69
397.922	101.69
398.147	103.69
398.371	86.69
398.595	103.69
398.82	103.69
399.044	89.69
399.268	95.69
399.492	89.69
399.717	96.69
399.941	94.69
400.165	89.69
400.389	102.69
400.613	92.69
400.837	85.69
401.062	88.69
401.286	94.69
401.51	87.69
401.734	67.69
401.958	73.69
402.182	88.69
402.406	75.69
402.63	104.69
402.854	108.69
403.078	82.69
403.302	81.69
403.526	84.69
403.75	88.69
403.974	87.69
404.198	88.69
404.422	95.69
404.645	99.69
404.869	106.69
405.093	88.69
405.317	96.69
405.541	94.69
405.765	84.69
405.988	95.69
406.212	95.69
406.436	109.69
406.66	102.69
406.883	92.69
407.107	85.69
407.331	102.69
407.555	118.69
407.778	158.69
408.002	140.69
408.226	98.69
408.449	84.69
408.673	94.69
408.896	104.69
409.12	99.69
409.344	119.69
409.567	110.69
409.791	124.69
410.014	118.69
410.238	113.69
410.461	100.69
410.685	98.69
410.908	84.69
411.132	96.69
411.355	108.69
411.578	77.69
411.802	93.69
412.025	95.69
412.249	85.69
412.472	82.69
412.695	95.69
412.919	102.69
413.142	86.69
413.365	91.69
413.589	86.69
413.812	88.69
414.035	83.69
414.258	101.69
414.482	88.69
414.705	89.69
414.928	86.69
415.151	80.69
415.374	85.69
415.597	101.69
415.821	96.69
416.044	70.69
416.267	85.69
416.49	72.69
416.713	91.69
416.936	80.69
417.159	87.69
417.382	75.69
417.605	99.69
417.828	86.69
418.051	88.69
418.274	94.69
418.497	108.69
418.72	84.69
418.943	95.69
419.166	93.69
419.389	82.69
419.611	95.69
419.834	93.69
420.057	86.69
420.28	90.69
420.503	82.69
420.726	108.69
420.948	104.69
421.171	118.69
421.394	132.69
421.617	171.69
421.839	162.69
422.062	178.69
422.285	285.69
422.507	550.69
422.73	928.69
422.953	844.69
423.175	376.69
423.398	202.69
423.621	139.69
423.843	128.69
424.066	121.69
424.288	117.69
424.511	105.69
424.733	118.69
424.956	111.69
425.178	102.69
425.401	94.69
425.623	115.69
425.846	92.69
426.068	111.69
426.291	94.69
426.513	105.69
426.735	86.69
426.958	100.69
427.18	98.69
427.402	102.69
427.625	104.69
427.847	96.69
428.069	125.69
428.292	176.69
428.514	208.69
428.736	158.69
428.958	181.69
429.181	198.69
429.403	132.69
429.625	103.69
429.847	162.69
430.069	258.69
430.292	300.69
430.514	272.69
430.736	210.69
430.958	203.69
431.18	126.69
431.402	107.69
431.624	112.69
431.846	163.69
432.068	208.69
432.29	117.69
432.512	89.69
432.734	92.69
432.956	104.69
433.178	91.69
433.4	84.69
433.622	80.69
433.844	96.69
434.066	97.69
434.287	91.69
434.509	63.69
434.731	85.69
434.953	101.69
435.175	90.69
435.397	97.69
435.618	98.69
435.84	99.69
436.062	100.69
436.284	97.69
436.505	74.69
436.727	85.69
436.949	92.69
437.17	99.69
437.392	94.69
437.614	81.69
437.835	87.69
438.057	90.69
438.278	90.69
438.5	88.69
438.721	97.69
438.943	85.69
439.165	75.69
439.386	100.69
439.608	103.69
439.829	104.69
440.05	81.69
440.272	90.69
440.493	88.69
440.715	83.69
440.936	98.69
441.158	92.69
441.379	97.69
441.6	99.69
441.822	88.69
442.043	124.69
442.264	118.69
442.486	196.69
442.707	272.69
442.928	177.69
443.149	152.69
443.371	244.69
443.592	432.69
443.813	381.69
444.034	146.69
444.255	126.69
444.476	100.69
444.698	108.69
444.919	110.69
445.14	201.69
445.361	314.69
445.582	540.69
445.803	434.69
446.024	188.69
446.245	110.69
446.466	89.69
446.687	88.69
446.908	90.69
447.129	83.69
447.35	85.69
447.571	90.69
447.792	96.69
448.013	84.69
448.234	85.69
448.455	90.69
448.675	70.69
448.896	74.69
449.117	81.69
449.338	89.69
449.559	83.69
449.779	94.69
450	97.69
450.221	97.69
450.442	88.69
450.662	112.69
450.883	94.69
451.104	93.69
451.324	108.69
451.545	89.69
451.766	95.69
451.986	97.69
452.207	108.69
452.428	84.69
452.648	110.69
452.869	111.69
453.089	103.69
453.31	104.69
453.53	100.69
453.751	109.69
453.971	91.69
454.192	84.69
454.412	78.69
454.633	84.69
454.853	72.69
455.073	93.69
455.294	92.69
455.514	120.69
455.734	96.69
455.955	88.69
456.175	79.69
456.395	88.69
456.616	97.69
456.836	76.69
457.056	94.69
457.276	77.69
457.497	87.69
457.717	100.69
457.937	141.69
458.157	164.69
458.377	187.69
458.598	148.69
458.818	168.69
459.038	111.69
459.258	90.69
459.478	103.69
459.698	96.69
459.918	100.69
460.138	81.69
460.358	99.69
460.578	120.69
460.798	154.69
461.018	150.69
461.238	106.69
461.458	92.69
461.678	95.69
461.898	110.69
462.118	94.69
462.338	86.69
462.558	97.69
462.777	91.69
462.997	98.69
463.217	82.69
463.437	77.69
463.657	88.69
463.876	103.69
464.096	78.69
464.316	91.69
464.536	88.69
464.755	86.69
464.975	88.69
465.195	87.69
465.414	88.69
465.634	96.69
465.854	97.69
466.073	98.69
466.293	87.69
466.512	76.69
466.732	88.69
466.951	82.69
467.171	93.69
467.391	85.69
467.61	88.69
467.829	86.69
468.049	86.69
468.268	84.69
468.488	101.69
468.707	96.69
468.927	94.69
469.146	78.69
469.365	93.69
469.585	104.69
469.804	102.69
470.023	87.69
470.243	91.69
470.462	95.69
470.681	82.69
470.901	84.69
471.12	88.69
471.339	79.69
471.558	91.69
471.777	91.69
471.997	96.69
472.216	97.69
472.435	88.69
472.654	101.69
472.873	90.69
473.092	90.69
473.311	93.69
473.53	100.69
473.749	103.69
473.968	106.69
474.187	85.69
474.406	102.69
474.625	80.69
474.844	85.69
475.063	92.69
475.282	88.69
475.501	88.69
475.72	98.69
475.939	84.69
476.158	94.69
476.377	110.69
476.596	88.69
476.814	94.69
477.033	76.69
477.252	95.69
477.471	74.69
477.69	90.69
477.908	93.69
478.127	90.69
478.346	88.69
478.564	78.69
478.783	94.69
479.002	89.69
479.22	87.69
479.439	95.69
479.658	81.69
479.876	87.69
480.095	107.69
480.313	92.69
480.532	93.69
480.751	104.69
480.969	88.69
481.188	98.69
481.406	98.69
481.624	93.69
481.843	96.69
482.061	114.69
482.28	98.69
482.498	102.69
482.717	100.69
482.935	97.69
483.153	92.69
483.372	100.69
483.59	100.69
483.808	93.69
484.027	98.69
484.245	116.69
484.463	83.69
484.681	123.69
484.9	112.69
485.118	100.69
485.336	96.69
485.554	111.69
485.772	102.69
485.99	96.69
486.209	90.69
486.427	99.69
486.645	101.69
486.863	89.69
487.081	93.69
487.299	104.69
487.517	110.69
487.735	142.69
487.953	276.69
488.171	200.69
488.389	104.69
488.607	81.69
488.825	91.69
489.043	97.69
489.261	108.69
489.479	97.69
489.696	90.69
489.914	94.69
490.132	83.69
490.35	103.69
490.568	88.69
490.786	94.69
491.003	95.69
491.221	87.69
491.439	90.69
491.657	99.69
491.874	97.69
492.092	85.69
492.31	99.69
492.527	106.69
492.745	98.69
492.963	96.69
493.18	92.69
493.398	104.69
493.615	128.69
493.833	104.69
494.05	96.69
494.268	90.69
494.485	83.69
494.703	79.69
494.92	104.69
495.138	93.69
495.355	100.69
495.573	101.69
495.79	98.69
496.008	102.69
496.225	102.69
496.442	91.69
496.66	89.69
496.877	87.69
497.094	112.69
497.312	110.69
497.529	106.69
497.746	108.69
497.963	96.69
498.181	100.69
498.398	113.69
498.615	92.69
498.832	86.69
499.049	107.69
499.267	112.69
499.484	99.69
499.701	102.69
499.918	106.69
500.135	111.69
500.352	96.69
500.569	93.69
500.786	97.69
501.003	117.69
501.22	99.69
501.437	94.69
501.654	93.69
501.871	79.69
502.088	108.69
502.305	114.69
502.522	95.69
502.739	88.69
502.956	84.69
503.172	93.69
503.389	96.69
503.606	117.69
503.823	104.69
504.04	132.69
504.256	202.69
504.473	216.69
504.69	115.69
504.907	93.69
505.123	82.69
505.34	106.69
505.557	113.69
505.773	103.69
505.99	101.69
506.207	95.69
506.423	89.69
506.64	92.69
506.856	99.69
507.073	97.69
507.289	114.69
507.506	91.69
507.722	93.69
507.939	91.69
508.155	102.69
508.372	97.69
508.588	90.69
508.805	100.69
509.021	104.69
509.238	97.69
509.454	95.69
509.67	90.69
509.887	76.69
510.103	99.69
510.319	102.69
510.536	103.69
510.752	102.69
510.968	97.69
511.184	91.69
511.401	96.69
511.617	99.69
511.833	100.69
512.049	86.69
512.265	103.69
512.481	95.69
512.698	99.69
512.914	98.69
513.13	102.69
513.346	101.69
513.562	97.69
513.778	96.69
513.994	98.69
514.21	96.69
514.426	113.69
514.642	97.69
514.858	101.69
515.074	110.69
515.29	98.69
515.506	99.69
