Data from 10100_1_HRD10591_00032.txt Node
Date: Mon Jan 19 14:00:40 EST 2026
User: Yrep
Spectrometer: HR+D1059
Trigger mode: 1
Integration Time (sec): 1.000000E-1
Scans to average: 1
Electric dark correction enabled: true
Nonlinearity correction enabled: false
Boxcar width: 0
XAxis mode: Wavelengths
Number of Pixels in Spectrum: 2048
>>>>>Begin Spectral Data<<<<<
223.165	-13.94
223.4	-13.94
223.635	-13.94
223.869	-17.94
224.104	-23.94
224.338	-8.94
224.573	-18.94
224.808	-11.94
225.042	6.06
225.277	-15.94
225.511	-2.94
225.746	7.06
225.98	17.06
226.215	21.06
226.449	6.06
226.683	19.06
226.918	18.06
227.152	20.06
227.387	32.06
227.621	38.06
227.856	47.06
228.09	47.06
228.324	49.06
228.559	52.06
228.793	61.06
229.027	66.06
229.262	63.06
229.496	69.06
229.73	71.06
229.964	81.06
230.199	59.06
230.433	75.06
230.667	90.06
230.901	93.06
231.136	86.06
231.37	83.06
231.604	103.06
231.838	87.06
232.072	102.06
232.306	88.06
232.541	92.06
232.775	100.06
233.009	87.06
233.243	76.06
233.477	88.06
233.711	73.06
233.945	78.06
234.179	81.06
234.413	95.06
234.647	79.06
234.881	99.06
235.115	77.06
235.349	72.06
235.583	84.06
235.817	87.06
236.051	86.06
236.285	84.06
236.519	92.06
236.753	81.06
236.987	63.06
237.221	86.06
237.455	73.06
237.689	75.06
237.922	82.06
238.156	81.06
238.39	80.06
238.624	81.06
238.858	87.06
239.091	81.06
239.325	80.06
239.559	77.06
239.793	72.06
240.027	74.06
240.26	75.06
240.494	75.06
240.728	66.06
240.961	68.06
241.195	84.06
241.429	87.06
241.662	81.06
241.896	73.06
242.13	74.06
242.363	69.06
242.597	64.06
242.83	82.06
243.064	75.06
243.298	67.06
243.531	71.06
243.765	77.06
243.998	76.06
244.232	79.06
244.465	75.06
244.699	84.06
244.932	81.06
245.166	89.06
245.399	91.06
245.633	76.06
245.866	82.06
246.099	84.06
246.333	83.06
246.566	82.06
246.8	85.06
247.033	73.06
247.266	65.06
247.5	63.06
247.733	82.06
247.966	79.06
248.2	74.06
248.433	91.06
248.666	104.06
248.899	62.06
249.133	84.06
249.366	79.06
249.599	65.06
249.832	90.06
250.066	82.06
250.299	76.06
250.532	79.06
250.765	95.06
250.998	94.06
251.231	82.06
251.465	72.06
251.698	72.06
251.931	76.06
252.164	91.06
252.397	81.06
252.63	86.06
252.863	83.06
253.096	81.06
253.329	75.06
253.562	91.06
253.795	79.06
254.028	73.06
254.261	85.06
254.494	73.06
254.727	75.06
254.96	73.06
255.193	79.06
255.426	81.06
255.659	71.06
255.892	92.06
256.124	89.06
256.357	74.06
256.59	73.06
256.823	73.06
257.056	91.06
257.289	95.06
257.521	74.06
257.754	75.06
257.987	80.06
258.22	71.06
258.452	93.06
258.685	69.06
258.918	97.06
259.151	90.06
259.383	77.06
259.616	74.06
259.849	85.06
260.081	77.06
260.314	82.06
260.547	87.06
260.779	91.06
261.012	87.06
261.244	78.06
261.477	81.06
261.71	80.06
261.942	81.06
262.175	78.06
262.407	74.06
262.64	81.06
262.872	83.06
263.105	69.06
263.337	96.06
263.57	83.06
263.802	68.06
264.035	86.06
264.267	87.06
264.499	89.06
264.732	82.06
264.964	81.06
265.197	102.06
265.429	79.06
265.661	79.06
265.894	85.06
266.126	92.06
266.358	87.06
266.591	91.06
266.823	91.06
267.055	66.06
267.287	88.06
267.52	73.06
267.752	76.06
267.984	83.06
268.216	85.06
268.448	79.06
268.681	88.06
268.913	81.06
269.145	75.06
269.377	87.06
269.609	65.06
269.841	83.06
270.073	77.06
270.306	80.06
270.538	90.06
270.77	81.06
271.002	82.06
271.234	75.06
271.466	95.06
271.698	79.06
271.93	83.06
272.162	83.06
272.394	89.06
272.626	82.06
272.858	90.06
273.09	79.06
273.322	94.06
273.553	81.06
273.785	93.06
274.017	83.06
274.249	79.06
274.481	82.06
274.713	86.06
274.945	81.06
275.176	72.06
275.408	75.06
275.64	86.06
275.872	85.06
276.104	79.06
276.335	84.06
276.567	88.06
276.799	72.06
277.031	85.06
277.262	81.06
277.494	80.06
277.726	63.06
277.957	91.06
278.189	79.06
278.421	90.06
278.652	84.06
278.884	83.06
279.115	92.06
279.347	87.06
279.579	83.06
279.81	88.06
280.042	81.06
280.273	76.06
280.505	85.06
280.736	78.06
280.968	75.06
281.199	90.06
281.431	88.06
281.662	95.06
281.894	81.06
282.125	92.06
282.356	83.06
282.588	98.06
282.819	97.06
283.051	95.06
283.282	75.06
283.513	90.06
283.745	78.06
283.976	81.06
284.207	92.06
284.439	81.06
284.67	83.06
284.901	87.06
285.132	92.06
285.364	91.06
285.595	81.06
285.826	93.06
286.057	83.06
286.288	86.06
286.52	88.06
286.751	85.06
286.982	87.06
287.213	94.06
287.444	97.06
287.675	91.06
287.906	85.06
288.138	86.06
288.369	81.06
288.6	86.06
288.831	97.06
289.062	97.06
289.293	84.06
289.524	89.06
289.755	77.06
289.986	93.06
290.217	96.06
290.448	81.06
290.679	87.06
290.91	89.06
291.141	79.06
291.371	74.06
291.602	85.06
291.833	85.06
292.064	87.06
292.295	81.06
292.526	90.06
292.757	83.06
292.987	74.06
293.218	72.06
293.449	87.06
293.68	93.06
293.91	71.06
294.141	81.06
294.372	91.06
294.603	83.06
294.833	83.06
295.064	87.06
295.295	73.06
295.525	88.06
295.756	86.06
295.987	83.06
296.217	89.06
296.448	81.06
296.679	90.06
296.909	83.06
297.14	87.06
297.37	84.06
297.601	80.06
297.831	80.06
298.062	85.06
298.292	83.06
298.523	81.06
298.753	91.06
298.984	73.06
299.214	79.06
299.445	89.06
299.675	97.06
299.905	78.06
300.136	92.06
300.366	90.06
300.597	90.06
300.827	86.06
301.057	91.06
301.288	91.06
301.518	78.06
301.748	81.06
301.979	115.06
302.209	84.06
302.439	87.06
302.669	97.06
302.9	79.06
303.13	73.06
303.36	97.06
303.59	75.06
303.82	89.06
304.051	83.06
304.281	82.06
304.511	96.06
304.741	88.06
304.971	92.06
305.201	88.06
305.431	87.06
305.661	90.06
305.891	77.06
306.121	87.06
306.352	81.06
306.582	85.06
306.812	84.06
307.042	93.06
307.272	71.06
307.502	90.06
307.731	81.06
307.961	82.06
308.191	79.06
308.421	93.06
308.651	85.06
308.881	78.06
309.111	66.06
309.341	71.06
309.571	93.06
309.8	95.06
310.03	98.06
310.26	81.06
310.49	77.06
310.72	90.06
310.949	81.06
311.179	95.06
311.409	82.06
311.639	90.06
311.868	87.06
312.098	70.06
312.328	93.06
312.557	83.06
312.787	87.06
313.017	103.06
313.246	82.06
313.476	81.06
313.706	81.06
313.935	86.06
314.165	89.06
314.394	88.06
314.624	87.06
314.853	89.06
315.083	76.06
315.312	86.06
315.542	76.06
315.771	89.06
316.001	84.06
316.23	89.06
316.46	86.06
316.689	78.06
316.919	90.06
317.148	104.06
317.377	95.06
317.607	86.06
317.836	96.06
318.065	94.06
318.295	94.06
318.524	73.06
318.753	89.06
318.983	74.06
319.212	96.06
319.441	83.06
319.67	76.06
319.9	94.06
320.129	76.06
320.358	85.06
320.587	86.06
320.816	77.06
321.046	65.06
321.275	101.06
321.504	85.06
321.733	89.06
321.962	75.06
322.191	73.06
322.42	86.06
322.649	87.06
322.878	83.06
323.108	86.06
323.337	102.06
323.566	84.06
323.795	88.06
324.024	81.06
324.253	72.06
324.482	101.06
324.71	80.06
324.939	86.06
325.168	90.06
325.397	79.06
325.626	83.06
325.855	81.06
326.084	94.06
326.313	92.06
326.542	88.06
326.77	95.06
326.999	93.06
327.228	100.06
327.457	82.06
327.686	95.06
327.914	85.06
328.143	83.06
328.372	91.06
328.6	89.06
328.829	85.06
329.058	61.06
329.287	96.06
329.515	78.06
329.744	91.06
329.972	81.06
330.201	94.06
330.43	96.06
330.658	87.06
330.887	87.06
331.115	73.06
331.344	93.06
331.572	90.06
331.801	72.06
332.03	92.06
332.258	83.06
332.486	89.06
332.715	75.06
332.943	87.06
333.172	79.06
333.4	76.06
333.629	91.06
333.857	87.06
334.085	77.06
334.314	97.06
334.542	79.06
334.771	96.06
334.999	86.06
335.227	95.06
335.455	86.06
335.684	83.06
335.912	90.06
336.14	88.06
336.369	78.06
336.597	79.06
336.825	88.06
337.053	86.06
337.281	79.06
337.51	89.06
337.738	88.06
337.966	75.06
338.194	78.06
338.422	80.06
338.65	74.06
338.878	88.06
339.106	96.06
339.334	90.06
339.562	94.06
339.79	68.06
340.018	82.06
340.246	91.06
340.474	79.06
340.702	75.06
340.93	87.06
341.158	84.06
341.386	81.06
341.614	77.06
341.842	79.06
342.07	76.06
342.298	73.06
342.526	87.06
342.754	75.06
342.981	98.06
343.209	94.06
343.437	95.06
343.665	75.06
343.893	73.06
344.12	83.06
344.348	87.06
344.576	76.06
344.804	82.06
345.031	82.06
345.259	83.06
345.487	95.06
345.714	94.06
345.942	82.06
346.17	89.06
346.397	94.06
346.625	67.06
346.853	78.06
347.08	81.06
347.308	92.06
347.535	89.06
347.763	85.06
347.99	88.06
348.218	77.06
348.445	85.06
348.673	88.06
348.9	77.06
349.128	93.06
349.355	81.06
349.583	93.06
349.81	88.06
350.037	81.06
350.265	73.06
350.492	83.06
350.72	85.06
350.947	98.06
351.174	94.06
351.402	79.06
351.629	76.06
351.856	89.06
352.083	88.06
352.311	84.06
352.538	70.06
352.765	78.06
352.992	84.06
353.22	79.06
353.447	90.06
353.674	93.06
353.901	85.06
354.128	81.06
354.355	95.06
354.583	87.06
354.81	90.06
355.037	102.06
355.264	90.06
355.491	83.06
355.718	85.06
355.945	81.06
356.172	70.06
356.399	91.06
356.626	86.06
356.853	91.06
357.08	99.06
357.307	80.06
357.534	78.06
357.761	94.06
357.988	92.06
358.215	96.06
358.441	94.06
358.668	89.06
358.895	81.06
359.122	84.06
359.349	93.06
359.576	86.06
359.802	79.06
360.029	78.06
360.256	86.06
360.483	97.06
360.709	81.06
360.936	85.06
361.163	93.06
361.39	93.06
361.616	87.06
361.843	87.06
362.07	87.06
362.296	80.06
362.523	87.06
362.749	89.06
362.976	97.06
363.203	106.06
363.429	81.06
363.656	81.06
363.882	91.06
364.109	91.06
364.335	106.06
364.562	91.06
364.788	95.06
365.015	67.06
365.241	88.06
365.468	93.06
365.694	79.06
365.92	74.06
366.147	92.06
366.373	86.06
366.599	84.06
366.826	83.06
367.052	85.06
367.278	92.06
367.505	90.06
367.731	84.06
367.957	79.06
368.184	76.06
368.41	82.06
368.636	92.06
368.862	82.06
369.089	77.06
369.315	88.06
369.541	88.06
369.767	85.06
369.993	89.06
370.219	86.06
370.445	88.06
370.672	73.06
370.898	81.06
371.124	83.06
371.35	93.06
371.576	67.06
371.802	81.06
372.028	87.06
372.254	79.06
372.48	80.06
372.706	98.06
372.932	78.06
373.158	69.06
373.384	90.06
373.61	93.06
373.835	88.06
374.061	84.06
374.287	90.06
374.513	96.06
374.739	91.06
374.965	94.06
375.191	84.06
375.416	78.06
375.642	94.06
375.868	86.06
376.094	90.06
376.319	78.06
376.545	87.06
376.771	73.06
376.997	82.06
377.222	96.06
377.448	93.06
377.674	86.06
377.899	90.06
378.125	91.06
378.35	80.06
378.576	94.06
378.802	93.06
379.027	84.06
379.253	79.06
379.478	72.06
379.704	91.06
379.929	89.06
380.155	98.06
380.38	97.06
380.606	80.06
380.831	78.06
381.057	88.06
381.282	107.06
381.507	91.06
381.733	87.06
381.958	83.06
382.184	83.06
382.409	93.06
382.634	101.06
382.86	79.06
383.085	76.06
383.31	85.06
383.535	86.06
383.761	77.06
383.986	94.06
384.211	93.06
384.436	80.06
384.662	89.06
384.887	79.06
385.112	74.06
385.337	73.06
385.562	91.06
385.787	89.06
386.013	81.06
386.238	80.06
386.463	88.06
386.688	99.06
386.913	93.06
387.138	83.06
387.363	83.06
387.588	78.06
387.813	94.06
388.038	90.06
388.263	87.06
388.488	79.06
388.713	89.06
388.938	94.06
389.163	79.06
389.387	89.06
389.612	73.06
389.837	90.06
390.062	91.06
390.287	101.06
390.512	88.06
390.736	80.06
390.961	78.06
391.186	86.06
391.411	90.06
391.636	87.06
391.86	87.06
392.085	89.06
392.31	75.06
392.534	79.06
392.759	99.06
392.984	114.06
393.208	115.06
393.433	174.06
393.658	156.06
393.882	107.06
394.107	87.06
394.331	93.06
394.556	87.06
394.78	86.06
395.005	95.06
395.229	78.06
395.454	77.06
395.678	87.06
395.903	87.06
396.127	112.06
396.352	106.06
396.576	136.06
396.801	147.06
397.025	137.06
397.249	109.06
397.474	98.06
397.698	98.06
397.922	81.06
398.147	87.06
398.371	77.06
398.595	85.06
398.82	71.06
399.044	76.06
399.268	82.06
399.492	85.06
399.717	72.06
399.941	84.06
400.165	88.06
400.389	85.06
400.613	76.06
400.837	75.06
401.062	89.06
401.286	80.06
401.51	95.06
401.734	84.06
401.958	87.06
402.182	94.06
402.406	86.06
402.63	91.06
402.854	91.06
403.078	87.06
403.302	82.06
403.526	75.06
403.75	72.06
403.974	82.06
404.198	79.06
404.422	97.06
404.645	83.06
404.869	74.06
405.093	88.06
405.317	81.06
405.541	89.06
405.765	76.06
405.988	81.06
406.212	97.06
406.436	84.06
406.66	83.06
406.883	71.06
407.107	93.06
407.331	86.06
407.555	87.06
407.778	98.06
408.002	94.06
408.226	71.06
408.449	71.06
408.673	89.06
408.896	93.06
409.12	87.06
409.344	91.06
409.567	101.06
409.791	93.06
410.014	76.06
410.238	82.06
410.461	84.06
410.685	77.06
410.908	86.06
411.132	82.06
411.355	81.06
411.578	84.06
411.802	90.06
412.025	83.06
412.249	79.06
412.472	78.06
412.695	86.06
412.919	67.06
413.142	77.06
413.365	76.06
413.589	85.06
413.812	94.06
414.035	94.06
414.258	74.06
414.482	77.06
414.705	83.06
414.928	86.06
415.151	74.06
415.374	83.06
415.597	88.06
415.821	77.06
416.044	83.06
416.267	80.06
416.49	94.06
416.713	71.06
416.936	87.06
417.159	86.06
417.382	90.06
417.605	84.06
417.828	69.06
418.051	89.06
418.274	93.06
418.497	85.06
418.72	83.06
418.943	74.06
419.166	66.06
419.389	92.06
419.611	95.06
419.834	84.06
420.057	74.06
420.28	81.06
420.503	88.06
420.726	81.06
420.948	79.06
421.171	101.06
421.394	76.06
421.617	89.06
421.839	95.06
422.062	110.06
422.285	127.06
422.507	162.06
422.73	220.06
422.953	193.06
423.175	112.06
423.398	96.06
423.621	102.06
423.843	85.06
424.066	88.06
424.288	90.06
424.511	89.06
424.733	85.06
424.956	89.06
425.178	110.06
425.401	79.06
425.623	66.06
425.846	84.06
426.068	79.06
426.291	94.06
426.513	85.06
426.735	81.06
426.958	88.06
427.18	83.06
427.402	95.06
427.625	75.06
427.847	76.06
428.069	90.06
428.292	95.06
428.514	105.06
428.736	100.06
428.958	106.06
429.181	95.06
429.403	86.06
429.625	85.06
429.847	89.06
430.069	114.06
430.292	118.06
430.514	113.06
430.736	97.06
430.958	113.06
431.18	95.06
431.402	99.06
431.624	100.06
431.846	95.06
432.068	119.06
432.29	81.06
432.512	87.06
432.734	83.06
432.956	80.06
433.178	95.06
433.4	93.06
433.622	79.06
433.844	81.06
434.066	68.06
434.287	83.06
434.509	89.06
434.731	90.06
434.953	89.06
435.175	78.06
435.397	63.06
435.618	84.06
435.84	89.06
436.062	92.06
436.284	81.06
436.505	81.06
436.727	85.06
436.949	90.06
437.17	84.06
437.392	83.06
437.614	99.06
437.835	91.06
438.057	82.06
438.278	75.06
438.5	77.06
438.721	95.06
438.943	86.06
439.165	72.06
439.386	87.06
439.608	86.06
439.829	81.06
440.05	86.06
440.272	83.06
440.493	86.06
440.715	85.06
440.936	79.06
441.158	78.06
441.379	87.06
441.6	93.06
441.822	73.06
442.043	80.06
442.264	90.06
442.486	118.06
442.707	98.06
442.928	85.06
443.149	79.06
443.371	98.06
443.592	125.06
443.813	123.06
444.034	86.06
444.255	85.06
444.476	91.06
444.698	85.06
444.919	85.06
445.14	129.06
445.361	135.06
445.582	155.06
445.803	139.06
446.024	91.06
446.245	95.06
446.466	81.06
446.687	82.06
446.908	74.06
447.129	83.06
447.35	84.06
447.571	73.06
447.792	79.06
448.013	69.06
448.234	79.06
448.455	63.06
448.675	79.06
448.896	75.06
449.117	85.06
449.338	78.06
449.559	84.06
449.779	78.06
450	81.06
450.221	85.06
450.442	78.06
450.662	87.06
450.883	88.06
451.104	72.06
451.324	87.06
451.545	77.06
451.766	79.06
451.986	82.06
452.207	87.06
452.428	86.06
452.648	77.06
452.869	97.06
453.089	87.06
453.31	89.06
453.53	94.06
453.751	84.06
453.971	81.06
454.192	73.06
454.412	74.06
454.633	76.06
454.853	100.06
455.073	71.06
455.294	93.06
455.514	99.06
455.734	83.06
455.955	80.06
456.175	79.06
456.395	89.06
456.616	73.06
456.836	105.06
457.056	99.06
457.276	75.06
457.497	77.06
457.717	69.06
457.937	87.06
458.157	91.06
458.377	101.06
458.598	94.06
458.818	81.06
459.038	88.06
459.258	81.06
459.478	101.06
459.698	87.06
459.918	85.06
460.138	63.06
460.358	95.06
460.578	84.06
460.798	90.06
461.018	92.06
461.238	83.06
461.458	81.06
461.678	89.06
461.898	89.06
462.118	71.06
462.338	76.06
462.558	82.06
462.777	81.06
462.997	86.06
463.217	91.06
463.437	96.06
463.657	86.06
463.876	67.06
464.096	75.06
464.316	76.06
464.536	69.06
464.755	70.06
464.975	73.06
465.195	85.06
465.414	72.06
465.634	71.06
465.854	81.06
466.073	85.06
466.293	96.06
466.512	89.06
466.732	84.06
466.951	91.06
467.171	93.06
467.391	87.06
467.61	89.06
467.829	84.06
468.049	87.06
468.268	80.06
468.488	77.06
468.707	90.06
468.927	82.06
469.146	80.06
469.365	85.06
469.585	72.06
469.804	85.06
470.023	89.06
470.243	88.06
470.462	84.06
470.681	87.06
470.901	80.06
471.12	91.06
471.339	87.06
471.558	96.06
471.777	81.06
471.997	78.06
472.216	95.06
472.435	82.06
472.654	93.06
472.873	87.06
473.092	85.06
473.311	88.06
473.53	74.06
473.749	81.06
473.968	85.06
474.187	93.06
474.406	77.06
474.625	76.06
474.844	73.06
475.063	88.06
475.282	92.06
475.501	82.06
475.72	93.06
475.939	81.06
476.158	78.06
476.377	84.06
476.596	76.06
476.814	99.06
477.033	73.06
477.252	92.06
477.471	83.06
477.69	71.06
477.908	94.06
478.127	95.06
478.346	83.06
478.564	82.06
478.783	87.06
479.002	77.06
479.22	93.06
479.439	99.06
479.658	84.06
479.876	76.06
480.095	81.06
480.313	78.06
480.532	91.06
480.751	80.06
480.969	79.06
481.188	85.06
481.406	90.06
481.624	78.06
481.843	75.06
482.061	85.06
482.28	83.06
482.498	86.06
482.717	79.06
482.935	97.06
483.153	82.06
483.372	79.06
483.59	77.06
483.808	88.06
484.027	93.06
484.245	83.06
484.463	87.06
484.681	101.06
484.9	88.06
485.118	77.06
485.336	91.06
485.554	76.06
485.772	72.06
485.99	85.06
486.209	81.06
486.427	71.06
486.645	73.06
486.863	82.06
487.081	74.06
487.299	103.06
487.517	89.06
487.735	94.06
487.953	116.06
488.171	116.06
488.389	89.06
488.607	70.06
488.825	85.06
489.043	73.06
489.261	89.06
489.479	90.06
489.696	84.06
489.914	81.06
490.132	65.06
490.35	68.06
490.568	81.06
490.786	93.06
491.003	83.06
491.221	77.06
491.439	79.06
491.657	81.06
491.874	81.06
492.092	94.06
492.31	79.06
492.527	85.06
492.745	85.06
492.963	85.06
493.18	85.06
493.398	97.06
493.615	81.06
493.833	82.06
494.05	61.06
494.268	69.06
494.485	88.06
494.703	91.06
494.92	72.06
495.138	89.06
495.355	88.06
495.573	88.06
495.79	81.06
496.008	91.06
496.225	80.06
496.442	94.06
496.66	91.06
496.877	85.06
497.094	98.06
497.312	77.06
497.529	83.06
497.746	88.06
497.963	71.06
498.181	87.06
498.398	88.06
498.615	86.06
498.832	83.06
499.049	78.06
499.267	88.06
499.484	86.06
499.701	97.06
499.918	90.06
500.135	96.06
500.352	84.06
500.569	85.06
500.786	105.06
501.003	92.06
501.22	97.06
501.437	99.06
501.654	86.06
501.871	85.06
502.088	72.06
502.305	85.06
502.522	81.06
502.739	80.06
502.956	76.06
503.172	84.06
503.389	89.06
503.606	86.06
503.823	86.06
504.04	100.06
504.256	89.06
504.473	102.06
504.69	92.06
504.907	85.06
505.123	99.06
505.34	89.06
505.557	85.06
505.773	91.06
505.99	87.06
506.207	70.06
506.423	97.06
506.64	94.06
506.856	89.06
507.073	94.06
507.289	85.06
507.506	81.06
507.722	82.06
507.939	77.06
508.155	92.06
508.372	93.06
508.588	93.06
508.805	85.06
509.021	81.06
509.238	79.06
509.454	86.06
509.67	75.06
509.887	83.06
510.103	86.06
510.319	86.06
510.536	98.06
510.752	91.06
510.968	89.06
511.184	90.06
511.401	87.06
511.617	91.06
511.833	81.06
512.049	85.06
512.265	76.06
512.481	90.06
512.698	88.06
512.914	75.06
513.13	86.06
513.346	90.06
513.562	102.06
513.778	94.06
513.994	88.06
514.21	97.06
514.426	94.06
514.642	81.06
514.858	77.06
515.074	82.06
515.29	95.06
515.506	77.06
515.721	81.06
515.937	96.06
516.153	86.06
516.369	81.06
516.585	84.06
516.801	82.06
517.016	96.06
517.232	89.06
517.448	99.06
517.664	96.06
517.879	71.06
518.095	73.06
518.311	73.06
518.527	70.06
518.742	82.06
518.958	99.06
519.173	109.06
519.389	91.06
