Data from Background_2_HRD10591_00073.txt Node
Date: Wed Nov 05 14:47:32 EST 2025
User: Yrep
Spectrometer: HR+D1059
Trigger mode: 1
Integration Time (sec): 1.000000E-1
Scans to average: 1
Electric dark correction enabled: true
Nonlinearity correction enabled: false
Boxcar width: 0
XAxis mode: Wavelengths
Number of Pixels in Spectrum: 2048
>>>>>Begin Spectral Data<<<<<
223.165	-10
223.4	-10
223.635	-10
223.869	-18
224.104	-39
224.338	-8
224.573	-12
224.808	-22
225.042	-15
225.277	7
225.511	-6
225.746	0
225.98	0
226.215	30
226.449	7
226.683	21
226.918	28
227.152	37
227.387	42
227.621	47
227.856	44
228.09	44
228.324	57
228.559	49
228.793	71
229.027	72
229.262	57
229.496	71
229.73	86
229.964	72
230.199	82
230.433	67
230.667	99
230.901	78
231.136	77
231.37	76
231.604	87
231.838	63
232.072	75
232.306	69
232.541	93
232.775	67
233.009	80
233.243	69
233.477	65
233.711	72
233.945	82
234.179	78
234.413	84
234.647	75
234.881	80
235.115	86
235.349	82
235.583	77
235.817	77
236.051	93
236.285	80
236.519	95
236.753	67
236.987	80
237.221	87
237.455	83
237.689	89
237.922	71
238.156	74
238.39	82
238.624	89
238.858	63
239.091	73
239.325	72
239.559	81
239.793	69
240.027	71
240.26	69
240.494	68
240.728	78
240.961	91
241.195	71
241.429	93
241.662	75
241.896	87
242.13	76
242.363	81
242.597	85
242.83	89
243.064	65
243.298	73
243.531	86
243.765	88
243.998	82
244.232	69
244.465	77
244.699	67
244.932	63
245.166	84
245.399	94
245.633	85
245.866	71
246.099	69
246.333	70
246.566	78
246.8	75
247.033	78
247.266	90
247.5	76
247.733	72
247.966	71
248.2	70
248.433	79
248.666	66
248.899	70
249.133	77
249.366	91
249.599	84
249.832	75
250.066	73
250.299	83
250.532	78
250.765	75
250.998	80
251.231	81
251.465	84
251.698	86
251.931	90
252.164	81
252.397	86
252.63	87
252.863	83
253.096	78
253.329	79
253.562	75
253.795	79
254.028	80
254.261	71
254.494	70
254.727	74
254.96	73
255.193	80
255.426	70
255.659	80
255.892	71
256.124	81
256.357	88
256.59	92
256.823	76
257.056	77
257.289	76
257.521	84
257.754	75
257.987	68
258.22	89
258.452	73
258.685	91
258.918	87
259.151	83
259.383	79
259.616	70
259.849	64
260.081	85
260.314	83
260.547	80
260.779	77
261.012	92
261.244	86
261.477	83
261.71	84
261.942	86
262.175	70
262.407	67
262.64	72
262.872	75
263.105	68
263.337	71
263.57	93
263.802	72
264.035	90
264.267	76
264.499	104
264.732	71
264.964	89
265.197	77
265.429	85
265.661	83
265.894	87
266.126	79
266.358	85
266.591	86
266.823	72
267.055	74
267.287	93
267.52	80
267.752	92
267.984	71
268.216	77
268.448	87
268.681	91
268.913	80
269.145	94
269.377	69
269.609	79
269.841	95
270.073	80
270.306	113
270.538	94
270.77	72
271.002	76
271.234	95
271.466	63
271.698	98
271.93	98
272.162	90
272.394	76
272.626	79
272.858	81
273.09	86
273.322	95
273.553	71
273.785	69
274.017	87
274.249	81
274.481	88
274.713	87
274.945	84
275.176	80
275.408	95
275.64	80
275.872	82
276.104	84
276.335	83
276.567	79
276.799	81
277.031	69
277.262	77
277.494	85
277.726	89
277.957	80
278.189	81
278.421	91
278.652	92
278.884	91
279.115	83
279.347	72
279.579	72
279.81	89
280.042	86
280.273	83
280.505	75
280.736	78
280.968	71
281.199	87
281.431	81
281.662	83
281.894	82
282.125	95
282.356	84
282.588	103
282.819	88
283.051	77
283.282	93
283.513	78
283.745	87
283.976	81
284.207	98
284.439	89
284.67	77
284.901	98
285.132	81
285.364	94
285.595	85
285.826	69
286.057	82
286.288	87
286.52	92
286.751	86
286.982	87
287.213	77
287.444	92
287.675	78
287.906	82
288.138	90
288.369	89
288.6	97
288.831	94
289.062	105
289.293	97
289.524	77
289.755	75
289.986	81
290.217	91
290.448	89
290.679	90
290.91	89
291.141	86
291.371	82
291.602	82
291.833	76
292.064	71
292.295	84
292.526	77
292.757	80
292.987	70
293.218	81
293.449	75
293.68	84
293.91	95
294.141	85
294.372	90
294.603	90
294.833	83
295.064	81
295.295	92
295.525	78
295.756	80
295.987	84
296.217	92
296.448	77
296.679	97
296.909	87
297.14	84
297.37	82
297.601	84
297.831	83
298.062	77
298.292	89
298.523	89
298.753	85
298.984	91
299.214	93
299.445	77
299.675	80
299.905	89
300.136	99
300.366	91
300.597	74
300.827	82
301.057	80
301.288	87
301.518	84
301.748	77
301.979	95
302.209	91
302.439	83
302.669	77
302.9	83
303.13	93
303.36	93
303.59	92
303.82	94
304.051	94
304.281	76
304.511	97
304.741	81
304.971	84
305.201	98
305.431	90
305.661	82
305.891	92
306.121	77
306.352	74
306.582	92
306.812	99
307.042	81
307.272	90
307.502	97
307.731	78
307.961	86
308.191	93
308.421	75
308.651	89
308.881	85
309.111	86
309.341	88
309.571	90
309.8	71
310.03	93
310.26	81
310.49	87
310.72	98
310.949	89
311.179	77
311.409	92
311.639	90
311.868	77
312.098	79
312.328	83
312.557	92
312.787	75
313.017	79
313.246	91
313.476	86
313.706	72
313.935	83
314.165	90
314.394	98
314.624	97
314.853	87
315.083	87
315.312	87
315.542	88
315.771	75
316.001	96
316.23	69
316.46	75
316.689	72
316.919	93
317.148	85
317.377	91
317.607	87
317.836	82
318.065	75
318.295	81
318.524	82
318.753	86
318.983	90
319.212	83
319.441	76
319.67	89
319.9	85
320.129	91
320.358	91
320.587	90
320.816	79
321.046	83
321.275	91
321.504	93
321.733	93
321.962	80
322.191	64
322.42	91
322.649	82
322.878	86
323.108	92
323.337	85
323.566	88
323.795	101
324.024	80
324.253	68
324.482	89
324.71	80
324.939	78
325.168	83
325.397	70
325.626	88
325.855	91
326.084	63
326.313	83
326.542	91
326.77	90
326.999	85
327.228	85
327.457	89
327.686	78
327.914	92
328.143	95
328.372	81
328.6	91
328.829	76
329.058	89
329.287	73
329.515	79
329.744	90
329.972	86
330.201	85
330.43	79
330.658	93
330.887	95
331.115	87
331.344	81
331.572	80
331.801	77
332.03	100
332.258	80
332.486	89
332.715	78
332.943	77
333.172	74
333.4	81
333.629	90
333.857	91
334.085	89
334.314	90
334.542	73
334.771	85
334.999	91
335.227	80
335.455	94
335.684	74
335.912	83
336.14	91
336.369	89
336.597	82
336.825	79
337.053	70
337.281	87
337.51	78
337.738	74
337.966	87
338.194	97
338.422	83
338.65	78
338.878	70
339.106	80
339.334	94
339.562	81
339.79	75
340.018	96
340.246	93
340.474	80
340.702	82
340.93	89
341.158	86
341.386	84
341.614	77
341.842	78
342.07	79
342.298	82
342.526	88
342.754	74
342.981	81
343.209	89
343.437	90
343.665	76
343.893	75
344.12	89
344.348	83
344.576	81
344.804	91
345.031	93
345.259	86
345.487	89
345.714	87
345.942	89
346.17	93
346.397	75
346.625	77
346.853	70
347.08	85
347.308	72
347.535	79
347.763	90
347.99	91
348.218	84
348.445	89
348.673	92
348.9	69
349.128	76
349.355	98
349.583	90
349.81	77
350.037	90
350.265	71
350.492	81
350.72	95
350.947	90
351.174	86
351.402	78
351.629	75
351.856	89
352.083	93
352.311	82
352.538	82
352.765	87
352.992	101
353.22	79
353.447	76
353.674	84
353.901	85
354.128	84
354.355	84
354.583	82
354.81	78
355.037	85
355.264	83
355.491	85
355.718	76
355.945	86
356.172	79
356.399	78
356.626	81
356.853	84
357.08	91
357.307	80
357.534	78
357.761	94
357.988	89
358.215	87
358.441	89
358.668	88
358.895	72
359.122	90
359.349	79
359.576	84
359.802	73
360.029	81
360.256	87
360.483	70
360.709	100
360.936	89
361.163	76
361.39	86
361.616	89
361.843	83
362.07	83
362.296	89
362.523	84
362.749	84
362.976	91
363.203	89
363.429	95
363.656	94
363.882	68
364.109	87
364.335	95
364.562	74
364.788	89
365.015	80
365.241	83
365.468	81
365.694	84
365.92	89
366.147	65
366.373	71
366.599	84
366.826	67
367.052	84
367.278	94
367.505	83
367.731	87
367.957	83
368.184	90
368.41	90
368.636	85
368.862	91
369.089	92
369.315	79
369.541	80
369.767	97
369.993	75
370.219	99
370.445	83
370.672	84
370.898	81
371.124	92
371.35	75
371.576	88
371.802	75
372.028	79
372.254	75
372.48	81
372.706	81
372.932	89
373.158	66
373.384	77
373.61	89
373.835	87
374.061	87
374.287	74
374.513	88
374.739	85
374.965	81
375.191	75
375.416	89
375.642	86
375.868	78
376.094	90
376.319	80
376.545	89
376.771	70
376.997	78
377.222	83
377.448	63
377.674	76
377.899	77
378.125	78
378.35	94
378.576	82
378.802	92
379.027	79
379.253	91
379.478	78
379.704	83
379.929	83
380.155	81
380.38	98
380.606	81
380.831	81
381.057	83
381.282	94
381.507	81
381.733	93
381.958	80
382.184	79
382.409	84
382.634	83
382.86	75
383.085	91
383.31	82
383.535	81
383.761	88
383.986	81
384.211	72
384.436	69
384.662	74
384.887	71
385.112	89
385.337	81
385.562	82
385.787	81
386.013	75
386.238	70
386.463	79
386.688	96
386.913	70
387.138	83
387.363	91
387.588	70
387.813	104
388.038	87
388.263	84
388.488	78
388.713	84
388.938	83
389.163	94
389.387	72
389.612	83
389.837	80
390.062	73
390.287	78
390.512	79
390.736	83
390.961	71
391.186	86
391.411	77
391.636	90
391.86	92
392.085	80
392.31	70
392.534	81
392.759	70
392.984	69
393.208	86
393.433	81
393.658	83
393.882	88
394.107	80
394.331	68
394.556	65
394.78	87
395.005	85
395.229	79
395.454	72
395.678	90
395.903	91
396.127	74
396.352	79
396.576	90
396.801	73
397.025	85
397.249	97
397.474	80
397.698	105
397.922	81
398.147	74
398.371	85
398.595	86
398.82	86
399.044	92
399.268	81
399.492	84
399.717	90
399.941	90
400.165	77
400.389	71
400.613	66
400.837	86
401.062	63
401.286	76
401.51	83
401.734	85
401.958	66
402.182	75
402.406	70
402.63	76
402.854	69
403.078	82
403.302	88
403.526	91
403.75	85
403.974	79
404.198	80
404.422	72
404.645	83
404.869	79
405.093	71
405.317	80
405.541	75
405.765	78
405.988	91
406.212	91
406.436	72
406.66	75
406.883	87
407.107	78
407.331	76
407.555	62
407.778	92
408.002	72
408.226	66
408.449	61
408.673	80
408.896	87
409.12	81
409.344	75
409.567	66
409.791	82
410.014	74
410.238	75
410.461	69
410.685	77
410.908	68
411.132	79
411.355	85
411.578	93
411.802	81
412.025	80
412.249	80
412.472	71
412.695	65
412.919	82
413.142	84
413.365	87
413.589	84
413.812	83
414.035	84
414.258	88
414.482	83
414.705	84
414.928	89
415.151	80
415.374	73
415.597	72
415.821	60
416.044	91
416.267	74
416.49	82
416.713	82
416.936	71
417.159	72
417.382	84
417.605	81
417.828	81
418.051	69
418.274	81
418.497	69
418.72	81
418.943	84
419.166	76
419.389	85
419.611	79
419.834	69
420.057	69
420.28	83
420.503	83
420.726	80
420.948	85
421.171	77
421.394	92
421.617	75
421.839	81
422.062	85
422.285	78
422.507	71
422.73	71
422.953	73
423.175	96
423.398	75
423.621	79
423.843	84
424.066	74
424.288	73
424.511	71
424.733	87
424.956	69
425.178	80
425.401	62
425.623	81
425.846	81
426.068	70
426.291	78
426.513	79
426.735	87
426.958	82
427.18	79
427.402	86
427.625	85
427.847	79
428.069	79
428.292	89
428.514	76
428.736	94
428.958	80
429.181	70
429.403	70
429.625	76
429.847	73
430.069	95
430.292	87
430.514	94
430.736	92
430.958	89
431.18	83
431.402	82
431.624	90
431.846	86
432.068	88
432.29	86
432.512	81
432.734	84
432.956	74
433.178	67
433.4	72
433.622	83
433.844	75
434.066	101
434.287	93
434.509	79
434.731	97
434.953	66
435.175	81
435.397	91
435.618	91
435.84	70
436.062	82
436.284	89
436.505	81
436.727	96
436.949	77
437.17	66
437.392	89
437.614	96
437.835	88
438.057	75
438.278	81
438.5	86
438.721	84
438.943	70
439.165	82
439.386	83
439.608	84
439.829	77
440.05	77
440.272	83
440.493	75
440.715	77
440.936	79
441.158	79
441.379	79
441.6	69
441.822	73
442.043	87
442.264	78
442.486	81
442.707	83
442.928	75
443.149	79
443.371	82
443.592	69
443.813	72
444.034	81
444.255	80
444.476	68
444.698	70
444.919	83
445.14	137
445.361	124
445.582	87
445.803	69
446.024	82
446.245	71
446.466	78
446.687	78
446.908	74
447.129	86
447.35	84
447.571	76
447.792	86
448.013	81
448.234	86
448.455	78
448.675	75
448.896	78
449.117	88
449.338	79
449.559	83
449.779	69
450	81
450.221	74
450.442	63
450.662	68
450.883	84
451.104	77
451.324	64
451.545	76
451.766	64
451.986	65
452.207	86
452.428	72
452.648	81
452.869	82
453.089	89
453.31	85
453.53	83
453.751	90
453.971	92
454.192	76
454.412	76
454.633	77
454.853	78
455.073	67
455.294	81
455.514	77
455.734	69
455.955	78
456.175	78
456.395	84
456.616	76
456.836	67
457.056	90
457.276	76
457.497	85
457.717	74
457.937	97
458.157	79
458.377	75
458.598	80
458.818	82
459.038	71
459.258	86
459.478	90
459.698	78
459.918	92
460.138	60
460.358	70
460.578	82
460.798	64
461.018	84
461.238	80
461.458	95
461.678	79
461.898	80
462.118	77
462.338	83
462.558	90
462.777	73
462.997	80
463.217	82
463.437	64
463.657	77
463.876	81
464.096	71
464.316	90
464.536	71
464.755	78
464.975	74
465.195	90
465.414	65
465.634	76
465.854	74
466.073	90
466.293	81
466.512	76
466.732	84
466.951	76
467.171	68
467.391	76
467.61	81
467.829	73
468.049	77
468.268	69
468.488	89
468.707	71
468.927	82
469.146	77
469.365	76
469.585	71
469.804	88
470.023	66
470.243	81
470.462	81
470.681	82
470.901	91
471.12	75
471.339	86
471.558	79
471.777	86
471.997	74
472.216	74
472.435	87
472.654	85
472.873	80
473.092	77
473.311	68
473.53	77
473.749	75
473.968	86
474.187	84
474.406	77
474.625	70
474.844	79
475.063	81
475.282	78
475.501	80
475.72	89
475.939	69
476.158	80
476.377	82
476.596	67
476.814	71
477.033	80
477.252	78
477.471	87
477.69	81
477.908	75
478.127	87
478.346	81
478.564	74
478.783	66
479.002	78
479.22	79
479.439	89
479.658	86
479.876	69
480.095	81
480.313	91
480.532	67
480.751	97
480.969	89
481.188	81
481.406	84
481.624	83
481.843	88
482.061	79
482.28	71
482.498	80
482.717	75
482.935	91
483.153	78
483.372	78
483.59	84
483.808	70
484.027	88
484.245	86
484.463	91
484.681	70
484.9	91
485.118	89
485.336	86
485.554	79
485.772	95
485.99	96
486.209	71
486.427	71
486.645	78
486.863	81
487.081	70
487.299	69
487.517	91
487.735	81
487.953	85
488.171	82
488.389	88
488.607	79
488.825	77
489.043	81
489.261	81
489.479	70
489.696	92
489.914	74
490.132	83
490.35	74
490.568	75
490.786	81
491.003	76
491.221	68
491.439	82
491.657	71
491.874	94
492.092	81
492.31	85
492.527	73
492.745	83
492.963	65
493.18	89
493.398	81
493.615	79
493.833	73
494.05	79
494.268	76
494.485	78
494.703	88
494.92	79
495.138	71
495.355	79
495.573	65
495.79	83
496.008	86
496.225	84
496.442	85
496.66	71
496.877	87
497.094	87
497.312	106
497.529	72
497.746	84
497.963	76
498.181	74
498.398	69
498.615	83
498.832	85
499.049	72
499.267	92
499.484	74
499.701	83
499.918	79
500.135	78
500.352	87
500.569	84
500.786	80
501.003	77
501.22	77
501.437	85
501.654	87
501.871	79
502.088	78
502.305	78
502.522	85
502.739	73
502.956	78
503.172	75
503.389	84
503.606	98
503.823	86
504.04	86
504.256	74
504.473	76
504.69	77
504.907	89
505.123	77
505.34	71
505.557	79
505.773	75
505.99	95
506.207	77
506.423	69
506.64	89
506.856	77
507.073	89
507.289	90
507.506	93
507.722	82
507.939	80
508.155	86
508.372	87
508.588	71
508.805	78
509.021	86
509.238	81
509.454	83
509.67	78
509.887	81
510.103	83
510.319	81
510.536	84
510.752	77
510.968	82
511.184	82
511.401	72
511.617	79
511.833	78
512.049	87
512.265	89
512.481	78
512.698	81
512.914	83
513.13	95
513.346	83
513.562	96
513.778	89
513.994	99
514.21	81
514.426	74
514.642	73
514.858	86
515.074	92
515.29	92
515.506	81
515.721	78
515.937	86
516.153	75
516.369	82
516.585	92
516.801	85
517.016	75
517.232	70
517.448	78
517.664	73
517.879	89
518.095	91
518.311	78
518.527	72
518.742	80
518.958	75
519.173	81
519.389	81
519.605	73
519.82	78
520.036	84
520.251	83
520.467	97
520.682	96
520.898	78
521.113	81
521.329	77
521.544	71
521.76	86
521.975	81
522.19	81
522.406	76
522.621	85
522.836	89
523.052	86
523.267	92
523.482	77
523.698	87
523.913	77
524.128	72
524.343	81
524.559	89
524.774	97
524.989	93
525.204	84
525.419	99
525.634	93
525.849	81
526.064	90
526.28	95
526.495	77
526.71	71
526.925	81
527.14	95
527.355	89
527.57	84
527.785	75
527.999	85
528.214	87
528.429	92
528.644	89
528.859	66
529.074	69
529.289	80
529.503	71
529.718	92
529.933	83
530.148	91
530.363	78
530.577	86
530.792	90
531.007	85
531.221	60
531.436	81
531.651	95
531.865	87
532.08	84
532.295	86
532.509	85
532.724	87
532.938	85
533.153	83
533.367	81
533.582	87
533.796	86
534.011	86
534.225	88
534.44	84
534.654	81
534.868	73
535.083	98
535.297	64
535.511	84
535.726	83
535.94	94
536.154	94
536.369	84
536.583	78
536.797	89
537.011	81
537.225	85
537.44	85
537.654	97
537.868	83
538.082	74
538.296	84
538.51	75
538.724	78
538.938	76
539.153	80
539.367	90
539.581	60
539.795	84
540.009	84
540.222	87
540.436	82
540.65	67
540.864	96
541.078	79
541.292	73
541.506	90
541.72	93
541.934	77
542.147	76
542.361	91
542.575	70
542.789	66
543.002	72
543.216	78
543.43	84
543.644	79
543.857	89
544.071	84
544.285	85
544.498	86
544.712	74
544.925	86
545.139	77
545.352	77
545.566	86
545.779	76
545.993	93
546.206	92
546.42	83
546.633	87
546.847	85
547.06	89
547.274	102
547.487	82
547.7	83
547.914	81
548.127	81
548.34	86
548.554	74
548.767	85
548.98	93
549.193	81
549.407	94
549.62	85
549.833	92
550.046	92
550.259	83
550.473	81
550.686	92
550.899	75
551.112	83
551.325	74
551.538	77
551.751	77
551.964	74
552.177	94
552.39	85
552.603	70
552.816	77
553.029	70
553.242	86
553.455	82
553.667	83
553.88	85
554.093	92
554.306	79
554.519	75
554.732	82
554.944	102
555.157	90
555.37	91
555.583	74
555.795	84
556.008	85
556.221	105
556.433	93
556.646	84
556.859	84
557.071	64
557.284	82
557.496	92
557.709	79
557.921	86
558.134	90
558.346	93
558.559	82
558.771	75
558.984	87
559.196	82
559.409	76
559.621	68
559.833	69
560.046	72
560.258	95
560.47	75
560.683	87
560.895	86
561.107	83
561.32	83
561.532	89
561.744	78
561.956	82
562.168	74
562.381	80
562.593	87
562.805	96
563.017	81
563.229	95
563.441	85
563.653	106
563.865	79
564.077	86
564.289	80
564.501	83
564.713	81
564.925	75
565.137	82
565.349	85
565.561	82
565.773	84
565.985	81
566.197	85
566.408	110
566.62	83
566.832	65
567.044	85
567.255	83
567.467	103
567.679	83
567.891	84
568.102	66
568.314	89
568.526	74
568.737	83
568.949	67
569.161	71
569.372	91
569.584	78
569.795	89
570.007	73
570.218	94
570.43	87
570.641	94
570.853	78
571.064	106
571.276	87
571.487	81
571.698	90
571.91	89
572.121	85
572.333	89
572.544	85
572.755	97
572.966	78
573.178	95
573.389	93
573.6	81
573.811	78
574.023	81
574.234	83
574.445	90
574.656	93
574.867	83
575.078	81
575.289	88
575.501	86
575.712	79
575.923	93
576.134	79
576.345	85
576.556	91
576.767	98
576.978	81
577.188	92
577.399	91
577.61	82
577.821	87
578.032	78
578.243	81
578.454	83
578.665	76
578.875	84
579.086	78
579.297	92
579.508	92
579.718	77
579.929	76
580.14	86
580.35	85
580.561	92
580.772	97
580.982	70
581.193	90
581.403	84
581.614	89
581.825	88
582.035	85
582.246	84
582.456	94
582.667	81
582.877	69
583.087	79
583.298	64
583.508	92
583.719	80
583.929	98
584.139	74
584.35	72
584.56	104
584.77	76
584.981	83
585.191	83
585.401	70
585.611	89
585.821	94
586.032	86
586.242	68
586.452	89
586.662	82
586.872	86
587.082	75
587.292	86
587.502	81
587.713	85
587.923	81
588.133	78
588.343	85
588.553	81
588.762	95
588.972	83
589.182	89
589.392	93
589.602	85
589.812	86
590.022	87
590.232	85
590.441	75
590.651	95
