Data from Background_2_HRD10591_00062.txt Node
Date: Wed Nov 05 14:47:27 EST 2025
User: Yrep
Spectrometer: HR+D1059
Trigger mode: 1
Integration Time (sec): 1.000000E-1
Scans to average: 1
Electric dark correction enabled: true
Nonlinearity correction enabled: false
Boxcar width: 0
XAxis mode: Wavelengths
Number of Pixels in Spectrum: 2048
>>>>>Begin Spectral Data<<<<<
223.165	-11.06
223.4	-11.06
223.635	-11.06
223.869	-19.06
224.104	-22.06
224.338	-13.06
224.573	-7.06
224.808	-19.06
225.042	0.94
225.277	4.94
225.511	-9.06
225.746	6.94
225.98	2.94
226.215	-8.06
226.449	16.94
226.683	5.94
226.918	21.94
227.152	47.94
227.387	32.94
227.621	27.94
227.856	53.94
228.09	37.94
228.324	50.94
228.559	60.94
228.793	53.94
229.027	62.94
229.262	58.94
229.496	59.94
229.73	76.94
229.964	74.94
230.199	74.94
230.433	70.94
230.667	65.94
230.901	64.94
231.136	82.94
231.37	67.94
231.604	86.94
231.838	63.94
232.072	80.94
232.306	70.94
232.541	78.94
232.775	80.94
233.009	74.94
233.243	88.94
233.477	101.94
233.711	78.94
233.945	76.94
234.179	90.94
234.413	86.94
234.647	70.94
234.881	82.94
235.115	86.94
235.349	78.94
235.583	77.94
235.817	83.94
236.051	66.94
236.285	78.94
236.519	71.94
236.753	75.94
236.987	77.94
237.221	72.94
237.455	85.94
237.689	82.94
237.922	69.94
238.156	76.94
238.39	64.94
238.624	80.94
238.858	66.94
239.091	77.94
239.325	68.94
239.559	67.94
239.793	74.94
240.027	80.94
240.26	85.94
240.494	84.94
240.728	80.94
240.961	74.94
241.195	62.94
241.429	75.94
241.662	66.94
241.896	70.94
242.13	87.94
242.363	74.94
242.597	77.94
242.83	72.94
243.064	72.94
243.298	71.94
243.531	73.94
243.765	80.94
243.998	60.94
244.232	70.94
244.465	66.94
244.699	72.94
244.932	86.94
245.166	65.94
245.399	72.94
245.633	83.94
245.866	77.94
246.099	80.94
246.333	77.94
246.566	74.94
246.8	87.94
247.033	60.94
247.266	56.94
247.5	79.94
247.733	65.94
247.966	66.94
248.2	84.94
248.433	79.94
248.666	95.94
248.899	70.94
249.133	67.94
249.366	70.94
249.599	77.94
249.832	60.94
250.066	92.94
250.299	86.94
250.532	84.94
250.765	80.94
250.998	102.94
251.231	64.94
251.465	84.94
251.698	81.94
251.931	72.94
252.164	76.94
252.397	81.94
252.63	78.94
252.863	73.94
253.096	73.94
253.329	85.94
253.562	80.94
253.795	76.94
254.028	71.94
254.261	66.94
254.494	72.94
254.727	78.94
254.96	73.94
255.193	69.94
255.426	68.94
255.659	76.94
255.892	84.94
256.124	73.94
256.357	89.94
256.59	85.94
256.823	88.94
257.056	80.94
257.289	73.94
257.521	71.94
257.754	71.94
257.987	83.94
258.22	77.94
258.452	73.94
258.685	79.94
258.918	86.94
259.151	88.94
259.383	70.94
259.616	69.94
259.849	75.94
260.081	81.94
260.314	78.94
260.547	94.94
260.779	83.94
261.012	89.94
261.244	58.94
261.477	85.94
261.71	78.94
261.942	78.94
262.175	79.94
262.407	68.94
262.64	77.94
262.872	74.94
263.105	73.94
263.337	98.94
263.57	81.94
263.802	83.94
264.035	78.94
264.267	68.94
264.499	83.94
264.732	85.94
264.964	73.94
265.197	66.94
265.429	65.94
265.661	94.94
265.894	88.94
266.126	94.94
266.358	67.94
266.591	78.94
266.823	86.94
267.055	70.94
267.287	77.94
267.52	74.94
267.752	88.94
267.984	89.94
268.216	85.94
268.448	84.94
268.681	75.94
268.913	91.94
269.145	78.94
269.377	99.94
269.609	81.94
269.841	77.94
270.073	85.94
270.306	92.94
270.538	77.94
270.77	80.94
271.002	79.94
271.234	75.94
271.466	92.94
271.698	86.94
271.93	76.94
272.162	85.94
272.394	83.94
272.626	88.94
272.858	86.94
273.09	80.94
273.322	84.94
273.553	95.94
273.785	87.94
274.017	89.94
274.249	84.94
274.481	80.94
274.713	81.94
274.945	89.94
275.176	74.94
275.408	76.94
275.64	80.94
275.872	90.94
276.104	77.94
276.335	63.94
276.567	75.94
276.799	76.94
277.031	89.94
277.262	85.94
277.494	88.94
277.726	86.94
277.957	70.94
278.189	66.94
278.421	67.94
278.652	88.94
278.884	79.94
279.115	84.94
279.347	82.94
279.579	58.94
279.81	79.94
280.042	78.94
280.273	79.94
280.505	73.94
280.736	84.94
280.968	77.94
281.199	77.94
281.431	75.94
281.662	90.94
281.894	80.94
282.125	73.94
282.356	77.94
282.588	80.94
282.819	89.94
283.051	76.94
283.282	78.94
283.513	86.94
283.745	74.94
283.976	75.94
284.207	85.94
284.439	79.94
284.67	77.94
284.901	88.94
285.132	77.94
285.364	85.94
285.595	86.94
285.826	97.94
286.057	96.94
286.288	75.94
286.52	88.94
286.751	87.94
286.982	78.94
287.213	74.94
287.444	77.94
287.675	84.94
287.906	83.94
288.138	85.94
288.369	78.94
288.6	80.94
288.831	93.94
289.062	82.94
289.293	72.94
289.524	92.94
289.755	68.94
289.986	83.94
290.217	78.94
290.448	86.94
290.679	85.94
290.91	84.94
291.141	88.94
291.371	84.94
291.602	99.94
291.833	94.94
292.064	76.94
292.295	84.94
292.526	89.94
292.757	92.94
292.987	84.94
293.218	80.94
293.449	89.94
293.68	85.94
293.91	91.94
294.141	82.94
294.372	88.94
294.603	74.94
294.833	85.94
295.064	88.94
295.295	82.94
295.525	80.94
295.756	80.94
295.987	80.94
296.217	92.94
296.448	96.94
296.679	107.94
296.909	85.94
297.14	80.94
297.37	93.94
297.601	78.94
297.831	79.94
298.062	79.94
298.292	84.94
298.523	85.94
298.753	83.94
298.984	99.94
299.214	81.94
299.445	96.94
299.675	88.94
299.905	76.94
300.136	81.94
300.366	85.94
300.597	100.94
300.827	83.94
301.057	89.94
301.288	86.94
301.518	76.94
301.748	67.94
301.979	105.94
302.209	84.94
302.439	90.94
302.669	84.94
302.9	97.94
303.13	73.94
303.36	84.94
303.59	86.94
303.82	91.94
304.051	86.94
304.281	100.94
304.511	91.94
304.741	77.94
304.971	73.94
305.201	83.94
305.431	71.94
305.661	86.94
305.891	87.94
306.121	83.94
306.352	79.94
306.582	80.94
306.812	74.94
307.042	76.94
307.272	98.94
307.502	76.94
307.731	87.94
307.961	81.94
308.191	67.94
308.421	76.94
308.651	84.94
308.881	88.94
309.111	82.94
309.341	88.94
309.571	73.94
309.8	86.94
310.03	76.94
310.26	82.94
310.49	79.94
310.72	100.94
310.949	89.94
311.179	78.94
311.409	87.94
311.639	86.94
311.868	88.94
312.098	98.94
312.328	92.94
312.557	82.94
312.787	82.94
313.017	78.94
313.246	80.94
313.476	88.94
313.706	82.94
313.935	74.94
314.165	94.94
314.394	87.94
314.624	78.94
314.853	93.94
315.083	71.94
315.312	78.94
315.542	69.94
315.771	96.94
316.001	99.94
316.23	82.94
316.46	81.94
316.689	86.94
316.919	86.94
317.148	84.94
317.377	93.94
317.607	82.94
317.836	72.94
318.065	75.94
318.295	82.94
318.524	76.94
318.753	81.94
318.983	91.94
319.212	78.94
319.441	80.94
319.67	89.94
319.9	73.94
320.129	94.94
320.358	82.94
320.587	88.94
320.816	80.94
321.046	91.94
321.275	72.94
321.504	82.94
321.733	91.94
321.962	91.94
322.191	85.94
322.42	74.94
322.649	98.94
322.878	81.94
323.108	101.94
323.337	84.94
323.566	72.94
323.795	93.94
324.024	88.94
324.253	87.94
324.482	84.94
324.71	86.94
324.939	79.94
325.168	82.94
325.397	94.94
325.626	82.94
325.855	94.94
326.084	92.94
326.313	75.94
326.542	89.94
326.77	82.94
326.999	80.94
327.228	86.94
327.457	78.94
327.686	90.94
327.914	83.94
328.143	77.94
328.372	83.94
328.6	76.94
328.829	79.94
329.058	92.94
329.287	74.94
329.515	84.94
329.744	74.94
329.972	76.94
330.201	81.94
330.43	78.94
330.658	74.94
330.887	82.94
331.115	99.94
331.344	83.94
331.572	86.94
331.801	83.94
332.03	94.94
332.258	69.94
332.486	84.94
332.715	78.94
332.943	82.94
333.172	80.94
333.4	86.94
333.629	100.94
333.857	93.94
334.085	88.94
334.314	95.94
334.542	102.94
334.771	85.94
334.999	97.94
335.227	86.94
335.455	79.94
335.684	97.94
335.912	82.94
336.14	88.94
336.369	79.94
336.597	84.94
336.825	80.94
337.053	81.94
337.281	82.94
337.51	81.94
337.738	89.94
337.966	80.94
338.194	93.94
338.422	79.94
338.65	88.94
338.878	92.94
339.106	92.94
339.334	86.94
339.562	88.94
339.79	94.94
340.018	65.94
340.246	82.94
340.474	91.94
340.702	90.94
340.93	93.94
341.158	77.94
341.386	81.94
341.614	89.94
341.842	89.94
342.07	99.94
342.298	86.94
342.526	87.94
342.754	72.94
342.981	86.94
343.209	87.94
343.437	89.94
343.665	82.94
343.893	106.94
344.12	91.94
344.348	91.94
344.576	91.94
344.804	76.94
345.031	83.94
345.259	90.94
345.487	98.94
345.714	93.94
345.942	90.94
346.17	80.94
346.397	84.94
346.625	65.94
346.853	82.94
347.08	84.94
347.308	83.94
347.535	87.94
347.763	83.94
347.99	82.94
348.218	79.94
348.445	88.94
348.673	88.94
348.9	92.94
349.128	91.94
349.355	93.94
349.583	75.94
349.81	84.94
350.037	89.94
350.265	94.94
350.492	89.94
350.72	93.94
350.947	73.94
351.174	83.94
351.402	83.94
351.629	81.94
351.856	81.94
352.083	96.94
352.311	69.94
352.538	81.94
352.765	66.94
352.992	86.94
353.22	91.94
353.447	88.94
353.674	86.94
353.901	107.94
354.128	100.94
354.355	78.94
354.583	95.94
354.81	79.94
355.037	79.94
355.264	88.94
355.491	94.94
355.718	83.94
355.945	74.94
356.172	84.94
356.399	82.94
356.626	94.94
356.853	84.94
357.08	78.94
357.307	91.94
357.534	91.94
357.761	93.94
357.988	79.94
358.215	95.94
358.441	87.94
358.668	92.94
358.895	101.94
359.122	76.94
359.349	72.94
359.576	76.94
359.802	90.94
360.029	89.94
360.256	88.94
360.483	71.94
360.709	86.94
360.936	88.94
361.163	81.94
361.39	75.94
361.616	85.94
361.843	93.94
362.07	99.94
362.296	95.94
362.523	81.94
362.749	82.94
362.976	79.94
363.203	77.94
363.429	82.94
363.656	93.94
363.882	90.94
364.109	66.94
364.335	89.94
364.562	85.94
364.788	92.94
365.015	104.94
365.241	88.94
365.468	90.94
365.694	77.94
365.92	93.94
366.147	104.94
366.373	76.94
366.599	85.94
366.826	86.94
367.052	82.94
367.278	91.94
367.505	87.94
367.731	83.94
367.957	84.94
368.184	92.94
368.41	79.94
368.636	82.94
368.862	91.94
369.089	71.94
369.315	93.94
369.541	95.94
369.767	85.94
369.993	93.94
370.219	72.94
370.445	80.94
370.672	89.94
370.898	70.94
371.124	79.94
371.35	73.94
371.576	87.94
371.802	70.94
372.028	79.94
372.254	65.94
372.48	71.94
372.706	76.94
372.932	87.94
373.158	99.94
373.384	101.94
373.61	90.94
373.835	90.94
374.061	72.94
374.287	70.94
374.513	89.94
374.739	84.94
374.965	83.94
375.191	78.94
375.416	78.94
375.642	85.94
375.868	89.94
376.094	85.94
376.319	89.94
376.545	92.94
376.771	88.94
376.997	90.94
377.222	90.94
377.448	94.94
377.674	93.94
377.899	75.94
378.125	83.94
378.35	79.94
378.576	77.94
378.802	84.94
379.027	84.94
379.253	78.94
379.478	72.94
379.704	82.94
379.929	85.94
380.155	78.94
380.38	74.94
380.606	60.94
380.831	95.94
381.057	85.94
381.282	81.94
381.507	77.94
381.733	82.94
381.958	69.94
382.184	81.94
382.409	81.94
382.634	84.94
382.86	74.94
383.085	85.94
383.31	91.94
383.535	83.94
383.761	85.94
383.986	79.94
384.211	82.94
384.436	78.94
384.662	62.94
384.887	82.94
385.112	94.94
385.337	81.94
385.562	76.94
385.787	91.94
386.013	83.94
386.238	88.94
386.463	63.94
386.688	96.94
386.913	87.94
387.138	96.94
387.363	87.94
387.588	79.94
387.813	77.94
388.038	85.94
388.263	79.94
388.488	68.94
388.713	91.94
388.938	89.94
389.163	85.94
389.387	70.94
389.612	77.94
389.837	78.94
390.062	82.94
390.287	85.94
390.512	72.94
390.736	79.94
390.961	89.94
391.186	78.94
391.411	76.94
391.636	93.94
391.86	82.94
392.085	71.94
392.31	78.94
392.534	97.94
392.759	87.94
392.984	89.94
393.208	86.94
393.433	75.94
393.658	73.94
393.882	78.94
394.107	73.94
394.331	80.94
394.556	83.94
394.78	94.94
395.005	84.94
395.229	90.94
395.454	76.94
395.678	90.94
395.903	86.94
396.127	84.94
396.352	81.94
396.576	81.94
396.801	76.94
397.025	83.94
397.249	93.94
397.474	88.94
397.698	78.94
397.922	74.94
398.147	65.94
398.371	83.94
398.595	91.94
398.82	90.94
399.044	99.94
399.268	86.94
399.492	94.94
399.717	93.94
399.941	78.94
400.165	80.94
400.389	90.94
400.613	81.94
400.837	85.94
401.062	75.94
401.286	76.94
401.51	85.94
401.734	74.94
401.958	93.94
402.182	62.94
402.406	77.94
402.63	84.94
402.854	76.94
403.078	91.94
403.302	86.94
403.526	82.94
403.75	94.94
403.974	76.94
404.198	79.94
404.422	75.94
404.645	70.94
404.869	84.94
405.093	72.94
405.317	77.94
405.541	99.94
405.765	96.94
405.988	76.94
406.212	69.94
406.436	92.94
406.66	86.94
406.883	80.94
407.107	82.94
407.331	59.94
407.555	81.94
407.778	82.94
408.002	93.94
408.226	75.94
408.449	85.94
408.673	83.94
408.896	82.94
409.12	90.94
409.344	82.94
409.567	83.94
409.791	93.94
410.014	88.94
410.238	89.94
410.461	75.94
410.685	88.94
410.908	76.94
411.132	90.94
411.355	84.94
411.578	87.94
411.802	90.94
412.025	89.94
412.249	88.94
412.472	77.94
412.695	91.94
412.919	77.94
413.142	86.94
413.365	77.94
413.589	75.94
413.812	79.94
414.035	88.94
414.258	74.94
414.482	72.94
414.705	82.94
414.928	86.94
415.151	74.94
415.374	91.94
415.597	72.94
415.821	86.94
416.044	72.94
416.267	74.94
416.49	74.94
416.713	77.94
416.936	76.94
417.159	68.94
417.382	75.94
417.605	82.94
417.828	92.94
418.051	98.94
418.274	71.94
418.497	79.94
418.72	81.94
418.943	81.94
419.166	73.94
419.389	85.94
419.611	76.94
419.834	65.94
420.057	71.94
420.28	86.94
420.503	89.94
420.726	84.94
420.948	72.94
421.171	92.94
421.394	92.94
421.617	81.94
421.839	78.94
422.062	76.94
422.285	80.94
422.507	85.94
422.73	89.94
422.953	81.94
423.175	84.94
423.398	89.94
423.621	64.94
423.843	78.94
424.066	88.94
424.288	57.94
424.511	93.94
424.733	84.94
424.956	81.94
425.178	80.94
425.401	92.94
425.623	82.94
425.846	76.94
426.068	92.94
426.291	77.94
426.513	71.94
426.735	75.94
426.958	75.94
427.18	91.94
427.402	88.94
427.625	90.94
427.847	74.94
428.069	82.94
428.292	74.94
428.514	78.94
428.736	84.94
428.958	79.94
429.181	80.94
429.403	83.94
429.625	76.94
429.847	96.94
430.069	77.94
430.292	66.94
430.514	76.94
430.736	84.94
430.958	98.94
431.18	92.94
431.402	64.94
431.624	75.94
431.846	84.94
432.068	89.94
432.29	84.94
432.512	91.94
432.734	82.94
432.956	71.94
433.178	85.94
433.4	100.94
433.622	85.94
433.844	79.94
434.066	80.94
434.287	70.94
434.509	72.94
434.731	74.94
434.953	68.94
435.175	88.94
435.397	83.94
435.618	75.94
435.84	88.94
436.062	81.94
436.284	92.94
436.505	88.94
436.727	82.94
436.949	90.94
437.17	90.94
437.392	90.94
437.614	84.94
437.835	95.94
438.057	89.94
438.278	70.94
438.5	73.94
438.721	80.94
438.943	83.94
439.165	91.94
439.386	74.94
439.608	82.94
439.829	85.94
440.05	79.94
440.272	78.94
440.493	88.94
440.715	71.94
440.936	71.94
441.158	76.94
441.379	80.94
441.6	78.94
441.822	85.94
442.043	92.94
442.264	74.94
442.486	71.94
442.707	85.94
442.928	86.94
443.149	80.94
443.371	85.94
443.592	77.94
443.813	79.94
444.034	78.94
444.255	84.94
444.476	78.94
444.698	76.94
444.919	85.94
445.14	142.94
445.361	110.94
445.582	85.94
445.803	87.94
446.024	81.94
446.245	67.94
446.466	76.94
446.687	74.94
446.908	81.94
447.129	75.94
447.35	85.94
447.571	79.94
447.792	73.94
448.013	77.94
448.234	84.94
448.455	67.94
448.675	85.94
448.896	83.94
449.117	84.94
449.338	85.94
449.559	83.94
449.779	68.94
450	72.94
450.221	82.94
450.442	81.94
450.662	84.94
450.883	89.94
451.104	80.94
451.324	92.94
451.545	71.94
451.766	66.94
451.986	88.94
452.207	86.94
452.428	73.94
452.648	75.94
452.869	103.94
453.089	76.94
453.31	78.94
453.53	69.94
453.751	68.94
453.971	86.94
454.192	76.94
454.412	78.94
454.633	82.94
454.853	90.94
455.073	80.94
455.294	81.94
455.514	82.94
455.734	78.94
455.955	85.94
456.175	80.94
456.395	84.94
456.616	83.94
456.836	92.94
457.056	78.94
457.276	89.94
457.497	79.94
457.717	97.94
457.937	75.94
458.157	78.94
458.377	81.94
458.598	92.94
458.818	91.94
459.038	69.94
459.258	88.94
459.478	84.94
459.698	58.94
459.918	68.94
460.138	69.94
460.358	86.94
460.578	94.94
460.798	85.94
461.018	83.94
461.238	80.94
461.458	94.94
461.678	89.94
461.898	81.94
462.118	76.94
462.338	84.94
462.558	82.94
462.777	63.94
462.997	82.94
463.217	85.94
463.437	81.94
463.657	61.94
463.876	80.94
464.096	74.94
464.316	79.94
464.536	88.94
464.755	102.94
464.975	67.94
465.195	91.94
465.414	81.94
465.634	89.94
465.854	84.94
466.073	80.94
466.293	84.94
466.512	76.94
466.732	74.94
466.951	80.94
467.171	81.94
467.391	68.94
467.61	84.94
467.829	82.94
468.049	76.94
468.268	73.94
468.488	86.94
468.707	90.94
468.927	83.94
469.146	81.94
469.365	88.94
469.585	83.94
469.804	98.94
470.023	69.94
470.243	85.94
470.462	87.94
470.681	56.94
470.901	69.94
471.12	81.94
471.339	75.94
471.558	84.94
471.777	95.94
471.997	85.94
472.216	78.94
472.435	78.94
472.654	91.94
472.873	92.94
473.092	82.94
473.311	85.94
473.53	85.94
473.749	92.94
473.968	85.94
474.187	80.94
474.406	62.94
474.625	83.94
474.844	90.94
475.063	85.94
475.282	66.94
475.501	72.94
475.72	76.94
475.939	79.94
476.158	72.94
476.377	90.94
476.596	82.94
476.814	79.94
477.033	95.94
477.252	88.94
477.471	75.94
477.69	81.94
477.908	70.94
478.127	93.94
478.346	79.94
478.564	86.94
478.783	90.94
479.002	81.94
479.22	80.94
479.439	92.94
479.658	93.94
479.876	67.94
480.095	88.94
480.313	84.94
480.532	101.94
480.751	79.94
480.969	86.94
481.188	83.94
481.406	90.94
481.624	83.94
481.843	70.94
482.061	85.94
482.28	97.94
482.498	85.94
482.717	84.94
482.935	77.94
483.153	81.94
483.372	64.94
483.59	78.94
483.808	69.94
484.027	85.94
484.245	85.94
484.463	92.94
484.681	79.94
484.9	72.94
485.118	82.94
485.336	80.94
485.554	80.94
485.772	58.94
485.99	89.94
486.209	82.94
486.427	90.94
486.645	80.94
486.863	93.94
487.081	84.94
487.299	82.94
487.517	85.94
487.735	79.94
487.953	83.94
488.171	66.94
488.389	68.94
488.607	91.94
488.825	92.94
489.043	83.94
489.261	76.94
489.479	88.94
489.696	77.94
489.914	89.94
490.132	82.94
490.35	73.94
490.568	89.94
490.786	63.94
491.003	80.94
491.221	85.94
491.439	86.94
491.657	73.94
491.874	76.94
492.092	89.94
492.31	78.94
492.527	85.94
492.745	82.94
492.963	94.94
493.18	84.94
493.398	90.94
493.615	65.94
493.833	88.94
494.05	83.94
494.268	76.94
494.485	83.94
494.703	81.94
494.92	76.94
495.138	76.94
495.355	85.94
495.573	78.94
495.79	84.94
496.008	77.94
496.225	77.94
496.442	76.94
496.66	80.94
496.877	80.94
497.094	92.94
497.312	79.94
497.529	77.94
497.746	78.94
497.963	84.94
498.181	91.94
498.398	82.94
498.615	70.94
498.832	77.94
499.049	81.94
499.267	81.94
499.484	85.94
499.701	69.94
499.918	86.94
500.135	81.94
500.352	94.94
500.569	85.94
500.786	79.94
501.003	71.94
501.22	84.94
501.437	72.94
501.654	70.94
501.871	69.94
502.088	71.94
502.305	75.94
502.522	80.94
502.739	77.94
502.956	84.94
503.172	75.94
503.389	86.94
503.606	72.94
503.823	92.94
504.04	83.94
504.256	109.94
504.473	77.94
504.69	77.94
504.907	87.94
505.123	79.94
505.34	87.94
505.557	77.94
505.773	79.94
505.99	78.94
506.207	82.94
506.423	78.94
506.64	71.94
506.856	68.94
507.073	85.94
507.289	83.94
507.506	83.94
507.722	83.94
507.939	77.94
508.155	94.94
508.372	88.94
508.588	75.94
508.805	96.94
509.021	80.94
509.238	80.94
509.454	86.94
509.67	77.94
509.887	77.94
510.103	84.94
510.319	84.94
510.536	93.94
510.752	84.94
510.968	86.94
511.184	88.94
511.401	91.94
511.617	98.94
511.833	81.94
512.049	93.94
512.265	64.94
512.481	76.94
512.698	90.94
512.914	78.94
513.13	82.94
513.346	83.94
513.562	88.94
513.778	88.94
513.994	79.94
514.21	79.94
514.426	84.94
514.642	102.94
514.858	93.94
515.074	77.94
515.29	81.94
515.506	80.94
515.721	85.94
515.937	92.94
516.153	102.94
516.369	76.94
516.585	96.94
516.801	91.94
517.016	80.94
517.232	80.94
517.448	87.94
517.664	72.94
517.879	75.94
518.095	80.94
518.311	83.94
518.527	80.94
518.742	85.94
518.958	78.94
519.173	85.94
519.389	85.94
519.605	75.94
519.82	94.94
