Data from Background_2_HRD10591_00099.txt Node
Date: Wed Nov 05 14:47:45 EST 2025
User: Yrep
Spectrometer: HR+D1059
Trigger mode: 1
Integration Time (sec): 1.000000E-1
Scans to average: 1
Electric dark correction enabled: true
Nonlinearity correction enabled: false
Boxcar width: 0
XAxis mode: Wavelengths
Number of Pixels in Spectrum: 2048
>>>>>Begin Spectral Data<<<<<
223.165	-13.62
223.4	-13.62
223.635	-13.62
223.869	-21.62
224.104	-7.62
224.338	-22.62
224.573	-10.62
224.808	-11.62
225.042	-2.62
225.277	-1.62
225.511	5.38
225.746	-14.62
225.98	-6.62
226.215	13.38
226.449	16.38
226.683	18.38
226.918	28.38
227.152	31.38
227.387	32.38
227.621	41.38
227.856	44.38
228.09	46.38
228.324	38.38
228.559	51.38
228.793	60.38
229.027	69.38
229.262	71.38
229.496	68.38
229.73	74.38
229.964	78.38
230.199	66.38
230.433	78.38
230.667	76.38
230.901	76.38
231.136	83.38
231.37	93.38
231.604	77.38
231.838	84.38
232.072	83.38
232.306	67.38
232.541	77.38
232.775	83.38
233.009	78.38
233.243	83.38
233.477	66.38
233.711	70.38
233.945	75.38
234.179	79.38
234.413	88.38
234.647	87.38
234.881	74.38
235.115	89.38
235.349	83.38
235.583	71.38
235.817	62.38
236.051	86.38
236.285	76.38
236.519	80.38
236.753	74.38
236.987	75.38
237.221	68.38
237.455	76.38
237.689	77.38
237.922	82.38
238.156	81.38
238.39	59.38
238.624	74.38
238.858	75.38
239.091	76.38
239.325	72.38
239.559	70.38
239.793	69.38
240.027	71.38
240.26	80.38
240.494	73.38
240.728	82.38
240.961	75.38
241.195	88.38
241.429	82.38
241.662	80.38
241.896	60.38
242.13	78.38
242.363	71.38
242.597	74.38
242.83	78.38
243.064	79.38
243.298	73.38
243.531	68.38
243.765	77.38
243.998	67.38
244.232	88.38
244.465	74.38
244.699	76.38
244.932	78.38
245.166	67.38
245.399	74.38
245.633	91.38
245.866	74.38
246.099	64.38
246.333	77.38
246.566	77.38
246.8	75.38
247.033	81.38
247.266	87.38
247.5	87.38
247.733	75.38
247.966	74.38
248.2	80.38
248.433	63.38
248.666	74.38
248.899	74.38
249.133	68.38
249.366	68.38
249.599	82.38
249.832	66.38
250.066	91.38
250.299	71.38
250.532	73.38
250.765	83.38
250.998	83.38
251.231	67.38
251.465	76.38
251.698	85.38
251.931	74.38
252.164	81.38
252.397	59.38
252.63	81.38
252.863	73.38
253.096	71.38
253.329	81.38
253.562	72.38
253.795	84.38
254.028	76.38
254.261	85.38
254.494	78.38
254.727	72.38
254.96	82.38
255.193	76.38
255.426	79.38
255.659	96.38
255.892	67.38
256.124	74.38
256.357	78.38
256.59	79.38
256.823	71.38
257.056	75.38
257.289	66.38
257.521	82.38
257.754	78.38
257.987	79.38
258.22	82.38
258.452	75.38
258.685	76.38
258.918	76.38
259.151	75.38
259.383	89.38
259.616	85.38
259.849	87.38
260.081	84.38
260.314	75.38
260.547	84.38
260.779	91.38
261.012	81.38
261.244	77.38
261.477	75.38
261.71	75.38
261.942	87.38
262.175	90.38
262.407	78.38
262.64	79.38
262.872	82.38
263.105	68.38
263.337	83.38
263.57	72.38
263.802	76.38
264.035	78.38
264.267	90.38
264.499	68.38
264.732	91.38
264.964	82.38
265.197	68.38
265.429	84.38
265.661	84.38
265.894	95.38
266.126	74.38
266.358	88.38
266.591	79.38
266.823	86.38
267.055	79.38
267.287	80.38
267.52	91.38
267.752	80.38
267.984	73.38
268.216	90.38
268.448	95.38
268.681	83.38
268.913	76.38
269.145	78.38
269.377	80.38
269.609	79.38
269.841	74.38
270.073	86.38
270.306	86.38
270.538	77.38
270.77	74.38
271.002	106.38
271.234	86.38
271.466	68.38
271.698	88.38
271.93	78.38
272.162	83.38
272.394	82.38
272.626	91.38
272.858	76.38
273.09	79.38
273.322	89.38
273.553	83.38
273.785	76.38
274.017	81.38
274.249	84.38
274.481	78.38
274.713	75.38
274.945	79.38
275.176	79.38
275.408	77.38
275.64	76.38
275.872	74.38
276.104	89.38
276.335	88.38
276.567	79.38
276.799	73.38
277.031	96.38
277.262	81.38
277.494	76.38
277.726	75.38
277.957	75.38
278.189	74.38
278.421	74.38
278.652	82.38
278.884	67.38
279.115	82.38
279.347	83.38
279.579	90.38
279.81	80.38
280.042	91.38
280.273	76.38
280.505	66.38
280.736	102.38
280.968	81.38
281.199	82.38
281.431	69.38
281.662	86.38
281.894	87.38
282.125	78.38
282.356	99.38
282.588	89.38
282.819	83.38
283.051	84.38
283.282	81.38
283.513	89.38
283.745	77.38
283.976	81.38
284.207	72.38
284.439	87.38
284.67	94.38
284.901	87.38
285.132	82.38
285.364	79.38
285.595	86.38
285.826	95.38
286.057	83.38
286.288	90.38
286.52	78.38
286.751	90.38
286.982	74.38
287.213	77.38
287.444	74.38
287.675	79.38
287.906	93.38
288.138	85.38
288.369	92.38
288.6	89.38
288.831	72.38
289.062	76.38
289.293	74.38
289.524	78.38
289.755	78.38
289.986	76.38
290.217	60.38
290.448	87.38
290.679	79.38
290.91	83.38
291.141	81.38
291.371	87.38
291.602	76.38
291.833	72.38
292.064	68.38
292.295	76.38
292.526	88.38
292.757	75.38
292.987	77.38
293.218	82.38
293.449	72.38
293.68	81.38
293.91	92.38
294.141	90.38
294.372	87.38
294.603	76.38
294.833	76.38
295.064	87.38
295.295	87.38
295.525	83.38
295.756	87.38
295.987	83.38
296.217	86.38
296.448	77.38
296.679	82.38
296.909	82.38
297.14	66.38
297.37	80.38
297.601	83.38
297.831	76.38
298.062	92.38
298.292	78.38
298.523	89.38
298.753	86.38
298.984	76.38
299.214	87.38
299.445	104.38
299.675	83.38
299.905	81.38
300.136	68.38
300.366	68.38
300.597	83.38
300.827	87.38
301.057	89.38
301.288	87.38
301.518	91.38
301.748	83.38
301.979	101.38
302.209	81.38
302.439	77.38
302.669	87.38
302.9	81.38
303.13	76.38
303.36	80.38
303.59	86.38
303.82	90.38
304.051	81.38
304.281	93.38
304.511	74.38
304.741	83.38
304.971	81.38
305.201	80.38
305.431	80.38
305.661	87.38
305.891	84.38
306.121	80.38
306.352	81.38
306.582	87.38
306.812	61.38
307.042	88.38
307.272	83.38
307.502	94.38
307.731	75.38
307.961	72.38
308.191	82.38
308.421	91.38
308.651	97.38
308.881	87.38
309.111	86.38
309.341	67.38
309.571	69.38
309.8	90.38
310.03	82.38
310.26	82.38
310.49	81.38
310.72	76.38
310.949	78.38
311.179	78.38
311.409	82.38
311.639	83.38
311.868	91.38
312.098	91.38
312.328	82.38
312.557	91.38
312.787	77.38
313.017	96.38
313.246	87.38
313.476	91.38
313.706	89.38
313.935	91.38
314.165	82.38
314.394	80.38
314.624	90.38
314.853	88.38
315.083	82.38
315.312	96.38
315.542	86.38
315.771	91.38
316.001	77.38
316.23	85.38
316.46	82.38
316.689	83.38
316.919	79.38
317.148	75.38
317.377	87.38
317.607	80.38
317.836	85.38
318.065	95.38
318.295	77.38
318.524	88.38
318.753	87.38
318.983	88.38
319.212	61.38
319.441	81.38
319.67	80.38
319.9	74.38
320.129	80.38
320.358	70.38
320.587	86.38
320.816	96.38
321.046	79.38
321.275	87.38
321.504	81.38
321.733	84.38
321.962	88.38
322.191	81.38
322.42	66.38
322.649	83.38
322.878	88.38
323.108	78.38
323.337	77.38
323.566	71.38
323.795	67.38
324.024	86.38
324.253	82.38
324.482	77.38
324.71	89.38
324.939	91.38
325.168	81.38
325.397	82.38
325.626	82.38
325.855	87.38
326.084	72.38
326.313	84.38
326.542	81.38
326.77	78.38
326.999	88.38
327.228	87.38
327.457	68.38
327.686	80.38
327.914	90.38
328.143	86.38
328.372	80.38
328.6	79.38
328.829	80.38
329.058	82.38
329.287	88.38
329.515	71.38
329.744	92.38
329.972	91.38
330.201	96.38
330.43	84.38
330.658	79.38
330.887	90.38
331.115	92.38
331.344	86.38
331.572	84.38
331.801	89.38
332.03	86.38
332.258	82.38
332.486	76.38
332.715	74.38
332.943	78.38
333.172	80.38
333.4	75.38
333.629	82.38
333.857	62.38
334.085	83.38
334.314	87.38
334.542	82.38
334.771	82.38
334.999	88.38
335.227	90.38
335.455	72.38
335.684	88.38
335.912	83.38
336.14	92.38
336.369	87.38
336.597	68.38
336.825	76.38
337.053	69.38
337.281	82.38
337.51	77.38
337.738	80.38
337.966	82.38
338.194	75.38
338.422	84.38
338.65	91.38
338.878	82.38
339.106	97.38
339.334	79.38
339.562	85.38
339.79	86.38
340.018	78.38
340.246	81.38
340.474	83.38
340.702	91.38
340.93	78.38
341.158	83.38
341.386	83.38
341.614	82.38
341.842	94.38
342.07	89.38
342.298	81.38
342.526	89.38
342.754	87.38
342.981	81.38
343.209	76.38
343.437	86.38
343.665	80.38
343.893	72.38
344.12	87.38
344.348	77.38
344.576	89.38
344.804	71.38
345.031	70.38
345.259	77.38
345.487	90.38
345.714	83.38
345.942	68.38
346.17	95.38
346.397	83.38
346.625	91.38
346.853	82.38
347.08	78.38
347.308	85.38
347.535	68.38
347.763	79.38
347.99	79.38
348.218	88.38
348.445	92.38
348.673	73.38
348.9	85.38
349.128	86.38
349.355	79.38
349.583	69.38
349.81	78.38
350.037	88.38
350.265	83.38
350.492	82.38
350.72	69.38
350.947	73.38
351.174	92.38
351.402	85.38
351.629	79.38
351.856	65.38
352.083	81.38
352.311	75.38
352.538	78.38
352.765	83.38
352.992	105.38
353.22	76.38
353.447	89.38
353.674	85.38
353.901	78.38
354.128	80.38
354.355	81.38
354.583	89.38
354.81	72.38
355.037	84.38
355.264	91.38
355.491	80.38
355.718	81.38
355.945	68.38
356.172	74.38
356.399	93.38
356.626	78.38
356.853	75.38
357.08	74.38
357.307	71.38
357.534	73.38
357.761	84.38
357.988	82.38
358.215	80.38
358.441	91.38
358.668	81.38
358.895	81.38
359.122	71.38
359.349	84.38
359.576	95.38
359.802	77.38
360.029	85.38
360.256	87.38
360.483	78.38
360.709	73.38
360.936	83.38
361.163	102.38
361.39	80.38
361.616	84.38
361.843	80.38
362.07	73.38
362.296	89.38
362.523	69.38
362.749	74.38
362.976	99.38
363.203	87.38
363.429	83.38
363.656	72.38
363.882	88.38
364.109	82.38
364.335	98.38
364.562	84.38
364.788	73.38
365.015	90.38
365.241	74.38
365.468	79.38
365.694	90.38
365.92	100.38
366.147	82.38
366.373	82.38
366.599	64.38
366.826	78.38
367.052	86.38
367.278	97.38
367.505	82.38
367.731	75.38
367.957	92.38
368.184	81.38
368.41	69.38
368.636	75.38
368.862	94.38
369.089	82.38
369.315	80.38
369.541	80.38
369.767	83.38
369.993	78.38
370.219	83.38
370.445	76.38
370.672	68.38
370.898	72.38
371.124	82.38
371.35	83.38
371.576	86.38
371.802	79.38
372.028	84.38
372.254	80.38
372.48	90.38
372.706	85.38
372.932	81.38
373.158	80.38
373.384	99.38
373.61	94.38
373.835	74.38
374.061	73.38
374.287	87.38
374.513	80.38
374.739	89.38
374.965	68.38
375.191	74.38
375.416	83.38
375.642	88.38
375.868	79.38
376.094	82.38
376.319	73.38
376.545	92.38
376.771	86.38
376.997	72.38
377.222	72.38
377.448	79.38
377.674	87.38
377.899	88.38
378.125	90.38
378.35	86.38
378.576	77.38
378.802	80.38
379.027	85.38
379.253	83.38
379.478	86.38
379.704	80.38
379.929	88.38
380.155	86.38
380.38	82.38
380.606	74.38
380.831	75.38
381.057	81.38
381.282	85.38
381.507	75.38
381.733	82.38
381.958	72.38
382.184	89.38
382.409	90.38
382.634	87.38
382.86	82.38
383.085	79.38
383.31	83.38
383.535	83.38
383.761	79.38
383.986	88.38
384.211	77.38
384.436	78.38
384.662	73.38
384.887	68.38
385.112	80.38
385.337	87.38
385.562	74.38
385.787	74.38
386.013	60.38
386.238	81.38
386.463	84.38
386.688	87.38
386.913	78.38
387.138	91.38
387.363	73.38
387.588	91.38
387.813	89.38
388.038	91.38
388.263	69.38
388.488	82.38
388.713	67.38
388.938	81.38
389.163	94.38
389.387	80.38
389.612	69.38
389.837	78.38
390.062	72.38
390.287	87.38
390.512	83.38
390.736	71.38
390.961	80.38
391.186	87.38
391.411	85.38
391.636	74.38
391.86	84.38
392.085	88.38
392.31	78.38
392.534	81.38
392.759	78.38
392.984	77.38
393.208	79.38
393.433	79.38
393.658	93.38
393.882	80.38
394.107	75.38
394.331	82.38
394.556	84.38
394.78	59.38
395.005	73.38
395.229	68.38
395.454	72.38
395.678	70.38
395.903	82.38
396.127	81.38
396.352	86.38
396.576	81.38
396.801	88.38
397.025	83.38
397.249	80.38
397.474	88.38
397.698	88.38
397.922	72.38
398.147	71.38
398.371	82.38
398.595	84.38
398.82	86.38
399.044	82.38
399.268	68.38
399.492	82.38
399.717	78.38
399.941	84.38
400.165	73.38
400.389	76.38
400.613	72.38
400.837	71.38
401.062	78.38
401.286	82.38
401.51	83.38
401.734	83.38
401.958	76.38
402.182	88.38
402.406	83.38
402.63	79.38
402.854	73.38
403.078	66.38
403.302	61.38
403.526	76.38
403.75	88.38
403.974	81.38
404.198	89.38
404.422	86.38
404.645	88.38
404.869	81.38
405.093	87.38
405.317	72.38
405.541	73.38
405.765	91.38
405.988	81.38
406.212	79.38
406.436	82.38
406.66	93.38
406.883	78.38
407.107	78.38
407.331	76.38
407.555	90.38
407.778	86.38
408.002	75.38
408.226	82.38
408.449	63.38
408.673	85.38
408.896	84.38
409.12	81.38
409.344	78.38
409.567	86.38
409.791	69.38
410.014	90.38
410.238	74.38
410.461	82.38
410.685	74.38
410.908	87.38
411.132	76.38
411.355	86.38
411.578	63.38
411.802	64.38
412.025	74.38
412.249	69.38
412.472	89.38
412.695	86.38
412.919	69.38
413.142	75.38
413.365	76.38
413.589	74.38
413.812	79.38
414.035	78.38
414.258	72.38
414.482	87.38
414.705	73.38
414.928	74.38
415.151	82.38
415.374	88.38
415.597	70.38
415.821	73.38
416.044	78.38
416.267	80.38
416.49	77.38
416.713	80.38
416.936	79.38
417.159	68.38
417.382	75.38
417.605	86.38
417.828	80.38
418.051	89.38
418.274	82.38
418.497	66.38
418.72	80.38
418.943	87.38
419.166	86.38
419.389	76.38
419.611	92.38
419.834	72.38
420.057	79.38
420.28	76.38
420.503	74.38
420.726	86.38
420.948	89.38
421.171	82.38
421.394	72.38
421.617	80.38
421.839	87.38
422.062	67.38
422.285	78.38
422.507	75.38
422.73	72.38
422.953	71.38
423.175	81.38
423.398	70.38
423.621	90.38
423.843	88.38
424.066	78.38
424.288	87.38
424.511	72.38
424.733	67.38
424.956	82.38
425.178	100.38
425.401	76.38
425.623	95.38
425.846	80.38
426.068	70.38
426.291	82.38
426.513	86.38
426.735	80.38
426.958	80.38
427.18	84.38
427.402	83.38
427.625	71.38
427.847	67.38
428.069	69.38
428.292	76.38
428.514	84.38
428.736	73.38
428.958	74.38
429.181	76.38
429.403	77.38
429.625	69.38
429.847	78.38
430.069	77.38
430.292	83.38
430.514	93.38
430.736	80.38
430.958	88.38
431.18	74.38
431.402	75.38
431.624	69.38
431.846	75.38
432.068	83.38
432.29	78.38
432.512	82.38
432.734	69.38
432.956	87.38
433.178	98.38
433.4	78.38
433.622	92.38
433.844	86.38
434.066	92.38
434.287	76.38
434.509	74.38
434.731	86.38
434.953	87.38
435.175	89.38
435.397	74.38
435.618	74.38
435.84	78.38
436.062	80.38
436.284	82.38
436.505	76.38
436.727	77.38
436.949	78.38
437.17	78.38
437.392	79.38
437.614	60.38
437.835	80.38
438.057	73.38
438.278	80.38
438.5	86.38
438.721	76.38
438.943	86.38
439.165	83.38
439.386	77.38
439.608	82.38
439.829	83.38
440.05	57.38
440.272	86.38
440.493	82.38
440.715	71.38
440.936	81.38
441.158	86.38
441.379	80.38
441.6	73.38
441.822	75.38
442.043	81.38
442.264	78.38
442.486	88.38
442.707	88.38
442.928	74.38
443.149	75.38
443.371	82.38
443.592	76.38
443.813	82.38
444.034	91.38
444.255	78.38
444.476	81.38
444.698	74.38
444.919	79.38
445.14	148.38
445.361	110.38
445.582	74.38
445.803	62.38
446.024	68.38
446.245	73.38
446.466	75.38
446.687	86.38
446.908	82.38
447.129	88.38
447.35	65.38
447.571	54.38
447.792	65.38
448.013	86.38
448.234	92.38
448.455	82.38
448.675	82.38
448.896	79.38
449.117	94.38
449.338	74.38
449.559	90.38
449.779	81.38
450	82.38
450.221	84.38
450.442	83.38
450.662	74.38
450.883	93.38
451.104	66.38
451.324	76.38
451.545	69.38
451.766	76.38
451.986	80.38
452.207	74.38
452.428	89.38
452.648	72.38
452.869	81.38
453.089	80.38
453.31	57.38
453.53	78.38
453.751	74.38
453.971	76.38
454.192	87.38
454.412	73.38
454.633	74.38
454.853	91.38
455.073	81.38
455.294	89.38
455.514	69.38
455.734	66.38
455.955	77.38
456.175	81.38
456.395	75.38
456.616	71.38
456.836	77.38
457.056	92.38
457.276	82.38
457.497	87.38
457.717	78.38
457.937	80.38
458.157	69.38
458.377	76.38
458.598	78.38
458.818	71.38
459.038	78.38
459.258	62.38
459.478	70.38
459.698	62.38
459.918	81.38
460.138	65.38
460.358	86.38
460.578	68.38
460.798	74.38
461.018	83.38
461.238	82.38
461.458	81.38
461.678	79.38
461.898	95.38
462.118	82.38
462.338	82.38
462.558	71.38
462.777	78.38
462.997	82.38
463.217	72.38
463.437	78.38
463.657	84.38
463.876	79.38
464.096	87.38
464.316	97.38
464.536	78.38
464.755	91.38
464.975	88.38
465.195	79.38
465.414	82.38
465.634	70.38
465.854	83.38
466.073	88.38
466.293	91.38
466.512	84.38
466.732	80.38
466.951	90.38
467.171	72.38
467.391	90.38
467.61	80.38
467.829	74.38
468.049	89.38
468.268	68.38
468.488	76.38
468.707	76.38
468.927	91.38
469.146	88.38
469.365	68.38
469.585	68.38
469.804	68.38
470.023	81.38
470.243	83.38
470.462	75.38
470.681	69.38
470.901	79.38
471.12	67.38
471.339	74.38
471.558	70.38
471.777	93.38
471.997	88.38
472.216	82.38
472.435	82.38
472.654	75.38
472.873	78.38
473.092	83.38
473.311	82.38
473.53	82.38
473.749	75.38
473.968	90.38
474.187	87.38
474.406	77.38
474.625	78.38
474.844	84.38
475.063	67.38
475.282	73.38
475.501	82.38
475.72	85.38
475.939	76.38
476.158	74.38
476.377	82.38
476.596	90.38
476.814	80.38
477.033	79.38
477.252	76.38
477.471	82.38
477.69	78.38
477.908	79.38
478.127	86.38
478.346	84.38
478.564	75.38
478.783	91.38
479.002	79.38
479.22	88.38
479.439	79.38
479.658	89.38
479.876	70.38
480.095	92.38
480.313	79.38
480.532	76.38
480.751	76.38
480.969	63.38
481.188	76.38
481.406	79.38
481.624	68.38
481.843	78.38
482.061	89.38
482.28	69.38
482.498	73.38
482.717	75.38
482.935	75.38
483.153	76.38
483.372	83.38
483.59	90.38
483.808	91.38
484.027	82.38
484.245	86.38
484.463	60.38
484.681	90.38
484.9	77.38
485.118	76.38
485.336	88.38
485.554	89.38
485.772	80.38
485.99	87.38
486.209	87.38
486.427	84.38
486.645	82.38
486.863	78.38
487.081	87.38
487.299	71.38
487.517	81.38
487.735	83.38
487.953	74.38
488.171	86.38
488.389	84.38
488.607	82.38
488.825	72.38
489.043	79.38
489.261	80.38
489.479	82.38
489.696	104.38
489.914	74.38
490.132	81.38
490.35	80.38
490.568	76.38
490.786	67.38
491.003	77.38
491.221	84.38
491.439	73.38
491.657	80.38
491.874	69.38
492.092	70.38
492.31	86.38
492.527	88.38
492.745	79.38
492.963	75.38
493.18	72.38
493.398	87.38
493.615	86.38
493.833	70.38
494.05	70.38
494.268	79.38
494.485	71.38
494.703	61.38
494.92	86.38
495.138	86.38
495.355	87.38
495.573	76.38
495.79	89.38
496.008	88.38
496.225	79.38
496.442	80.38
496.66	71.38
496.877	74.38
497.094	80.38
497.312	84.38
497.529	78.38
497.746	81.38
497.963	80.38
498.181	73.38
498.398	99.38
498.615	62.38
498.832	78.38
499.049	80.38
499.267	81.38
499.484	71.38
499.701	86.38
499.918	84.38
500.135	81.38
500.352	85.38
500.569	82.38
500.786	75.38
501.003	79.38
501.22	84.38
501.437	73.38
501.654	89.38
501.871	100.38
502.088	87.38
502.305	89.38
502.522	78.38
502.739	96.38
502.956	67.38
503.172	66.38
503.389	84.38
503.606	85.38
503.823	88.38
504.04	91.38
504.256	89.38
504.473	65.38
504.69	86.38
504.907	84.38
505.123	90.38
505.34	72.38
505.557	74.38
505.773	82.38
505.99	76.38
506.207	75.38
506.423	82.38
506.64	71.38
506.856	91.38
507.073	72.38
507.289	72.38
507.506	81.38
507.722	61.38
507.939	86.38
508.155	82.38
508.372	71.38
508.588	70.38
508.805	83.38
509.021	80.38
509.238	78.38
509.454	77.38
509.67	90.38
509.887	64.38
510.103	88.38
510.319	71.38
510.536	89.38
510.752	84.38
510.968	77.38
511.184	84.38
511.401	80.38
511.617	87.38
511.833	87.38
512.049	87.38
512.265	78.38
512.481	81.38
512.698	90.38
512.914	86.38
513.13	74.38
513.346	79.38
513.562	77.38
513.778	74.38
513.994	75.38
514.21	73.38
514.426	87.38
514.642	90.38
514.858	85.38
515.074	85.38
515.29	103.38
515.506	81.38
515.721	84.38
515.937	86.38
516.153	80.38
516.369	79.38
516.585	80.38
516.801	75.38
517.016	91.38
517.232	89.38
517.448	86.38
517.664	78.38
517.879	73.38
518.095	81.38
518.311	80.38
518.527	74.38
518.742	85.38
518.958	81.38
519.173	109.38
519.389	86.38
519.605	91.38
519.82	78.38
520.036	80.38
