Data from Background_2_HRD10591_00006.txt Node
Date: Wed Nov 05 14:47:00 EST 2025
User: Yrep
Spectrometer: HR+D1059
Trigger mode: 1
Integration Time (sec): 1.000000E-1
Scans to average: 1
Electric dark correction enabled: true
Nonlinearity correction enabled: false
Boxcar width: 0
XAxis mode: Wavelengths
Number of Pixels in Spectrum: 2048
>>>>>Begin Spectral Data<<<<<
223.165	-20.12
223.4	-20.12
223.635	-20.12
223.869	-10.12
224.104	-7.12
224.338	-10.12
224.573	-23.12
224.808	-10.12
225.042	-5.12
225.277	-3.12
225.511	-10.12
225.746	-3.12
225.98	0.88
226.215	3.88
226.449	18.88
226.683	20.88
226.918	22.88
227.152	34.88
227.387	33.88
227.621	49.88
227.856	42.88
228.09	38.88
228.324	54.88
228.559	60.88
228.793	52.88
229.027	58.88
229.262	67.88
229.496	71.88
229.73	65.88
229.964	67.88
230.199	57.88
230.433	69.88
230.667	80.88
230.901	76.88
231.136	82.88
231.37	64.88
231.604	91.88
231.838	73.88
232.072	71.88
232.306	89.88
232.541	78.88
232.775	74.88
233.009	89.88
233.243	84.88
233.477	85.88
233.711	87.88
233.945	80.88
234.179	93.88
234.413	81.88
234.647	85.88
234.881	82.88
235.115	73.88
235.349	81.88
235.583	81.88
235.817	85.88
236.051	76.88
236.285	80.88
236.519	73.88
236.753	72.88
236.987	78.88
237.221	89.88
237.455	88.88
237.689	80.88
237.922	74.88
238.156	85.88
238.39	78.88
238.624	79.88
238.858	68.88
239.091	80.88
239.325	80.88
239.559	68.88
239.793	72.88
240.027	79.88
240.26	76.88
240.494	67.88
240.728	80.88
240.961	76.88
241.195	86.88
241.429	72.88
241.662	75.88
241.896	74.88
242.13	68.88
242.363	76.88
242.597	86.88
242.83	80.88
243.064	79.88
243.298	76.88
243.531	68.88
243.765	75.88
243.998	78.88
244.232	82.88
244.465	68.88
244.699	85.88
244.932	70.88
245.166	72.88
245.399	65.88
245.633	83.88
245.866	83.88
246.099	93.88
246.333	74.88
246.566	77.88
246.8	87.88
247.033	84.88
247.266	80.88
247.5	77.88
247.733	78.88
247.966	77.88
248.2	84.88
248.433	81.88
248.666	78.88
248.899	80.88
249.133	77.88
249.366	72.88
249.599	78.88
249.832	83.88
250.066	84.88
250.299	77.88
250.532	85.88
250.765	84.88
250.998	68.88
251.231	85.88
251.465	83.88
251.698	77.88
251.931	84.88
252.164	73.88
252.397	68.88
252.63	72.88
252.863	78.88
253.096	73.88
253.329	76.88
253.562	81.88
253.795	80.88
254.028	84.88
254.261	82.88
254.494	69.88
254.727	78.88
254.96	82.88
255.193	88.88
255.426	91.88
255.659	80.88
255.892	78.88
256.124	72.88
256.357	78.88
256.59	85.88
256.823	71.88
257.056	71.88
257.289	84.88
257.521	85.88
257.754	80.88
257.987	77.88
258.22	90.88
258.452	69.88
258.685	91.88
258.918	72.88
259.151	77.88
259.383	79.88
259.616	78.88
259.849	82.88
260.081	69.88
260.314	77.88
260.547	78.88
260.779	86.88
261.012	88.88
261.244	82.88
261.477	85.88
261.71	75.88
261.942	78.88
262.175	71.88
262.407	80.88
262.64	88.88
262.872	95.88
263.105	60.88
263.337	90.88
263.57	96.88
263.802	87.88
264.035	79.88
264.267	82.88
264.499	96.88
264.732	71.88
264.964	87.88
265.197	91.88
265.429	85.88
265.661	84.88
265.894	88.88
266.126	91.88
266.358	84.88
266.591	83.88
266.823	89.88
267.055	64.88
267.287	85.88
267.52	77.88
267.752	78.88
267.984	90.88
268.216	83.88
268.448	74.88
268.681	88.88
268.913	79.88
269.145	88.88
269.377	76.88
269.609	85.88
269.841	75.88
270.073	75.88
270.306	80.88
270.538	73.88
270.77	86.88
271.002	87.88
271.234	88.88
271.466	83.88
271.698	86.88
271.93	87.88
272.162	82.88
272.394	98.88
272.626	76.88
272.858	85.88
273.09	74.88
273.322	81.88
273.553	82.88
273.785	94.88
274.017	87.88
274.249	77.88
274.481	98.88
274.713	86.88
274.945	77.88
275.176	94.88
275.408	104.88
275.64	84.88
275.872	78.88
276.104	85.88
276.335	102.88
276.567	92.88
276.799	83.88
277.031	75.88
277.262	84.88
277.494	78.88
277.726	89.88
277.957	74.88
278.189	91.88
278.421	82.88
278.652	93.88
278.884	78.88
279.115	79.88
279.347	87.88
279.579	78.88
279.81	90.88
280.042	91.88
280.273	97.88
280.505	78.88
280.736	85.88
280.968	78.88
281.199	70.88
281.431	83.88
281.662	82.88
281.894	90.88
282.125	81.88
282.356	92.88
282.588	86.88
282.819	81.88
283.051	75.88
283.282	80.88
283.513	95.88
283.745	86.88
283.976	88.88
284.207	86.88
284.439	70.88
284.67	73.88
284.901	86.88
285.132	90.88
285.364	92.88
285.595	94.88
285.826	93.88
286.057	97.88
286.288	89.88
286.52	80.88
286.751	87.88
286.982	96.88
287.213	79.88
287.444	92.88
287.675	95.88
287.906	100.88
288.138	80.88
288.369	88.88
288.6	92.88
288.831	84.88
289.062	81.88
289.293	80.88
289.524	72.88
289.755	80.88
289.986	84.88
290.217	89.88
290.448	84.88
290.679	98.88
290.91	96.88
291.141	88.88
291.371	102.88
291.602	70.88
291.833	74.88
292.064	83.88
292.295	79.88
292.526	75.88
292.757	78.88
292.987	92.88
293.218	84.88
293.449	78.88
293.68	93.88
293.91	93.88
294.141	77.88
294.372	91.88
294.603	97.88
294.833	88.88
295.064	83.88
295.295	84.88
295.525	88.88
295.756	83.88
295.987	94.88
296.217	92.88
296.448	92.88
296.679	89.88
296.909	94.88
297.14	85.88
297.37	85.88
297.601	81.88
297.831	66.88
298.062	82.88
298.292	69.88
298.523	74.88
298.753	85.88
298.984	81.88
299.214	86.88
299.445	89.88
299.675	87.88
299.905	96.88
300.136	80.88
300.366	87.88
300.597	86.88
300.827	80.88
301.057	77.88
301.288	76.88
301.518	76.88
301.748	73.88
301.979	91.88
302.209	80.88
302.439	82.88
302.669	90.88
302.9	80.88
303.13	94.88
303.36	80.88
303.59	82.88
303.82	82.88
304.051	75.88
304.281	66.88
304.511	101.88
304.741	83.88
304.971	95.88
305.201	81.88
305.431	82.88
305.661	73.88
305.891	96.88
306.121	82.88
306.352	95.88
306.582	68.88
306.812	84.88
307.042	89.88
307.272	85.88
307.502	80.88
307.731	88.88
307.961	78.88
308.191	74.88
308.421	81.88
308.651	90.88
308.881	73.88
309.111	84.88
309.341	68.88
309.571	85.88
309.8	66.88
310.03	89.88
310.26	69.88
310.49	81.88
310.72	93.88
310.949	74.88
311.179	78.88
311.409	82.88
311.639	88.88
311.868	85.88
312.098	89.88
312.328	100.88
312.557	80.88
312.787	76.88
313.017	70.88
313.246	82.88
313.476	93.88
313.706	86.88
313.935	84.88
314.165	81.88
314.394	70.88
314.624	81.88
314.853	78.88
315.083	85.88
315.312	95.88
315.542	76.88
315.771	93.88
316.001	73.88
316.23	93.88
316.46	70.88
316.689	84.88
316.919	83.88
317.148	73.88
317.377	84.88
317.607	90.88
317.836	76.88
318.065	104.88
318.295	94.88
318.524	79.88
318.753	77.88
318.983	87.88
319.212	94.88
319.441	93.88
319.67	89.88
319.9	79.88
320.129	82.88
320.358	93.88
320.587	88.88
320.816	81.88
321.046	80.88
321.275	99.88
321.504	86.88
321.733	85.88
321.962	85.88
322.191	93.88
322.42	98.88
322.649	97.88
322.878	84.88
323.108	99.88
323.337	77.88
323.566	77.88
323.795	83.88
324.024	86.88
324.253	88.88
324.482	66.88
324.71	90.88
324.939	74.88
325.168	78.88
325.397	70.88
325.626	86.88
325.855	84.88
326.084	80.88
326.313	94.88
326.542	77.88
326.77	83.88
326.999	86.88
327.228	92.88
327.457	96.88
327.686	95.88
327.914	86.88
328.143	90.88
328.372	89.88
328.6	85.88
328.829	85.88
329.058	84.88
329.287	76.88
329.515	85.88
329.744	86.88
329.972	84.88
330.201	90.88
330.43	85.88
330.658	76.88
330.887	82.88
331.115	84.88
331.344	98.88
331.572	89.88
331.801	79.88
332.03	78.88
332.258	91.88
332.486	92.88
332.715	85.88
332.943	85.88
333.172	85.88
333.4	86.88
333.629	84.88
333.857	79.88
334.085	79.88
334.314	84.88
334.542	92.88
334.771	78.88
334.999	89.88
335.227	92.88
335.455	77.88
335.684	80.88
335.912	96.88
336.14	75.88
336.369	88.88
336.597	91.88
336.825	82.88
337.053	81.88
337.281	70.88
337.51	80.88
337.738	88.88
337.966	92.88
338.194	86.88
338.422	75.88
338.65	96.88
338.878	69.88
339.106	83.88
339.334	81.88
339.562	78.88
339.79	70.88
340.018	84.88
340.246	92.88
340.474	85.88
340.702	72.88
340.93	91.88
341.158	89.88
341.386	70.88
341.614	65.88
341.842	80.88
342.07	85.88
342.298	78.88
342.526	100.88
342.754	81.88
342.981	77.88
343.209	85.88
343.437	82.88
343.665	82.88
343.893	96.88
344.12	92.88
344.348	90.88
344.576	85.88
344.804	79.88
345.031	80.88
345.259	73.88
345.487	72.88
345.714	95.88
345.942	80.88
346.17	76.88
346.397	83.88
346.625	87.88
346.853	80.88
347.08	81.88
347.308	93.88
347.535	76.88
347.763	68.88
347.99	81.88
348.218	84.88
348.445	95.88
348.673	90.88
348.9	88.88
349.128	68.88
349.355	80.88
349.583	85.88
349.81	83.88
350.037	85.88
350.265	108.88
350.492	94.88
350.72	80.88
350.947	94.88
351.174	90.88
351.402	68.88
351.629	84.88
351.856	97.88
352.083	92.88
352.311	90.88
352.538	84.88
352.765	83.88
352.992	84.88
353.22	91.88
353.447	60.88
353.674	84.88
353.901	88.88
354.128	84.88
354.355	95.88
354.583	70.88
354.81	94.88
355.037	93.88
355.264	85.88
355.491	82.88
355.718	79.88
355.945	88.88
356.172	86.88
356.399	78.88
356.626	78.88
356.853	75.88
357.08	80.88
357.307	92.88
357.534	91.88
357.761	93.88
357.988	81.88
358.215	84.88
358.441	88.88
358.668	83.88
358.895	101.88
359.122	78.88
359.349	68.88
359.576	80.88
359.802	91.88
360.029	76.88
360.256	93.88
360.483	91.88
360.709	84.88
360.936	79.88
361.163	81.88
361.39	89.88
361.616	89.88
361.843	77.88
362.07	88.88
362.296	73.88
362.523	74.88
362.749	80.88
362.976	74.88
363.203	99.88
363.429	84.88
363.656	72.88
363.882	88.88
364.109	76.88
364.335	83.88
364.562	79.88
364.788	87.88
365.015	92.88
365.241	78.88
365.468	88.88
365.694	82.88
365.92	78.88
366.147	89.88
366.373	79.88
366.599	110.88
366.826	98.88
367.052	80.88
367.278	91.88
367.505	92.88
367.731	84.88
367.957	83.88
368.184	77.88
368.41	89.88
368.636	95.88
368.862	77.88
369.089	78.88
369.315	79.88
369.541	83.88
369.767	89.88
369.993	88.88
370.219	99.88
370.445	89.88
370.672	94.88
370.898	94.88
371.124	62.88
371.35	89.88
371.576	82.88
371.802	62.88
372.028	70.88
372.254	76.88
372.48	75.88
372.706	68.88
372.932	82.88
373.158	74.88
373.384	98.88
373.61	83.88
373.835	74.88
374.061	89.88
374.287	75.88
374.513	97.88
374.739	83.88
374.965	84.88
375.191	87.88
375.416	84.88
375.642	75.88
375.868	86.88
376.094	83.88
376.319	79.88
376.545	81.88
376.771	70.88
376.997	82.88
377.222	81.88
377.448	91.88
377.674	92.88
377.899	65.88
378.125	83.88
378.35	88.88
378.576	82.88
378.802	93.88
379.027	83.88
379.253	90.88
379.478	100.88
379.704	85.88
379.929	64.88
380.155	66.88
380.38	81.88
380.606	81.88
380.831	90.88
381.057	95.88
381.282	59.88
381.507	84.88
381.733	76.88
381.958	89.88
382.184	89.88
382.409	80.88
382.634	89.88
382.86	83.88
383.085	91.88
383.31	90.88
383.535	87.88
383.761	79.88
383.986	98.88
384.211	73.88
384.436	84.88
384.662	93.88
384.887	90.88
385.112	85.88
385.337	85.88
385.562	89.88
385.787	80.88
386.013	69.88
386.238	82.88
386.463	82.88
386.688	80.88
386.913	73.88
387.138	72.88
387.363	94.88
387.588	93.88
387.813	84.88
388.038	63.88
388.263	82.88
388.488	86.88
388.713	82.88
388.938	76.88
389.163	91.88
389.387	77.88
389.612	76.88
389.837	87.88
390.062	85.88
390.287	88.88
390.512	89.88
390.736	91.88
390.961	94.88
391.186	84.88
391.411	83.88
391.636	96.88
391.86	87.88
392.085	88.88
392.31	78.88
392.534	105.88
392.759	91.88
392.984	86.88
393.208	83.88
393.433	81.88
393.658	94.88
393.882	86.88
394.107	73.88
394.331	96.88
394.556	77.88
394.78	82.88
395.005	84.88
395.229	79.88
395.454	86.88
395.678	81.88
395.903	76.88
396.127	83.88
396.352	76.88
396.576	73.88
396.801	82.88
397.025	82.88
397.249	76.88
397.474	82.88
397.698	81.88
397.922	80.88
398.147	77.88
398.371	74.88
398.595	69.88
398.82	72.88
399.044	99.88
399.268	75.88
399.492	78.88
399.717	87.88
399.941	83.88
400.165	74.88
400.389	90.88
400.613	82.88
400.837	79.88
401.062	80.88
401.286	83.88
401.51	75.88
401.734	84.88
401.958	86.88
402.182	73.88
402.406	87.88
402.63	84.88
402.854	85.88
403.078	89.88
403.302	76.88
403.526	69.88
403.75	76.88
403.974	84.88
404.198	89.88
404.422	79.88
404.645	84.88
404.869	79.88
405.093	73.88
405.317	96.88
405.541	98.88
405.765	99.88
405.988	84.88
406.212	85.88
406.436	86.88
406.66	93.88
406.883	83.88
407.107	85.88
407.331	84.88
407.555	90.88
407.778	87.88
408.002	88.88
408.226	89.88
408.449	90.88
408.673	84.88
408.896	76.88
409.12	85.88
409.344	100.88
409.567	66.88
409.791	76.88
410.014	105.88
410.238	87.88
410.461	85.88
410.685	58.88
410.908	88.88
411.132	100.88
411.355	80.88
411.578	78.88
411.802	92.88
412.025	76.88
412.249	99.88
412.472	81.88
412.695	81.88
412.919	89.88
413.142	88.88
413.365	86.88
413.589	72.88
413.812	84.88
414.035	81.88
414.258	94.88
414.482	80.88
414.705	92.88
414.928	80.88
415.151	73.88
415.374	72.88
415.597	85.88
415.821	80.88
416.044	71.88
416.267	77.88
416.49	88.88
416.713	72.88
416.936	85.88
417.159	84.88
417.382	81.88
417.605	87.88
417.828	80.88
418.051	82.88
418.274	82.88
418.497	78.88
418.72	74.88
418.943	75.88
419.166	97.88
419.389	92.88
419.611	75.88
419.834	74.88
420.057	91.88
420.28	94.88
420.503	73.88
420.726	88.88
420.948	82.88
421.171	79.88
421.394	71.88
421.617	68.88
421.839	98.88
422.062	76.88
422.285	87.88
422.507	84.88
422.73	93.88
422.953	92.88
423.175	84.88
423.398	75.88
423.621	77.88
423.843	106.88
424.066	76.88
424.288	71.88
424.511	94.88
424.733	100.88
424.956	79.88
425.178	70.88
425.401	92.88
425.623	67.88
425.846	83.88
426.068	89.88
426.291	84.88
426.513	82.88
426.735	69.88
426.958	89.88
427.18	92.88
427.402	96.88
427.625	90.88
427.847	84.88
428.069	90.88
428.292	76.88
428.514	89.88
428.736	81.88
428.958	73.88
429.181	73.88
429.403	80.88
429.625	94.88
429.847	92.88
430.069	71.88
430.292	73.88
430.514	81.88
430.736	92.88
430.958	78.88
431.18	85.88
431.402	77.88
431.624	97.88
431.846	95.88
432.068	92.88
432.29	66.88
432.512	81.88
432.734	74.88
432.956	91.88
433.178	88.88
433.4	88.88
433.622	84.88
433.844	76.88
434.066	93.88
434.287	89.88
434.509	88.88
434.731	89.88
434.953	82.88
435.175	93.88
435.397	76.88
435.618	71.88
435.84	70.88
436.062	78.88
436.284	77.88
436.505	73.88
436.727	90.88
436.949	87.88
437.17	89.88
437.392	84.88
437.614	84.88
437.835	82.88
438.057	74.88
438.278	79.88
438.5	72.88
438.721	84.88
438.943	83.88
439.165	89.88
439.386	86.88
439.608	88.88
439.829	81.88
440.05	80.88
440.272	69.88
440.493	85.88
440.715	83.88
440.936	96.88
441.158	90.88
441.379	72.88
441.6	81.88
441.822	83.88
442.043	88.88
442.264	93.88
442.486	90.88
442.707	88.88
442.928	76.88
443.149	81.88
443.371	91.88
443.592	79.88
443.813	65.88
444.034	69.88
444.255	83.88
444.476	73.88
444.698	80.88
444.919	81.88
445.14	159.88
445.361	122.88
445.582	88.88
445.803	79.88
446.024	91.88
446.245	81.88
446.466	101.88
446.687	76.88
446.908	74.88
447.129	95.88
447.35	102.88
447.571	82.88
447.792	88.88
448.013	84.88
448.234	77.88
448.455	88.88
448.675	70.88
448.896	73.88
449.117	68.88
449.338	71.88
449.559	78.88
449.779	75.88
450	77.88
450.221	71.88
450.442	78.88
450.662	81.88
450.883	73.88
451.104	86.88
451.324	82.88
451.545	73.88
451.766	90.88
451.986	86.88
452.207	81.88
452.428	79.88
452.648	92.88
452.869	81.88
453.089	82.88
453.31	76.88
453.53	85.88
453.751	80.88
453.971	83.88
454.192	90.88
454.412	90.88
454.633	88.88
454.853	83.88
455.073	107.88
455.294	86.88
455.514	92.88
455.734	71.88
455.955	93.88
456.175	90.88
456.395	76.88
456.616	74.88
456.836	93.88
457.056	94.88
457.276	85.88
457.497	90.88
457.717	90.88
457.937	93.88
458.157	83.88
458.377	89.88
458.598	87.88
458.818	91.88
459.038	101.88
459.258	83.88
459.478	95.88
459.698	84.88
459.918	81.88
460.138	90.88
460.358	76.88
460.578	68.88
460.798	77.88
461.018	76.88
461.238	88.88
461.458	77.88
461.678	71.88
461.898	82.88
462.118	98.88
462.338	77.88
462.558	83.88
462.777	80.88
462.997	78.88
463.217	89.88
463.437	93.88
463.657	93.88
463.876	74.88
464.096	79.88
464.316	85.88
464.536	86.88
464.755	93.88
464.975	86.88
465.195	86.88
465.414	92.88
465.634	90.88
465.854	93.88
466.073	62.88
466.293	96.88
466.512	78.88
466.732	69.88
466.951	76.88
467.171	94.88
467.391	93.88
467.61	90.88
467.829	74.88
468.049	81.88
468.268	82.88
468.488	77.88
468.707	90.88
468.927	82.88
469.146	78.88
469.365	69.88
469.585	77.88
469.804	84.88
470.023	97.88
470.243	90.88
470.462	72.88
470.681	85.88
470.901	84.88
471.12	83.88
471.339	83.88
471.558	75.88
471.777	73.88
471.997	70.88
472.216	84.88
472.435	74.88
472.654	74.88
472.873	81.88
473.092	64.88
473.311	107.88
473.53	68.88
473.749	93.88
473.968	90.88
474.187	86.88
474.406	80.88
474.625	93.88
474.844	85.88
475.063	84.88
475.282	85.88
475.501	91.88
475.72	92.88
475.939	83.88
476.158	80.88
476.377	65.88
476.596	76.88
476.814	92.88
477.033	71.88
477.252	83.88
477.471	76.88
477.69	76.88
477.908	84.88
478.127	80.88
478.346	88.88
478.564	82.88
478.783	79.88
479.002	90.88
479.22	86.88
479.439	93.88
479.658	84.88
479.876	96.88
480.095	72.88
480.313	78.88
480.532	84.88
480.751	84.88
480.969	77.88
481.188	73.88
481.406	74.88
481.624	80.88
481.843	70.88
482.061	74.88
482.28	80.88
482.498	91.88
482.717	83.88
482.935	92.88
483.153	76.88
483.372	81.88
483.59	87.88
483.808	85.88
484.027	82.88
484.245	82.88
484.463	65.88
484.681	84.88
484.9	90.88
485.118	90.88
485.336	78.88
485.554	83.88
485.772	84.88
485.99	84.88
486.209	91.88
486.427	100.88
486.645	86.88
486.863	73.88
487.081	104.88
487.299	88.88
487.517	84.88
487.735	89.88
487.953	84.88
488.171	90.88
488.389	96.88
488.607	61.88
488.825	64.88
489.043	68.88
489.261	80.88
489.479	85.88
489.696	80.88
489.914	83.88
490.132	78.88
490.35	78.88
490.568	88.88
490.786	80.88
491.003	85.88
491.221	76.88
491.439	80.88
491.657	80.88
491.874	89.88
492.092	72.88
492.31	83.88
492.527	86.88
492.745	72.88
492.963	83.88
493.18	92.88
493.398	89.88
493.615	82.88
493.833	71.88
494.05	94.88
494.268	88.88
494.485	85.88
494.703	83.88
494.92	84.88
495.138	81.88
495.355	78.88
495.573	89.88
495.79	94.88
496.008	92.88
496.225	74.88
496.442	86.88
496.66	89.88
496.877	80.88
497.094	82.88
497.312	91.88
497.529	88.88
497.746	104.88
497.963	78.88
498.181	86.88
498.398	73.88
498.615	77.88
498.832	88.88
499.049	83.88
499.267	91.88
499.484	79.88
499.701	84.88
499.918	88.88
500.135	80.88
500.352	94.88
500.569	78.88
500.786	78.88
501.003	104.88
501.22	84.88
501.437	71.88
501.654	72.88
501.871	97.88
502.088	85.88
502.305	85.88
502.522	88.88
502.739	86.88
502.956	76.88
503.172	76.88
503.389	93.88
503.606	84.88
503.823	94.88
504.04	92.88
504.256	82.88
504.473	101.88
504.69	90.88
504.907	80.88
505.123	72.88
505.34	79.88
505.557	89.88
505.773	88.88
505.99	67.88
506.207	85.88
506.423	76.88
506.64	79.88
506.856	101.88
507.073	92.88
507.289	83.88
507.506	69.88
507.722	82.88
507.939	90.88
508.155	84.88
508.372	96.88
508.588	91.88
508.805	96.88
509.021	97.88
509.238	84.88
509.454	85.88
509.67	71.88
509.887	92.88
510.103	81.88
510.319	78.88
510.536	82.88
510.752	58.88
510.968	92.88
511.184	76.88
511.401	94.88
511.617	80.88
511.833	91.88
512.049	82.88
512.265	81.88
512.481	92.88
512.698	94.88
512.914	94.88
513.13	79.88
513.346	96.88
513.562	80.88
513.778	91.88
513.994	86.88
514.21	84.88
514.426	86.88
514.642	98.88
514.858	79.88
515.074	84.88
515.29	93.88
515.506	83.88
515.721	88.88
515.937	84.88
516.153	97.88
516.369	100.88
516.585	88.88
516.801	80.88
517.016	67.88
517.232	69.88
517.448	77.88
517.664	80.88
517.879	92.88
518.095	76.88
518.311	80.88
518.527	82.88
518.742	83.88
518.958	79.88
519.173	90.88
519.389	75.88
519.605	86.88
519.82	89.88
