Data from Background_2_HRD10591_00075.txt Node
Date: Wed Nov 05 14:47:33 EST 2025
User: Yrep
Spectrometer: HR+D1059
Trigger mode: 1
Integration Time (sec): 1.000000E-1
Scans to average: 1
Electric dark correction enabled: true
Nonlinearity correction enabled: false
Boxcar width: 0
XAxis mode: Wavelengths
Number of Pixels in Spectrum: 2048
>>>>>Begin Spectral Data<<<<<
223.165	-12.81
223.4	-12.81
223.635	-12.81
223.869	-17.81
224.104	-9.81
224.338	-15.81
224.573	-14.81
224.808	-13.81
225.042	2.19
225.277	-12.81
225.511	-2.81
225.746	-6.81
225.98	9.19
226.215	17.19
226.449	5.19
226.683	17.19
226.918	16.19
227.152	40.19
227.387	24.19
227.621	39.19
227.856	45.19
228.09	50.19
228.324	48.19
228.559	63.19
228.793	57.19
229.027	48.19
229.262	61.19
229.496	71.19
229.73	66.19
229.964	64.19
230.199	84.19
230.433	80.19
230.667	83.19
230.901	76.19
231.136	71.19
231.37	81.19
231.604	70.19
231.838	70.19
232.072	68.19
232.306	77.19
232.541	81.19
232.775	98.19
233.009	77.19
233.243	76.19
233.477	99.19
233.711	88.19
233.945	85.19
234.179	90.19
234.413	89.19
234.647	83.19
234.881	81.19
235.115	87.19
235.349	74.19
235.583	90.19
235.817	81.19
236.051	72.19
236.285	89.19
236.519	86.19
236.753	81.19
236.987	69.19
237.221	76.19
237.455	75.19
237.689	74.19
237.922	76.19
238.156	77.19
238.39	73.19
238.624	68.19
238.858	63.19
239.091	77.19
239.325	87.19
239.559	72.19
239.793	79.19
240.027	86.19
240.26	75.19
240.494	81.19
240.728	65.19
240.961	75.19
241.195	74.19
241.429	80.19
241.662	84.19
241.896	85.19
242.13	81.19
242.363	79.19
242.597	77.19
242.83	77.19
243.064	63.19
243.298	69.19
243.531	58.19
243.765	89.19
243.998	69.19
244.232	82.19
244.465	83.19
244.699	71.19
244.932	82.19
245.166	85.19
245.399	79.19
245.633	69.19
245.866	73.19
246.099	71.19
246.333	71.19
246.566	79.19
246.8	90.19
247.033	86.19
247.266	81.19
247.5	76.19
247.733	78.19
247.966	66.19
248.2	75.19
248.433	77.19
248.666	74.19
248.899	89.19
249.133	71.19
249.366	93.19
249.599	57.19
249.832	63.19
250.066	77.19
250.299	73.19
250.532	86.19
250.765	86.19
250.998	87.19
251.231	85.19
251.465	85.19
251.698	80.19
251.931	81.19
252.164	95.19
252.397	88.19
252.63	90.19
252.863	73.19
253.096	69.19
253.329	83.19
253.562	85.19
253.795	93.19
254.028	87.19
254.261	77.19
254.494	65.19
254.727	85.19
254.96	66.19
255.193	71.19
255.426	66.19
255.659	70.19
255.892	85.19
256.124	76.19
256.357	85.19
256.59	79.19
256.823	81.19
257.056	71.19
257.289	89.19
257.521	79.19
257.754	82.19
257.987	82.19
258.22	83.19
258.452	90.19
258.685	77.19
258.918	78.19
259.151	74.19
259.383	74.19
259.616	93.19
259.849	79.19
260.081	84.19
260.314	81.19
260.547	78.19
260.779	80.19
261.012	89.19
261.244	83.19
261.477	77.19
261.71	73.19
261.942	78.19
262.175	83.19
262.407	89.19
262.64	73.19
262.872	85.19
263.105	87.19
263.337	90.19
263.57	80.19
263.802	77.19
264.035	72.19
264.267	78.19
264.499	78.19
264.732	89.19
264.964	93.19
265.197	81.19
265.429	72.19
265.661	88.19
265.894	90.19
266.126	82.19
266.358	83.19
266.591	79.19
266.823	94.19
267.055	85.19
267.287	92.19
267.52	79.19
267.752	83.19
267.984	87.19
268.216	91.19
268.448	83.19
268.681	83.19
268.913	75.19
269.145	87.19
269.377	82.19
269.609	89.19
269.841	82.19
270.073	87.19
270.306	89.19
270.538	72.19
270.77	67.19
271.002	83.19
271.234	93.19
271.466	95.19
271.698	87.19
271.93	91.19
272.162	90.19
272.394	75.19
272.626	69.19
272.858	80.19
273.09	63.19
273.322	92.19
273.553	85.19
273.785	77.19
274.017	72.19
274.249	66.19
274.481	61.19
274.713	83.19
274.945	75.19
275.176	73.19
275.408	88.19
275.64	74.19
275.872	79.19
276.104	67.19
276.335	85.19
276.567	79.19
276.799	86.19
277.031	86.19
277.262	78.19
277.494	80.19
277.726	83.19
277.957	73.19
278.189	82.19
278.421	69.19
278.652	69.19
278.884	92.19
279.115	89.19
279.347	76.19
279.579	78.19
279.81	95.19
280.042	82.19
280.273	88.19
280.505	82.19
280.736	82.19
280.968	77.19
281.199	80.19
281.431	73.19
281.662	77.19
281.894	81.19
282.125	82.19
282.356	77.19
282.588	84.19
282.819	98.19
283.051	89.19
283.282	86.19
283.513	93.19
283.745	82.19
283.976	89.19
284.207	88.19
284.439	83.19
284.67	80.19
284.901	84.19
285.132	82.19
285.364	78.19
285.595	66.19
285.826	74.19
286.057	89.19
286.288	85.19
286.52	81.19
286.751	83.19
286.982	77.19
287.213	78.19
287.444	85.19
287.675	79.19
287.906	97.19
288.138	86.19
288.369	87.19
288.6	74.19
288.831	93.19
289.062	91.19
289.293	72.19
289.524	77.19
289.755	75.19
289.986	81.19
290.217	82.19
290.448	72.19
290.679	85.19
290.91	79.19
291.141	91.19
291.371	85.19
291.602	92.19
291.833	84.19
292.064	91.19
292.295	68.19
292.526	87.19
292.757	88.19
292.987	93.19
293.218	89.19
293.449	96.19
293.68	68.19
293.91	90.19
294.141	74.19
294.372	86.19
294.603	88.19
294.833	77.19
295.064	87.19
295.295	70.19
295.525	101.19
295.756	97.19
295.987	77.19
296.217	81.19
296.448	91.19
296.679	85.19
296.909	93.19
297.14	80.19
297.37	83.19
297.601	69.19
297.831	89.19
298.062	90.19
298.292	90.19
298.523	81.19
298.753	84.19
298.984	98.19
299.214	75.19
299.445	88.19
299.675	100.19
299.905	80.19
300.136	82.19
300.366	85.19
300.597	98.19
300.827	83.19
301.057	87.19
301.288	76.19
301.518	83.19
301.748	96.19
301.979	97.19
302.209	93.19
302.439	99.19
302.669	91.19
302.9	87.19
303.13	88.19
303.36	96.19
303.59	83.19
303.82	87.19
304.051	92.19
304.281	85.19
304.511	88.19
304.741	101.19
304.971	80.19
305.201	89.19
305.431	81.19
305.661	69.19
305.891	81.19
306.121	85.19
306.352	78.19
306.582	80.19
306.812	77.19
307.042	85.19
307.272	77.19
307.502	68.19
307.731	80.19
307.961	96.19
308.191	81.19
308.421	86.19
308.651	83.19
308.881	80.19
309.111	85.19
309.341	78.19
309.571	82.19
309.8	78.19
310.03	92.19
310.26	70.19
310.49	99.19
310.72	88.19
310.949	90.19
311.179	95.19
311.409	75.19
311.639	97.19
311.868	92.19
312.098	93.19
312.328	91.19
312.557	86.19
312.787	89.19
313.017	88.19
313.246	89.19
313.476	75.19
313.706	78.19
313.935	78.19
314.165	90.19
314.394	86.19
314.624	88.19
314.853	81.19
315.083	86.19
315.312	77.19
315.542	86.19
315.771	89.19
316.001	79.19
316.23	85.19
316.46	86.19
316.689	83.19
316.919	81.19
317.148	99.19
317.377	81.19
317.607	83.19
317.836	82.19
318.065	93.19
318.295	84.19
318.524	83.19
318.753	90.19
318.983	90.19
319.212	90.19
319.441	94.19
319.67	81.19
319.9	82.19
320.129	87.19
320.358	95.19
320.587	96.19
320.816	71.19
321.046	68.19
321.275	83.19
321.504	92.19
321.733	87.19
321.962	96.19
322.191	81.19
322.42	93.19
322.649	93.19
322.878	92.19
323.108	86.19
323.337	81.19
323.566	71.19
323.795	82.19
324.024	89.19
324.253	87.19
324.482	89.19
324.71	75.19
324.939	87.19
325.168	73.19
325.397	83.19
325.626	89.19
325.855	85.19
326.084	95.19
326.313	87.19
326.542	89.19
326.77	79.19
326.999	79.19
327.228	64.19
327.457	88.19
327.686	87.19
327.914	89.19
328.143	87.19
328.372	89.19
328.6	94.19
328.829	72.19
329.058	88.19
329.287	83.19
329.515	86.19
329.744	81.19
329.972	85.19
330.201	97.19
330.43	91.19
330.658	65.19
330.887	77.19
331.115	90.19
331.344	91.19
331.572	91.19
331.801	87.19
332.03	77.19
332.258	105.19
332.486	86.19
332.715	82.19
332.943	90.19
333.172	87.19
333.4	74.19
333.629	95.19
333.857	77.19
334.085	79.19
334.314	84.19
334.542	83.19
334.771	93.19
334.999	91.19
335.227	73.19
335.455	81.19
335.684	87.19
335.912	82.19
336.14	86.19
336.369	79.19
336.597	85.19
336.825	85.19
337.053	77.19
337.281	81.19
337.51	89.19
337.738	93.19
337.966	93.19
338.194	100.19
338.422	82.19
338.65	85.19
338.878	95.19
339.106	96.19
339.334	98.19
339.562	84.19
339.79	86.19
340.018	82.19
340.246	87.19
340.474	77.19
340.702	70.19
340.93	77.19
341.158	89.19
341.386	97.19
341.614	84.19
341.842	96.19
342.07	85.19
342.298	92.19
342.526	87.19
342.754	75.19
342.981	73.19
343.209	79.19
343.437	84.19
343.665	77.19
343.893	90.19
344.12	82.19
344.348	85.19
344.576	59.19
344.804	92.19
345.031	90.19
345.259	82.19
345.487	99.19
345.714	83.19
345.942	96.19
346.17	94.19
346.397	79.19
346.625	90.19
346.853	79.19
347.08	75.19
347.308	85.19
347.535	90.19
347.763	90.19
347.99	88.19
348.218	101.19
348.445	71.19
348.673	78.19
348.9	85.19
349.128	90.19
349.355	72.19
349.583	73.19
349.81	95.19
350.037	101.19
350.265	80.19
350.492	101.19
350.72	91.19
350.947	72.19
351.174	82.19
351.402	94.19
351.629	79.19
351.856	82.19
352.083	83.19
352.311	77.19
352.538	101.19
352.765	77.19
352.992	99.19
353.22	97.19
353.447	88.19
353.674	78.19
353.901	77.19
354.128	95.19
354.355	90.19
354.583	83.19
354.81	78.19
355.037	81.19
355.264	75.19
355.491	75.19
355.718	92.19
355.945	99.19
356.172	91.19
356.399	86.19
356.626	85.19
356.853	78.19
357.08	85.19
357.307	86.19
357.534	91.19
357.761	75.19
357.988	90.19
358.215	105.19
358.441	87.19
358.668	69.19
358.895	82.19
359.122	75.19
359.349	85.19
359.576	81.19
359.802	67.19
360.029	85.19
360.256	80.19
360.483	76.19
360.709	85.19
360.936	91.19
361.163	99.19
361.39	87.19
361.616	91.19
361.843	89.19
362.07	77.19
362.296	77.19
362.523	85.19
362.749	78.19
362.976	86.19
363.203	83.19
363.429	79.19
363.656	81.19
363.882	89.19
364.109	97.19
364.335	93.19
364.562	82.19
364.788	67.19
365.015	86.19
365.241	83.19
365.468	94.19
365.694	81.19
365.92	88.19
366.147	89.19
366.373	88.19
366.599	74.19
366.826	78.19
367.052	71.19
367.278	65.19
367.505	92.19
367.731	78.19
367.957	79.19
368.184	83.19
368.41	108.19
368.636	79.19
368.862	85.19
369.089	83.19
369.315	84.19
369.541	97.19
369.767	91.19
369.993	80.19
370.219	90.19
370.445	90.19
370.672	74.19
370.898	85.19
371.124	92.19
371.35	84.19
371.576	92.19
371.802	78.19
372.028	70.19
372.254	80.19
372.48	82.19
372.706	90.19
372.932	85.19
373.158	88.19
373.384	86.19
373.61	93.19
373.835	78.19
374.061	87.19
374.287	86.19
374.513	71.19
374.739	80.19
374.965	81.19
375.191	93.19
375.416	71.19
375.642	80.19
375.868	92.19
376.094	92.19
376.319	71.19
376.545	92.19
376.771	79.19
376.997	83.19
377.222	85.19
377.448	88.19
377.674	70.19
377.899	77.19
378.125	87.19
378.35	74.19
378.576	78.19
378.802	93.19
379.027	82.19
379.253	90.19
379.478	84.19
379.704	81.19
379.929	75.19
380.155	76.19
380.38	88.19
380.606	86.19
380.831	79.19
381.057	80.19
381.282	87.19
381.507	81.19
381.733	86.19
381.958	82.19
382.184	80.19
382.409	77.19
382.634	79.19
382.86	77.19
383.085	86.19
383.31	72.19
383.535	83.19
383.761	87.19
383.986	80.19
384.211	83.19
384.436	81.19
384.662	87.19
384.887	84.19
385.112	78.19
385.337	80.19
385.562	86.19
385.787	92.19
386.013	82.19
386.238	79.19
386.463	91.19
386.688	95.19
386.913	82.19
387.138	83.19
387.363	78.19
387.588	88.19
387.813	78.19
388.038	79.19
388.263	90.19
388.488	91.19
388.713	86.19
388.938	71.19
389.163	82.19
389.387	85.19
389.612	82.19
389.837	90.19
390.062	84.19
390.287	91.19
390.512	83.19
390.736	89.19
390.961	74.19
391.186	89.19
391.411	87.19
391.636	69.19
391.86	79.19
392.085	83.19
392.31	77.19
392.534	90.19
392.759	94.19
392.984	88.19
393.208	90.19
393.433	85.19
393.658	76.19
393.882	93.19
394.107	93.19
394.331	86.19
394.556	87.19
394.78	94.19
395.005	75.19
395.229	91.19
395.454	70.19
395.678	77.19
395.903	80.19
396.127	84.19
396.352	74.19
396.576	96.19
396.801	84.19
397.025	83.19
397.249	72.19
397.474	88.19
397.698	85.19
397.922	83.19
398.147	100.19
398.371	93.19
398.595	86.19
398.82	88.19
399.044	85.19
399.268	86.19
399.492	89.19
399.717	76.19
399.941	77.19
400.165	72.19
400.389	75.19
400.613	71.19
400.837	89.19
401.062	81.19
401.286	81.19
401.51	81.19
401.734	72.19
401.958	76.19
402.182	97.19
402.406	76.19
402.63	106.19
402.854	89.19
403.078	79.19
403.302	77.19
403.526	79.19
403.75	94.19
403.974	87.19
404.198	85.19
404.422	82.19
404.645	81.19
404.869	82.19
405.093	78.19
405.317	87.19
405.541	79.19
405.765	97.19
405.988	85.19
406.212	79.19
406.436	84.19
406.66	101.19
406.883	82.19
407.107	82.19
407.331	89.19
407.555	86.19
407.778	77.19
408.002	79.19
408.226	72.19
408.449	75.19
408.673	81.19
408.896	92.19
409.12	81.19
409.344	79.19
409.567	77.19
409.791	80.19
410.014	90.19
410.238	94.19
410.461	78.19
410.685	84.19
410.908	83.19
411.132	83.19
411.355	62.19
411.578	89.19
411.802	86.19
412.025	78.19
412.249	92.19
412.472	83.19
412.695	89.19
412.919	85.19
413.142	90.19
413.365	91.19
413.589	79.19
413.812	78.19
414.035	86.19
414.258	89.19
414.482	81.19
414.705	78.19
414.928	83.19
415.151	88.19
415.374	77.19
415.597	83.19
415.821	72.19
416.044	89.19
416.267	92.19
416.49	91.19
416.713	87.19
416.936	66.19
417.159	77.19
417.382	90.19
417.605	84.19
417.828	81.19
418.051	83.19
418.274	96.19
418.497	87.19
418.72	77.19
418.943	79.19
419.166	88.19
419.389	85.19
419.611	79.19
419.834	97.19
420.057	83.19
420.28	65.19
420.503	77.19
420.726	85.19
420.948	81.19
421.171	89.19
421.394	83.19
421.617	84.19
421.839	75.19
422.062	87.19
422.285	75.19
422.507	86.19
422.73	78.19
422.953	77.19
423.175	79.19
423.398	97.19
423.621	73.19
423.843	69.19
424.066	83.19
424.288	76.19
424.511	80.19
424.733	87.19
424.956	84.19
425.178	63.19
425.401	71.19
425.623	82.19
425.846	71.19
426.068	84.19
426.291	86.19
426.513	75.19
426.735	83.19
426.958	90.19
427.18	83.19
427.402	82.19
427.625	91.19
427.847	80.19
428.069	79.19
428.292	82.19
428.514	78.19
428.736	77.19
428.958	85.19
429.181	79.19
429.403	70.19
429.625	79.19
429.847	78.19
430.069	87.19
430.292	71.19
430.514	77.19
430.736	90.19
430.958	83.19
431.18	74.19
431.402	78.19
431.624	81.19
431.846	83.19
432.068	89.19
432.29	86.19
432.512	75.19
432.734	77.19
432.956	96.19
433.178	72.19
433.4	90.19
433.622	89.19
433.844	92.19
434.066	80.19
434.287	83.19
434.509	92.19
434.731	85.19
434.953	81.19
435.175	74.19
435.397	69.19
435.618	78.19
435.84	90.19
436.062	83.19
436.284	81.19
436.505	72.19
436.727	71.19
436.949	81.19
437.17	91.19
437.392	73.19
437.614	79.19
437.835	65.19
438.057	85.19
438.278	97.19
438.5	81.19
438.721	77.19
438.943	88.19
439.165	94.19
439.386	94.19
439.608	77.19
439.829	73.19
440.05	73.19
440.272	70.19
440.493	85.19
440.715	66.19
440.936	77.19
441.158	81.19
441.379	81.19
441.6	82.19
441.822	77.19
442.043	76.19
442.264	78.19
442.486	69.19
442.707	84.19
442.928	82.19
443.149	85.19
443.371	106.19
443.592	81.19
443.813	71.19
444.034	79.19
444.255	91.19
444.476	75.19
444.698	84.19
444.919	79.19
445.14	149.19
445.361	102.19
445.582	81.19
445.803	84.19
446.024	81.19
446.245	96.19
446.466	73.19
446.687	82.19
446.908	79.19
447.129	83.19
447.35	89.19
447.571	91.19
447.792	89.19
448.013	70.19
448.234	86.19
448.455	102.19
448.675	85.19
448.896	72.19
449.117	86.19
449.338	85.19
449.559	85.19
449.779	108.19
450	80.19
450.221	81.19
450.442	80.19
450.662	82.19
450.883	96.19
451.104	84.19
451.324	81.19
451.545	75.19
451.766	81.19
451.986	77.19
452.207	91.19
452.428	98.19
452.648	99.19
452.869	83.19
453.089	86.19
453.31	71.19
453.53	92.19
453.751	83.19
453.971	77.19
454.192	69.19
454.412	62.19
454.633	87.19
454.853	94.19
455.073	85.19
455.294	101.19
455.514	78.19
455.734	76.19
455.955	75.19
456.175	66.19
456.395	67.19
456.616	80.19
456.836	77.19
457.056	80.19
457.276	72.19
457.497	84.19
457.717	81.19
457.937	78.19
458.157	98.19
458.377	80.19
458.598	82.19
458.818	73.19
459.038	72.19
459.258	93.19
459.478	84.19
459.698	77.19
459.918	79.19
460.138	69.19
460.358	77.19
460.578	83.19
460.798	92.19
461.018	83.19
461.238	80.19
461.458	87.19
461.678	75.19
461.898	82.19
462.118	84.19
462.338	79.19
462.558	97.19
462.777	84.19
462.997	86.19
463.217	81.19
463.437	81.19
463.657	91.19
463.876	90.19
464.096	90.19
464.316	90.19
464.536	98.19
464.755	96.19
464.975	85.19
465.195	81.19
465.414	87.19
465.634	75.19
465.854	84.19
466.073	85.19
466.293	85.19
466.512	71.19
466.732	82.19
466.951	78.19
467.171	82.19
467.391	85.19
467.61	77.19
467.829	73.19
468.049	66.19
468.268	89.19
468.488	83.19
468.707	84.19
468.927	91.19
469.146	98.19
469.365	83.19
469.585	85.19
469.804	89.19
470.023	74.19
470.243	83.19
470.462	96.19
470.681	91.19
470.901	86.19
471.12	86.19
471.339	87.19
471.558	77.19
471.777	82.19
471.997	85.19
472.216	89.19
472.435	76.19
472.654	87.19
472.873	84.19
473.092	82.19
473.311	79.19
473.53	77.19
473.749	95.19
473.968	84.19
474.187	75.19
474.406	85.19
474.625	105.19
474.844	78.19
475.063	81.19
475.282	83.19
475.501	74.19
475.72	88.19
475.939	71.19
476.158	77.19
476.377	85.19
476.596	65.19
476.814	85.19
477.033	87.19
477.252	89.19
477.471	70.19
477.69	61.19
477.908	79.19
478.127	84.19
478.346	99.19
478.564	81.19
478.783	75.19
479.002	75.19
479.22	74.19
479.439	75.19
479.658	77.19
479.876	81.19
480.095	92.19
480.313	89.19
480.532	93.19
480.751	76.19
480.969	89.19
481.188	95.19
481.406	84.19
481.624	69.19
481.843	86.19
482.061	82.19
482.28	86.19
482.498	73.19
482.717	91.19
482.935	89.19
483.153	85.19
483.372	75.19
483.59	88.19
483.808	89.19
484.027	79.19
484.245	72.19
484.463	78.19
484.681	96.19
484.9	74.19
485.118	83.19
485.336	79.19
485.554	93.19
485.772	96.19
485.99	86.19
486.209	100.19
486.427	85.19
486.645	85.19
486.863	85.19
487.081	92.19
487.299	88.19
487.517	84.19
487.735	78.19
487.953	90.19
488.171	79.19
488.389	85.19
488.607	76.19
488.825	91.19
489.043	77.19
489.261	90.19
489.479	89.19
489.696	83.19
489.914	78.19
490.132	84.19
490.35	79.19
490.568	76.19
490.786	80.19
491.003	81.19
491.221	76.19
491.439	82.19
491.657	74.19
491.874	78.19
492.092	85.19
492.31	71.19
492.527	75.19
492.745	85.19
492.963	80.19
493.18	80.19
493.398	87.19
493.615	81.19
493.833	71.19
494.05	75.19
494.268	76.19
494.485	83.19
494.703	93.19
494.92	73.19
495.138	79.19
495.355	79.19
495.573	74.19
495.79	89.19
496.008	87.19
496.225	91.19
496.442	85.19
496.66	90.19
496.877	84.19
497.094	90.19
497.312	92.19
497.529	85.19
497.746	75.19
497.963	90.19
498.181	83.19
498.398	82.19
498.615	92.19
498.832	80.19
499.049	71.19
499.267	89.19
499.484	75.19
499.701	84.19
499.918	85.19
500.135	76.19
500.352	85.19
500.569	98.19
500.786	81.19
501.003	84.19
501.22	86.19
501.437	83.19
501.654	91.19
501.871	87.19
502.088	99.19
502.305	95.19
502.522	96.19
502.739	91.19
502.956	94.19
503.172	94.19
503.389	70.19
503.606	95.19
503.823	75.19
504.04	76.19
504.256	81.19
504.473	82.19
504.69	87.19
504.907	86.19
505.123	76.19
505.34	87.19
505.557	69.19
505.773	92.19
505.99	92.19
506.207	92.19
506.423	82.19
506.64	80.19
506.856	85.19
507.073	88.19
507.289	75.19
507.506	87.19
507.722	91.19
507.939	80.19
508.155	79.19
508.372	70.19
508.588	82.19
508.805	89.19
509.021	80.19
509.238	81.19
509.454	74.19
509.67	81.19
509.887	65.19
510.103	80.19
510.319	77.19
510.536	88.19
510.752	73.19
510.968	91.19
511.184	83.19
511.401	91.19
511.617	91.19
511.833	76.19
512.049	77.19
512.265	90.19
512.481	82.19
512.698	74.19
512.914	79.19
513.13	82.19
513.346	82.19
513.562	90.19
513.778	83.19
513.994	86.19
514.21	86.19
514.426	79.19
514.642	84.19
514.858	84.19
515.074	87.19
515.29	83.19
515.506	85.19
515.721	73.19
515.937	73.19
516.153	91.19
516.369	91.19
516.585	82.19
516.801	90.19
517.016	86.19
517.232	75.19
517.448	91.19
517.664	84.19
517.879	89.19
518.095	74.19
518.311	77.19
518.527	68.19
518.742	69.19
518.958	96.19
519.173	74.19
519.389	81.19
519.605	78.19
519.82	79.19
520.036	80.19
