Data from Background_2_HRD10591_00079.txt Node
Date: Wed Nov 05 14:47:35 EST 2025
User: Yrep
Spectrometer: HR+D1059
Trigger mode: 1
Integration Time (sec): 1.000000E-1
Scans to average: 1
Electric dark correction enabled: true
Nonlinearity correction enabled: false
Boxcar width: 0
XAxis mode: Wavelengths
Number of Pixels in Spectrum: 2048
>>>>>Begin Spectral Data<<<<<
223.165	-4.88
223.4	-4.88
223.635	-4.88
223.869	-23.88
224.104	-17.88
224.338	-20.88
224.573	-25.88
224.808	-19.88
225.042	-10.88
225.277	6.12
225.511	8.12
225.746	9.12
225.98	23.12
226.215	4.12
226.449	8.12
226.683	17.12
226.918	25.12
227.152	23.12
227.387	32.12
227.621	32.12
227.856	46.12
228.09	50.12
228.324	38.12
228.559	43.12
228.793	60.12
229.027	51.12
229.262	65.12
229.496	59.12
229.73	61.12
229.964	64.12
230.199	63.12
230.433	73.12
230.667	82.12
230.901	80.12
231.136	65.12
231.37	62.12
231.604	81.12
231.838	90.12
232.072	72.12
232.306	86.12
232.541	81.12
232.775	89.12
233.009	86.12
233.243	92.12
233.477	66.12
233.711	68.12
233.945	85.12
234.179	69.12
234.413	96.12
234.647	73.12
234.881	87.12
235.115	90.12
235.349	79.12
235.583	83.12
235.817	79.12
236.051	76.12
236.285	77.12
236.519	80.12
236.753	89.12
236.987	96.12
237.221	82.12
237.455	70.12
237.689	65.12
237.922	67.12
238.156	66.12
238.39	78.12
238.624	81.12
238.858	68.12
239.091	74.12
239.325	78.12
239.559	84.12
239.793	76.12
240.027	76.12
240.26	71.12
240.494	70.12
240.728	68.12
240.961	71.12
241.195	69.12
241.429	79.12
241.662	88.12
241.896	75.12
242.13	71.12
242.363	67.12
242.597	78.12
242.83	64.12
243.064	78.12
243.298	68.12
243.531	80.12
243.765	78.12
243.998	72.12
244.232	76.12
244.465	68.12
244.699	70.12
244.932	87.12
245.166	74.12
245.399	80.12
245.633	75.12
245.866	78.12
246.099	80.12
246.333	72.12
246.566	77.12
246.8	78.12
247.033	82.12
247.266	80.12
247.5	78.12
247.733	82.12
247.966	82.12
248.2	73.12
248.433	80.12
248.666	79.12
248.899	82.12
249.133	84.12
249.366	84.12
249.599	70.12
249.832	82.12
250.066	73.12
250.299	66.12
250.532	77.12
250.765	61.12
250.998	79.12
251.231	72.12
251.465	81.12
251.698	72.12
251.931	82.12
252.164	79.12
252.397	66.12
252.63	78.12
252.863	78.12
253.096	68.12
253.329	82.12
253.562	95.12
253.795	71.12
254.028	78.12
254.261	72.12
254.494	90.12
254.727	74.12
254.96	81.12
255.193	76.12
255.426	82.12
255.659	82.12
255.892	82.12
256.124	73.12
256.357	86.12
256.59	81.12
256.823	74.12
257.056	80.12
257.289	79.12
257.521	79.12
257.754	73.12
257.987	87.12
258.22	82.12
258.452	68.12
258.685	72.12
258.918	80.12
259.151	76.12
259.383	81.12
259.616	78.12
259.849	72.12
260.081	75.12
260.314	78.12
260.547	81.12
260.779	74.12
261.012	70.12
261.244	75.12
261.477	78.12
261.71	71.12
261.942	81.12
262.175	95.12
262.407	90.12
262.64	71.12
262.872	74.12
263.105	74.12
263.337	73.12
263.57	72.12
263.802	78.12
264.035	96.12
264.267	83.12
264.499	82.12
264.732	73.12
264.964	76.12
265.197	91.12
265.429	85.12
265.661	72.12
265.894	94.12
266.126	82.12
266.358	86.12
266.591	77.12
266.823	80.12
267.055	72.12
267.287	83.12
267.52	86.12
267.752	81.12
267.984	70.12
268.216	76.12
268.448	78.12
268.681	68.12
268.913	83.12
269.145	67.12
269.377	74.12
269.609	62.12
269.841	77.12
270.073	72.12
270.306	83.12
270.538	80.12
270.77	87.12
271.002	86.12
271.234	84.12
271.466	73.12
271.698	70.12
271.93	88.12
272.162	83.12
272.394	83.12
272.626	76.12
272.858	81.12
273.09	87.12
273.322	76.12
273.553	77.12
273.785	86.12
274.017	76.12
274.249	81.12
274.481	85.12
274.713	75.12
274.945	71.12
275.176	64.12
275.408	91.12
275.64	81.12
275.872	80.12
276.104	84.12
276.335	83.12
276.567	69.12
276.799	69.12
277.031	73.12
277.262	69.12
277.494	94.12
277.726	77.12
277.957	76.12
278.189	65.12
278.421	82.12
278.652	66.12
278.884	97.12
279.115	83.12
279.347	84.12
279.579	90.12
279.81	80.12
280.042	82.12
280.273	86.12
280.505	74.12
280.736	85.12
280.968	75.12
281.199	72.12
281.431	78.12
281.662	74.12
281.894	86.12
282.125	79.12
282.356	82.12
282.588	76.12
282.819	77.12
283.051	76.12
283.282	74.12
283.513	82.12
283.745	86.12
283.976	94.12
284.207	86.12
284.439	76.12
284.67	79.12
284.901	82.12
285.132	88.12
285.364	77.12
285.595	75.12
285.826	74.12
286.057	82.12
286.288	68.12
286.52	75.12
286.751	83.12
286.982	100.12
287.213	83.12
287.444	89.12
287.675	93.12
287.906	79.12
288.138	65.12
288.369	68.12
288.6	86.12
288.831	83.12
289.062	89.12
289.293	86.12
289.524	94.12
289.755	85.12
289.986	83.12
290.217	74.12
290.448	87.12
290.679	83.12
290.91	79.12
291.141	76.12
291.371	84.12
291.602	92.12
291.833	78.12
292.064	78.12
292.295	95.12
292.526	88.12
292.757	76.12
292.987	106.12
293.218	82.12
293.449	88.12
293.68	91.12
293.91	78.12
294.141	90.12
294.372	91.12
294.603	79.12
294.833	83.12
295.064	89.12
295.295	94.12
295.525	79.12
295.756	89.12
295.987	89.12
296.217	80.12
296.448	91.12
296.679	98.12
296.909	89.12
297.14	85.12
297.37	82.12
297.601	82.12
297.831	96.12
298.062	74.12
298.292	78.12
298.523	91.12
298.753	78.12
298.984	62.12
299.214	71.12
299.445	87.12
299.675	77.12
299.905	92.12
300.136	72.12
300.366	77.12
300.597	88.12
300.827	76.12
301.057	71.12
301.288	82.12
301.518	79.12
301.748	89.12
301.979	100.12
302.209	83.12
302.439	83.12
302.669	90.12
302.9	88.12
303.13	71.12
303.36	79.12
303.59	86.12
303.82	74.12
304.051	83.12
304.281	83.12
304.511	71.12
304.741	90.12
304.971	90.12
305.201	84.12
305.431	90.12
305.661	94.12
305.891	90.12
306.121	80.12
306.352	69.12
306.582	81.12
306.812	83.12
307.042	90.12
307.272	69.12
307.502	86.12
307.731	86.12
307.961	84.12
308.191	74.12
308.421	86.12
308.651	80.12
308.881	82.12
309.111	83.12
309.341	87.12
309.571	73.12
309.8	94.12
310.03	82.12
310.26	87.12
310.49	80.12
310.72	90.12
310.949	89.12
311.179	71.12
311.409	68.12
311.639	74.12
311.868	80.12
312.098	91.12
312.328	67.12
312.557	93.12
312.787	79.12
313.017	88.12
313.246	75.12
313.476	84.12
313.706	76.12
313.935	94.12
314.165	85.12
314.394	80.12
314.624	76.12
314.853	76.12
315.083	78.12
315.312	76.12
315.542	68.12
315.771	86.12
316.001	68.12
316.23	82.12
316.46	68.12
316.689	73.12
316.919	78.12
317.148	83.12
317.377	76.12
317.607	80.12
317.836	83.12
318.065	87.12
318.295	93.12
318.524	91.12
318.753	78.12
318.983	84.12
319.212	86.12
319.441	87.12
319.67	94.12
319.9	74.12
320.129	88.12
320.358	94.12
320.587	75.12
320.816	75.12
321.046	90.12
321.275	82.12
321.504	78.12
321.733	78.12
321.962	87.12
322.191	68.12
322.42	88.12
322.649	86.12
322.878	84.12
323.108	95.12
323.337	73.12
323.566	72.12
323.795	84.12
324.024	71.12
324.253	87.12
324.482	82.12
324.71	90.12
324.939	89.12
325.168	74.12
325.397	95.12
325.626	80.12
325.855	90.12
326.084	92.12
326.313	83.12
326.542	75.12
326.77	80.12
326.999	88.12
327.228	82.12
327.457	75.12
327.686	78.12
327.914	76.12
328.143	81.12
328.372	82.12
328.6	79.12
328.829	88.12
329.058	87.12
329.287	84.12
329.515	66.12
329.744	95.12
329.972	86.12
330.201	93.12
330.43	76.12
330.658	77.12
330.887	85.12
331.115	81.12
331.344	81.12
331.572	68.12
331.801	84.12
332.03	83.12
332.258	74.12
332.486	91.12
332.715	86.12
332.943	84.12
333.172	74.12
333.4	70.12
333.629	79.12
333.857	83.12
334.085	95.12
334.314	84.12
334.542	81.12
334.771	79.12
334.999	87.12
335.227	82.12
335.455	79.12
335.684	68.12
335.912	81.12
336.14	76.12
336.369	78.12
336.597	89.12
336.825	86.12
337.053	83.12
337.281	83.12
337.51	74.12
337.738	79.12
337.966	67.12
338.194	77.12
338.422	94.12
338.65	76.12
338.878	92.12
339.106	82.12
339.334	89.12
339.562	66.12
339.79	77.12
340.018	82.12
340.246	86.12
340.474	78.12
340.702	84.12
340.93	90.12
341.158	85.12
341.386	83.12
341.614	88.12
341.842	86.12
342.07	84.12
342.298	89.12
342.526	75.12
342.754	95.12
342.981	77.12
343.209	92.12
343.437	100.12
343.665	79.12
343.893	82.12
344.12	80.12
344.348	83.12
344.576	80.12
344.804	77.12
345.031	79.12
345.259	78.12
345.487	82.12
345.714	72.12
345.942	86.12
346.17	84.12
346.397	75.12
346.625	78.12
346.853	71.12
347.08	78.12
347.308	97.12
347.535	85.12
347.763	82.12
347.99	69.12
348.218	80.12
348.445	70.12
348.673	79.12
348.9	89.12
349.128	78.12
349.355	82.12
349.583	79.12
349.81	78.12
350.037	82.12
350.265	78.12
350.492	83.12
350.72	76.12
350.947	90.12
351.174	89.12
351.402	94.12
351.629	93.12
351.856	91.12
352.083	81.12
352.311	98.12
352.538	69.12
352.765	78.12
352.992	103.12
353.22	92.12
353.447	84.12
353.674	91.12
353.901	86.12
354.128	82.12
354.355	87.12
354.583	92.12
354.81	73.12
355.037	69.12
355.264	80.12
355.491	98.12
355.718	78.12
355.945	91.12
356.172	85.12
356.399	85.12
356.626	78.12
356.853	87.12
357.08	83.12
357.307	87.12
357.534	88.12
357.761	85.12
357.988	82.12
358.215	79.12
358.441	76.12
358.668	82.12
358.895	72.12
359.122	88.12
359.349	96.12
359.576	87.12
359.802	83.12
360.029	86.12
360.256	82.12
360.483	78.12
360.709	70.12
360.936	89.12
361.163	93.12
361.39	78.12
361.616	74.12
361.843	91.12
362.07	86.12
362.296	87.12
362.523	84.12
362.749	78.12
362.976	91.12
363.203	85.12
363.429	69.12
363.656	81.12
363.882	88.12
364.109	87.12
364.335	75.12
364.562	81.12
364.788	65.12
365.015	102.12
365.241	79.12
365.468	75.12
365.694	76.12
365.92	83.12
366.147	84.12
366.373	74.12
366.599	75.12
366.826	91.12
367.052	86.12
367.278	86.12
367.505	82.12
367.731	82.12
367.957	75.12
368.184	78.12
368.41	87.12
368.636	92.12
368.862	81.12
369.089	80.12
369.315	80.12
369.541	83.12
369.767	73.12
369.993	82.12
370.219	89.12
370.445	82.12
370.672	64.12
370.898	72.12
371.124	89.12
371.35	83.12
371.576	81.12
371.802	67.12
372.028	75.12
372.254	73.12
372.48	75.12
372.706	91.12
372.932	73.12
373.158	80.12
373.384	82.12
373.61	86.12
373.835	90.12
374.061	98.12
374.287	76.12
374.513	88.12
374.739	77.12
374.965	76.12
375.191	84.12
375.416	89.12
375.642	91.12
375.868	76.12
376.094	87.12
376.319	67.12
376.545	89.12
376.771	61.12
376.997	84.12
377.222	81.12
377.448	83.12
377.674	91.12
377.899	88.12
378.125	74.12
378.35	90.12
378.576	67.12
378.802	82.12
379.027	74.12
379.253	75.12
379.478	80.12
379.704	79.12
379.929	86.12
380.155	81.12
380.38	78.12
380.606	84.12
380.831	85.12
381.057	82.12
381.282	78.12
381.507	84.12
381.733	91.12
381.958	80.12
382.184	82.12
382.409	84.12
382.634	77.12
382.86	88.12
383.085	86.12
383.31	85.12
383.535	79.12
383.761	73.12
383.986	93.12
384.211	84.12
384.436	81.12
384.662	79.12
384.887	77.12
385.112	71.12
385.337	90.12
385.562	78.12
385.787	68.12
386.013	79.12
386.238	84.12
386.463	78.12
386.688	89.12
386.913	73.12
387.138	92.12
387.363	74.12
387.588	84.12
387.813	78.12
388.038	81.12
388.263	72.12
388.488	77.12
388.713	63.12
388.938	80.12
389.163	84.12
389.387	82.12
389.612	82.12
389.837	83.12
390.062	78.12
390.287	78.12
390.512	76.12
390.736	74.12
390.961	82.12
391.186	77.12
391.411	86.12
391.636	78.12
391.86	83.12
392.085	71.12
392.31	81.12
392.534	95.12
392.759	63.12
392.984	75.12
393.208	73.12
393.433	77.12
393.658	87.12
393.882	80.12
394.107	88.12
394.331	88.12
394.556	75.12
394.78	77.12
395.005	92.12
395.229	79.12
395.454	92.12
395.678	78.12
395.903	78.12
396.127	77.12
396.352	75.12
396.576	91.12
396.801	78.12
397.025	78.12
397.249	79.12
397.474	78.12
397.698	81.12
397.922	73.12
398.147	69.12
398.371	89.12
398.595	89.12
398.82	83.12
399.044	86.12
399.268	76.12
399.492	85.12
399.717	89.12
399.941	94.12
400.165	88.12
400.389	85.12
400.613	85.12
400.837	77.12
401.062	75.12
401.286	75.12
401.51	76.12
401.734	78.12
401.958	78.12
402.182	74.12
402.406	80.12
402.63	80.12
402.854	68.12
403.078	83.12
403.302	74.12
403.526	92.12
403.75	74.12
403.974	90.12
404.198	69.12
404.422	82.12
404.645	83.12
404.869	63.12
405.093	97.12
405.317	83.12
405.541	88.12
405.765	78.12
405.988	76.12
406.212	73.12
406.436	82.12
406.66	74.12
406.883	89.12
407.107	84.12
407.331	81.12
407.555	72.12
407.778	76.12
408.002	80.12
408.226	65.12
408.449	84.12
408.673	84.12
408.896	85.12
409.12	92.12
409.344	77.12
409.567	76.12
409.791	77.12
410.014	82.12
410.238	73.12
410.461	81.12
410.685	86.12
410.908	81.12
411.132	76.12
411.355	70.12
411.578	76.12
411.802	73.12
412.025	79.12
412.249	76.12
412.472	90.12
412.695	73.12
412.919	88.12
413.142	76.12
413.365	85.12
413.589	82.12
413.812	83.12
414.035	96.12
414.258	68.12
414.482	78.12
414.705	74.12
414.928	77.12
415.151	83.12
415.374	88.12
415.597	93.12
415.821	74.12
416.044	77.12
416.267	71.12
416.49	72.12
416.713	88.12
416.936	82.12
417.159	89.12
417.382	70.12
417.605	81.12
417.828	97.12
418.051	83.12
418.274	80.12
418.497	73.12
418.72	76.12
418.943	77.12
419.166	78.12
419.389	81.12
419.611	91.12
419.834	86.12
420.057	75.12
420.28	83.12
420.503	89.12
420.726	74.12
420.948	78.12
421.171	80.12
421.394	88.12
421.617	85.12
421.839	74.12
422.062	88.12
422.285	80.12
422.507	69.12
422.73	87.12
422.953	80.12
423.175	95.12
423.398	72.12
423.621	94.12
423.843	81.12
424.066	81.12
424.288	90.12
424.511	81.12
424.733	78.12
424.956	75.12
425.178	79.12
425.401	90.12
425.623	72.12
425.846	90.12
426.068	82.12
426.291	83.12
426.513	83.12
426.735	72.12
426.958	78.12
427.18	71.12
427.402	91.12
427.625	80.12
427.847	80.12
428.069	94.12
428.292	92.12
428.514	76.12
428.736	70.12
428.958	78.12
429.181	64.12
429.403	78.12
429.625	87.12
429.847	68.12
430.069	90.12
430.292	96.12
430.514	69.12
430.736	69.12
430.958	83.12
431.18	88.12
431.402	64.12
431.624	81.12
431.846	68.12
432.068	86.12
432.29	90.12
432.512	81.12
432.734	84.12
432.956	82.12
433.178	87.12
433.4	78.12
433.622	80.12
433.844	72.12
434.066	91.12
434.287	72.12
434.509	74.12
434.731	81.12
434.953	80.12
435.175	86.12
435.397	82.12
435.618	81.12
435.84	77.12
436.062	80.12
436.284	71.12
436.505	83.12
436.727	87.12
436.949	73.12
437.17	75.12
437.392	80.12
437.614	94.12
437.835	82.12
438.057	85.12
438.278	89.12
438.5	83.12
438.721	71.12
438.943	84.12
439.165	76.12
439.386	88.12
439.608	83.12
439.829	88.12
440.05	65.12
440.272	75.12
440.493	68.12
440.715	79.12
440.936	94.12
441.158	90.12
441.379	80.12
441.6	66.12
441.822	74.12
442.043	72.12
442.264	77.12
442.486	83.12
442.707	77.12
442.928	78.12
443.149	76.12
443.371	89.12
443.592	70.12
443.813	84.12
444.034	79.12
444.255	80.12
444.476	76.12
444.698	79.12
444.919	72.12
445.14	159.12
445.361	114.12
445.582	88.12
445.803	68.12
446.024	76.12
446.245	77.12
446.466	67.12
446.687	70.12
446.908	80.12
447.129	80.12
447.35	89.12
447.571	68.12
447.792	65.12
448.013	78.12
448.234	93.12
448.455	78.12
448.675	83.12
448.896	66.12
449.117	92.12
449.338	86.12
449.559	80.12
449.779	78.12
450	72.12
450.221	83.12
450.442	74.12
450.662	67.12
450.883	80.12
451.104	82.12
451.324	86.12
451.545	91.12
451.766	95.12
451.986	104.12
452.207	76.12
452.428	75.12
452.648	66.12
452.869	86.12
453.089	75.12
453.31	76.12
453.53	82.12
453.751	67.12
453.971	79.12
454.192	67.12
454.412	70.12
454.633	82.12
454.853	76.12
455.073	70.12
455.294	74.12
455.514	76.12
455.734	79.12
455.955	77.12
456.175	75.12
456.395	69.12
456.616	72.12
456.836	83.12
457.056	68.12
457.276	77.12
457.497	83.12
457.717	71.12
457.937	77.12
458.157	94.12
458.377	87.12
458.598	100.12
458.818	68.12
459.038	75.12
459.258	80.12
459.478	74.12
459.698	76.12
459.918	87.12
460.138	68.12
460.358	86.12
460.578	74.12
460.798	88.12
461.018	71.12
461.238	75.12
461.458	89.12
461.678	90.12
461.898	87.12
462.118	82.12
462.338	72.12
462.558	82.12
462.777	75.12
462.997	80.12
463.217	75.12
463.437	76.12
463.657	74.12
463.876	85.12
464.096	83.12
464.316	89.12
464.536	88.12
464.755	82.12
464.975	90.12
465.195	91.12
465.414	84.12
465.634	91.12
465.854	76.12
466.073	74.12
466.293	89.12
466.512	82.12
466.732	83.12
466.951	86.12
467.171	84.12
467.391	86.12
467.61	67.12
467.829	87.12
468.049	80.12
468.268	81.12
468.488	64.12
468.707	74.12
468.927	94.12
469.146	69.12
469.365	85.12
469.585	78.12
469.804	84.12
470.023	88.12
470.243	78.12
470.462	80.12
470.681	82.12
470.901	88.12
471.12	65.12
471.339	86.12
471.558	87.12
471.777	89.12
471.997	79.12
472.216	63.12
472.435	76.12
472.654	64.12
472.873	74.12
473.092	81.12
473.311	72.12
473.53	80.12
473.749	67.12
473.968	75.12
474.187	87.12
474.406	90.12
474.625	75.12
474.844	74.12
475.063	86.12
475.282	73.12
475.501	76.12
475.72	68.12
475.939	92.12
476.158	67.12
476.377	74.12
476.596	90.12
476.814	73.12
477.033	91.12
477.252	92.12
477.471	71.12
477.69	80.12
477.908	82.12
478.127	89.12
478.346	86.12
478.564	66.12
478.783	76.12
479.002	84.12
479.22	83.12
479.439	96.12
479.658	84.12
479.876	76.12
480.095	86.12
480.313	87.12
480.532	83.12
480.751	89.12
480.969	70.12
481.188	74.12
481.406	79.12
481.624	86.12
481.843	79.12
482.061	72.12
482.28	96.12
482.498	85.12
482.717	92.12
482.935	78.12
483.153	62.12
483.372	68.12
483.59	78.12
483.808	86.12
484.027	78.12
484.245	86.12
484.463	98.12
484.681	89.12
484.9	70.12
485.118	76.12
485.336	84.12
485.554	82.12
485.772	76.12
485.99	86.12
486.209	87.12
486.427	74.12
486.645	83.12
486.863	76.12
487.081	67.12
487.299	78.12
487.517	83.12
487.735	80.12
487.953	72.12
488.171	96.12
488.389	83.12
488.607	75.12
488.825	79.12
489.043	72.12
489.261	82.12
489.479	75.12
489.696	86.12
489.914	85.12
490.132	73.12
490.35	73.12
490.568	76.12
490.786	73.12
491.003	78.12
491.221	70.12
491.439	95.12
491.657	79.12
491.874	90.12
492.092	76.12
492.31	79.12
492.527	73.12
492.745	79.12
492.963	82.12
493.18	86.12
493.398	84.12
493.615	78.12
493.833	86.12
494.05	77.12
494.268	84.12
494.485	97.12
494.703	76.12
494.92	68.12
495.138	96.12
495.355	78.12
495.573	88.12
495.79	92.12
496.008	89.12
496.225	74.12
496.442	78.12
496.66	77.12
496.877	79.12
497.094	76.12
497.312	82.12
497.529	74.12
497.746	81.12
497.963	81.12
498.181	83.12
498.398	71.12
498.615	78.12
498.832	91.12
499.049	77.12
499.267	84.12
499.484	69.12
499.701	74.12
499.918	83.12
500.135	92.12
500.352	86.12
500.569	79.12
500.786	92.12
501.003	86.12
501.22	85.12
501.437	88.12
501.654	82.12
501.871	80.12
502.088	76.12
502.305	75.12
502.522	84.12
502.739	77.12
502.956	87.12
503.172	69.12
503.389	83.12
503.606	66.12
503.823	81.12
504.04	65.12
504.256	87.12
504.473	82.12
504.69	72.12
504.907	92.12
505.123	71.12
505.34	83.12
505.557	81.12
505.773	89.12
505.99	78.12
506.207	74.12
506.423	81.12
506.64	76.12
506.856	87.12
507.073	86.12
507.289	80.12
507.506	69.12
507.722	75.12
507.939	78.12
508.155	87.12
508.372	76.12
508.588	88.12
508.805	83.12
509.021	71.12
509.238	88.12
509.454	89.12
509.67	80.12
509.887	80.12
510.103	87.12
510.319	92.12
510.536	86.12
510.752	76.12
510.968	92.12
511.184	84.12
511.401	74.12
511.617	84.12
511.833	81.12
512.049	76.12
512.265	78.12
512.481	100.12
512.698	86.12
512.914	76.12
513.13	80.12
513.346	75.12
513.562	78.12
513.778	80.12
513.994	77.12
514.21	93.12
514.426	78.12
514.642	84.12
514.858	83.12
515.074	74.12
515.29	85.12
515.506	76.12
515.721	75.12
515.937	78.12
516.153	74.12
516.369	90.12
516.585	78.12
516.801	76.12
517.016	77.12
517.232	72.12
517.448	84.12
517.664	88.12
517.879	67.12
518.095	84.12
518.311	90.12
518.527	88.12
518.742	80.12
518.958	89.12
519.173	82.12
519.389	81.12
519.605	59.12
519.82	93.12
520.036	79.12
520.251	84.12
