Data from Background_2_HRD10591_00047.txt Node
Date: Wed Nov 05 14:47:20 EST 2025
User: Yrep
Spectrometer: HR+D1059
Trigger mode: 1
Integration Time (sec): 1.000000E-1
Scans to average: 1
Electric dark correction enabled: true
Nonlinearity correction enabled: false
Boxcar width: 0
XAxis mode: Wavelengths
Number of Pixels in Spectrum: 2048
>>>>>Begin Spectral Data<<<<<
223.165	-25.31
223.4	-25.31
223.635	-25.31
223.869	-21.31
224.104	-13.31
224.338	-10.31
224.573	-17.31
224.808	-15.31
225.042	-14.31
225.277	-0.31
225.511	-6.31
225.746	-4.31
225.98	5.69
226.215	17.69
226.449	17.69
226.683	13.69
226.918	26.69
227.152	46.69
227.387	37.69
227.621	50.69
227.856	42.69
228.09	56.69
228.324	60.69
228.559	53.69
228.793	50.69
229.027	74.69
229.262	64.69
229.496	72.69
229.73	68.69
229.964	82.69
230.199	81.69
230.433	82.69
230.667	95.69
230.901	76.69
231.136	80.69
231.37	89.69
231.604	105.69
231.838	87.69
232.072	70.69
232.306	84.69
232.541	84.69
232.775	81.69
233.009	87.69
233.243	80.69
233.477	107.69
233.711	104.69
233.945	86.69
234.179	90.69
234.413	89.69
234.647	88.69
234.881	84.69
235.115	86.69
235.349	74.69
235.583	89.69
235.817	84.69
236.051	76.69
236.285	96.69
236.519	90.69
236.753	90.69
236.987	90.69
237.221	91.69
237.455	89.69
237.689	71.69
237.922	87.69
238.156	75.69
238.39	82.69
238.624	96.69
238.858	82.69
239.091	85.69
239.325	83.69
239.559	70.69
239.793	66.69
240.027	99.69
240.26	80.69
240.494	91.69
240.728	88.69
240.961	70.69
241.195	86.69
241.429	75.69
241.662	85.69
241.896	101.69
242.13	77.69
242.363	72.69
242.597	74.69
242.83	76.69
243.064	89.69
243.298	79.69
243.531	83.69
243.765	84.69
243.998	77.69
244.232	87.69
244.465	88.69
244.699	79.69
244.932	80.69
245.166	71.69
245.399	79.69
245.633	77.69
245.866	85.69
246.099	75.69
246.333	84.69
246.566	92.69
246.8	77.69
247.033	72.69
247.266	90.69
247.5	76.69
247.733	86.69
247.966	79.69
248.2	75.69
248.433	81.69
248.666	81.69
248.899	78.69
249.133	98.69
249.366	81.69
249.599	81.69
249.832	85.69
250.066	80.69
250.299	84.69
250.532	91.69
250.765	74.69
250.998	72.69
251.231	83.69
251.465	82.69
251.698	79.69
251.931	83.69
252.164	79.69
252.397	76.69
252.63	86.69
252.863	84.69
253.096	85.69
253.329	93.69
253.562	78.69
253.795	85.69
254.028	85.69
254.261	82.69
254.494	73.69
254.727	88.69
254.96	80.69
255.193	82.69
255.426	67.69
255.659	74.69
255.892	76.69
256.124	78.69
256.357	98.69
256.59	92.69
256.823	85.69
257.056	77.69
257.289	80.69
257.521	83.69
257.754	81.69
257.987	100.69
258.22	87.69
258.452	98.69
258.685	74.69
258.918	96.69
259.151	79.69
259.383	94.69
259.616	76.69
259.849	86.69
260.081	88.69
260.314	84.69
260.547	87.69
260.779	92.69
261.012	81.69
261.244	98.69
261.477	84.69
261.71	85.69
261.942	91.69
262.175	84.69
262.407	82.69
262.64	83.69
262.872	84.69
263.105	80.69
263.337	75.69
263.57	84.69
263.802	85.69
264.035	82.69
264.267	85.69
264.499	81.69
264.732	90.69
264.964	90.69
265.197	91.69
265.429	73.69
265.661	87.69
265.894	102.69
266.126	86.69
266.358	99.69
266.591	80.69
266.823	88.69
267.055	72.69
267.287	83.69
267.52	86.69
267.752	94.69
267.984	85.69
268.216	87.69
268.448	83.69
268.681	85.69
268.913	87.69
269.145	75.69
269.377	89.69
269.609	89.69
269.841	76.69
270.073	85.69
270.306	81.69
270.538	102.69
270.77	84.69
271.002	97.69
271.234	88.69
271.466	98.69
271.698	80.69
271.93	89.69
272.162	92.69
272.394	95.69
272.626	90.69
272.858	90.69
273.09	86.69
273.322	96.69
273.553	71.69
273.785	88.69
274.017	86.69
274.249	71.69
274.481	68.69
274.713	81.69
274.945	102.69
275.176	106.69
275.408	97.69
275.64	82.69
275.872	94.69
276.104	88.69
276.335	97.69
276.567	84.69
276.799	90.69
277.031	86.69
277.262	90.69
277.494	89.69
277.726	91.69
277.957	82.69
278.189	76.69
278.421	92.69
278.652	80.69
278.884	96.69
279.115	92.69
279.347	96.69
279.579	75.69
279.81	88.69
280.042	96.69
280.273	84.69
280.505	88.69
280.736	81.69
280.968	78.69
281.199	82.69
281.431	106.69
281.662	76.69
281.894	94.69
282.125	96.69
282.356	89.69
282.588	99.69
282.819	92.69
283.051	82.69
283.282	87.69
283.513	92.69
283.745	97.69
283.976	82.69
284.207	79.69
284.439	90.69
284.67	97.69
284.901	91.69
285.132	88.69
285.364	84.69
285.595	99.69
285.826	93.69
286.057	103.69
286.288	89.69
286.52	93.69
286.751	92.69
286.982	99.69
287.213	88.69
287.444	85.69
287.675	88.69
287.906	83.69
288.138	88.69
288.369	92.69
288.6	70.69
288.831	84.69
289.062	91.69
289.293	88.69
289.524	95.69
289.755	95.69
289.986	88.69
290.217	94.69
290.448	90.69
290.679	78.69
290.91	91.69
291.141	91.69
291.371	81.69
291.602	82.69
291.833	85.69
292.064	94.69
292.295	90.69
292.526	88.69
292.757	98.69
292.987	90.69
293.218	100.69
293.449	85.69
293.68	82.69
293.91	85.69
294.141	89.69
294.372	94.69
294.603	97.69
294.833	88.69
295.064	92.69
295.295	80.69
295.525	91.69
295.756	94.69
295.987	67.69
296.217	91.69
296.448	91.69
296.679	84.69
296.909	82.69
297.14	80.69
297.37	93.69
297.601	94.69
297.831	93.69
298.062	95.69
298.292	94.69
298.523	106.69
298.753	75.69
298.984	88.69
299.214	89.69
299.445	98.69
299.675	87.69
299.905	102.69
300.136	92.69
300.366	94.69
300.597	81.69
300.827	82.69
301.057	103.69
301.288	93.69
301.518	73.69
301.748	88.69
301.979	104.69
302.209	67.69
302.439	90.69
302.669	100.69
302.9	71.69
303.13	85.69
303.36	88.69
303.59	80.69
303.82	82.69
304.051	87.69
304.281	98.69
304.511	89.69
304.741	84.69
304.971	91.69
305.201	71.69
305.431	86.69
305.661	101.69
305.891	87.69
306.121	108.69
306.352	95.69
306.582	83.69
306.812	87.69
307.042	83.69
307.272	80.69
307.502	86.69
307.731	86.69
307.961	71.69
308.191	83.69
308.421	78.69
308.651	84.69
308.881	77.69
309.111	74.69
309.341	80.69
309.571	89.69
309.8	86.69
310.03	86.69
310.26	97.69
310.49	89.69
310.72	91.69
310.949	87.69
311.179	106.69
311.409	87.69
311.639	82.69
311.868	71.69
312.098	88.69
312.328	86.69
312.557	91.69
312.787	88.69
313.017	100.69
313.246	94.69
313.476	97.69
313.706	102.69
313.935	89.69
314.165	94.69
314.394	90.69
314.624	88.69
314.853	89.69
315.083	78.69
315.312	99.69
315.542	80.69
315.771	84.69
316.001	96.69
316.23	85.69
316.46	99.69
316.689	89.69
316.919	80.69
317.148	96.69
317.377	91.69
317.607	78.69
317.836	76.69
318.065	96.69
318.295	85.69
318.524	86.69
318.753	87.69
318.983	76.69
319.212	91.69
319.441	97.69
319.67	91.69
319.9	68.69
320.129	86.69
320.358	74.69
320.587	72.69
320.816	86.69
321.046	83.69
321.275	103.69
321.504	96.69
321.733	99.69
321.962	89.69
322.191	74.69
322.42	88.69
322.649	98.69
322.878	97.69
323.108	79.69
323.337	106.69
323.566	84.69
323.795	102.69
324.024	88.69
324.253	82.69
324.482	85.69
324.71	88.69
324.939	84.69
325.168	80.69
325.397	104.69
325.626	95.69
325.855	88.69
326.084	88.69
326.313	85.69
326.542	94.69
326.77	83.69
326.999	84.69
327.228	84.69
327.457	85.69
327.686	96.69
327.914	97.69
328.143	96.69
328.372	81.69
328.6	91.69
328.829	104.69
329.058	93.69
329.287	84.69
329.515	94.69
329.744	82.69
329.972	92.69
330.201	88.69
330.43	94.69
330.658	96.69
330.887	82.69
331.115	102.69
331.344	78.69
331.572	94.69
331.801	84.69
332.03	82.69
332.258	87.69
332.486	83.69
332.715	95.69
332.943	84.69
333.172	97.69
333.4	100.69
333.629	96.69
333.857	84.69
334.085	94.69
334.314	100.69
334.542	96.69
334.771	106.69
334.999	94.69
335.227	90.69
335.455	76.69
335.684	91.69
335.912	85.69
336.14	91.69
336.369	101.69
336.597	79.69
336.825	77.69
337.053	77.69
337.281	90.69
337.51	88.69
337.738	88.69
337.966	87.69
338.194	91.69
338.422	90.69
338.65	75.69
338.878	99.69
339.106	94.69
339.334	101.69
339.562	92.69
339.79	97.69
340.018	82.69
340.246	96.69
340.474	79.69
340.702	91.69
340.93	90.69
341.158	75.69
341.386	88.69
341.614	77.69
341.842	88.69
342.07	100.69
342.298	89.69
342.526	74.69
342.754	75.69
342.981	91.69
343.209	89.69
343.437	103.69
343.665	81.69
343.893	72.69
344.12	94.69
344.348	93.69
344.576	73.69
344.804	89.69
345.031	85.69
345.259	99.69
345.487	76.69
345.714	83.69
345.942	73.69
346.17	82.69
346.397	90.69
346.625	99.69
346.853	96.69
347.08	81.69
347.308	89.69
347.535	75.69
347.763	75.69
347.99	82.69
348.218	101.69
348.445	96.69
348.673	82.69
348.9	97.69
349.128	78.69
349.355	86.69
349.583	80.69
349.81	99.69
350.037	84.69
350.265	96.69
350.492	75.69
350.72	102.69
350.947	76.69
351.174	77.69
351.402	97.69
351.629	94.69
351.856	96.69
352.083	80.69
352.311	93.69
352.538	81.69
352.765	88.69
352.992	94.69
353.22	84.69
353.447	70.69
353.674	94.69
353.901	105.69
354.128	91.69
354.355	91.69
354.583	81.69
354.81	108.69
355.037	92.69
355.264	82.69
355.491	94.69
355.718	102.69
355.945	81.69
356.172	84.69
356.399	86.69
356.626	84.69
356.853	96.69
357.08	78.69
357.307	88.69
357.534	89.69
357.761	86.69
357.988	102.69
358.215	109.69
358.441	88.69
358.668	68.69
358.895	78.69
359.122	83.69
359.349	88.69
359.576	90.69
359.802	86.69
360.029	79.69
360.256	83.69
360.483	86.69
360.709	90.69
360.936	99.69
361.163	88.69
361.39	75.69
361.616	97.69
361.843	100.69
362.07	90.69
362.296	86.69
362.523	87.69
362.749	82.69
362.976	83.69
363.203	91.69
363.429	92.69
363.656	83.69
363.882	100.69
364.109	83.69
364.335	74.69
364.562	78.69
364.788	82.69
365.015	96.69
365.241	93.69
365.468	87.69
365.694	86.69
365.92	104.69
366.147	83.69
366.373	88.69
366.599	94.69
366.826	82.69
367.052	87.69
367.278	85.69
367.505	98.69
367.731	83.69
367.957	75.69
368.184	80.69
368.41	92.69
368.636	96.69
368.862	86.69
369.089	78.69
369.315	86.69
369.541	88.69
369.767	94.69
369.993	90.69
370.219	88.69
370.445	82.69
370.672	88.69
370.898	69.69
371.124	70.69
371.35	85.69
371.576	88.69
371.802	82.69
372.028	77.69
372.254	78.69
372.48	89.69
372.706	92.69
372.932	77.69
373.158	83.69
373.384	94.69
373.61	83.69
373.835	87.69
374.061	83.69
374.287	89.69
374.513	86.69
374.739	82.69
374.965	92.69
375.191	97.69
375.416	74.69
375.642	97.69
375.868	90.69
376.094	95.69
376.319	94.69
376.545	84.69
376.771	98.69
376.997	78.69
377.222	87.69
377.448	88.69
377.674	101.69
377.899	95.69
378.125	90.69
378.35	95.69
378.576	89.69
378.802	92.69
379.027	89.69
379.253	88.69
379.478	100.69
379.704	84.69
379.929	87.69
380.155	83.69
380.38	82.69
380.606	97.69
380.831	88.69
381.057	88.69
381.282	100.69
381.507	96.69
381.733	82.69
381.958	88.69
382.184	86.69
382.409	90.69
382.634	91.69
382.86	77.69
383.085	82.69
383.31	90.69
383.535	79.69
383.761	87.69
383.986	86.69
384.211	98.69
384.436	90.69
384.662	88.69
384.887	86.69
385.112	91.69
385.337	93.69
385.562	91.69
385.787	87.69
386.013	82.69
386.238	86.69
386.463	94.69
386.688	97.69
386.913	87.69
387.138	90.69
387.363	83.69
387.588	82.69
387.813	82.69
388.038	94.69
388.263	95.69
388.488	73.69
388.713	94.69
388.938	89.69
389.163	80.69
389.387	91.69
389.612	82.69
389.837	73.69
390.062	94.69
390.287	73.69
390.512	78.69
390.736	86.69
390.961	86.69
391.186	102.69
391.411	84.69
391.636	83.69
391.86	96.69
392.085	89.69
392.31	83.69
392.534	95.69
392.759	80.69
392.984	88.69
393.208	86.69
393.433	92.69
393.658	87.69
393.882	96.69
394.107	93.69
394.331	84.69
394.556	100.69
394.78	86.69
395.005	76.69
395.229	87.69
395.454	88.69
395.678	94.69
395.903	92.69
396.127	84.69
396.352	91.69
396.576	82.69
396.801	65.69
397.025	91.69
397.249	88.69
397.474	80.69
397.698	72.69
397.922	89.69
398.147	98.69
398.371	96.69
398.595	99.69
398.82	78.69
399.044	77.69
399.268	88.69
399.492	83.69
399.717	83.69
399.941	89.69
400.165	82.69
400.389	88.69
400.613	78.69
400.837	91.69
401.062	84.69
401.286	100.69
401.51	90.69
401.734	96.69
401.958	77.69
402.182	95.69
402.406	78.69
402.63	88.69
402.854	84.69
403.078	95.69
403.302	91.69
403.526	94.69
403.75	88.69
403.974	86.69
404.198	91.69
404.422	86.69
404.645	77.69
404.869	94.69
405.093	82.69
405.317	75.69
405.541	90.69
405.765	82.69
405.988	82.69
406.212	90.69
406.436	88.69
406.66	89.69
406.883	81.69
407.107	78.69
407.331	76.69
407.555	83.69
407.778	93.69
408.002	97.69
408.226	90.69
408.449	81.69
408.673	90.69
408.896	79.69
409.12	76.69
409.344	80.69
409.567	84.69
409.791	92.69
410.014	91.69
410.238	80.69
410.461	90.69
410.685	85.69
410.908	91.69
411.132	85.69
411.355	91.69
411.578	95.69
411.802	78.69
412.025	75.69
412.249	88.69
412.472	83.69
412.695	72.69
412.919	87.69
413.142	88.69
413.365	87.69
413.589	80.69
413.812	95.69
414.035	87.69
414.258	82.69
414.482	86.69
414.705	93.69
414.928	77.69
415.151	75.69
415.374	84.69
415.597	92.69
415.821	73.69
416.044	89.69
416.267	88.69
416.49	87.69
416.713	93.69
416.936	90.69
417.159	92.69
417.382	95.69
417.605	69.69
417.828	87.69
418.051	85.69
418.274	89.69
418.497	90.69
418.72	97.69
418.943	91.69
419.166	78.69
419.389	77.69
419.611	64.69
419.834	76.69
420.057	84.69
420.28	90.69
420.503	95.69
420.726	86.69
420.948	73.69
421.171	83.69
421.394	80.69
421.617	76.69
421.839	87.69
422.062	89.69
422.285	75.69
422.507	80.69
422.73	82.69
422.953	87.69
423.175	85.69
423.398	88.69
423.621	87.69
423.843	69.69
424.066	77.69
424.288	88.69
424.511	82.69
424.733	91.69
424.956	89.69
425.178	96.69
425.401	68.69
425.623	76.69
425.846	71.69
426.068	71.69
426.291	97.69
426.513	90.69
426.735	88.69
426.958	79.69
427.18	71.69
427.402	85.69
427.625	87.69
427.847	87.69
428.069	97.69
428.292	99.69
428.514	94.69
428.736	89.69
428.958	84.69
429.181	85.69
429.403	94.69
429.625	76.69
429.847	97.69
430.069	85.69
430.292	93.69
430.514	96.69
430.736	80.69
430.958	101.69
431.18	84.69
431.402	80.69
431.624	74.69
431.846	84.69
432.068	92.69
432.29	87.69
432.512	91.69
432.734	76.69
432.956	82.69
433.178	84.69
433.4	89.69
433.622	92.69
433.844	102.69
434.066	77.69
434.287	88.69
434.509	74.69
434.731	96.69
434.953	87.69
435.175	90.69
435.397	104.69
435.618	86.69
435.84	83.69
436.062	96.69
436.284	86.69
436.505	95.69
436.727	98.69
436.949	73.69
437.17	78.69
437.392	75.69
437.614	89.69
437.835	71.69
438.057	77.69
438.278	76.69
438.5	85.69
438.721	82.69
438.943	96.69
439.165	85.69
439.386	88.69
439.608	89.69
439.829	75.69
440.05	100.69
440.272	94.69
440.493	99.69
440.715	90.69
440.936	82.69
441.158	92.69
441.379	84.69
441.6	78.69
441.822	84.69
442.043	83.69
442.264	83.69
442.486	91.69
442.707	68.69
442.928	87.69
443.149	87.69
443.371	92.69
443.592	91.69
443.813	98.69
444.034	77.69
444.255	89.69
444.476	80.69
444.698	75.69
444.919	80.69
445.14	155.69
445.361	114.69
445.582	83.69
445.803	78.69
446.024	91.69
446.245	88.69
446.466	80.69
446.687	89.69
446.908	98.69
447.129	88.69
447.35	78.69
447.571	80.69
447.792	90.69
448.013	86.69
448.234	83.69
448.455	80.69
448.675	94.69
448.896	78.69
449.117	91.69
449.338	76.69
449.559	82.69
449.779	88.69
450	87.69
450.221	83.69
450.442	75.69
450.662	83.69
450.883	95.69
451.104	85.69
451.324	87.69
451.545	88.69
451.766	94.69
451.986	88.69
452.207	96.69
452.428	77.69
452.648	78.69
452.869	92.69
453.089	88.69
453.31	89.69
453.53	76.69
453.751	91.69
453.971	95.69
454.192	70.69
454.412	85.69
454.633	92.69
454.853	93.69
455.073	78.69
455.294	76.69
455.514	90.69
455.734	79.69
455.955	90.69
456.175	88.69
456.395	79.69
456.616	94.69
456.836	85.69
457.056	77.69
457.276	72.69
457.497	82.69
457.717	82.69
457.937	77.69
458.157	83.69
458.377	80.69
458.598	74.69
458.818	92.69
459.038	82.69
459.258	77.69
459.478	82.69
459.698	77.69
459.918	88.69
460.138	98.69
460.358	106.69
460.578	80.69
460.798	97.69
461.018	82.69
461.238	81.69
461.458	102.69
461.678	90.69
461.898	81.69
462.118	89.69
462.338	92.69
462.558	93.69
462.777	89.69
462.997	91.69
463.217	75.69
463.437	98.69
463.657	84.69
463.876	91.69
464.096	92.69
464.316	75.69
464.536	92.69
464.755	96.69
464.975	91.69
465.195	83.69
465.414	84.69
465.634	88.69
465.854	86.69
466.073	81.69
466.293	73.69
466.512	93.69
466.732	86.69
466.951	87.69
467.171	89.69
467.391	71.69
467.61	78.69
467.829	75.69
468.049	96.69
468.268	86.69
468.488	82.69
468.707	88.69
468.927	77.69
469.146	81.69
469.365	93.69
469.585	90.69
469.804	80.69
470.023	80.69
470.243	95.69
470.462	97.69
470.681	84.69
470.901	89.69
471.12	91.69
471.339	84.69
471.558	87.69
471.777	83.69
471.997	86.69
472.216	86.69
472.435	71.69
472.654	90.69
472.873	98.69
473.092	82.69
473.311	84.69
473.53	80.69
473.749	82.69
473.968	86.69
474.187	95.69
474.406	89.69
474.625	83.69
474.844	98.69
475.063	87.69
475.282	87.69
475.501	90.69
475.72	81.69
475.939	98.69
476.158	86.69
476.377	84.69
476.596	80.69
476.814	88.69
477.033	79.69
477.252	88.69
477.471	80.69
477.69	77.69
477.908	78.69
478.127	87.69
478.346	94.69
478.564	85.69
478.783	92.69
479.002	88.69
479.22	102.69
479.439	77.69
479.658	90.69
479.876	90.69
480.095	82.69
480.313	84.69
480.532	96.69
480.751	87.69
480.969	88.69
481.188	82.69
481.406	87.69
481.624	94.69
481.843	87.69
482.061	87.69
482.28	84.69
482.498	98.69
482.717	84.69
482.935	90.69
483.153	74.69
483.372	89.69
483.59	79.69
483.808	84.69
484.027	85.69
484.245	88.69
484.463	96.69
484.681	104.69
484.9	91.69
485.118	102.69
485.336	94.69
485.554	92.69
485.772	97.69
485.99	88.69
486.209	81.69
486.427	90.69
486.645	94.69
486.863	91.69
487.081	87.69
487.299	80.69
487.517	81.69
487.735	83.69
487.953	90.69
488.171	82.69
488.389	95.69
488.607	90.69
488.825	97.69
489.043	98.69
489.261	75.69
489.479	74.69
489.696	88.69
489.914	83.69
490.132	96.69
490.35	82.69
490.568	72.69
490.786	86.69
491.003	87.69
491.221	90.69
491.439	102.69
491.657	82.69
491.874	88.69
492.092	78.69
492.31	98.69
492.527	97.69
492.745	80.69
492.963	98.69
493.18	88.69
493.398	89.69
493.615	93.69
493.833	84.69
494.05	76.69
494.268	94.69
494.485	95.69
494.703	87.69
494.92	75.69
495.138	83.69
495.355	89.69
495.573	94.69
495.79	81.69
496.008	90.69
496.225	95.69
496.442	93.69
496.66	96.69
496.877	90.69
497.094	81.69
497.312	94.69
497.529	105.69
497.746	78.69
497.963	85.69
498.181	89.69
498.398	92.69
498.615	90.69
498.832	78.69
499.049	83.69
499.267	73.69
499.484	96.69
499.701	91.69
499.918	84.69
500.135	91.69
500.352	89.69
500.569	81.69
500.786	96.69
501.003	81.69
501.22	97.69
501.437	99.69
501.654	74.69
501.871	91.69
502.088	89.69
502.305	81.69
502.522	94.69
502.739	79.69
502.956	73.69
503.172	82.69
503.389	92.69
503.606	74.69
503.823	88.69
504.04	95.69
504.256	91.69
504.473	84.69
504.69	74.69
504.907	102.69
505.123	91.69
505.34	82.69
505.557	84.69
505.773	87.69
505.99	86.69
506.207	88.69
506.423	91.69
506.64	96.69
506.856	89.69
507.073	94.69
507.289	71.69
507.506	75.69
507.722	77.69
507.939	86.69
508.155	86.69
508.372	92.69
508.588	88.69
508.805	81.69
509.021	85.69
509.238	92.69
509.454	79.69
509.67	82.69
509.887	100.69
510.103	93.69
510.319	94.69
510.536	79.69
510.752	81.69
510.968	80.69
511.184	103.69
511.401	85.69
511.617	87.69
511.833	83.69
512.049	83.69
512.265	85.69
512.481	86.69
512.698	72.69
512.914	67.69
513.13	75.69
513.346	93.69
513.562	94.69
513.778	100.69
513.994	84.69
514.21	89.69
514.426	85.69
514.642	90.69
514.858	78.69
515.074	75.69
515.29	82.69
515.506	65.69
515.721	98.69
515.937	87.69
516.153	84.69
516.369	78.69
516.585	80.69
516.801	98.69
517.016	94.69
517.232	91.69
517.448	94.69
517.664	103.69
517.879	88.69
518.095	88.69
518.311	96.69
518.527	89.69
518.742	77.69
518.958	87.69
519.173	92.69
