Data from Background_2_HRD10591_00015.txt Node
Date: Wed Nov 05 14:47:04 EST 2025
User: Yrep
Spectrometer: HR+D1059
Trigger mode: 1
Integration Time (sec): 1.000000E-1
Scans to average: 1
Electric dark correction enabled: true
Nonlinearity correction enabled: false
Boxcar width: 0
XAxis mode: Wavelengths
Number of Pixels in Spectrum: 2048
>>>>>Begin Spectral Data<<<<<
223.165	-12.69
223.4	-12.69
223.635	-12.69
223.869	-18.69
224.104	-10.69
224.338	-11.69
224.573	-29.69
224.808	-10.69
225.042	-12.69
225.277	-8.69
225.511	-14.69
225.746	14.31
225.98	1.31
226.215	9.31
226.449	24.31
226.683	29.31
226.918	21.31
227.152	30.31
227.387	32.31
227.621	31.31
227.856	54.31
228.09	43.31
228.324	45.31
228.559	52.31
228.793	56.31
229.027	68.31
229.262	67.31
229.496	69.31
229.73	56.31
229.964	66.31
230.199	71.31
230.433	73.31
230.667	81.31
230.901	70.31
231.136	82.31
231.37	79.31
231.604	74.31
231.838	73.31
232.072	76.31
232.306	77.31
232.541	74.31
232.775	85.31
233.009	87.31
233.243	79.31
233.477	68.31
233.711	67.31
233.945	59.31
234.179	81.31
234.413	78.31
234.647	76.31
234.881	71.31
235.115	78.31
235.349	75.31
235.583	81.31
235.817	71.31
236.051	77.31
236.285	77.31
236.519	78.31
236.753	69.31
236.987	73.31
237.221	65.31
237.455	67.31
237.689	77.31
237.922	73.31
238.156	60.31
238.39	77.31
238.624	77.31
238.858	79.31
239.091	76.31
239.325	77.31
239.559	72.31
239.793	86.31
240.027	68.31
240.26	70.31
240.494	64.31
240.728	74.31
240.961	75.31
241.195	76.31
241.429	79.31
241.662	79.31
241.896	76.31
242.13	86.31
242.363	72.31
242.597	78.31
242.83	65.31
243.064	71.31
243.298	79.31
243.531	88.31
243.765	68.31
243.998	75.31
244.232	73.31
244.465	79.31
244.699	71.31
244.932	68.31
245.166	75.31
245.399	85.31
245.633	76.31
245.866	60.31
246.099	69.31
246.333	75.31
246.566	85.31
246.8	71.31
247.033	69.31
247.266	84.31
247.5	77.31
247.733	83.31
247.966	96.31
248.2	88.31
248.433	83.31
248.666	70.31
248.899	81.31
249.133	82.31
249.366	94.31
249.599	70.31
249.832	72.31
250.066	62.31
250.299	86.31
250.532	83.31
250.765	71.31
250.998	65.31
251.231	81.31
251.465	81.31
251.698	71.31
251.931	76.31
252.164	74.31
252.397	89.31
252.63	73.31
252.863	76.31
253.096	65.31
253.329	87.31
253.562	78.31
253.795	81.31
254.028	82.31
254.261	88.31
254.494	67.31
254.727	96.31
254.96	67.31
255.193	67.31
255.426	75.31
255.659	74.31
255.892	58.31
256.124	75.31
256.357	66.31
256.59	84.31
256.823	77.31
257.056	89.31
257.289	76.31
257.521	77.31
257.754	76.31
257.987	75.31
258.22	66.31
258.452	81.31
258.685	80.31
258.918	77.31
259.151	69.31
259.383	79.31
259.616	79.31
259.849	72.31
260.081	71.31
260.314	83.31
260.547	73.31
260.779	75.31
261.012	84.31
261.244	70.31
261.477	87.31
261.71	77.31
261.942	67.31
262.175	84.31
262.407	83.31
262.64	82.31
262.872	86.31
263.105	74.31
263.337	74.31
263.57	80.31
263.802	77.31
264.035	85.31
264.267	71.31
264.499	81.31
264.732	89.31
264.964	86.31
265.197	79.31
265.429	87.31
265.661	77.31
265.894	76.31
266.126	87.31
266.358	71.31
266.591	77.31
266.823	75.31
267.055	77.31
267.287	94.31
267.52	65.31
267.752	88.31
267.984	77.31
268.216	92.31
268.448	80.31
268.681	79.31
268.913	77.31
269.145	92.31
269.377	81.31
269.609	67.31
269.841	78.31
270.073	76.31
270.306	77.31
270.538	64.31
270.77	65.31
271.002	77.31
271.234	79.31
271.466	61.31
271.698	75.31
271.93	76.31
272.162	74.31
272.394	99.31
272.626	67.31
272.858	81.31
273.09	91.31
273.322	66.31
273.553	88.31
273.785	96.31
274.017	84.31
274.249	80.31
274.481	81.31
274.713	82.31
274.945	77.31
275.176	77.31
275.408	80.31
275.64	79.31
275.872	69.31
276.104	85.31
276.335	81.31
276.567	77.31
276.799	96.31
277.031	75.31
277.262	94.31
277.494	100.31
277.726	80.31
277.957	80.31
278.189	82.31
278.421	88.31
278.652	76.31
278.884	85.31
279.115	78.31
279.347	74.31
279.579	85.31
279.81	84.31
280.042	77.31
280.273	89.31
280.505	77.31
280.736	74.31
280.968	95.31
281.199	73.31
281.431	78.31
281.662	79.31
281.894	81.31
282.125	79.31
282.356	70.31
282.588	84.31
282.819	78.31
283.051	76.31
283.282	87.31
283.513	87.31
283.745	79.31
283.976	81.31
284.207	88.31
284.439	88.31
284.67	87.31
284.901	83.31
285.132	82.31
285.364	78.31
285.595	81.31
285.826	86.31
286.057	92.31
286.288	81.31
286.52	84.31
286.751	64.31
286.982	76.31
287.213	83.31
287.444	71.31
287.675	92.31
287.906	83.31
288.138	79.31
288.369	79.31
288.6	80.31
288.831	79.31
289.062	70.31
289.293	90.31
289.524	74.31
289.755	78.31
289.986	88.31
290.217	79.31
290.448	78.31
290.679	101.31
290.91	91.31
291.141	78.31
291.371	79.31
291.602	90.31
291.833	75.31
292.064	79.31
292.295	77.31
292.526	75.31
292.757	74.31
292.987	75.31
293.218	77.31
293.449	65.31
293.68	79.31
293.91	77.31
294.141	95.31
294.372	80.31
294.603	70.31
294.833	83.31
295.064	82.31
295.295	86.31
295.525	79.31
295.756	81.31
295.987	77.31
296.217	76.31
296.448	85.31
296.679	82.31
296.909	93.31
297.14	72.31
297.37	75.31
297.601	79.31
297.831	73.31
298.062	83.31
298.292	93.31
298.523	87.31
298.753	84.31
298.984	85.31
299.214	83.31
299.445	77.31
299.675	73.31
299.905	78.31
300.136	87.31
300.366	85.31
300.597	75.31
300.827	83.31
301.057	75.31
301.288	72.31
301.518	79.31
301.748	77.31
301.979	93.31
302.209	81.31
302.439	83.31
302.669	75.31
302.9	88.31
303.13	91.31
303.36	70.31
303.59	60.31
303.82	89.31
304.051	71.31
304.281	82.31
304.511	88.31
304.741	85.31
304.971	88.31
305.201	99.31
305.431	84.31
305.661	91.31
305.891	78.31
306.121	99.31
306.352	79.31
306.582	89.31
306.812	92.31
307.042	95.31
307.272	71.31
307.502	71.31
307.731	77.31
307.961	97.31
308.191	77.31
308.421	90.31
308.651	72.31
308.881	89.31
309.111	88.31
309.341	82.31
309.571	84.31
309.8	88.31
310.03	94.31
310.26	85.31
310.49	77.31
310.72	76.31
310.949	92.31
311.179	85.31
311.409	79.31
311.639	68.31
311.868	81.31
312.098	89.31
312.328	86.31
312.557	75.31
312.787	84.31
313.017	86.31
313.246	82.31
313.476	67.31
313.706	79.31
313.935	80.31
314.165	76.31
314.394	76.31
314.624	75.31
314.853	84.31
315.083	99.31
315.312	74.31
315.542	84.31
315.771	77.31
316.001	83.31
316.23	88.31
316.46	76.31
316.689	88.31
316.919	98.31
317.148	85.31
317.377	87.31
317.607	81.31
317.836	88.31
318.065	79.31
318.295	75.31
318.524	86.31
318.753	87.31
318.983	80.31
319.212	97.31
319.441	68.31
319.67	72.31
319.9	83.31
320.129	88.31
320.358	97.31
320.587	76.31
320.816	76.31
321.046	88.31
321.275	87.31
321.504	82.31
321.733	77.31
321.962	85.31
322.191	92.31
322.42	82.31
322.649	82.31
322.878	81.31
323.108	90.31
323.337	83.31
323.566	83.31
323.795	69.31
324.024	89.31
324.253	72.31
324.482	71.31
324.71	70.31
324.939	77.31
325.168	81.31
325.397	78.31
325.626	96.31
325.855	77.31
326.084	70.31
326.313	81.31
326.542	93.31
326.77	82.31
326.999	70.31
327.228	84.31
327.457	77.31
327.686	77.31
327.914	86.31
328.143	87.31
328.372	74.31
328.6	72.31
328.829	78.31
329.058	90.31
329.287	90.31
329.515	79.31
329.744	79.31
329.972	77.31
330.201	84.31
330.43	74.31
330.658	72.31
330.887	83.31
331.115	90.31
331.344	89.31
331.572	83.31
331.801	83.31
332.03	82.31
332.258	80.31
332.486	63.31
332.715	74.31
332.943	89.31
333.172	87.31
333.4	88.31
333.629	81.31
333.857	75.31
334.085	76.31
334.314	83.31
334.542	86.31
334.771	96.31
334.999	84.31
335.227	79.31
335.455	93.31
335.684	87.31
335.912	84.31
336.14	90.31
336.369	85.31
336.597	70.31
336.825	87.31
337.053	77.31
337.281	84.31
337.51	72.31
337.738	88.31
337.966	90.31
338.194	81.31
338.422	94.31
338.65	86.31
338.878	80.31
339.106	87.31
339.334	95.31
339.562	83.31
339.79	87.31
340.018	82.31
340.246	105.31
340.474	88.31
340.702	78.31
340.93	65.31
341.158	73.31
341.386	77.31
341.614	82.31
341.842	75.31
342.07	73.31
342.298	81.31
342.526	69.31
342.754	84.31
342.981	82.31
343.209	95.31
343.437	85.31
343.665	78.31
343.893	86.31
344.12	83.31
344.348	91.31
344.576	89.31
344.804	83.31
345.031	83.31
345.259	67.31
345.487	64.31
345.714	71.31
345.942	84.31
346.17	88.31
346.397	81.31
346.625	89.31
346.853	72.31
347.08	79.31
347.308	77.31
347.535	84.31
347.763	73.31
347.99	84.31
348.218	92.31
348.445	83.31
348.673	76.31
348.9	81.31
349.128	79.31
349.355	75.31
349.583	73.31
349.81	85.31
350.037	84.31
350.265	75.31
350.492	88.31
350.72	77.31
350.947	71.31
351.174	83.31
351.402	74.31
351.629	82.31
351.856	77.31
352.083	71.31
352.311	72.31
352.538	85.31
352.765	82.31
352.992	80.31
353.22	90.31
353.447	80.31
353.674	72.31
353.901	90.31
354.128	90.31
354.355	75.31
354.583	82.31
354.81	95.31
355.037	87.31
355.264	76.31
355.491	70.31
355.718	83.31
355.945	92.31
356.172	83.31
356.399	83.31
356.626	82.31
356.853	69.31
357.08	76.31
357.307	73.31
357.534	69.31
357.761	82.31
357.988	82.31
358.215	85.31
358.441	81.31
358.668	81.31
358.895	78.31
359.122	66.31
359.349	62.31
359.576	68.31
359.802	74.31
360.029	83.31
360.256	71.31
360.483	92.31
360.709	90.31
360.936	94.31
361.163	84.31
361.39	78.31
361.616	76.31
361.843	82.31
362.07	75.31
362.296	76.31
362.523	86.31
362.749	81.31
362.976	79.31
363.203	74.31
363.429	83.31
363.656	84.31
363.882	73.31
364.109	84.31
364.335	82.31
364.562	89.31
364.788	88.31
365.015	83.31
365.241	89.31
365.468	76.31
365.694	75.31
365.92	71.31
366.147	85.31
366.373	84.31
366.599	81.31
366.826	73.31
367.052	69.31
367.278	79.31
367.505	77.31
367.731	95.31
367.957	88.31
368.184	97.31
368.41	91.31
368.636	75.31
368.862	74.31
369.089	77.31
369.315	82.31
369.541	73.31
369.767	79.31
369.993	92.31
370.219	80.31
370.445	79.31
370.672	76.31
370.898	77.31
371.124	80.31
371.35	77.31
371.576	76.31
371.802	71.31
372.028	88.31
372.254	74.31
372.48	79.31
372.706	67.31
372.932	81.31
373.158	71.31
373.384	74.31
373.61	97.31
373.835	78.31
374.061	77.31
374.287	82.31
374.513	77.31
374.739	67.31
374.965	65.31
375.191	69.31
375.416	84.31
375.642	76.31
375.868	76.31
376.094	73.31
376.319	85.31
376.545	72.31
376.771	80.31
376.997	75.31
377.222	86.31
377.448	87.31
377.674	61.31
377.899	80.31
378.125	75.31
378.35	88.31
378.576	91.31
378.802	93.31
379.027	80.31
379.253	76.31
379.478	80.31
379.704	78.31
379.929	79.31
380.155	67.31
380.38	76.31
380.606	83.31
380.831	85.31
381.057	87.31
381.282	71.31
381.507	76.31
381.733	88.31
381.958	68.31
382.184	73.31
382.409	75.31
382.634	74.31
382.86	77.31
383.085	88.31
383.31	76.31
383.535	89.31
383.761	88.31
383.986	83.31
384.211	81.31
384.436	68.31
384.662	83.31
384.887	77.31
385.112	75.31
385.337	78.31
385.562	95.31
385.787	84.31
386.013	83.31
386.238	75.31
386.463	91.31
386.688	96.31
386.913	83.31
387.138	77.31
387.363	82.31
387.588	76.31
387.813	85.31
388.038	79.31
388.263	81.31
388.488	88.31
388.713	89.31
388.938	83.31
389.163	86.31
389.387	69.31
389.612	77.31
389.837	91.31
390.062	75.31
390.287	82.31
390.512	72.31
390.736	77.31
390.961	67.31
391.186	76.31
391.411	95.31
391.636	90.31
391.86	77.31
392.085	81.31
392.31	75.31
392.534	84.31
392.759	77.31
392.984	72.31
393.208	77.31
393.433	66.31
393.658	75.31
393.882	73.31
394.107	76.31
394.331	68.31
394.556	90.31
394.78	89.31
395.005	69.31
395.229	64.31
395.454	83.31
395.678	84.31
395.903	82.31
396.127	80.31
396.352	81.31
396.576	79.31
396.801	80.31
397.025	80.31
397.249	92.31
397.474	79.31
397.698	77.31
397.922	71.31
398.147	77.31
398.371	77.31
398.595	81.31
398.82	72.31
399.044	77.31
399.268	77.31
399.492	69.31
399.717	79.31
399.941	76.31
400.165	81.31
400.389	81.31
400.613	67.31
400.837	78.31
401.062	89.31
401.286	81.31
401.51	81.31
401.734	82.31
401.958	76.31
402.182	70.31
402.406	88.31
402.63	80.31
402.854	83.31
403.078	80.31
403.302	71.31
403.526	76.31
403.75	72.31
403.974	67.31
404.198	75.31
404.422	76.31
404.645	78.31
404.869	80.31
405.093	73.31
405.317	80.31
405.541	62.31
405.765	75.31
405.988	83.31
406.212	70.31
406.436	79.31
406.66	81.31
406.883	72.31
407.107	74.31
407.331	68.31
407.555	75.31
407.778	66.31
408.002	75.31
408.226	89.31
408.449	70.31
408.673	69.31
408.896	75.31
409.12	81.31
409.344	84.31
409.567	68.31
409.791	77.31
410.014	66.31
410.238	82.31
410.461	78.31
410.685	83.31
410.908	79.31
411.132	82.31
411.355	88.31
411.578	84.31
411.802	82.31
412.025	70.31
412.249	81.31
412.472	77.31
412.695	71.31
412.919	71.31
413.142	83.31
413.365	82.31
413.589	66.31
413.812	78.31
414.035	74.31
414.258	84.31
414.482	82.31
414.705	78.31
414.928	69.31
415.151	86.31
415.374	78.31
415.597	77.31
415.821	90.31
416.044	79.31
416.267	76.31
416.49	78.31
416.713	84.31
416.936	68.31
417.159	78.31
417.382	86.31
417.605	69.31
417.828	75.31
418.051	75.31
418.274	84.31
418.497	61.31
418.72	79.31
418.943	83.31
419.166	63.31
419.389	83.31
419.611	79.31
419.834	60.31
420.057	85.31
420.28	73.31
420.503	80.31
420.726	73.31
420.948	73.31
421.171	61.31
421.394	66.31
421.617	75.31
421.839	69.31
422.062	73.31
422.285	73.31
422.507	74.31
422.73	78.31
422.953	72.31
423.175	89.31
423.398	84.31
423.621	88.31
423.843	93.31
424.066	84.31
424.288	75.31
424.511	75.31
424.733	67.31
424.956	83.31
425.178	79.31
425.401	89.31
425.623	88.31
425.846	91.31
426.068	87.31
426.291	89.31
426.513	101.31
426.735	82.31
426.958	92.31
427.18	74.31
427.402	87.31
427.625	84.31
427.847	74.31
428.069	81.31
428.292	79.31
428.514	87.31
428.736	77.31
428.958	76.31
429.181	90.31
429.403	73.31
429.625	68.31
429.847	80.31
430.069	81.31
430.292	72.31
430.514	67.31
430.736	71.31
430.958	77.31
431.18	72.31
431.402	89.31
431.624	82.31
431.846	79.31
432.068	91.31
432.29	79.31
432.512	75.31
432.734	89.31
432.956	90.31
433.178	76.31
433.4	77.31
433.622	75.31
433.844	80.31
434.066	88.31
434.287	84.31
434.509	79.31
434.731	69.31
434.953	68.31
435.175	79.31
435.397	81.31
435.618	88.31
435.84	68.31
436.062	66.31
436.284	73.31
436.505	75.31
436.727	81.31
436.949	91.31
437.17	79.31
437.392	90.31
437.614	80.31
437.835	86.31
438.057	72.31
438.278	80.31
438.5	67.31
438.721	73.31
438.943	78.31
439.165	73.31
439.386	79.31
439.608	87.31
439.829	81.31
440.05	66.31
440.272	67.31
440.493	79.31
440.715	63.31
440.936	68.31
441.158	83.31
441.379	68.31
441.6	68.31
441.822	71.31
442.043	81.31
442.264	78.31
442.486	84.31
442.707	80.31
442.928	79.31
443.149	76.31
443.371	85.31
443.592	64.31
443.813	79.31
444.034	65.31
444.255	71.31
444.476	67.31
444.698	78.31
444.919	78.31
445.14	152.31
445.361	118.31
445.582	70.31
445.803	81.31
446.024	85.31
446.245	73.31
446.466	88.31
446.687	80.31
446.908	81.31
447.129	81.31
447.35	83.31
447.571	87.31
447.792	81.31
448.013	83.31
448.234	76.31
448.455	79.31
448.675	75.31
448.896	93.31
449.117	70.31
449.338	74.31
449.559	82.31
449.779	89.31
450	86.31
450.221	73.31
450.442	81.31
450.662	69.31
450.883	70.31
451.104	88.31
451.324	89.31
451.545	80.31
451.766	68.31
451.986	73.31
452.207	84.31
452.428	73.31
452.648	72.31
452.869	78.31
453.089	86.31
453.31	77.31
453.53	77.31
453.751	70.31
453.971	81.31
454.192	79.31
454.412	74.31
454.633	90.31
454.853	76.31
455.073	72.31
455.294	76.31
455.514	88.31
455.734	52.31
455.955	96.31
456.175	73.31
456.395	81.31
456.616	71.31
456.836	87.31
457.056	76.31
457.276	82.31
457.497	71.31
457.717	79.31
457.937	78.31
458.157	90.31
458.377	87.31
458.598	66.31
458.818	79.31
459.038	75.31
459.258	81.31
459.478	84.31
459.698	73.31
459.918	83.31
460.138	78.31
460.358	71.31
460.578	77.31
460.798	78.31
461.018	84.31
461.238	72.31
461.458	78.31
461.678	66.31
461.898	70.31
462.118	69.31
462.338	75.31
462.558	89.31
462.777	77.31
462.997	68.31
463.217	75.31
463.437	82.31
463.657	70.31
463.876	81.31
464.096	86.31
464.316	76.31
464.536	81.31
464.755	83.31
464.975	76.31
465.195	87.31
465.414	81.31
465.634	89.31
465.854	72.31
466.073	86.31
466.293	79.31
466.512	83.31
466.732	76.31
466.951	75.31
467.171	79.31
467.391	82.31
467.61	64.31
467.829	85.31
468.049	91.31
468.268	75.31
468.488	69.31
468.707	81.31
468.927	81.31
469.146	87.31
469.365	89.31
469.585	85.31
469.804	74.31
470.023	74.31
470.243	72.31
470.462	75.31
470.681	85.31
470.901	87.31
471.12	78.31
471.339	80.31
471.558	82.31
471.777	89.31
471.997	91.31
472.216	85.31
472.435	68.31
472.654	82.31
472.873	76.31
473.092	89.31
473.311	77.31
473.53	62.31
473.749	69.31
473.968	69.31
474.187	84.31
474.406	77.31
474.625	80.31
474.844	77.31
475.063	81.31
475.282	90.31
475.501	76.31
475.72	94.31
475.939	81.31
476.158	76.31
476.377	79.31
476.596	81.31
476.814	83.31
477.033	82.31
477.252	82.31
477.471	72.31
477.69	70.31
477.908	79.31
478.127	73.31
478.346	92.31
478.564	79.31
478.783	65.31
479.002	74.31
479.22	82.31
479.439	79.31
479.658	84.31
479.876	82.31
480.095	79.31
480.313	79.31
480.532	77.31
480.751	88.31
480.969	83.31
481.188	69.31
481.406	75.31
481.624	78.31
481.843	82.31
482.061	69.31
482.28	72.31
482.498	64.31
482.717	67.31
482.935	71.31
483.153	79.31
483.372	75.31
483.59	83.31
483.808	85.31
484.027	79.31
484.245	87.31
484.463	86.31
484.681	72.31
484.9	74.31
485.118	83.31
485.336	78.31
485.554	75.31
485.772	82.31
485.99	78.31
486.209	69.31
486.427	81.31
486.645	72.31
486.863	79.31
487.081	89.31
487.299	77.31
487.517	71.31
487.735	69.31
487.953	86.31
488.171	74.31
488.389	84.31
488.607	84.31
488.825	84.31
489.043	75.31
489.261	76.31
489.479	60.31
489.696	67.31
489.914	88.31
490.132	74.31
490.35	92.31
490.568	86.31
490.786	88.31
491.003	88.31
491.221	84.31
491.439	79.31
491.657	84.31
491.874	68.31
492.092	80.31
492.31	72.31
492.527	79.31
492.745	77.31
492.963	87.31
493.18	74.31
493.398	79.31
493.615	79.31
493.833	68.31
494.05	89.31
494.268	80.31
494.485	87.31
494.703	85.31
494.92	81.31
495.138	75.31
495.355	83.31
495.573	74.31
495.79	78.31
496.008	73.31
496.225	76.31
496.442	84.31
496.66	78.31
496.877	70.31
497.094	81.31
497.312	82.31
497.529	81.31
497.746	80.31
497.963	94.31
498.181	99.31
498.398	71.31
498.615	76.31
498.832	93.31
499.049	73.31
499.267	84.31
499.484	73.31
499.701	86.31
499.918	78.31
500.135	92.31
500.352	84.31
500.569	81.31
500.786	66.31
501.003	69.31
501.22	86.31
501.437	79.31
501.654	69.31
501.871	85.31
502.088	88.31
502.305	87.31
502.522	84.31
502.739	80.31
502.956	73.31
503.172	69.31
503.389	72.31
503.606	68.31
503.823	76.31
504.04	67.31
504.256	86.31
504.473	75.31
504.69	85.31
504.907	79.31
505.123	74.31
505.34	91.31
505.557	76.31
505.773	78.31
505.99	74.31
506.207	67.31
506.423	76.31
506.64	81.31
506.856	73.31
507.073	85.31
507.289	72.31
507.506	75.31
507.722	91.31
507.939	82.31
508.155	71.31
508.372	95.31
508.588	80.31
508.805	77.31
509.021	75.31
509.238	89.31
509.454	81.31
509.67	64.31
509.887	83.31
510.103	80.31
510.319	54.31
510.536	75.31
510.752	81.31
510.968	81.31
511.184	86.31
511.401	62.31
511.617	82.31
511.833	82.31
512.049	85.31
512.265	98.31
512.481	90.31
512.698	84.31
512.914	83.31
513.13	81.31
513.346	78.31
513.562	76.31
513.778	84.31
513.994	77.31
514.21	98.31
514.426	82.31
514.642	66.31
514.858	76.31
515.074	95.31
515.29	90.31
515.506	72.31
515.721	85.31
515.937	79.31
516.153	77.31
516.369	79.31
516.585	95.31
516.801	82.31
517.016	90.31
517.232	84.31
517.448	73.31
517.664	88.31
517.879	82.31
518.095	86.31
518.311	76.31
518.527	90.31
518.742	83.31
518.958	81.31
519.173	74.31
519.389	78.31
519.605	87.31
519.82	68.31
520.036	90.31
