Data from Background_2_HRD10591_00057.txt Node
Date: Wed Nov 05 14:47:25 EST 2025
User: Yrep
Spectrometer: HR+D1059
Trigger mode: 1
Integration Time (sec): 1.000000E-1
Scans to average: 1
Electric dark correction enabled: true
Nonlinearity correction enabled: false
Boxcar width: 0
XAxis mode: Wavelengths
Number of Pixels in Spectrum: 2048
>>>>>Begin Spectral Data<<<<<
223.165	-20.19
223.4	-20.19
223.635	-20.19
223.869	-28.19
224.104	-11.19
224.338	-20.19
224.573	-15.19
224.808	-13.19
225.042	-0.19
225.277	-3.19
225.511	-8.19
225.746	3.81
225.98	14.81
226.215	15.81
226.449	16.81
226.683	19.81
226.918	28.81
227.152	19.81
227.387	37.81
227.621	51.81
227.856	42.81
228.09	49.81
228.324	54.81
228.559	53.81
228.793	69.81
229.027	71.81
229.262	58.81
229.496	67.81
229.73	76.81
229.964	76.81
230.199	73.81
230.433	76.81
230.667	68.81
230.901	93.81
231.136	80.81
231.37	79.81
231.604	75.81
231.838	84.81
232.072	81.81
232.306	76.81
232.541	93.81
232.775	76.81
233.009	72.81
233.243	81.81
233.477	89.81
233.711	87.81
233.945	77.81
234.179	85.81
234.413	84.81
234.647	88.81
234.881	84.81
235.115	73.81
235.349	90.81
235.583	66.81
235.817	84.81
236.051	80.81
236.285	74.81
236.519	91.81
236.753	84.81
236.987	77.81
237.221	76.81
237.455	81.81
237.689	79.81
237.922	61.81
238.156	78.81
238.39	76.81
238.624	62.81
238.858	84.81
239.091	78.81
239.325	73.81
239.559	88.81
239.793	82.81
240.027	82.81
240.26	78.81
240.494	78.81
240.728	78.81
240.961	76.81
241.195	82.81
241.429	77.81
241.662	88.81
241.896	70.81
242.13	66.81
242.363	82.81
242.597	76.81
242.83	91.81
243.064	76.81
243.298	79.81
243.531	96.81
243.765	74.81
243.998	69.81
244.232	93.81
244.465	97.81
244.699	77.81
244.932	78.81
245.166	84.81
245.399	78.81
245.633	89.81
245.866	70.81
246.099	80.81
246.333	74.81
246.566	90.81
246.8	83.81
247.033	76.81
247.266	80.81
247.5	70.81
247.733	68.81
247.966	70.81
248.2	76.81
248.433	70.81
248.666	74.81
248.899	78.81
249.133	83.81
249.366	88.81
249.599	81.81
249.832	85.81
250.066	89.81
250.299	78.81
250.532	74.81
250.765	72.81
250.998	79.81
251.231	89.81
251.465	89.81
251.698	75.81
251.931	71.81
252.164	85.81
252.397	73.81
252.63	80.81
252.863	84.81
253.096	84.81
253.329	88.81
253.562	84.81
253.795	82.81
254.028	89.81
254.261	84.81
254.494	72.81
254.727	69.81
254.96	77.81
255.193	70.81
255.426	77.81
255.659	74.81
255.892	101.81
256.124	66.81
256.357	80.81
256.59	87.81
256.823	93.81
257.056	72.81
257.289	66.81
257.521	79.81
257.754	77.81
257.987	88.81
258.22	71.81
258.452	85.81
258.685	87.81
258.918	71.81
259.151	70.81
259.383	87.81
259.616	83.81
259.849	89.81
260.081	87.81
260.314	80.81
260.547	60.81
260.779	88.81
261.012	82.81
261.244	83.81
261.477	97.81
261.71	82.81
261.942	68.81
262.175	79.81
262.407	84.81
262.64	91.81
262.872	92.81
263.105	83.81
263.337	91.81
263.57	89.81
263.802	69.81
264.035	66.81
264.267	74.81
264.499	69.81
264.732	91.81
264.964	83.81
265.197	73.81
265.429	93.81
265.661	93.81
265.894	87.81
266.126	80.81
266.358	78.81
266.591	80.81
266.823	76.81
267.055	96.81
267.287	78.81
267.52	78.81
267.752	86.81
267.984	93.81
268.216	74.81
268.448	84.81
268.681	93.81
268.913	93.81
269.145	84.81
269.377	82.81
269.609	90.81
269.841	77.81
270.073	98.81
270.306	88.81
270.538	73.81
270.77	80.81
271.002	80.81
271.234	76.81
271.466	81.81
271.698	84.81
271.93	80.81
272.162	95.81
272.394	82.81
272.626	90.81
272.858	88.81
273.09	88.81
273.322	90.81
273.553	76.81
273.785	77.81
274.017	86.81
274.249	79.81
274.481	88.81
274.713	99.81
274.945	92.81
275.176	91.81
275.408	84.81
275.64	79.81
275.872	92.81
276.104	80.81
276.335	85.81
276.567	90.81
276.799	69.81
277.031	74.81
277.262	84.81
277.494	77.81
277.726	90.81
277.957	83.81
278.189	82.81
278.421	80.81
278.652	86.81
278.884	79.81
279.115	78.81
279.347	82.81
279.579	90.81
279.81	87.81
280.042	88.81
280.273	87.81
280.505	84.81
280.736	74.81
280.968	82.81
281.199	84.81
281.431	88.81
281.662	72.81
281.894	89.81
282.125	77.81
282.356	95.81
282.588	79.81
282.819	79.81
283.051	79.81
283.282	81.81
283.513	93.81
283.745	78.81
283.976	89.81
284.207	87.81
284.439	80.81
284.67	92.81
284.901	86.81
285.132	86.81
285.364	87.81
285.595	92.81
285.826	94.81
286.057	89.81
286.288	84.81
286.52	84.81
286.751	67.81
286.982	94.81
287.213	86.81
287.444	82.81
287.675	90.81
287.906	94.81
288.138	78.81
288.369	80.81
288.6	88.81
288.831	89.81
289.062	86.81
289.293	88.81
289.524	78.81
289.755	78.81
289.986	70.81
290.217	89.81
290.448	83.81
290.679	89.81
290.91	84.81
291.141	86.81
291.371	89.81
291.602	78.81
291.833	86.81
292.064	87.81
292.295	76.81
292.526	89.81
292.757	76.81
292.987	76.81
293.218	68.81
293.449	94.81
293.68	95.81
293.91	88.81
294.141	95.81
294.372	78.81
294.603	98.81
294.833	87.81
295.064	80.81
295.295	93.81
295.525	68.81
295.756	98.81
295.987	83.81
296.217	75.81
296.448	82.81
296.679	84.81
296.909	81.81
297.14	81.81
297.37	89.81
297.601	96.81
297.831	90.81
298.062	83.81
298.292	88.81
298.523	82.81
298.753	78.81
298.984	92.81
299.214	79.81
299.445	88.81
299.675	93.81
299.905	80.81
300.136	90.81
300.366	69.81
300.597	97.81
300.827	79.81
301.057	74.81
301.288	90.81
301.518	91.81
301.748	88.81
301.979	96.81
302.209	78.81
302.439	83.81
302.669	80.81
302.9	74.81
303.13	75.81
303.36	82.81
303.59	89.81
303.82	93.81
304.051	76.81
304.281	72.81
304.511	85.81
304.741	87.81
304.971	88.81
305.201	83.81
305.431	80.81
305.661	80.81
305.891	93.81
306.121	93.81
306.352	95.81
306.582	71.81
306.812	93.81
307.042	80.81
307.272	75.81
307.502	88.81
307.731	101.81
307.961	102.81
308.191	86.81
308.421	97.81
308.651	86.81
308.881	89.81
309.111	99.81
309.341	73.81
309.571	74.81
309.8	84.81
310.03	95.81
310.26	66.81
310.49	84.81
310.72	82.81
310.949	79.81
311.179	73.81
311.409	67.81
311.639	96.81
311.868	88.81
312.098	93.81
312.328	85.81
312.557	86.81
312.787	93.81
313.017	75.81
313.246	86.81
313.476	97.81
313.706	95.81
313.935	97.81
314.165	88.81
314.394	83.81
314.624	85.81
314.853	91.81
315.083	62.81
315.312	92.81
315.542	80.81
315.771	81.81
316.001	92.81
316.23	88.81
316.46	86.81
316.689	96.81
316.919	84.81
317.148	79.81
317.377	88.81
317.607	91.81
317.836	92.81
318.065	78.81
318.295	88.81
318.524	93.81
318.753	86.81
318.983	83.81
319.212	98.81
319.441	66.81
319.67	86.81
319.9	92.81
320.129	90.81
320.358	93.81
320.587	100.81
320.816	89.81
321.046	83.81
321.275	69.81
321.504	84.81
321.733	86.81
321.962	85.81
322.191	86.81
322.42	77.81
322.649	94.81
322.878	82.81
323.108	90.81
323.337	71.81
323.566	97.81
323.795	90.81
324.024	80.81
324.253	98.81
324.482	73.81
324.71	89.81
324.939	77.81
325.168	93.81
325.397	93.81
325.626	88.81
325.855	76.81
326.084	81.81
326.313	98.81
326.542	89.81
326.77	76.81
326.999	75.81
327.228	91.81
327.457	76.81
327.686	93.81
327.914	84.81
328.143	96.81
328.372	94.81
328.6	72.81
328.829	76.81
329.058	76.81
329.287	74.81
329.515	81.81
329.744	78.81
329.972	83.81
330.201	92.81
330.43	90.81
330.658	74.81
330.887	77.81
331.115	90.81
331.344	96.81
331.572	74.81
331.801	80.81
332.03	93.81
332.258	74.81
332.486	76.81
332.715	83.81
332.943	69.81
333.172	92.81
333.4	86.81
333.629	78.81
333.857	92.81
334.085	85.81
334.314	88.81
334.542	83.81
334.771	88.81
334.999	70.81
335.227	72.81
335.455	74.81
335.684	77.81
335.912	88.81
336.14	90.81
336.369	80.81
336.597	82.81
336.825	88.81
337.053	94.81
337.281	85.81
337.51	89.81
337.738	67.81
337.966	75.81
338.194	78.81
338.422	69.81
338.65	96.81
338.878	81.81
339.106	84.81
339.334	96.81
339.562	85.81
339.79	80.81
340.018	89.81
340.246	80.81
340.474	76.81
340.702	94.81
340.93	95.81
341.158	78.81
341.386	90.81
341.614	81.81
341.842	86.81
342.07	94.81
342.298	79.81
342.526	82.81
342.754	92.81
342.981	74.81
343.209	90.81
343.437	96.81
343.665	79.81
343.893	81.81
344.12	84.81
344.348	76.81
344.576	89.81
344.804	79.81
345.031	90.81
345.259	83.81
345.487	88.81
345.714	85.81
345.942	69.81
346.17	82.81
346.397	69.81
346.625	78.81
346.853	86.81
347.08	90.81
347.308	83.81
347.535	86.81
347.763	83.81
347.99	75.81
348.218	82.81
348.445	72.81
348.673	78.81
348.9	85.81
349.128	79.81
349.355	81.81
349.583	93.81
349.81	97.81
350.037	78.81
350.265	82.81
350.492	78.81
350.72	76.81
350.947	93.81
351.174	89.81
351.402	73.81
351.629	83.81
351.856	80.81
352.083	88.81
352.311	76.81
352.538	85.81
352.765	89.81
352.992	74.81
353.22	88.81
353.447	94.81
353.674	97.81
353.901	84.81
354.128	90.81
354.355	84.81
354.583	91.81
354.81	78.81
355.037	88.81
355.264	93.81
355.491	83.81
355.718	92.81
355.945	85.81
356.172	76.81
356.399	82.81
356.626	71.81
356.853	85.81
357.08	74.81
357.307	88.81
357.534	88.81
357.761	79.81
357.988	77.81
358.215	94.81
358.441	81.81
358.668	98.81
358.895	83.81
359.122	88.81
359.349	79.81
359.576	74.81
359.802	82.81
360.029	69.81
360.256	75.81
360.483	80.81
360.709	82.81
360.936	85.81
361.163	98.81
361.39	81.81
361.616	74.81
361.843	83.81
362.07	92.81
362.296	89.81
362.523	80.81
362.749	64.81
362.976	79.81
363.203	84.81
363.429	82.81
363.656	62.81
363.882	78.81
364.109	92.81
364.335	107.81
364.562	91.81
364.788	82.81
365.015	84.81
365.241	92.81
365.468	93.81
365.694	75.81
365.92	80.81
366.147	76.81
366.373	90.81
366.599	73.81
366.826	74.81
367.052	90.81
367.278	84.81
367.505	87.81
367.731	94.81
367.957	94.81
368.184	73.81
368.41	75.81
368.636	82.81
368.862	100.81
369.089	88.81
369.315	77.81
369.541	83.81
369.767	93.81
369.993	73.81
370.219	83.81
370.445	72.81
370.672	74.81
370.898	62.81
371.124	78.81
371.35	82.81
371.576	80.81
371.802	56.81
372.028	81.81
372.254	92.81
372.48	89.81
372.706	81.81
372.932	88.81
373.158	97.81
373.384	91.81
373.61	82.81
373.835	77.81
374.061	85.81
374.287	83.81
374.513	80.81
374.739	82.81
374.965	74.81
375.191	92.81
375.416	95.81
375.642	83.81
375.868	82.81
376.094	85.81
376.319	89.81
376.545	85.81
376.771	79.81
376.997	93.81
377.222	91.81
377.448	90.81
377.674	86.81
377.899	89.81
378.125	85.81
378.35	94.81
378.576	78.81
378.802	79.81
379.027	81.81
379.253	77.81
379.478	71.81
379.704	77.81
379.929	68.81
380.155	94.81
380.38	94.81
380.606	88.81
380.831	92.81
381.057	82.81
381.282	81.81
381.507	91.81
381.733	87.81
381.958	88.81
382.184	80.81
382.409	78.81
382.634	70.81
382.86	90.81
383.085	76.81
383.31	93.81
383.535	82.81
383.761	90.81
383.986	79.81
384.211	89.81
384.436	89.81
384.662	79.81
384.887	69.81
385.112	54.81
385.337	76.81
385.562	66.81
385.787	91.81
386.013	84.81
386.238	81.81
386.463	81.81
386.688	92.81
386.913	77.81
387.138	82.81
387.363	81.81
387.588	90.81
387.813	80.81
388.038	78.81
388.263	85.81
388.488	84.81
388.713	75.81
388.938	64.81
389.163	85.81
389.387	76.81
389.612	80.81
389.837	78.81
390.062	88.81
390.287	70.81
390.512	86.81
390.736	71.81
390.961	74.81
391.186	84.81
391.411	89.81
391.636	78.81
391.86	84.81
392.085	81.81
392.31	80.81
392.534	94.81
392.759	90.81
392.984	78.81
393.208	73.81
393.433	74.81
393.658	78.81
393.882	81.81
394.107	76.81
394.331	68.81
394.556	79.81
394.78	83.81
395.005	90.81
395.229	82.81
395.454	85.81
395.678	81.81
395.903	83.81
396.127	72.81
396.352	94.81
396.576	97.81
396.801	80.81
397.025	72.81
397.249	73.81
397.474	74.81
397.698	78.81
397.922	88.81
398.147	94.81
398.371	88.81
398.595	73.81
398.82	81.81
399.044	84.81
399.268	96.81
399.492	64.81
399.717	81.81
399.941	83.81
400.165	73.81
400.389	89.81
400.613	78.81
400.837	82.81
401.062	91.81
401.286	88.81
401.51	84.81
401.734	76.81
401.958	84.81
402.182	77.81
402.406	82.81
402.63	71.81
402.854	80.81
403.078	95.81
403.302	85.81
403.526	77.81
403.75	87.81
403.974	85.81
404.198	91.81
404.422	91.81
404.645	84.81
404.869	79.81
405.093	86.81
405.317	74.81
405.541	84.81
405.765	88.81
405.988	82.81
406.212	93.81
406.436	91.81
406.66	96.81
406.883	76.81
407.107	88.81
407.331	82.81
407.555	80.81
407.778	84.81
408.002	84.81
408.226	84.81
408.449	84.81
408.673	87.81
408.896	78.81
409.12	86.81
409.344	91.81
409.567	77.81
409.791	89.81
410.014	89.81
410.238	69.81
410.461	91.81
410.685	83.81
410.908	77.81
411.132	81.81
411.355	86.81
411.578	86.81
411.802	86.81
412.025	74.81
412.249	82.81
412.472	86.81
412.695	85.81
412.919	82.81
413.142	80.81
413.365	96.81
413.589	74.81
413.812	83.81
414.035	84.81
414.258	90.81
414.482	86.81
414.705	95.81
414.928	87.81
415.151	101.81
415.374	73.81
415.597	73.81
415.821	102.81
416.044	76.81
416.267	74.81
416.49	74.81
416.713	77.81
416.936	63.81
417.159	76.81
417.382	64.81
417.605	84.81
417.828	89.81
418.051	83.81
418.274	78.81
418.497	75.81
418.72	88.81
418.943	81.81
419.166	80.81
419.389	77.81
419.611	88.81
419.834	90.81
420.057	81.81
420.28	88.81
420.503	90.81
420.726	80.81
420.948	60.81
421.171	76.81
421.394	75.81
421.617	82.81
421.839	68.81
422.062	92.81
422.285	78.81
422.507	80.81
422.73	74.81
422.953	76.81
423.175	87.81
423.398	85.81
423.621	81.81
423.843	71.81
424.066	79.81
424.288	84.81
424.511	72.81
424.733	97.81
424.956	77.81
425.178	92.81
425.401	71.81
425.623	83.81
425.846	83.81
426.068	76.81
426.291	84.81
426.513	79.81
426.735	83.81
426.958	84.81
427.18	97.81
427.402	86.81
427.625	82.81
427.847	80.81
428.069	91.81
428.292	97.81
428.514	92.81
428.736	86.81
428.958	83.81
429.181	89.81
429.403	90.81
429.625	84.81
429.847	87.81
430.069	88.81
430.292	86.81
430.514	90.81
430.736	79.81
430.958	88.81
431.18	98.81
431.402	85.81
431.624	68.81
431.846	76.81
432.068	94.81
432.29	64.81
432.512	84.81
432.734	88.81
432.956	82.81
433.178	88.81
433.4	76.81
433.622	90.81
433.844	89.81
434.066	73.81
434.287	77.81
434.509	89.81
434.731	80.81
434.953	89.81
435.175	95.81
435.397	86.81
435.618	86.81
435.84	84.81
436.062	73.81
436.284	82.81
436.505	78.81
436.727	90.81
436.949	84.81
437.17	79.81
437.392	70.81
437.614	81.81
437.835	81.81
438.057	82.81
438.278	69.81
438.5	83.81
438.721	79.81
438.943	86.81
439.165	84.81
439.386	88.81
439.608	87.81
439.829	94.81
440.05	80.81
440.272	83.81
440.493	94.81
440.715	84.81
440.936	84.81
441.158	81.81
441.379	92.81
441.6	73.81
441.822	86.81
442.043	77.81
442.264	93.81
442.486	78.81
442.707	69.81
442.928	72.81
443.149	85.81
443.371	95.81
443.592	86.81
443.813	84.81
444.034	80.81
444.255	77.81
444.476	68.81
444.698	78.81
444.919	69.81
445.14	157.81
445.361	112.81
445.582	100.81
445.803	77.81
446.024	84.81
446.245	87.81
446.466	92.81
446.687	67.81
446.908	82.81
447.129	76.81
447.35	78.81
447.571	81.81
447.792	89.81
448.013	80.81
448.234	92.81
448.455	85.81
448.675	86.81
448.896	80.81
449.117	78.81
449.338	66.81
449.559	85.81
449.779	76.81
450	95.81
450.221	75.81
450.442	82.81
450.662	88.81
450.883	77.81
451.104	97.81
451.324	96.81
451.545	76.81
451.766	90.81
451.986	80.81
452.207	79.81
452.428	84.81
452.648	94.81
452.869	76.81
453.089	88.81
453.31	78.81
453.53	90.81
453.751	69.81
453.971	84.81
454.192	82.81
454.412	94.81
454.633	77.81
454.853	84.81
455.073	89.81
455.294	78.81
455.514	75.81
455.734	78.81
455.955	83.81
456.175	73.81
456.395	91.81
456.616	74.81
456.836	81.81
457.056	79.81
457.276	72.81
457.497	66.81
457.717	84.81
457.937	91.81
458.157	85.81
458.377	91.81
458.598	75.81
458.818	80.81
459.038	85.81
459.258	82.81
459.478	93.81
459.698	82.81
459.918	92.81
460.138	84.81
460.358	99.81
460.578	83.81
460.798	59.81
461.018	81.81
461.238	87.81
461.458	82.81
461.678	86.81
461.898	72.81
462.118	74.81
462.338	84.81
462.558	74.81
462.777	85.81
462.997	93.81
463.217	86.81
463.437	93.81
463.657	82.81
463.876	88.81
464.096	90.81
464.316	79.81
464.536	82.81
464.755	86.81
464.975	71.81
465.195	78.81
465.414	67.81
465.634	84.81
465.854	86.81
466.073	85.81
466.293	85.81
466.512	76.81
466.732	81.81
466.951	80.81
467.171	90.81
467.391	84.81
467.61	79.81
467.829	81.81
468.049	84.81
468.268	86.81
468.488	86.81
468.707	81.81
468.927	65.81
469.146	83.81
469.365	84.81
469.585	80.81
469.804	74.81
470.023	77.81
470.243	84.81
470.462	72.81
470.681	86.81
470.901	71.81
471.12	86.81
471.339	89.81
471.558	80.81
471.777	88.81
471.997	78.81
472.216	91.81
472.435	82.81
472.654	86.81
472.873	89.81
473.092	79.81
473.311	81.81
473.53	93.81
473.749	92.81
473.968	93.81
474.187	90.81
474.406	84.81
474.625	82.81
474.844	82.81
475.063	85.81
475.282	74.81
475.501	81.81
475.72	84.81
475.939	80.81
476.158	78.81
476.377	79.81
476.596	80.81
476.814	88.81
477.033	82.81
477.252	91.81
477.471	90.81
477.69	84.81
477.908	92.81
478.127	72.81
478.346	75.81
478.564	80.81
478.783	88.81
479.002	83.81
479.22	65.81
479.439	66.81
479.658	82.81
479.876	83.81
480.095	88.81
480.313	87.81
480.532	74.81
480.751	83.81
480.969	96.81
481.188	89.81
481.406	80.81
481.624	74.81
481.843	84.81
482.061	81.81
482.28	76.81
482.498	81.81
482.717	88.81
482.935	81.81
483.153	76.81
483.372	84.81
483.59	81.81
483.808	74.81
484.027	91.81
484.245	85.81
484.463	84.81
484.681	83.81
484.9	71.81
485.118	84.81
485.336	80.81
485.554	90.81
485.772	78.81
485.99	90.81
486.209	87.81
486.427	80.81
486.645	84.81
486.863	76.81
487.081	88.81
487.299	91.81
487.517	82.81
487.735	78.81
487.953	71.81
488.171	89.81
488.389	77.81
488.607	95.81
488.825	85.81
489.043	76.81
489.261	82.81
489.479	78.81
489.696	71.81
489.914	75.81
490.132	93.81
490.35	95.81
490.568	88.81
490.786	78.81
491.003	86.81
491.221	88.81
491.439	80.81
491.657	84.81
491.874	105.81
492.092	93.81
492.31	95.81
492.527	83.81
492.745	70.81
492.963	84.81
493.18	91.81
493.398	93.81
493.615	96.81
493.833	83.81
494.05	85.81
494.268	88.81
494.485	80.81
494.703	82.81
494.92	86.81
495.138	78.81
495.355	83.81
495.573	90.81
495.79	97.81
496.008	83.81
496.225	96.81
496.442	78.81
496.66	81.81
496.877	80.81
497.094	84.81
497.312	85.81
497.529	101.81
497.746	105.81
497.963	73.81
498.181	76.81
498.398	93.81
498.615	101.81
498.832	80.81
499.049	94.81
499.267	93.81
499.484	79.81
499.701	78.81
499.918	84.81
500.135	82.81
500.352	75.81
500.569	99.81
500.786	76.81
501.003	78.81
501.22	79.81
501.437	96.81
501.654	84.81
501.871	81.81
502.088	80.81
502.305	80.81
502.522	80.81
502.739	77.81
502.956	80.81
503.172	78.81
503.389	84.81
503.606	82.81
503.823	97.81
504.04	83.81
504.256	92.81
504.473	80.81
504.69	74.81
504.907	82.81
505.123	82.81
505.34	79.81
505.557	93.81
505.773	86.81
505.99	71.81
506.207	88.81
506.423	74.81
506.64	83.81
506.856	81.81
507.073	85.81
507.289	90.81
507.506	87.81
507.722	84.81
507.939	80.81
508.155	85.81
508.372	77.81
508.588	77.81
508.805	85.81
509.021	74.81
509.238	81.81
509.454	92.81
509.67	91.81
509.887	88.81
510.103	69.81
510.319	93.81
510.536	93.81
510.752	89.81
510.968	74.81
511.184	93.81
511.401	81.81
511.617	89.81
511.833	80.81
512.049	80.81
512.265	75.81
512.481	66.81
512.698	68.81
512.914	90.81
513.13	92.81
513.346	92.81
513.562	98.81
513.778	83.81
513.994	94.81
514.21	78.81
514.426	63.81
514.642	78.81
514.858	74.81
515.074	77.81
515.29	80.81
515.506	82.81
515.721	94.81
515.937	89.81
516.153	98.81
516.369	86.81
516.585	87.81
516.801	85.81
517.016	80.81
517.232	84.81
517.448	76.81
517.664	100.81
517.879	95.81
518.095	76.81
518.311	87.81
518.527	76.81
518.742	81.81
518.958	80.81
519.173	69.81
519.389	98.81
519.605	79.81
519.82	75.81
520.036	88.81
