Data from Background_2_HRD10591_00090.txt Node
Date: Wed Nov 05 14:47:41 EST 2025
User: Yrep
Spectrometer: HR+D1059
Trigger mode: 1
Integration Time (sec): 1.000000E-1
Scans to average: 1
Electric dark correction enabled: true
Nonlinearity correction enabled: false
Boxcar width: 0
XAxis mode: Wavelengths
Number of Pixels in Spectrum: 2048
>>>>>Begin Spectral Data<<<<<
223.165	-6.38
223.4	-6.38
223.635	-6.38
223.869	1.62
224.104	-16.38
224.338	-29.38
224.573	-10.38
224.808	-19.38
225.042	-2.38
225.277	-20.38
225.511	3.62
225.746	10.62
225.98	5.62
226.215	5.62
226.449	24.62
226.683	24.62
226.918	4.62
227.152	23.62
227.387	34.62
227.621	52.62
227.856	39.62
228.09	46.62
228.324	51.62
228.559	66.62
228.793	59.62
229.027	71.62
229.262	52.62
229.496	59.62
229.73	65.62
229.964	84.62
230.199	65.62
230.433	69.62
230.667	79.62
230.901	75.62
231.136	68.62
231.37	90.62
231.604	74.62
231.838	79.62
232.072	77.62
232.306	87.62
232.541	82.62
232.775	77.62
233.009	87.62
233.243	85.62
233.477	82.62
233.711	72.62
233.945	74.62
234.179	74.62
234.413	83.62
234.647	83.62
234.881	54.62
235.115	61.62
235.349	75.62
235.583	77.62
235.817	62.62
236.051	73.62
236.285	78.62
236.519	93.62
236.753	71.62
236.987	82.62
237.221	78.62
237.455	73.62
237.689	62.62
237.922	76.62
238.156	74.62
238.39	78.62
238.624	70.62
238.858	83.62
239.091	74.62
239.325	77.62
239.559	81.62
239.793	73.62
240.027	87.62
240.26	68.62
240.494	70.62
240.728	62.62
240.961	67.62
241.195	65.62
241.429	82.62
241.662	62.62
241.896	73.62
242.13	75.62
242.363	71.62
242.597	78.62
242.83	82.62
243.064	73.62
243.298	69.62
243.531	81.62
243.765	83.62
243.998	81.62
244.232	80.62
244.465	89.62
244.699	67.62
244.932	65.62
245.166	75.62
245.399	79.62
245.633	81.62
245.866	74.62
246.099	80.62
246.333	88.62
246.566	73.62
246.8	78.62
247.033	89.62
247.266	81.62
247.5	75.62
247.733	75.62
247.966	78.62
248.2	81.62
248.433	84.62
248.666	83.62
248.899	71.62
249.133	78.62
249.366	82.62
249.599	74.62
249.832	82.62
250.066	80.62
250.299	80.62
250.532	77.62
250.765	79.62
250.998	70.62
251.231	89.62
251.465	84.62
251.698	75.62
251.931	90.62
252.164	87.62
252.397	84.62
252.63	84.62
252.863	83.62
253.096	84.62
253.329	77.62
253.562	91.62
253.795	85.62
254.028	84.62
254.261	72.62
254.494	77.62
254.727	83.62
254.96	73.62
255.193	79.62
255.426	65.62
255.659	64.62
255.892	80.62
256.124	60.62
256.357	65.62
256.59	73.62
256.823	88.62
257.056	77.62
257.289	83.62
257.521	75.62
257.754	74.62
257.987	77.62
258.22	65.62
258.452	95.62
258.685	69.62
258.918	75.62
259.151	77.62
259.383	77.62
259.616	67.62
259.849	75.62
260.081	79.62
260.314	82.62
260.547	75.62
260.779	80.62
261.012	89.62
261.244	73.62
261.477	87.62
261.71	80.62
261.942	83.62
262.175	70.62
262.407	87.62
262.64	81.62
262.872	74.62
263.105	73.62
263.337	75.62
263.57	81.62
263.802	86.62
264.035	90.62
264.267	75.62
264.499	78.62
264.732	71.62
264.964	76.62
265.197	76.62
265.429	85.62
265.661	64.62
265.894	79.62
266.126	81.62
266.358	76.62
266.591	85.62
266.823	77.62
267.055	88.62
267.287	75.62
267.52	80.62
267.752	90.62
267.984	86.62
268.216	74.62
268.448	84.62
268.681	78.62
268.913	89.62
269.145	78.62
269.377	73.62
269.609	83.62
269.841	71.62
270.073	76.62
270.306	78.62
270.538	79.62
270.77	75.62
271.002	80.62
271.234	87.62
271.466	79.62
271.698	77.62
271.93	79.62
272.162	84.62
272.394	74.62
272.626	73.62
272.858	73.62
273.09	82.62
273.322	83.62
273.553	81.62
273.785	76.62
274.017	83.62
274.249	82.62
274.481	91.62
274.713	86.62
274.945	88.62
275.176	78.62
275.408	77.62
275.64	75.62
275.872	85.62
276.104	82.62
276.335	76.62
276.567	89.62
276.799	95.62
277.031	66.62
277.262	84.62
277.494	79.62
277.726	74.62
277.957	88.62
278.189	85.62
278.421	76.62
278.652	80.62
278.884	89.62
279.115	85.62
279.347	80.62
279.579	80.62
279.81	72.62
280.042	90.62
280.273	76.62
280.505	83.62
280.736	80.62
280.968	71.62
281.199	77.62
281.431	76.62
281.662	84.62
281.894	101.62
282.125	81.62
282.356	69.62
282.588	87.62
282.819	87.62
283.051	85.62
283.282	78.62
283.513	73.62
283.745	71.62
283.976	85.62
284.207	77.62
284.439	66.62
284.67	79.62
284.901	72.62
285.132	87.62
285.364	85.62
285.595	83.62
285.826	91.62
286.057	92.62
286.288	86.62
286.52	90.62
286.751	76.62
286.982	77.62
287.213	81.62
287.444	70.62
287.675	91.62
287.906	99.62
288.138	82.62
288.369	84.62
288.6	77.62
288.831	92.62
289.062	90.62
289.293	94.62
289.524	87.62
289.755	72.62
289.986	82.62
290.217	89.62
290.448	81.62
290.679	95.62
290.91	80.62
291.141	87.62
291.371	83.62
291.602	69.62
291.833	84.62
292.064	77.62
292.295	77.62
292.526	82.62
292.757	84.62
292.987	85.62
293.218	79.62
293.449	75.62
293.68	89.62
293.91	89.62
294.141	71.62
294.372	75.62
294.603	85.62
294.833	86.62
295.064	87.62
295.295	76.62
295.525	69.62
295.756	84.62
295.987	85.62
296.217	84.62
296.448	88.62
296.679	88.62
296.909	84.62
297.14	78.62
297.37	93.62
297.601	79.62
297.831	83.62
298.062	81.62
298.292	88.62
298.523	95.62
298.753	74.62
298.984	87.62
299.214	91.62
299.445	88.62
299.675	80.62
299.905	82.62
300.136	79.62
300.366	74.62
300.597	80.62
300.827	92.62
301.057	82.62
301.288	81.62
301.518	83.62
301.748	90.62
301.979	92.62
302.209	79.62
302.439	88.62
302.669	86.62
302.9	82.62
303.13	81.62
303.36	80.62
303.59	75.62
303.82	75.62
304.051	65.62
304.281	85.62
304.511	74.62
304.741	73.62
304.971	84.62
305.201	79.62
305.431	80.62
305.661	87.62
305.891	74.62
306.121	92.62
306.352	77.62
306.582	71.62
306.812	75.62
307.042	89.62
307.272	87.62
307.502	77.62
307.731	89.62
307.961	78.62
308.191	84.62
308.421	88.62
308.651	90.62
308.881	97.62
309.111	81.62
309.341	85.62
309.571	79.62
309.8	69.62
310.03	74.62
310.26	89.62
310.49	88.62
310.72	74.62
310.949	90.62
311.179	96.62
311.409	89.62
311.639	99.62
311.868	87.62
312.098	75.62
312.328	80.62
312.557	91.62
312.787	75.62
313.017	80.62
313.246	99.62
313.476	89.62
313.706	75.62
313.935	87.62
314.165	83.62
314.394	83.62
314.624	78.62
314.853	94.62
315.083	99.62
315.312	87.62
315.542	77.62
315.771	111.62
316.001	80.62
316.23	87.62
316.46	96.62
316.689	85.62
316.919	82.62
317.148	77.62
317.377	80.62
317.607	84.62
317.836	81.62
318.065	89.62
318.295	77.62
318.524	87.62
318.753	82.62
318.983	68.62
319.212	72.62
319.441	89.62
319.67	69.62
319.9	78.62
320.129	81.62
320.358	80.62
320.587	78.62
320.816	93.62
321.046	83.62
321.275	77.62
321.504	94.62
321.733	86.62
321.962	89.62
322.191	77.62
322.42	80.62
322.649	98.62
322.878	70.62
323.108	88.62
323.337	89.62
323.566	84.62
323.795	78.62
324.024	85.62
324.253	89.62
324.482	83.62
324.71	85.62
324.939	91.62
325.168	79.62
325.397	83.62
325.626	95.62
325.855	94.62
326.084	75.62
326.313	83.62
326.542	79.62
326.77	79.62
326.999	83.62
327.228	90.62
327.457	91.62
327.686	84.62
327.914	65.62
328.143	103.62
328.372	91.62
328.6	84.62
328.829	83.62
329.058	77.62
329.287	79.62
329.515	79.62
329.744	79.62
329.972	91.62
330.201	86.62
330.43	88.62
330.658	83.62
330.887	89.62
331.115	72.62
331.344	79.62
331.572	92.62
331.801	79.62
332.03	70.62
332.258	77.62
332.486	72.62
332.715	82.62
332.943	91.62
333.172	73.62
333.4	81.62
333.629	89.62
333.857	89.62
334.085	87.62
334.314	92.62
334.542	77.62
334.771	86.62
334.999	90.62
335.227	87.62
335.455	85.62
335.684	90.62
335.912	79.62
336.14	86.62
336.369	91.62
336.597	82.62
336.825	69.62
337.053	97.62
337.281	88.62
337.51	81.62
337.738	78.62
337.966	83.62
338.194	92.62
338.422	90.62
338.65	90.62
338.878	83.62
339.106	66.62
339.334	81.62
339.562	81.62
339.79	79.62
340.018	79.62
340.246	74.62
340.474	84.62
340.702	85.62
340.93	93.62
341.158	100.62
341.386	82.62
341.614	84.62
341.842	73.62
342.07	84.62
342.298	92.62
342.526	85.62
342.754	87.62
342.981	75.62
343.209	72.62
343.437	89.62
343.665	82.62
343.893	85.62
344.12	83.62
344.348	67.62
344.576	80.62
344.804	86.62
345.031	81.62
345.259	92.62
345.487	81.62
345.714	77.62
345.942	95.62
346.17	86.62
346.397	92.62
346.625	73.62
346.853	81.62
347.08	77.62
347.308	83.62
347.535	79.62
347.763	72.62
347.99	75.62
348.218	86.62
348.445	77.62
348.673	89.62
348.9	93.62
349.128	81.62
349.355	85.62
349.583	82.62
349.81	82.62
350.037	82.62
350.265	88.62
350.492	87.62
350.72	86.62
350.947	86.62
351.174	76.62
351.402	91.62
351.629	74.62
351.856	87.62
352.083	91.62
352.311	91.62
352.538	84.62
352.765	81.62
352.992	89.62
353.22	89.62
353.447	84.62
353.674	87.62
353.901	93.62
354.128	89.62
354.355	96.62
354.583	94.62
354.81	90.62
355.037	82.62
355.264	89.62
355.491	65.62
355.718	82.62
355.945	85.62
356.172	72.62
356.399	77.62
356.626	79.62
356.853	74.62
357.08	82.62
357.307	86.62
357.534	81.62
357.761	69.62
357.988	84.62
358.215	72.62
358.441	91.62
358.668	73.62
358.895	84.62
359.122	82.62
359.349	68.62
359.576	89.62
359.802	81.62
360.029	93.62
360.256	87.62
360.483	86.62
360.709	81.62
360.936	87.62
361.163	89.62
361.39	82.62
361.616	89.62
361.843	85.62
362.07	76.62
362.296	100.62
362.523	90.62
362.749	89.62
362.976	87.62
363.203	91.62
363.429	90.62
363.656	78.62
363.882	77.62
364.109	76.62
364.335	81.62
364.562	80.62
364.788	79.62
365.015	86.62
365.241	89.62
365.468	83.62
365.694	69.62
365.92	75.62
366.147	83.62
366.373	83.62
366.599	92.62
366.826	98.62
367.052	94.62
367.278	75.62
367.505	87.62
367.731	79.62
367.957	74.62
368.184	85.62
368.41	71.62
368.636	88.62
368.862	71.62
369.089	78.62
369.315	84.62
369.541	98.62
369.767	79.62
369.993	87.62
370.219	94.62
370.445	85.62
370.672	87.62
370.898	97.62
371.124	92.62
371.35	82.62
371.576	74.62
371.802	74.62
372.028	87.62
372.254	91.62
372.48	92.62
372.706	89.62
372.932	88.62
373.158	87.62
373.384	96.62
373.61	74.62
373.835	75.62
374.061	82.62
374.287	84.62
374.513	88.62
374.739	87.62
374.965	79.62
375.191	86.62
375.416	87.62
375.642	96.62
375.868	100.62
376.094	88.62
376.319	87.62
376.545	84.62
376.771	78.62
376.997	87.62
377.222	79.62
377.448	80.62
377.674	61.62
377.899	78.62
378.125	79.62
378.35	81.62
378.576	83.62
378.802	74.62
379.027	85.62
379.253	88.62
379.478	93.62
379.704	76.62
379.929	76.62
380.155	82.62
380.38	80.62
380.606	76.62
380.831	90.62
381.057	87.62
381.282	82.62
381.507	89.62
381.733	91.62
381.958	87.62
382.184	86.62
382.409	79.62
382.634	83.62
382.86	88.62
383.085	83.62
383.31	77.62
383.535	96.62
383.761	81.62
383.986	83.62
384.211	72.62
384.436	79.62
384.662	79.62
384.887	70.62
385.112	77.62
385.337	91.62
385.562	71.62
385.787	79.62
386.013	81.62
386.238	99.62
386.463	92.62
386.688	103.62
386.913	93.62
387.138	77.62
387.363	76.62
387.588	89.62
387.813	82.62
388.038	65.62
388.263	91.62
388.488	82.62
388.713	84.62
388.938	85.62
389.163	80.62
389.387	82.62
389.612	88.62
389.837	79.62
390.062	87.62
390.287	84.62
390.512	83.62
390.736	86.62
390.961	85.62
391.186	85.62
391.411	89.62
391.636	91.62
391.86	70.62
392.085	73.62
392.31	97.62
392.534	97.62
392.759	65.62
392.984	82.62
393.208	77.62
393.433	80.62
393.658	79.62
393.882	91.62
394.107	89.62
394.331	70.62
394.556	74.62
394.78	69.62
395.005	83.62
395.229	72.62
395.454	88.62
395.678	78.62
395.903	77.62
396.127	63.62
396.352	80.62
396.576	75.62
396.801	84.62
397.025	76.62
397.249	77.62
397.474	81.62
397.698	84.62
397.922	66.62
398.147	83.62
398.371	64.62
398.595	89.62
398.82	81.62
399.044	75.62
399.268	83.62
399.492	75.62
399.717	74.62
399.941	78.62
400.165	68.62
400.389	76.62
400.613	65.62
400.837	76.62
401.062	76.62
401.286	89.62
401.51	70.62
401.734	73.62
401.958	77.62
402.182	105.62
402.406	92.62
402.63	85.62
402.854	81.62
403.078	76.62
403.302	77.62
403.526	76.62
403.75	82.62
403.974	64.62
404.198	92.62
404.422	74.62
404.645	87.62
404.869	88.62
405.093	73.62
405.317	75.62
405.541	72.62
405.765	94.62
405.988	79.62
406.212	71.62
406.436	80.62
406.66	73.62
406.883	68.62
407.107	83.62
407.331	67.62
407.555	79.62
407.778	79.62
408.002	86.62
408.226	66.62
408.449	87.62
408.673	75.62
408.896	86.62
409.12	87.62
409.344	85.62
409.567	84.62
409.791	71.62
410.014	75.62
410.238	83.62
410.461	83.62
410.685	80.62
410.908	89.62
411.132	87.62
411.355	82.62
411.578	82.62
411.802	75.62
412.025	67.62
412.249	89.62
412.472	76.62
412.695	79.62
412.919	67.62
413.142	75.62
413.365	87.62
413.589	77.62
413.812	78.62
414.035	97.62
414.258	83.62
414.482	89.62
414.705	61.62
414.928	76.62
415.151	78.62
415.374	80.62
415.597	83.62
415.821	71.62
416.044	74.62
416.267	67.62
416.49	85.62
416.713	82.62
416.936	83.62
417.159	79.62
417.382	71.62
417.605	78.62
417.828	78.62
418.051	78.62
418.274	72.62
418.497	69.62
418.72	67.62
418.943	72.62
419.166	86.62
419.389	71.62
419.611	73.62
419.834	91.62
420.057	84.62
420.28	68.62
420.503	82.62
420.726	69.62
420.948	75.62
421.171	74.62
421.394	85.62
421.617	80.62
421.839	69.62
422.062	77.62
422.285	88.62
422.507	84.62
422.73	82.62
422.953	79.62
423.175	85.62
423.398	92.62
423.621	83.62
423.843	76.62
424.066	91.62
424.288	85.62
424.511	98.62
424.733	91.62
424.956	82.62
425.178	75.62
425.401	83.62
425.623	82.62
425.846	90.62
426.068	83.62
426.291	96.62
426.513	83.62
426.735	64.62
426.958	77.62
427.18	82.62
427.402	81.62
427.625	76.62
427.847	91.62
428.069	63.62
428.292	72.62
428.514	83.62
428.736	75.62
428.958	85.62
429.181	76.62
429.403	88.62
429.625	89.62
429.847	88.62
430.069	73.62
430.292	84.62
430.514	75.62
430.736	85.62
430.958	76.62
431.18	68.62
431.402	83.62
431.624	87.62
431.846	82.62
432.068	78.62
432.29	80.62
432.512	91.62
432.734	89.62
432.956	75.62
433.178	90.62
433.4	84.62
433.622	62.62
433.844	77.62
434.066	79.62
434.287	81.62
434.509	89.62
434.731	90.62
434.953	76.62
435.175	83.62
435.397	75.62
435.618	82.62
435.84	84.62
436.062	77.62
436.284	87.62
436.505	68.62
436.727	89.62
436.949	71.62
437.17	96.62
437.392	91.62
437.614	92.62
437.835	76.62
438.057	92.62
438.278	88.62
438.5	80.62
438.721	82.62
438.943	84.62
439.165	83.62
439.386	77.62
439.608	81.62
439.829	83.62
440.05	78.62
440.272	84.62
440.493	95.62
440.715	96.62
440.936	85.62
441.158	80.62
441.379	87.62
441.6	95.62
441.822	81.62
442.043	80.62
442.264	80.62
442.486	78.62
442.707	77.62
442.928	78.62
443.149	86.62
443.371	79.62
443.592	81.62
443.813	85.62
444.034	91.62
444.255	79.62
444.476	79.62
444.698	88.62
444.919	82.62
445.14	155.62
445.361	101.62
445.582	80.62
445.803	73.62
446.024	80.62
446.245	104.62
446.466	83.62
446.687	71.62
446.908	77.62
447.129	77.62
447.35	81.62
447.571	91.62
447.792	85.62
448.013	67.62
448.234	77.62
448.455	77.62
448.675	77.62
448.896	76.62
449.117	76.62
449.338	74.62
449.559	83.62
449.779	81.62
450	83.62
450.221	63.62
450.442	90.62
450.662	88.62
450.883	72.62
451.104	80.62
451.324	84.62
451.545	76.62
451.766	79.62
451.986	76.62
452.207	78.62
452.428	86.62
452.648	87.62
452.869	103.62
453.089	79.62
453.31	85.62
453.53	83.62
453.751	92.62
453.971	79.62
454.192	83.62
454.412	75.62
454.633	91.62
454.853	70.62
455.073	85.62
455.294	85.62
455.514	83.62
455.734	77.62
455.955	75.62
456.175	67.62
456.395	77.62
456.616	83.62
456.836	78.62
457.056	75.62
457.276	73.62
457.497	93.62
457.717	81.62
457.937	75.62
458.157	75.62
458.377	79.62
458.598	83.62
458.818	64.62
459.038	69.62
459.258	79.62
459.478	78.62
459.698	78.62
459.918	88.62
460.138	80.62
460.358	78.62
460.578	84.62
460.798	88.62
461.018	92.62
461.238	87.62
461.458	73.62
461.678	76.62
461.898	75.62
462.118	69.62
462.338	86.62
462.558	80.62
462.777	81.62
462.997	89.62
463.217	78.62
463.437	78.62
463.657	86.62
463.876	72.62
464.096	68.62
464.316	89.62
464.536	63.62
464.755	88.62
464.975	72.62
465.195	63.62
465.414	77.62
465.634	73.62
465.854	79.62
466.073	72.62
466.293	89.62
466.512	83.62
466.732	74.62
466.951	85.62
467.171	70.62
467.391	95.62
467.61	73.62
467.829	70.62
468.049	82.62
468.268	74.62
468.488	81.62
468.707	81.62
468.927	72.62
469.146	78.62
469.365	79.62
469.585	91.62
469.804	82.62
470.023	83.62
470.243	76.62
470.462	89.62
470.681	62.62
470.901	84.62
471.12	94.62
471.339	80.62
471.558	81.62
471.777	69.62
471.997	93.62
472.216	71.62
472.435	81.62
472.654	83.62
472.873	89.62
473.092	71.62
473.311	81.62
473.53	77.62
473.749	92.62
473.968	67.62
474.187	82.62
474.406	93.62
474.625	81.62
474.844	85.62
475.063	93.62
475.282	85.62
475.501	93.62
475.72	96.62
475.939	89.62
476.158	98.62
476.377	93.62
476.596	82.62
476.814	68.62
477.033	75.62
477.252	83.62
477.471	78.62
477.69	79.62
477.908	72.62
478.127	67.62
478.346	85.62
478.564	98.62
478.783	79.62
479.002	65.62
479.22	79.62
479.439	76.62
479.658	76.62
479.876	75.62
480.095	76.62
480.313	85.62
480.532	73.62
480.751	86.62
480.969	75.62
481.188	81.62
481.406	82.62
481.624	68.62
481.843	81.62
482.061	82.62
482.28	75.62
482.498	76.62
482.717	78.62
482.935	79.62
483.153	81.62
483.372	76.62
483.59	65.62
483.808	88.62
484.027	75.62
484.245	93.62
484.463	96.62
484.681	86.62
484.9	77.62
485.118	84.62
485.336	71.62
485.554	73.62
485.772	68.62
485.99	89.62
486.209	87.62
486.427	79.62
486.645	81.62
486.863	99.62
487.081	73.62
487.299	77.62
487.517	91.62
487.735	85.62
487.953	90.62
488.171	88.62
488.389	91.62
488.607	74.62
488.825	80.62
489.043	82.62
489.261	81.62
489.479	80.62
489.696	84.62
489.914	73.62
490.132	79.62
490.35	67.62
490.568	84.62
490.786	82.62
491.003	74.62
491.221	81.62
491.439	90.62
491.657	72.62
491.874	82.62
492.092	81.62
492.31	87.62
492.527	84.62
492.745	83.62
492.963	77.62
493.18	57.62
493.398	77.62
493.615	87.62
493.833	77.62
494.05	74.62
494.268	71.62
494.485	91.62
494.703	67.62
494.92	82.62
495.138	85.62
495.355	79.62
495.573	85.62
495.79	77.62
496.008	82.62
496.225	77.62
496.442	90.62
496.66	90.62
496.877	85.62
497.094	95.62
497.312	83.62
497.529	94.62
497.746	83.62
497.963	84.62
498.181	90.62
498.398	71.62
498.615	91.62
498.832	88.62
499.049	97.62
499.267	93.62
499.484	81.62
499.701	75.62
499.918	81.62
500.135	79.62
500.352	69.62
500.569	81.62
500.786	86.62
501.003	89.62
501.22	81.62
501.437	92.62
501.654	89.62
501.871	72.62
502.088	69.62
502.305	82.62
502.522	86.62
502.739	85.62
502.956	86.62
503.172	80.62
503.389	87.62
503.606	84.62
503.823	79.62
504.04	80.62
504.256	86.62
504.473	91.62
504.69	84.62
504.907	84.62
505.123	80.62
505.34	82.62
505.557	89.62
505.773	83.62
505.99	90.62
506.207	93.62
506.423	87.62
506.64	77.62
506.856	75.62
507.073	80.62
507.289	88.62
507.506	78.62
507.722	78.62
507.939	72.62
508.155	90.62
508.372	88.62
508.588	83.62
508.805	87.62
509.021	89.62
509.238	82.62
509.454	75.62
509.67	69.62
509.887	69.62
510.103	75.62
510.319	73.62
510.536	90.62
510.752	97.62
510.968	92.62
511.184	81.62
511.401	79.62
511.617	96.62
511.833	96.62
512.049	98.62
512.265	79.62
512.481	77.62
512.698	80.62
512.914	89.62
513.13	82.62
513.346	85.62
513.562	80.62
513.778	75.62
513.994	71.62
514.21	70.62
514.426	82.62
514.642	77.62
514.858	78.62
515.074	83.62
515.29	94.62
515.506	85.62
515.721	83.62
515.937	97.62
516.153	81.62
516.369	85.62
516.585	80.62
516.801	80.62
517.016	99.62
517.232	88.62
517.448	82.62
517.664	86.62
517.879	82.62
518.095	81.62
518.311	84.62
518.527	75.62
518.742	63.62
518.958	85.62
519.173	82.62
519.389	76.62
519.605	75.62
519.82	65.62
520.036	87.62
520.251	89.62
