Data from Background_2_HRD10591_00056.txt Node
Date: Wed Nov 05 14:47:24 EST 2025
User: Yrep
Spectrometer: HR+D1059
Trigger mode: 1
Integration Time (sec): 1.000000E-1
Scans to average: 1
Electric dark correction enabled: true
Nonlinearity correction enabled: false
Boxcar width: 0
XAxis mode: Wavelengths
Number of Pixels in Spectrum: 2048
>>>>>Begin Spectral Data<<<<<
223.165	-14.06
223.4	-14.06
223.635	-14.06
223.869	-19.06
224.104	-2.06
224.338	-18.06
224.573	-7.06
224.808	-7.06
225.042	-0.06
225.277	-8.06
225.511	-5.06
225.746	-19.06
225.98	12.94
226.215	7.94
226.449	26.94
226.683	14.94
226.918	7.94
227.152	28.94
227.387	36.94
227.621	31.94
227.856	34.94
228.09	51.94
228.324	40.94
228.559	53.94
228.793	57.94
229.027	67.94
229.262	55.94
229.496	50.94
229.73	73.94
229.964	75.94
230.199	71.94
230.433	88.94
230.667	80.94
230.901	84.94
231.136	79.94
231.37	77.94
231.604	78.94
231.838	75.94
232.072	83.94
232.306	81.94
232.541	71.94
232.775	90.94
233.009	82.94
233.243	59.94
233.477	81.94
233.711	78.94
233.945	78.94
234.179	64.94
234.413	84.94
234.647	73.94
234.881	65.94
235.115	80.94
235.349	68.94
235.583	86.94
235.817	73.94
236.051	68.94
236.285	79.94
236.519	86.94
236.753	72.94
236.987	67.94
237.221	82.94
237.455	84.94
237.689	76.94
237.922	88.94
238.156	82.94
238.39	77.94
238.624	84.94
238.858	71.94
239.091	72.94
239.325	64.94
239.559	72.94
239.793	69.94
240.027	90.94
240.26	75.94
240.494	67.94
240.728	78.94
240.961	81.94
241.195	79.94
241.429	65.94
241.662	81.94
241.896	56.94
242.13	68.94
242.363	62.94
242.597	73.94
242.83	81.94
243.064	77.94
243.298	57.94
243.531	87.94
243.765	64.94
243.998	76.94
244.232	87.94
244.465	72.94
244.699	73.94
244.932	85.94
245.166	73.94
245.399	82.94
245.633	68.94
245.866	77.94
246.099	63.94
246.333	59.94
246.566	85.94
246.8	68.94
247.033	71.94
247.266	67.94
247.5	78.94
247.733	69.94
247.966	72.94
248.2	66.94
248.433	75.94
248.666	96.94
248.899	77.94
249.133	81.94
249.366	74.94
249.599	73.94
249.832	75.94
250.066	63.94
250.299	63.94
250.532	80.94
250.765	65.94
250.998	84.94
251.231	81.94
251.465	62.94
251.698	75.94
251.931	65.94
252.164	69.94
252.397	79.94
252.63	72.94
252.863	69.94
253.096	66.94
253.329	69.94
253.562	72.94
253.795	71.94
254.028	55.94
254.261	67.94
254.494	69.94
254.727	81.94
254.96	62.94
255.193	77.94
255.426	73.94
255.659	82.94
255.892	70.94
256.124	78.94
256.357	69.94
256.59	82.94
256.823	73.94
257.056	66.94
257.289	80.94
257.521	79.94
257.754	78.94
257.987	77.94
258.22	73.94
258.452	61.94
258.685	81.94
258.918	95.94
259.151	71.94
259.383	78.94
259.616	71.94
259.849	64.94
260.081	72.94
260.314	79.94
260.547	64.94
260.779	80.94
261.012	81.94
261.244	79.94
261.477	76.94
261.71	80.94
261.942	70.94
262.175	68.94
262.407	88.94
262.64	80.94
262.872	81.94
263.105	76.94
263.337	85.94
263.57	73.94
263.802	73.94
264.035	65.94
264.267	67.94
264.499	89.94
264.732	94.94
264.964	86.94
265.197	84.94
265.429	78.94
265.661	91.94
265.894	65.94
266.126	72.94
266.358	89.94
266.591	73.94
266.823	75.94
267.055	79.94
267.287	69.94
267.52	71.94
267.752	81.94
267.984	77.94
268.216	85.94
268.448	69.94
268.681	83.94
268.913	87.94
269.145	92.94
269.377	80.94
269.609	71.94
269.841	75.94
270.073	86.94
270.306	78.94
270.538	79.94
270.77	70.94
271.002	79.94
271.234	92.94
271.466	77.94
271.698	79.94
271.93	79.94
272.162	83.94
272.394	82.94
272.626	74.94
272.858	61.94
273.09	76.94
273.322	77.94
273.553	80.94
273.785	84.94
274.017	73.94
274.249	84.94
274.481	69.94
274.713	80.94
274.945	83.94
275.176	79.94
275.408	82.94
275.64	73.94
275.872	80.94
276.104	83.94
276.335	78.94
276.567	77.94
276.799	71.94
277.031	95.94
277.262	80.94
277.494	83.94
277.726	73.94
277.957	74.94
278.189	83.94
278.421	82.94
278.652	79.94
278.884	67.94
279.115	73.94
279.347	84.94
279.579	84.94
279.81	76.94
280.042	75.94
280.273	71.94
280.505	69.94
280.736	79.94
280.968	82.94
281.199	77.94
281.431	83.94
281.662	80.94
281.894	92.94
282.125	68.94
282.356	82.94
282.588	83.94
282.819	79.94
283.051	74.94
283.282	67.94
283.513	71.94
283.745	79.94
283.976	73.94
284.207	83.94
284.439	81.94
284.67	82.94
284.901	89.94
285.132	89.94
285.364	72.94
285.595	76.94
285.826	91.94
286.057	92.94
286.288	82.94
286.52	75.94
286.751	80.94
286.982	88.94
287.213	61.94
287.444	72.94
287.675	89.94
287.906	80.94
288.138	90.94
288.369	84.94
288.6	74.94
288.831	83.94
289.062	89.94
289.293	74.94
289.524	83.94
289.755	71.94
289.986	65.94
290.217	82.94
290.448	84.94
290.679	97.94
290.91	85.94
291.141	84.94
291.371	70.94
291.602	83.94
291.833	81.94
292.064	78.94
292.295	81.94
292.526	69.94
292.757	78.94
292.987	93.94
293.218	98.94
293.449	76.94
293.68	66.94
293.91	74.94
294.141	79.94
294.372	90.94
294.603	78.94
294.833	76.94
295.064	89.94
295.295	83.94
295.525	77.94
295.756	79.94
295.987	67.94
296.217	84.94
296.448	84.94
296.679	77.94
296.909	79.94
297.14	99.94
297.37	79.94
297.601	82.94
297.831	73.94
298.062	77.94
298.292	65.94
298.523	87.94
298.753	74.94
298.984	89.94
299.214	89.94
299.445	95.94
299.675	85.94
299.905	76.94
300.136	88.94
300.366	80.94
300.597	80.94
300.827	80.94
301.057	69.94
301.288	92.94
301.518	88.94
301.748	95.94
301.979	107.94
302.209	83.94
302.439	89.94
302.669	76.94
302.9	83.94
303.13	84.94
303.36	82.94
303.59	72.94
303.82	68.94
304.051	82.94
304.281	89.94
304.511	66.94
304.741	79.94
304.971	86.94
305.201	78.94
305.431	93.94
305.661	67.94
305.891	84.94
306.121	84.94
306.352	91.94
306.582	68.94
306.812	83.94
307.042	87.94
307.272	68.94
307.502	75.94
307.731	88.94
307.961	89.94
308.191	86.94
308.421	81.94
308.651	68.94
308.881	88.94
309.111	92.94
309.341	84.94
309.571	74.94
309.8	81.94
310.03	87.94
310.26	77.94
310.49	89.94
310.72	79.94
310.949	78.94
311.179	75.94
311.409	85.94
311.639	88.94
311.868	92.94
312.098	88.94
312.328	62.94
312.557	71.94
312.787	69.94
313.017	79.94
313.246	87.94
313.476	86.94
313.706	80.94
313.935	82.94
314.165	80.94
314.394	82.94
314.624	76.94
314.853	79.94
315.083	87.94
315.312	72.94
315.542	84.94
315.771	82.94
316.001	72.94
316.23	82.94
316.46	95.94
316.689	72.94
316.919	80.94
317.148	75.94
317.377	79.94
317.607	84.94
317.836	82.94
318.065	74.94
318.295	88.94
318.524	78.94
318.753	71.94
318.983	89.94
319.212	90.94
319.441	89.94
319.67	83.94
319.9	83.94
320.129	85.94
320.358	90.94
320.587	97.94
320.816	97.94
321.046	89.94
321.275	75.94
321.504	99.94
321.733	83.94
321.962	83.94
322.191	84.94
322.42	69.94
322.649	89.94
322.878	88.94
323.108	73.94
323.337	80.94
323.566	83.94
323.795	74.94
324.024	85.94
324.253	87.94
324.482	95.94
324.71	88.94
324.939	75.94
325.168	83.94
325.397	68.94
325.626	92.94
325.855	77.94
326.084	103.94
326.313	81.94
326.542	76.94
326.77	84.94
326.999	67.94
327.228	80.94
327.457	83.94
327.686	81.94
327.914	84.94
328.143	87.94
328.372	99.94
328.6	76.94
328.829	80.94
329.058	91.94
329.287	75.94
329.515	86.94
329.744	77.94
329.972	91.94
330.201	86.94
330.43	77.94
330.658	82.94
330.887	79.94
331.115	69.94
331.344	68.94
331.572	77.94
331.801	78.94
332.03	77.94
332.258	95.94
332.486	74.94
332.715	91.94
332.943	77.94
333.172	77.94
333.4	75.94
333.629	87.94
333.857	79.94
334.085	75.94
334.314	85.94
334.542	85.94
334.771	91.94
334.999	98.94
335.227	84.94
335.455	80.94
335.684	89.94
335.912	79.94
336.14	59.94
336.369	87.94
336.597	81.94
336.825	96.94
337.053	84.94
337.281	81.94
337.51	76.94
337.738	76.94
337.966	70.94
338.194	84.94
338.422	79.94
338.65	85.94
338.878	68.94
339.106	69.94
339.334	63.94
339.562	82.94
339.79	85.94
340.018	79.94
340.246	78.94
340.474	68.94
340.702	76.94
340.93	88.94
341.158	93.94
341.386	73.94
341.614	91.94
341.842	81.94
342.07	78.94
342.298	93.94
342.526	91.94
342.754	76.94
342.981	82.94
343.209	95.94
343.437	84.94
343.665	96.94
343.893	89.94
344.12	80.94
344.348	79.94
344.576	81.94
344.804	79.94
345.031	82.94
345.259	65.94
345.487	70.94
345.714	79.94
345.942	64.94
346.17	80.94
346.397	82.94
346.625	74.94
346.853	95.94
347.08	79.94
347.308	76.94
347.535	74.94
347.763	82.94
347.99	80.94
348.218	80.94
348.445	84.94
348.673	87.94
348.9	87.94
349.128	73.94
349.355	78.94
349.583	70.94
349.81	78.94
350.037	82.94
350.265	75.94
350.492	75.94
350.72	77.94
350.947	92.94
351.174	72.94
351.402	78.94
351.629	79.94
351.856	75.94
352.083	77.94
352.311	80.94
352.538	79.94
352.765	82.94
352.992	88.94
353.22	88.94
353.447	100.94
353.674	75.94
353.901	84.94
354.128	75.94
354.355	70.94
354.583	73.94
354.81	70.94
355.037	72.94
355.264	83.94
355.491	75.94
355.718	70.94
355.945	72.94
356.172	87.94
356.399	67.94
356.626	84.94
356.853	70.94
357.08	79.94
357.307	81.94
357.534	79.94
357.761	68.94
357.988	84.94
358.215	84.94
358.441	78.94
358.668	82.94
358.895	75.94
359.122	82.94
359.349	81.94
359.576	77.94
359.802	83.94
360.029	80.94
360.256	76.94
360.483	78.94
360.709	79.94
360.936	82.94
361.163	83.94
361.39	83.94
361.616	77.94
361.843	75.94
362.07	93.94
362.296	75.94
362.523	81.94
362.749	62.94
362.976	81.94
363.203	87.94
363.429	77.94
363.656	81.94
363.882	72.94
364.109	82.94
364.335	82.94
364.562	77.94
364.788	82.94
365.015	74.94
365.241	72.94
365.468	77.94
365.694	78.94
365.92	83.94
366.147	83.94
366.373	76.94
366.599	72.94
366.826	85.94
367.052	79.94
367.278	79.94
367.505	90.94
367.731	97.94
367.957	67.94
368.184	82.94
368.41	67.94
368.636	91.94
368.862	69.94
369.089	67.94
369.315	96.94
369.541	81.94
369.767	79.94
369.993	79.94
370.219	87.94
370.445	62.94
370.672	83.94
370.898	87.94
371.124	76.94
371.35	76.94
371.576	69.94
371.802	76.94
372.028	87.94
372.254	87.94
372.48	80.94
372.706	77.94
372.932	87.94
373.158	80.94
373.384	73.94
373.61	95.94
373.835	85.94
374.061	69.94
374.287	92.94
374.513	90.94
374.739	84.94
374.965	80.94
375.191	88.94
375.416	83.94
375.642	91.94
375.868	84.94
376.094	71.94
376.319	75.94
376.545	91.94
376.771	78.94
376.997	77.94
377.222	72.94
377.448	73.94
377.674	87.94
377.899	76.94
378.125	82.94
378.35	81.94
378.576	77.94
378.802	72.94
379.027	79.94
379.253	88.94
379.478	91.94
379.704	87.94
379.929	76.94
380.155	68.94
380.38	81.94
380.606	75.94
380.831	80.94
381.057	87.94
381.282	79.94
381.507	81.94
381.733	84.94
381.958	80.94
382.184	88.94
382.409	81.94
382.634	78.94
382.86	83.94
383.085	68.94
383.31	75.94
383.535	77.94
383.761	82.94
383.986	83.94
384.211	67.94
384.436	91.94
384.662	68.94
384.887	96.94
385.112	77.94
385.337	74.94
385.562	97.94
385.787	83.94
386.013	79.94
386.238	85.94
386.463	96.94
386.688	88.94
386.913	89.94
387.138	68.94
387.363	83.94
387.588	78.94
387.813	85.94
388.038	79.94
388.263	75.94
388.488	88.94
388.713	75.94
388.938	84.94
389.163	80.94
389.387	80.94
389.612	76.94
389.837	78.94
390.062	67.94
390.287	92.94
390.512	91.94
390.736	79.94
390.961	81.94
391.186	78.94
391.411	71.94
391.636	75.94
391.86	89.94
392.085	73.94
392.31	56.94
392.534	71.94
392.759	87.94
392.984	85.94
393.208	85.94
393.433	85.94
393.658	73.94
393.882	84.94
394.107	75.94
394.331	92.94
394.556	73.94
394.78	86.94
395.005	82.94
395.229	85.94
395.454	74.94
395.678	70.94
395.903	69.94
396.127	75.94
396.352	74.94
396.576	97.94
396.801	77.94
397.025	93.94
397.249	84.94
397.474	79.94
397.698	88.94
397.922	76.94
398.147	67.94
398.371	80.94
398.595	75.94
398.82	64.94
399.044	71.94
399.268	68.94
399.492	84.94
399.717	98.94
399.941	92.94
400.165	84.94
400.389	60.94
400.613	79.94
400.837	89.94
401.062	72.94
401.286	83.94
401.51	73.94
401.734	77.94
401.958	73.94
402.182	77.94
402.406	90.94
402.63	78.94
402.854	77.94
403.078	79.94
403.302	65.94
403.526	87.94
403.75	74.94
403.974	85.94
404.198	74.94
404.422	72.94
404.645	68.94
404.869	67.94
405.093	81.94
405.317	66.94
405.541	82.94
405.765	92.94
405.988	71.94
406.212	86.94
406.436	76.94
406.66	73.94
406.883	76.94
407.107	91.94
407.331	77.94
407.555	87.94
407.778	59.94
408.002	70.94
408.226	73.94
408.449	68.94
408.673	70.94
408.896	75.94
409.12	75.94
409.344	92.94
409.567	81.94
409.791	74.94
410.014	91.94
410.238	91.94
410.461	75.94
410.685	67.94
410.908	79.94
411.132	77.94
411.355	75.94
411.578	82.94
411.802	70.94
412.025	84.94
412.249	82.94
412.472	72.94
412.695	74.94
412.919	76.94
413.142	72.94
413.365	84.94
413.589	75.94
413.812	85.94
414.035	94.94
414.258	79.94
414.482	79.94
414.705	76.94
414.928	78.94
415.151	79.94
415.374	82.94
415.597	80.94
415.821	77.94
416.044	74.94
416.267	86.94
416.49	73.94
416.713	86.94
416.936	79.94
417.159	72.94
417.382	104.94
417.605	73.94
417.828	87.94
418.051	91.94
418.274	93.94
418.497	89.94
418.72	80.94
418.943	74.94
419.166	81.94
419.389	91.94
419.611	81.94
419.834	61.94
420.057	80.94
420.28	79.94
420.503	81.94
420.726	80.94
420.948	90.94
421.171	75.94
421.394	69.94
421.617	78.94
421.839	73.94
422.062	83.94
422.285	69.94
422.507	78.94
422.73	68.94
422.953	82.94
423.175	64.94
423.398	91.94
423.621	78.94
423.843	92.94
424.066	77.94
424.288	88.94
424.511	77.94
424.733	68.94
424.956	85.94
425.178	89.94
425.401	76.94
425.623	83.94
425.846	83.94
426.068	71.94
426.291	78.94
426.513	64.94
426.735	87.94
426.958	83.94
427.18	90.94
427.402	97.94
427.625	89.94
427.847	84.94
428.069	92.94
428.292	75.94
428.514	83.94
428.736	78.94
428.958	72.94
429.181	86.94
429.403	77.94
429.625	87.94
429.847	83.94
430.069	83.94
430.292	77.94
430.514	80.94
430.736	85.94
430.958	93.94
431.18	91.94
431.402	76.94
431.624	84.94
431.846	82.94
432.068	83.94
432.29	88.94
432.512	74.94
432.734	81.94
432.956	85.94
433.178	83.94
433.4	87.94
433.622	90.94
433.844	80.94
434.066	81.94
434.287	76.94
434.509	73.94
434.731	89.94
434.953	75.94
435.175	93.94
435.397	94.94
435.618	98.94
435.84	67.94
436.062	72.94
436.284	72.94
436.505	93.94
436.727	86.94
436.949	98.94
437.17	79.94
437.392	85.94
437.614	84.94
437.835	93.94
438.057	96.94
438.278	92.94
438.5	84.94
438.721	77.94
438.943	83.94
439.165	76.94
439.386	84.94
439.608	89.94
439.829	87.94
440.05	60.94
440.272	79.94
440.493	80.94
440.715	84.94
440.936	67.94
441.158	87.94
441.379	75.94
441.6	77.94
441.822	85.94
442.043	79.94
442.264	76.94
442.486	66.94
442.707	80.94
442.928	76.94
443.149	85.94
443.371	99.94
443.592	79.94
443.813	78.94
444.034	81.94
444.255	75.94
444.476	79.94
444.698	73.94
444.919	92.94
445.14	144.94
445.361	119.94
445.582	80.94
445.803	81.94
446.024	101.94
446.245	78.94
446.466	81.94
446.687	86.94
446.908	85.94
447.129	80.94
447.35	96.94
447.571	91.94
447.792	85.94
448.013	85.94
448.234	79.94
448.455	73.94
448.675	77.94
448.896	65.94
449.117	78.94
449.338	75.94
449.559	89.94
449.779	78.94
450	78.94
450.221	77.94
450.442	94.94
450.662	83.94
450.883	69.94
451.104	69.94
451.324	101.94
451.545	66.94
451.766	72.94
451.986	82.94
452.207	75.94
452.428	76.94
452.648	81.94
452.869	89.94
453.089	83.94
453.31	84.94
453.53	92.94
453.751	77.94
453.971	83.94
454.192	77.94
454.412	76.94
454.633	94.94
454.853	79.94
455.073	77.94
455.294	79.94
455.514	80.94
455.734	85.94
455.955	85.94
456.175	75.94
456.395	89.94
456.616	78.94
456.836	69.94
457.056	73.94
457.276	76.94
457.497	65.94
457.717	84.94
457.937	75.94
458.157	69.94
458.377	79.94
458.598	60.94
458.818	68.94
459.038	80.94
459.258	81.94
459.478	104.94
459.698	70.94
459.918	76.94
460.138	77.94
460.358	74.94
460.578	86.94
460.798	78.94
461.018	78.94
461.238	84.94
461.458	84.94
461.678	80.94
461.898	79.94
462.118	92.94
462.338	91.94
462.558	70.94
462.777	65.94
462.997	69.94
463.217	83.94
463.437	85.94
463.657	63.94
463.876	89.94
464.096	67.94
464.316	77.94
464.536	84.94
464.755	83.94
464.975	79.94
465.195	81.94
465.414	65.94
465.634	81.94
465.854	81.94
466.073	95.94
466.293	74.94
466.512	89.94
466.732	67.94
466.951	84.94
467.171	83.94
467.391	80.94
467.61	82.94
467.829	79.94
468.049	93.94
468.268	76.94
468.488	82.94
468.707	74.94
468.927	75.94
469.146	86.94
469.365	85.94
469.585	75.94
469.804	92.94
470.023	69.94
470.243	79.94
470.462	76.94
470.681	80.94
470.901	70.94
471.12	81.94
471.339	79.94
471.558	64.94
471.777	87.94
471.997	80.94
472.216	81.94
472.435	75.94
472.654	71.94
472.873	79.94
473.092	91.94
473.311	77.94
473.53	71.94
473.749	87.94
473.968	90.94
474.187	85.94
474.406	83.94
474.625	72.94
474.844	76.94
475.063	87.94
475.282	72.94
475.501	83.94
475.72	84.94
475.939	99.94
476.158	75.94
476.377	78.94
476.596	73.94
476.814	91.94
477.033	96.94
477.252	78.94
477.471	80.94
477.69	61.94
477.908	81.94
478.127	85.94
478.346	82.94
478.564	81.94
478.783	73.94
479.002	70.94
479.22	88.94
479.439	78.94
479.658	82.94
479.876	89.94
480.095	73.94
480.313	87.94
480.532	87.94
480.751	76.94
480.969	83.94
481.188	89.94
481.406	89.94
481.624	74.94
481.843	88.94
482.061	80.94
482.28	84.94
482.498	89.94
482.717	90.94
482.935	89.94
483.153	74.94
483.372	73.94
483.59	85.94
483.808	80.94
484.027	77.94
484.245	75.94
484.463	75.94
484.681	89.94
484.9	70.94
485.118	90.94
485.336	86.94
485.554	89.94
485.772	72.94
485.99	78.94
486.209	76.94
486.427	67.94
486.645	96.94
486.863	78.94
487.081	72.94
487.299	76.94
487.517	80.94
487.735	76.94
487.953	73.94
488.171	81.94
488.389	81.94
488.607	68.94
488.825	88.94
489.043	79.94
489.261	87.94
489.479	86.94
489.696	85.94
489.914	73.94
490.132	91.94
490.35	89.94
490.568	80.94
490.786	83.94
491.003	79.94
491.221	69.94
491.439	84.94
491.657	77.94
491.874	80.94
492.092	75.94
492.31	87.94
492.527	88.94
492.745	78.94
492.963	78.94
493.18	71.94
493.398	81.94
493.615	75.94
493.833	78.94
494.05	95.94
494.268	85.94
494.485	77.94
494.703	96.94
494.92	76.94
495.138	76.94
495.355	81.94
495.573	94.94
495.79	77.94
496.008	60.94
496.225	84.94
496.442	82.94
496.66	87.94
496.877	79.94
497.094	89.94
497.312	85.94
497.529	93.94
497.746	78.94
497.963	73.94
498.181	88.94
498.398	87.94
498.615	78.94
498.832	97.94
499.049	84.94
499.267	85.94
499.484	95.94
499.701	79.94
499.918	80.94
500.135	88.94
500.352	89.94
500.569	85.94
500.786	80.94
501.003	90.94
501.22	83.94
501.437	83.94
501.654	84.94
501.871	68.94
502.088	77.94
502.305	80.94
502.522	94.94
502.739	76.94
502.956	74.94
503.172	92.94
503.389	78.94
503.606	77.94
503.823	76.94
504.04	87.94
504.256	78.94
504.473	63.94
504.69	84.94
504.907	78.94
505.123	72.94
505.34	82.94
505.557	83.94
505.773	91.94
505.99	82.94
506.207	75.94
506.423	95.94
506.64	86.94
506.856	84.94
507.073	91.94
507.289	78.94
507.506	89.94
507.722	71.94
507.939	76.94
508.155	91.94
508.372	86.94
508.588	85.94
508.805	91.94
509.021	76.94
509.238	88.94
509.454	90.94
509.67	72.94
509.887	66.94
510.103	102.94
510.319	89.94
510.536	88.94
510.752	89.94
510.968	74.94
511.184	77.94
511.401	76.94
511.617	85.94
511.833	75.94
512.049	81.94
512.265	76.94
512.481	85.94
512.698	77.94
512.914	88.94
513.13	86.94
513.346	69.94
513.562	81.94
513.778	85.94
513.994	70.94
514.21	75.94
514.426	83.94
514.642	84.94
514.858	83.94
515.074	71.94
515.29	81.94
515.506	73.94
515.721	77.94
515.937	75.94
516.153	73.94
516.369	80.94
516.585	69.94
516.801	78.94
517.016	74.94
517.232	64.94
517.448	88.94
517.664	69.94
517.879	86.94
518.095	77.94
518.311	75.94
518.527	74.94
518.742	80.94
518.958	81.94
519.173	80.94
519.389	84.94
519.605	75.94
519.82	91.94
520.036	104.94
