Data from Background_2_HRD10591_00094.txt Node
Date: Wed Nov 05 14:47:43 EST 2025
User: Yrep
Spectrometer: HR+D1059
Trigger mode: 1
Integration Time (sec): 1.000000E-1
Scans to average: 1
Electric dark correction enabled: true
Nonlinearity correction enabled: false
Boxcar width: 0
XAxis mode: Wavelengths
Number of Pixels in Spectrum: 2048
>>>>>Begin Spectral Data<<<<<
223.165	-16.88
223.4	-16.88
223.635	-16.88
223.869	-19.88
224.104	-24.88
224.338	-11.88
224.573	-14.88
224.808	-4.88
225.042	-8.88
225.277	-7.88
225.511	-11.88
225.746	-2.88
225.98	8.12
226.215	15.12
226.449	8.12
226.683	25.12
226.918	28.12
227.152	40.12
227.387	41.12
227.621	35.12
227.856	47.12
228.09	35.12
228.324	45.12
228.559	46.12
228.793	57.12
229.027	51.12
229.262	59.12
229.496	73.12
229.73	74.12
229.964	80.12
230.199	85.12
230.433	66.12
230.667	65.12
230.901	77.12
231.136	78.12
231.37	71.12
231.604	86.12
231.838	69.12
232.072	72.12
232.306	73.12
232.541	74.12
232.775	80.12
233.009	73.12
233.243	63.12
233.477	69.12
233.711	77.12
233.945	71.12
234.179	78.12
234.413	63.12
234.647	73.12
234.881	74.12
235.115	74.12
235.349	78.12
235.583	90.12
235.817	78.12
236.051	82.12
236.285	71.12
236.519	81.12
236.753	84.12
236.987	77.12
237.221	69.12
237.455	80.12
237.689	85.12
237.922	76.12
238.156	74.12
238.39	75.12
238.624	74.12
238.858	64.12
239.091	68.12
239.325	73.12
239.559	65.12
239.793	63.12
240.027	71.12
240.26	69.12
240.494	73.12
240.728	79.12
240.961	64.12
241.195	75.12
241.429	63.12
241.662	70.12
241.896	89.12
242.13	57.12
242.363	77.12
242.597	69.12
242.83	75.12
243.064	66.12
243.298	71.12
243.531	69.12
243.765	71.12
243.998	64.12
244.232	85.12
244.465	81.12
244.699	64.12
244.932	73.12
245.166	79.12
245.399	66.12
245.633	73.12
245.866	72.12
246.099	66.12
246.333	69.12
246.566	72.12
246.8	69.12
247.033	73.12
247.266	76.12
247.5	80.12
247.733	66.12
247.966	60.12
248.2	65.12
248.433	63.12
248.666	82.12
248.899	77.12
249.133	84.12
249.366	68.12
249.599	70.12
249.832	71.12
250.066	69.12
250.299	73.12
250.532	85.12
250.765	81.12
250.998	73.12
251.231	55.12
251.465	67.12
251.698	83.12
251.931	73.12
252.164	76.12
252.397	81.12
252.63	65.12
252.863	83.12
253.096	55.12
253.329	82.12
253.562	70.12
253.795	85.12
254.028	76.12
254.261	79.12
254.494	75.12
254.727	82.12
254.96	63.12
255.193	80.12
255.426	84.12
255.659	81.12
255.892	84.12
256.124	67.12
256.357	81.12
256.59	83.12
256.823	91.12
257.056	75.12
257.289	76.12
257.521	70.12
257.754	83.12
257.987	73.12
258.22	73.12
258.452	82.12
258.685	68.12
258.918	78.12
259.151	66.12
259.383	86.12
259.616	79.12
259.849	83.12
260.081	72.12
260.314	83.12
260.547	55.12
260.779	72.12
261.012	77.12
261.244	87.12
261.477	75.12
261.71	78.12
261.942	77.12
262.175	90.12
262.407	65.12
262.64	80.12
262.872	73.12
263.105	88.12
263.337	71.12
263.57	78.12
263.802	80.12
264.035	66.12
264.267	74.12
264.499	76.12
264.732	80.12
264.964	77.12
265.197	81.12
265.429	96.12
265.661	75.12
265.894	75.12
266.126	82.12
266.358	78.12
266.591	78.12
266.823	73.12
267.055	81.12
267.287	81.12
267.52	71.12
267.752	85.12
267.984	69.12
268.216	68.12
268.448	75.12
268.681	91.12
268.913	72.12
269.145	78.12
269.377	71.12
269.609	73.12
269.841	84.12
270.073	75.12
270.306	63.12
270.538	89.12
270.77	78.12
271.002	82.12
271.234	86.12
271.466	95.12
271.698	87.12
271.93	73.12
272.162	88.12
272.394	80.12
272.626	77.12
272.858	68.12
273.09	78.12
273.322	83.12
273.553	79.12
273.785	66.12
274.017	73.12
274.249	80.12
274.481	67.12
274.713	68.12
274.945	87.12
275.176	84.12
275.408	83.12
275.64	92.12
275.872	77.12
276.104	69.12
276.335	71.12
276.567	80.12
276.799	72.12
277.031	83.12
277.262	79.12
277.494	78.12
277.726	77.12
277.957	82.12
278.189	83.12
278.421	84.12
278.652	67.12
278.884	93.12
279.115	71.12
279.347	80.12
279.579	84.12
279.81	85.12
280.042	77.12
280.273	92.12
280.505	81.12
280.736	81.12
280.968	82.12
281.199	69.12
281.431	76.12
281.662	78.12
281.894	85.12
282.125	77.12
282.356	81.12
282.588	72.12
282.819	61.12
283.051	65.12
283.282	72.12
283.513	81.12
283.745	75.12
283.976	78.12
284.207	76.12
284.439	69.12
284.67	83.12
284.901	84.12
285.132	69.12
285.364	77.12
285.595	74.12
285.826	84.12
286.057	88.12
286.288	84.12
286.52	89.12
286.751	85.12
286.982	84.12
287.213	88.12
287.444	66.12
287.675	83.12
287.906	79.12
288.138	75.12
288.369	77.12
288.6	85.12
288.831	75.12
289.062	73.12
289.293	85.12
289.524	76.12
289.755	75.12
289.986	84.12
290.217	86.12
290.448	66.12
290.679	81.12
290.91	69.12
291.141	79.12
291.371	82.12
291.602	85.12
291.833	84.12
292.064	94.12
292.295	87.12
292.526	71.12
292.757	79.12
292.987	77.12
293.218	79.12
293.449	81.12
293.68	76.12
293.91	80.12
294.141	88.12
294.372	78.12
294.603	75.12
294.833	78.12
295.064	75.12
295.295	87.12
295.525	84.12
295.756	82.12
295.987	76.12
296.217	84.12
296.448	78.12
296.679	69.12
296.909	79.12
297.14	92.12
297.37	78.12
297.601	82.12
297.831	82.12
298.062	80.12
298.292	82.12
298.523	77.12
298.753	78.12
298.984	85.12
299.214	79.12
299.445	65.12
299.675	76.12
299.905	91.12
300.136	85.12
300.366	85.12
300.597	88.12
300.827	69.12
301.057	74.12
301.288	75.12
301.518	82.12
301.748	87.12
301.979	87.12
302.209	79.12
302.439	92.12
302.669	75.12
302.9	87.12
303.13	79.12
303.36	97.12
303.59	87.12
303.82	78.12
304.051	74.12
304.281	85.12
304.511	81.12
304.741	73.12
304.971	79.12
305.201	87.12
305.431	82.12
305.661	70.12
305.891	84.12
306.121	83.12
306.352	78.12
306.582	83.12
306.812	79.12
307.042	69.12
307.272	88.12
307.502	79.12
307.731	68.12
307.961	76.12
308.191	89.12
308.421	78.12
308.651	85.12
308.881	81.12
309.111	86.12
309.341	74.12
309.571	78.12
309.8	74.12
310.03	73.12
310.26	82.12
310.49	91.12
310.72	78.12
310.949	75.12
311.179	85.12
311.409	61.12
311.639	82.12
311.868	72.12
312.098	74.12
312.328	83.12
312.557	82.12
312.787	76.12
313.017	81.12
313.246	75.12
313.476	66.12
313.706	75.12
313.935	93.12
314.165	85.12
314.394	83.12
314.624	68.12
314.853	79.12
315.083	86.12
315.312	88.12
315.542	76.12
315.771	75.12
316.001	73.12
316.23	79.12
316.46	66.12
316.689	64.12
316.919	83.12
317.148	74.12
317.377	80.12
317.607	75.12
317.836	79.12
318.065	77.12
318.295	76.12
318.524	87.12
318.753	77.12
318.983	83.12
319.212	77.12
319.441	77.12
319.67	81.12
319.9	68.12
320.129	85.12
320.358	84.12
320.587	80.12
320.816	91.12
321.046	86.12
321.275	78.12
321.504	81.12
321.733	71.12
321.962	80.12
322.191	86.12
322.42	83.12
322.649	73.12
322.878	79.12
323.108	84.12
323.337	96.12
323.566	75.12
323.795	72.12
324.024	71.12
324.253	69.12
324.482	79.12
324.71	74.12
324.939	86.12
325.168	93.12
325.397	73.12
325.626	73.12
325.855	81.12
326.084	86.12
326.313	93.12
326.542	75.12
326.77	61.12
326.999	91.12
327.228	84.12
327.457	81.12
327.686	79.12
327.914	83.12
328.143	88.12
328.372	73.12
328.6	91.12
328.829	91.12
329.058	78.12
329.287	78.12
329.515	72.12
329.744	74.12
329.972	75.12
330.201	85.12
330.43	83.12
330.658	77.12
330.887	84.12
331.115	71.12
331.344	88.12
331.572	87.12
331.801	89.12
332.03	74.12
332.258	79.12
332.486	91.12
332.715	70.12
332.943	74.12
333.172	71.12
333.4	83.12
333.629	60.12
333.857	73.12
334.085	79.12
334.314	84.12
334.542	83.12
334.771	80.12
334.999	87.12
335.227	83.12
335.455	76.12
335.684	76.12
335.912	75.12
336.14	75.12
336.369	87.12
336.597	65.12
336.825	89.12
337.053	74.12
337.281	81.12
337.51	95.12
337.738	89.12
337.966	85.12
338.194	90.12
338.422	78.12
338.65	78.12
338.878	80.12
339.106	75.12
339.334	79.12
339.562	79.12
339.79	58.12
340.018	75.12
340.246	73.12
340.474	73.12
340.702	72.12
340.93	78.12
341.158	76.12
341.386	75.12
341.614	80.12
341.842	90.12
342.07	77.12
342.298	91.12
342.526	76.12
342.754	76.12
342.981	93.12
343.209	77.12
343.437	92.12
343.665	77.12
343.893	87.12
344.12	82.12
344.348	64.12
344.576	71.12
344.804	65.12
345.031	71.12
345.259	83.12
345.487	83.12
345.714	69.12
345.942	75.12
346.17	79.12
346.397	90.12
346.625	93.12
346.853	92.12
347.08	91.12
347.308	74.12
347.535	66.12
347.763	86.12
347.99	83.12
348.218	89.12
348.445	72.12
348.673	75.12
348.9	87.12
349.128	76.12
349.355	67.12
349.583	64.12
349.81	82.12
350.037	83.12
350.265	86.12
350.492	80.12
350.72	75.12
350.947	91.12
351.174	61.12
351.402	95.12
351.629	79.12
351.856	73.12
352.083	86.12
352.311	85.12
352.538	86.12
352.765	80.12
352.992	81.12
353.22	84.12
353.447	70.12
353.674	83.12
353.901	91.12
354.128	83.12
354.355	94.12
354.583	73.12
354.81	75.12
355.037	81.12
355.264	75.12
355.491	67.12
355.718	77.12
355.945	66.12
356.172	73.12
356.399	81.12
356.626	88.12
356.853	82.12
357.08	80.12
357.307	71.12
357.534	75.12
357.761	76.12
357.988	68.12
358.215	86.12
358.441	71.12
358.668	80.12
358.895	76.12
359.122	78.12
359.349	91.12
359.576	86.12
359.802	56.12
360.029	66.12
360.256	81.12
360.483	81.12
360.709	82.12
360.936	83.12
361.163	81.12
361.39	88.12
361.616	65.12
361.843	88.12
362.07	83.12
362.296	75.12
362.523	74.12
362.749	73.12
362.976	71.12
363.203	70.12
363.429	78.12
363.656	69.12
363.882	85.12
364.109	87.12
364.335	72.12
364.562	88.12
364.788	80.12
365.015	80.12
365.241	85.12
365.468	83.12
365.694	74.12
365.92	84.12
366.147	88.12
366.373	82.12
366.599	74.12
366.826	83.12
367.052	69.12
367.278	60.12
367.505	81.12
367.731	90.12
367.957	75.12
368.184	71.12
368.41	74.12
368.636	80.12
368.862	76.12
369.089	77.12
369.315	78.12
369.541	67.12
369.767	71.12
369.993	90.12
370.219	58.12
370.445	77.12
370.672	75.12
370.898	72.12
371.124	73.12
371.35	67.12
371.576	78.12
371.802	62.12
372.028	81.12
372.254	83.12
372.48	89.12
372.706	84.12
372.932	90.12
373.158	75.12
373.384	88.12
373.61	77.12
373.835	73.12
374.061	73.12
374.287	86.12
374.513	64.12
374.739	80.12
374.965	79.12
375.191	74.12
375.416	84.12
375.642	77.12
375.868	77.12
376.094	74.12
376.319	70.12
376.545	84.12
376.771	80.12
376.997	66.12
377.222	76.12
377.448	74.12
377.674	82.12
377.899	85.12
378.125	85.12
378.35	89.12
378.576	75.12
378.802	79.12
379.027	74.12
379.253	65.12
379.478	87.12
379.704	78.12
379.929	73.12
380.155	85.12
380.38	77.12
380.606	84.12
380.831	71.12
381.057	85.12
381.282	71.12
381.507	69.12
381.733	73.12
381.958	69.12
382.184	75.12
382.409	77.12
382.634	78.12
382.86	60.12
383.085	79.12
383.31	69.12
383.535	86.12
383.761	72.12
383.986	69.12
384.211	79.12
384.436	84.12
384.662	67.12
384.887	77.12
385.112	75.12
385.337	76.12
385.562	85.12
385.787	86.12
386.013	83.12
386.238	71.12
386.463	82.12
386.688	87.12
386.913	93.12
387.138	84.12
387.363	77.12
387.588	81.12
387.813	84.12
388.038	74.12
388.263	72.12
388.488	85.12
388.713	78.12
388.938	78.12
389.163	73.12
389.387	83.12
389.612	74.12
389.837	83.12
390.062	61.12
390.287	80.12
390.512	80.12
390.736	86.12
390.961	65.12
391.186	73.12
391.411	91.12
391.636	77.12
391.86	85.12
392.085	83.12
392.31	77.12
392.534	86.12
392.759	83.12
392.984	80.12
393.208	72.12
393.433	76.12
393.658	82.12
393.882	83.12
394.107	83.12
394.331	53.12
394.556	76.12
394.78	85.12
395.005	88.12
395.229	78.12
395.454	68.12
395.678	77.12
395.903	77.12
396.127	84.12
396.352	59.12
396.576	76.12
396.801	87.12
397.025	83.12
397.249	55.12
397.474	79.12
397.698	66.12
397.922	60.12
398.147	68.12
398.371	84.12
398.595	83.12
398.82	77.12
399.044	68.12
399.268	70.12
399.492	65.12
399.717	66.12
399.941	79.12
400.165	81.12
400.389	70.12
400.613	73.12
400.837	84.12
401.062	67.12
401.286	77.12
401.51	64.12
401.734	76.12
401.958	80.12
402.182	75.12
402.406	79.12
402.63	79.12
402.854	86.12
403.078	85.12
403.302	89.12
403.526	87.12
403.75	80.12
403.974	87.12
404.198	79.12
404.422	77.12
404.645	71.12
404.869	74.12
405.093	79.12
405.317	75.12
405.541	72.12
405.765	80.12
405.988	85.12
406.212	77.12
406.436	57.12
406.66	87.12
406.883	83.12
407.107	84.12
407.331	73.12
407.555	78.12
407.778	73.12
408.002	77.12
408.226	75.12
408.449	97.12
408.673	72.12
408.896	76.12
409.12	76.12
409.344	82.12
409.567	73.12
409.791	65.12
410.014	82.12
410.238	71.12
410.461	79.12
410.685	81.12
410.908	77.12
411.132	83.12
411.355	67.12
411.578	76.12
411.802	79.12
412.025	77.12
412.249	64.12
412.472	72.12
412.695	59.12
412.919	73.12
413.142	75.12
413.365	71.12
413.589	65.12
413.812	85.12
414.035	87.12
414.258	76.12
414.482	73.12
414.705	85.12
414.928	72.12
415.151	83.12
415.374	76.12
415.597	93.12
415.821	69.12
416.044	80.12
416.267	85.12
416.49	72.12
416.713	73.12
416.936	76.12
417.159	80.12
417.382	78.12
417.605	83.12
417.828	81.12
418.051	67.12
418.274	69.12
418.497	72.12
418.72	81.12
418.943	61.12
419.166	71.12
419.389	81.12
419.611	75.12
419.834	71.12
420.057	71.12
420.28	73.12
420.503	66.12
420.726	67.12
420.948	85.12
421.171	81.12
421.394	84.12
421.617	71.12
421.839	73.12
422.062	78.12
422.285	67.12
422.507	69.12
422.73	67.12
422.953	71.12
423.175	77.12
423.398	66.12
423.621	84.12
423.843	74.12
424.066	73.12
424.288	75.12
424.511	83.12
424.733	71.12
424.956	80.12
425.178	84.12
425.401	83.12
425.623	70.12
425.846	77.12
426.068	73.12
426.291	69.12
426.513	74.12
426.735	79.12
426.958	81.12
427.18	80.12
427.402	72.12
427.625	75.12
427.847	84.12
428.069	75.12
428.292	83.12
428.514	63.12
428.736	76.12
428.958	73.12
429.181	68.12
429.403	83.12
429.625	87.12
429.847	73.12
430.069	80.12
430.292	83.12
430.514	83.12
430.736	76.12
430.958	77.12
431.18	71.12
431.402	83.12
431.624	80.12
431.846	69.12
432.068	88.12
432.29	70.12
432.512	69.12
432.734	62.12
432.956	74.12
433.178	76.12
433.4	74.12
433.622	67.12
433.844	84.12
434.066	87.12
434.287	81.12
434.509	96.12
434.731	81.12
434.953	76.12
435.175	72.12
435.397	81.12
435.618	76.12
435.84	65.12
436.062	83.12
436.284	69.12
436.505	68.12
436.727	60.12
436.949	72.12
437.17	74.12
437.392	69.12
437.614	76.12
437.835	79.12
438.057	76.12
438.278	75.12
438.5	88.12
438.721	75.12
438.943	77.12
439.165	82.12
439.386	71.12
439.608	79.12
439.829	71.12
440.05	90.12
440.272	59.12
440.493	65.12
440.715	69.12
440.936	73.12
441.158	80.12
441.379	79.12
441.6	82.12
441.822	90.12
442.043	75.12
442.264	70.12
442.486	78.12
442.707	73.12
442.928	70.12
443.149	73.12
443.371	76.12
443.592	66.12
443.813	87.12
444.034	87.12
444.255	79.12
444.476	87.12
444.698	76.12
444.919	67.12
445.14	157.12
445.361	103.12
445.582	67.12
445.803	83.12
446.024	67.12
446.245	87.12
446.466	79.12
446.687	74.12
446.908	79.12
447.129	76.12
447.35	72.12
447.571	75.12
447.792	91.12
448.013	66.12
448.234	73.12
448.455	89.12
448.675	65.12
448.896	87.12
449.117	67.12
449.338	73.12
449.559	73.12
449.779	74.12
450	79.12
450.221	66.12
450.442	76.12
450.662	76.12
450.883	93.12
451.104	88.12
451.324	85.12
451.545	72.12
451.766	81.12
451.986	79.12
452.207	78.12
452.428	66.12
452.648	66.12
452.869	71.12
453.089	81.12
453.31	71.12
453.53	86.12
453.751	66.12
453.971	86.12
454.192	80.12
454.412	77.12
454.633	79.12
454.853	79.12
455.073	66.12
455.294	84.12
455.514	70.12
455.734	83.12
455.955	70.12
456.175	71.12
456.395	64.12
456.616	64.12
456.836	91.12
457.056	80.12
457.276	75.12
457.497	66.12
457.717	73.12
457.937	74.12
458.157	85.12
458.377	75.12
458.598	74.12
458.818	66.12
459.038	79.12
459.258	72.12
459.478	72.12
459.698	80.12
459.918	77.12
460.138	51.12
460.358	82.12
460.578	75.12
460.798	76.12
461.018	69.12
461.238	83.12
461.458	69.12
461.678	88.12
461.898	79.12
462.118	71.12
462.338	77.12
462.558	77.12
462.777	83.12
462.997	89.12
463.217	82.12
463.437	86.12
463.657	88.12
463.876	74.12
464.096	66.12
464.316	73.12
464.536	83.12
464.755	84.12
464.975	88.12
465.195	80.12
465.414	78.12
465.634	82.12
465.854	81.12
466.073	66.12
466.293	70.12
466.512	73.12
466.732	73.12
466.951	76.12
467.171	88.12
467.391	77.12
467.61	78.12
467.829	78.12
468.049	80.12
468.268	76.12
468.488	76.12
468.707	71.12
468.927	74.12
469.146	78.12
469.365	66.12
469.585	73.12
469.804	80.12
470.023	70.12
470.243	68.12
470.462	80.12
470.681	70.12
470.901	81.12
471.12	75.12
471.339	73.12
471.558	69.12
471.777	92.12
471.997	72.12
472.216	79.12
472.435	67.12
472.654	75.12
472.873	88.12
473.092	75.12
473.311	89.12
473.53	68.12
473.749	80.12
473.968	75.12
474.187	84.12
474.406	79.12
474.625	76.12
474.844	85.12
475.063	73.12
475.282	74.12
475.501	80.12
475.72	68.12
475.939	63.12
476.158	79.12
476.377	91.12
476.596	74.12
476.814	69.12
477.033	71.12
477.252	81.12
477.471	77.12
477.69	72.12
477.908	80.12
478.127	87.12
478.346	69.12
478.564	80.12
478.783	75.12
479.002	73.12
479.22	93.12
479.439	85.12
479.658	69.12
479.876	90.12
480.095	69.12
480.313	76.12
480.532	74.12
480.751	75.12
480.969	88.12
481.188	67.12
481.406	61.12
481.624	80.12
481.843	81.12
482.061	84.12
482.28	80.12
482.498	76.12
482.717	79.12
482.935	83.12
483.153	73.12
483.372	69.12
483.59	80.12
483.808	71.12
484.027	84.12
484.245	87.12
484.463	76.12
484.681	83.12
484.9	81.12
485.118	73.12
485.336	71.12
485.554	70.12
485.772	64.12
485.99	69.12
486.209	77.12
486.427	75.12
486.645	86.12
486.863	72.12
487.081	69.12
487.299	87.12
487.517	68.12
487.735	76.12
487.953	77.12
488.171	84.12
488.389	71.12
488.607	83.12
488.825	65.12
489.043	82.12
489.261	87.12
489.479	88.12
489.696	75.12
489.914	65.12
490.132	87.12
490.35	81.12
490.568	77.12
490.786	84.12
491.003	86.12
491.221	69.12
491.439	55.12
491.657	82.12
491.874	79.12
492.092	84.12
492.31	78.12
492.527	71.12
492.745	84.12
492.963	87.12
493.18	77.12
493.398	82.12
493.615	74.12
493.833	84.12
494.05	78.12
494.268	79.12
494.485	88.12
494.703	79.12
494.92	85.12
495.138	71.12
495.355	87.12
495.573	91.12
495.79	85.12
496.008	77.12
496.225	68.12
496.442	79.12
496.66	78.12
496.877	72.12
497.094	90.12
497.312	74.12
497.529	87.12
497.746	80.12
497.963	70.12
498.181	90.12
498.398	80.12
498.615	71.12
498.832	71.12
499.049	82.12
499.267	85.12
499.484	77.12
499.701	81.12
499.918	75.12
500.135	88.12
500.352	81.12
500.569	80.12
500.786	64.12
501.003	91.12
501.22	91.12
501.437	84.12
501.654	78.12
501.871	70.12
502.088	82.12
502.305	66.12
502.522	67.12
502.739	71.12
502.956	75.12
503.172	73.12
503.389	85.12
503.606	71.12
503.823	82.12
504.04	77.12
504.256	77.12
504.473	75.12
504.69	81.12
504.907	84.12
505.123	83.12
505.34	74.12
505.557	88.12
505.773	85.12
505.99	80.12
506.207	91.12
506.423	66.12
506.64	81.12
506.856	73.12
507.073	80.12
507.289	56.12
507.506	75.12
507.722	67.12
507.939	72.12
508.155	82.12
508.372	84.12
508.588	87.12
508.805	77.12
509.021	69.12
509.238	71.12
509.454	76.12
509.67	75.12
509.887	71.12
510.103	75.12
510.319	75.12
510.536	83.12
510.752	72.12
510.968	81.12
511.184	79.12
511.401	84.12
511.617	77.12
511.833	79.12
512.049	85.12
512.265	85.12
512.481	73.12
512.698	69.12
512.914	81.12
513.13	70.12
513.346	79.12
513.562	73.12
513.778	80.12
513.994	66.12
514.21	84.12
514.426	73.12
514.642	78.12
514.858	65.12
515.074	74.12
515.29	91.12
515.506	86.12
515.721	81.12
515.937	84.12
516.153	73.12
516.369	87.12
516.585	84.12
516.801	71.12
517.016	77.12
517.232	77.12
517.448	79.12
517.664	87.12
517.879	82.12
518.095	88.12
518.311	83.12
518.527	86.12
518.742	71.12
518.958	70.12
519.173	76.12
519.389	65.12
519.605	77.12
519.82	82.12
520.036	81.12
520.251	78.12
