Data from Background_2_HRD10591_00003.txt Node
Date: Wed Nov 05 14:46:58 EST 2025
User: Yrep
Spectrometer: HR+D1059
Trigger mode: 1
Integration Time (sec): 1.000000E-1
Scans to average: 1
Electric dark correction enabled: true
Nonlinearity correction enabled: false
Boxcar width: 0
XAxis mode: Wavelengths
Number of Pixels in Spectrum: 2048
>>>>>Begin Spectral Data<<<<<
223.165	-5.69
223.4	-5.69
223.635	-5.69
223.869	-32.69
224.104	-6.69
224.338	-10.69
224.573	-30.69
224.808	1.31
225.042	-3.69
225.277	3.31
225.511	-14.69
225.746	4.31
225.98	10.31
226.215	10.31
226.449	6.31
226.683	19.31
226.918	19.31
227.152	30.31
227.387	23.31
227.621	41.31
227.856	41.31
228.09	48.31
228.324	54.31
228.559	57.31
228.793	68.31
229.027	58.31
229.262	74.31
229.496	75.31
229.73	77.31
229.964	56.31
230.199	75.31
230.433	64.31
230.667	70.31
230.901	78.31
231.136	80.31
231.37	95.31
231.604	79.31
231.838	75.31
232.072	85.31
232.306	61.31
232.541	84.31
232.775	75.31
233.009	86.31
233.243	81.31
233.477	94.31
233.711	84.31
233.945	76.31
234.179	69.31
234.413	83.31
234.647	72.31
234.881	63.31
235.115	78.31
235.349	74.31
235.583	83.31
235.817	82.31
236.051	73.31
236.285	71.31
236.519	80.31
236.753	80.31
236.987	92.31
237.221	76.31
237.455	66.31
237.689	75.31
237.922	76.31
238.156	63.31
238.39	73.31
238.624	82.31
238.858	70.31
239.091	77.31
239.325	75.31
239.559	77.31
239.793	75.31
240.027	68.31
240.26	80.31
240.494	77.31
240.728	84.31
240.961	76.31
241.195	88.31
241.429	70.31
241.662	82.31
241.896	60.31
242.13	67.31
242.363	80.31
242.597	85.31
242.83	79.31
243.064	64.31
243.298	61.31
243.531	72.31
243.765	80.31
243.998	75.31
244.232	88.31
244.465	74.31
244.699	78.31
244.932	77.31
245.166	86.31
245.399	83.31
245.633	79.31
245.866	81.31
246.099	88.31
246.333	76.31
246.566	84.31
246.8	89.31
247.033	70.31
247.266	72.31
247.5	76.31
247.733	83.31
247.966	78.31
248.2	78.31
248.433	75.31
248.666	70.31
248.899	85.31
249.133	81.31
249.366	76.31
249.599	76.31
249.832	73.31
250.066	70.31
250.299	86.31
250.532	91.31
250.765	82.31
250.998	89.31
251.231	78.31
251.465	74.31
251.698	71.31
251.931	69.31
252.164	68.31
252.397	83.31
252.63	88.31
252.863	80.31
253.096	92.31
253.329	76.31
253.562	66.31
253.795	80.31
254.028	91.31
254.261	81.31
254.494	84.31
254.727	83.31
254.96	83.31
255.193	81.31
255.426	94.31
255.659	72.31
255.892	79.31
256.124	78.31
256.357	86.31
256.59	87.31
256.823	86.31
257.056	88.31
257.289	86.31
257.521	74.31
257.754	78.31
257.987	80.31
258.22	90.31
258.452	84.31
258.685	80.31
258.918	69.31
259.151	80.31
259.383	69.31
259.616	76.31
259.849	89.31
260.081	94.31
260.314	73.31
260.547	89.31
260.779	72.31
261.012	75.31
261.244	77.31
261.477	82.31
261.71	81.31
261.942	70.31
262.175	83.31
262.407	87.31
262.64	78.31
262.872	82.31
263.105	89.31
263.337	81.31
263.57	70.31
263.802	96.31
264.035	89.31
264.267	98.31
264.499	77.31
264.732	76.31
264.964	79.31
265.197	66.31
265.429	78.31
265.661	82.31
265.894	75.31
266.126	87.31
266.358	85.31
266.591	92.31
266.823	76.31
267.055	84.31
267.287	83.31
267.52	74.31
267.752	72.31
267.984	62.31
268.216	81.31
268.448	76.31
268.681	85.31
268.913	78.31
269.145	60.31
269.377	80.31
269.609	80.31
269.841	81.31
270.073	67.31
270.306	85.31
270.538	86.31
270.77	81.31
271.002	79.31
271.234	86.31
271.466	87.31
271.698	76.31
271.93	84.31
272.162	85.31
272.394	80.31
272.626	77.31
272.858	76.31
273.09	84.31
273.322	83.31
273.553	80.31
273.785	88.31
274.017	86.31
274.249	86.31
274.481	90.31
274.713	93.31
274.945	77.31
275.176	83.31
275.408	90.31
275.64	69.31
275.872	88.31
276.104	91.31
276.335	81.31
276.567	80.31
276.799	81.31
277.031	73.31
277.262	92.31
277.494	81.31
277.726	90.31
277.957	80.31
278.189	85.31
278.421	85.31
278.652	75.31
278.884	68.31
279.115	94.31
279.347	74.31
279.579	81.31
279.81	89.31
280.042	86.31
280.273	83.31
280.505	81.31
280.736	80.31
280.968	92.31
281.199	80.31
281.431	79.31
281.662	66.31
281.894	96.31
282.125	96.31
282.356	68.31
282.588	80.31
282.819	76.31
283.051	78.31
283.282	71.31
283.513	106.31
283.745	88.31
283.976	76.31
284.207	91.31
284.439	93.31
284.67	90.31
284.901	83.31
285.132	88.31
285.364	85.31
285.595	71.31
285.826	69.31
286.057	82.31
286.288	79.31
286.52	85.31
286.751	93.31
286.982	101.31
287.213	82.31
287.444	88.31
287.675	90.31
287.906	81.31
288.138	76.31
288.369	92.31
288.6	76.31
288.831	72.31
289.062	86.31
289.293	93.31
289.524	97.31
289.755	84.31
289.986	92.31
290.217	73.31
290.448	88.31
290.679	90.31
290.91	83.31
291.141	89.31
291.371	85.31
291.602	81.31
291.833	82.31
292.064	96.31
292.295	72.31
292.526	65.31
292.757	95.31
292.987	69.31
293.218	76.31
293.449	81.31
293.68	88.31
293.91	90.31
294.141	94.31
294.372	88.31
294.603	95.31
294.833	81.31
295.064	93.31
295.295	88.31
295.525	92.31
295.756	86.31
295.987	83.31
296.217	93.31
296.448	91.31
296.679	80.31
296.909	84.31
297.14	91.31
297.37	101.31
297.601	78.31
297.831	68.31
298.062	80.31
298.292	72.31
298.523	84.31
298.753	84.31
298.984	77.31
299.214	102.31
299.445	89.31
299.675	82.31
299.905	83.31
300.136	88.31
300.366	78.31
300.597	76.31
300.827	95.31
301.057	86.31
301.288	79.31
301.518	77.31
301.748	84.31
301.979	102.31
302.209	85.31
302.439	80.31
302.669	83.31
302.9	97.31
303.13	86.31
303.36	86.31
303.59	78.31
303.82	88.31
304.051	84.31
304.281	76.31
304.511	78.31
304.741	73.31
304.971	79.31
305.201	94.31
305.431	81.31
305.661	81.31
305.891	79.31
306.121	84.31
306.352	80.31
306.582	85.31
306.812	96.31
307.042	63.31
307.272	88.31
307.502	78.31
307.731	90.31
307.961	76.31
308.191	80.31
308.421	82.31
308.651	92.31
308.881	90.31
309.111	90.31
309.341	83.31
309.571	71.31
309.8	68.31
310.03	90.31
310.26	82.31
310.49	97.31
310.72	101.31
310.949	70.31
311.179	90.31
311.409	82.31
311.639	89.31
311.868	92.31
312.098	76.31
312.328	87.31
312.557	89.31
312.787	93.31
313.017	86.31
313.246	93.31
313.476	89.31
313.706	91.31
313.935	78.31
314.165	86.31
314.394	85.31
314.624	84.31
314.853	86.31
315.083	82.31
315.312	79.31
315.542	107.31
315.771	85.31
316.001	99.31
316.23	97.31
316.46	82.31
316.689	88.31
316.919	94.31
317.148	81.31
317.377	78.31
317.607	97.31
317.836	88.31
318.065	78.31
318.295	85.31
318.524	91.31
318.753	89.31
318.983	86.31
319.212	88.31
319.441	88.31
319.67	104.31
319.9	76.31
320.129	83.31
320.358	91.31
320.587	84.31
320.816	77.31
321.046	74.31
321.275	85.31
321.504	79.31
321.733	74.31
321.962	78.31
322.191	74.31
322.42	90.31
322.649	75.31
322.878	86.31
323.108	80.31
323.337	77.31
323.566	86.31
323.795	101.31
324.024	80.31
324.253	90.31
324.482	90.31
324.71	89.31
324.939	87.31
325.168	83.31
325.397	91.31
325.626	89.31
325.855	71.31
326.084	75.31
326.313	90.31
326.542	86.31
326.77	80.31
326.999	82.31
327.228	72.31
327.457	88.31
327.686	81.31
327.914	88.31
328.143	80.31
328.372	77.31
328.6	78.31
328.829	80.31
329.058	80.31
329.287	65.31
329.515	91.31
329.744	91.31
329.972	91.31
330.201	89.31
330.43	85.31
330.658	85.31
330.887	77.31
331.115	83.31
331.344	92.31
331.572	80.31
331.801	82.31
332.03	95.31
332.258	88.31
332.486	81.31
332.715	95.31
332.943	83.31
333.172	76.31
333.4	94.31
333.629	82.31
333.857	70.31
334.085	77.31
334.314	92.31
334.542	76.31
334.771	86.31
334.999	77.31
335.227	88.31
335.455	92.31
335.684	89.31
335.912	78.31
336.14	86.31
336.369	80.31
336.597	75.31
336.825	80.31
337.053	72.31
337.281	85.31
337.51	96.31
337.738	94.31
337.966	80.31
338.194	91.31
338.422	84.31
338.65	93.31
338.878	92.31
339.106	79.31
339.334	94.31
339.562	76.31
339.79	94.31
340.018	90.31
340.246	94.31
340.474	84.31
340.702	77.31
340.93	69.31
341.158	82.31
341.386	83.31
341.614	76.31
341.842	88.31
342.07	64.31
342.298	87.31
342.526	90.31
342.754	76.31
342.981	79.31
343.209	88.31
343.437	96.31
343.665	74.31
343.893	87.31
344.12	76.31
344.348	63.31
344.576	80.31
344.804	85.31
345.031	90.31
345.259	82.31
345.487	85.31
345.714	91.31
345.942	78.31
346.17	86.31
346.397	79.31
346.625	91.31
346.853	101.31
347.08	89.31
347.308	88.31
347.535	72.31
347.763	96.31
347.99	82.31
348.218	90.31
348.445	97.31
348.673	97.31
348.9	80.31
349.128	67.31
349.355	63.31
349.583	89.31
349.81	72.31
350.037	84.31
350.265	98.31
350.492	79.31
350.72	85.31
350.947	96.31
351.174	78.31
351.402	73.31
351.629	63.31
351.856	99.31
352.083	79.31
352.311	79.31
352.538	80.31
352.765	92.31
352.992	81.31
353.22	87.31
353.447	69.31
353.674	75.31
353.901	94.31
354.128	95.31
354.355	82.31
354.583	92.31
354.81	101.31
355.037	93.31
355.264	96.31
355.491	86.31
355.718	77.31
355.945	80.31
356.172	79.31
356.399	88.31
356.626	96.31
356.853	85.31
357.08	95.31
357.307	90.31
357.534	91.31
357.761	68.31
357.988	92.31
358.215	84.31
358.441	80.31
358.668	78.31
358.895	80.31
359.122	88.31
359.349	72.31
359.576	72.31
359.802	77.31
360.029	80.31
360.256	85.31
360.483	81.31
360.709	86.31
360.936	76.31
361.163	90.31
361.39	76.31
361.616	59.31
361.843	82.31
362.07	99.31
362.296	91.31
362.523	87.31
362.749	85.31
362.976	79.31
363.203	81.31
363.429	90.31
363.656	70.31
363.882	78.31
364.109	89.31
364.335	76.31
364.562	90.31
364.788	90.31
365.015	77.31
365.241	91.31
365.468	88.31
365.694	73.31
365.92	95.31
366.147	79.31
366.373	66.31
366.599	89.31
366.826	85.31
367.052	77.31
367.278	94.31
367.505	82.31
367.731	90.31
367.957	71.31
368.184	79.31
368.41	76.31
368.636	78.31
368.862	87.31
369.089	66.31
369.315	68.31
369.541	90.31
369.767	93.31
369.993	83.31
370.219	86.31
370.445	73.31
370.672	86.31
370.898	85.31
371.124	83.31
371.35	80.31
371.576	99.31
371.802	71.31
372.028	72.31
372.254	74.31
372.48	89.31
372.706	83.31
372.932	82.31
373.158	78.31
373.384	97.31
373.61	80.31
373.835	94.31
374.061	83.31
374.287	76.31
374.513	87.31
374.739	80.31
374.965	93.31
375.191	76.31
375.416	96.31
375.642	88.31
375.868	66.31
376.094	83.31
376.319	82.31
376.545	105.31
376.771	91.31
376.997	84.31
377.222	92.31
377.448	91.31
377.674	94.31
377.899	83.31
378.125	80.31
378.35	94.31
378.576	76.31
378.802	83.31
379.027	79.31
379.253	92.31
379.478	90.31
379.704	88.31
379.929	72.31
380.155	93.31
380.38	86.31
380.606	84.31
380.831	77.31
381.057	93.31
381.282	83.31
381.507	81.31
381.733	96.31
381.958	74.31
382.184	90.31
382.409	91.31
382.634	84.31
382.86	67.31
383.085	83.31
383.31	82.31
383.535	72.31
383.761	77.31
383.986	83.31
384.211	92.31
384.436	88.31
384.662	85.31
384.887	87.31
385.112	84.31
385.337	87.31
385.562	82.31
385.787	86.31
386.013	84.31
386.238	101.31
386.463	80.31
386.688	90.31
386.913	72.31
387.138	79.31
387.363	78.31
387.588	89.31
387.813	100.31
388.038	90.31
388.263	78.31
388.488	85.31
388.713	82.31
388.938	76.31
389.163	77.31
389.387	70.31
389.612	92.31
389.837	76.31
390.062	88.31
390.287	84.31
390.512	80.31
390.736	83.31
390.961	84.31
391.186	90.31
391.411	69.31
391.636	77.31
391.86	78.31
392.085	86.31
392.31	85.31
392.534	82.31
392.759	94.31
392.984	101.31
393.208	80.31
393.433	80.31
393.658	68.31
393.882	84.31
394.107	91.31
394.331	76.31
394.556	79.31
394.78	87.31
395.005	96.31
395.229	85.31
395.454	90.31
395.678	86.31
395.903	74.31
396.127	76.31
396.352	80.31
396.576	79.31
396.801	82.31
397.025	77.31
397.249	87.31
397.474	88.31
397.698	76.31
397.922	82.31
398.147	78.31
398.371	85.31
398.595	92.31
398.82	75.31
399.044	107.31
399.268	77.31
399.492	85.31
399.717	87.31
399.941	83.31
400.165	71.31
400.389	74.31
400.613	78.31
400.837	85.31
401.062	89.31
401.286	77.31
401.51	88.31
401.734	86.31
401.958	91.31
402.182	70.31
402.406	78.31
402.63	91.31
402.854	78.31
403.078	93.31
403.302	84.31
403.526	80.31
403.75	80.31
403.974	70.31
404.198	83.31
404.422	80.31
404.645	73.31
404.869	80.31
405.093	92.31
405.317	66.31
405.541	92.31
405.765	77.31
405.988	63.31
406.212	82.31
406.436	66.31
406.66	76.31
406.883	64.31
407.107	81.31
407.331	72.31
407.555	80.31
407.778	87.31
408.002	65.31
408.226	79.31
408.449	82.31
408.673	80.31
408.896	75.31
409.12	80.31
409.344	87.31
409.567	75.31
409.791	85.31
410.014	73.31
410.238	87.31
410.461	82.31
410.685	73.31
410.908	80.31
411.132	73.31
411.355	78.31
411.578	93.31
411.802	87.31
412.025	71.31
412.249	84.31
412.472	64.31
412.695	69.31
412.919	88.31
413.142	78.31
413.365	78.31
413.589	81.31
413.812	90.31
414.035	78.31
414.258	81.31
414.482	86.31
414.705	85.31
414.928	81.31
415.151	76.31
415.374	69.31
415.597	84.31
415.821	90.31
416.044	76.31
416.267	87.31
416.49	78.31
416.713	89.31
416.936	85.31
417.159	82.31
417.382	98.31
417.605	88.31
417.828	87.31
418.051	89.31
418.274	82.31
418.497	79.31
418.72	90.31
418.943	74.31
419.166	82.31
419.389	89.31
419.611	90.31
419.834	91.31
420.057	82.31
420.28	77.31
420.503	84.31
420.726	96.31
420.948	86.31
421.171	64.31
421.394	76.31
421.617	72.31
421.839	73.31
422.062	83.31
422.285	64.31
422.507	77.31
422.73	88.31
422.953	83.31
423.175	72.31
423.398	73.31
423.621	70.31
423.843	83.31
424.066	85.31
424.288	74.31
424.511	66.31
424.733	72.31
424.956	70.31
425.178	92.31
425.401	92.31
425.623	69.31
425.846	88.31
426.068	78.31
426.291	86.31
426.513	70.31
426.735	88.31
426.958	74.31
427.18	93.31
427.402	69.31
427.625	88.31
427.847	70.31
428.069	76.31
428.292	83.31
428.514	89.31
428.736	98.31
428.958	78.31
429.181	76.31
429.403	80.31
429.625	65.31
429.847	85.31
430.069	83.31
430.292	78.31
430.514	76.31
430.736	79.31
430.958	78.31
431.18	78.31
431.402	70.31
431.624	74.31
431.846	83.31
432.068	82.31
432.29	75.31
432.512	88.31
432.734	81.31
432.956	91.31
433.178	88.31
433.4	78.31
433.622	70.31
433.844	85.31
434.066	80.31
434.287	71.31
434.509	82.31
434.731	91.31
434.953	68.31
435.175	75.31
435.397	74.31
435.618	74.31
435.84	94.31
436.062	78.31
436.284	77.31
436.505	79.31
436.727	81.31
436.949	85.31
437.17	84.31
437.392	85.31
437.614	89.31
437.835	82.31
438.057	80.31
438.278	78.31
438.5	72.31
438.721	72.31
438.943	79.31
439.165	89.31
439.386	85.31
439.608	89.31
439.829	83.31
440.05	79.31
440.272	92.31
440.493	91.31
440.715	78.31
440.936	76.31
441.158	90.31
441.379	85.31
441.6	84.31
441.822	89.31
442.043	77.31
442.264	83.31
442.486	88.31
442.707	71.31
442.928	78.31
443.149	71.31
443.371	75.31
443.592	85.31
443.813	73.31
444.034	84.31
444.255	80.31
444.476	86.31
444.698	81.31
444.919	80.31
445.14	145.31
445.361	118.31
445.582	90.31
445.803	84.31
446.024	82.31
446.245	80.31
446.466	77.31
446.687	79.31
446.908	84.31
447.129	77.31
447.35	82.31
447.571	78.31
447.792	83.31
448.013	81.31
448.234	82.31
448.455	84.31
448.675	73.31
448.896	80.31
449.117	73.31
449.338	100.31
449.559	83.31
449.779	85.31
450	86.31
450.221	89.31
450.442	82.31
450.662	89.31
450.883	88.31
451.104	82.31
451.324	85.31
451.545	74.31
451.766	85.31
451.986	93.31
452.207	77.31
452.428	88.31
452.648	79.31
452.869	86.31
453.089	80.31
453.31	85.31
453.53	81.31
453.751	88.31
453.971	78.31
454.192	88.31
454.412	83.31
454.633	90.31
454.853	88.31
455.073	74.31
455.294	97.31
455.514	76.31
455.734	76.31
455.955	81.31
456.175	69.31
456.395	78.31
456.616	100.31
456.836	84.31
457.056	80.31
457.276	83.31
457.497	77.31
457.717	89.31
457.937	81.31
458.157	80.31
458.377	77.31
458.598	77.31
458.818	85.31
459.038	70.31
459.258	78.31
459.478	84.31
459.698	91.31
459.918	81.31
460.138	77.31
460.358	94.31
460.578	78.31
460.798	77.31
461.018	81.31
461.238	84.31
461.458	76.31
461.678	76.31
461.898	66.31
462.118	83.31
462.338	88.31
462.558	80.31
462.777	84.31
462.997	88.31
463.217	94.31
463.437	80.31
463.657	75.31
463.876	72.31
464.096	86.31
464.316	81.31
464.536	79.31
464.755	76.31
464.975	88.31
465.195	90.31
465.414	90.31
465.634	84.31
465.854	88.31
466.073	81.31
466.293	81.31
466.512	76.31
466.732	84.31
466.951	91.31
467.171	69.31
467.391	67.31
467.61	85.31
467.829	82.31
468.049	68.31
468.268	98.31
468.488	72.31
468.707	89.31
468.927	85.31
469.146	88.31
469.365	62.31
469.585	89.31
469.804	81.31
470.023	71.31
470.243	68.31
470.462	79.31
470.681	76.31
470.901	86.31
471.12	88.31
471.339	86.31
471.558	67.31
471.777	73.31
471.997	74.31
472.216	74.31
472.435	81.31
472.654	84.31
472.873	89.31
473.092	84.31
473.311	83.31
473.53	77.31
473.749	86.31
473.968	90.31
474.187	93.31
474.406	75.31
474.625	89.31
474.844	81.31
475.063	74.31
475.282	78.31
475.501	78.31
475.72	86.31
475.939	76.31
476.158	76.31
476.377	103.31
476.596	90.31
476.814	78.31
477.033	86.31
477.252	91.31
477.471	80.31
477.69	83.31
477.908	68.31
478.127	82.31
478.346	79.31
478.564	85.31
478.783	95.31
479.002	74.31
479.22	90.31
479.439	76.31
479.658	83.31
479.876	60.31
480.095	86.31
480.313	88.31
480.532	80.31
480.751	86.31
480.969	89.31
481.188	78.31
481.406	87.31
481.624	90.31
481.843	83.31
482.061	92.31
482.28	84.31
482.498	83.31
482.717	106.31
482.935	93.31
483.153	80.31
483.372	87.31
483.59	85.31
483.808	69.31
484.027	82.31
484.245	72.31
484.463	90.31
484.681	93.31
484.9	71.31
485.118	77.31
485.336	77.31
485.554	89.31
485.772	78.31
485.99	93.31
486.209	83.31
486.427	77.31
486.645	91.31
486.863	78.31
487.081	77.31
487.299	72.31
487.517	94.31
487.735	68.31
487.953	83.31
488.171	85.31
488.389	81.31
488.607	80.31
488.825	73.31
489.043	76.31
489.261	90.31
489.479	93.31
489.696	89.31
489.914	78.31
490.132	89.31
490.35	71.31
490.568	80.31
490.786	90.31
491.003	91.31
491.221	77.31
491.439	79.31
491.657	81.31
491.874	96.31
492.092	78.31
492.31	85.31
492.527	80.31
492.745	80.31
492.963	83.31
493.18	78.31
493.398	72.31
493.615	76.31
493.833	90.31
494.05	78.31
494.268	73.31
494.485	92.31
494.703	83.31
494.92	81.31
495.138	90.31
495.355	89.31
495.573	82.31
495.79	76.31
496.008	74.31
496.225	75.31
496.442	71.31
496.66	96.31
496.877	89.31
497.094	81.31
497.312	88.31
497.529	87.31
497.746	75.31
497.963	69.31
498.181	78.31
498.398	78.31
498.615	89.31
498.832	85.31
499.049	95.31
499.267	89.31
499.484	75.31
499.701	99.31
499.918	101.31
500.135	69.31
500.352	84.31
500.569	73.31
500.786	78.31
501.003	86.31
501.22	73.31
501.437	84.31
501.654	79.31
501.871	78.31
502.088	89.31
502.305	80.31
502.522	92.31
502.739	78.31
502.956	90.31
503.172	73.31
503.389	80.31
503.606	90.31
503.823	83.31
504.04	82.31
504.256	97.31
504.473	77.31
504.69	81.31
504.907	82.31
505.123	83.31
505.34	79.31
505.557	94.31
505.773	80.31
505.99	81.31
506.207	77.31
506.423	85.31
506.64	76.31
506.856	81.31
507.073	83.31
507.289	76.31
507.506	70.31
507.722	61.31
507.939	83.31
508.155	91.31
508.372	64.31
508.588	76.31
508.805	95.31
509.021	92.31
509.238	80.31
509.454	86.31
509.67	69.31
509.887	76.31
510.103	97.31
510.319	81.31
510.536	81.31
510.752	85.31
510.968	78.31
511.184	79.31
511.401	84.31
511.617	86.31
511.833	84.31
512.049	83.31
512.265	77.31
512.481	87.31
512.698	77.31
512.914	95.31
513.13	82.31
513.346	100.31
513.562	77.31
513.778	93.31
513.994	95.31
514.21	77.31
514.426	86.31
514.642	79.31
514.858	85.31
515.074	89.31
515.29	82.31
515.506	80.31
515.721	83.31
515.937	91.31
516.153	84.31
516.369	74.31
516.585	83.31
516.801	80.31
517.016	74.31
517.232	81.31
517.448	97.31
517.664	75.31
517.879	81.31
518.095	94.31
518.311	80.31
518.527	79.31
518.742	80.31
518.958	89.31
519.173	88.31
519.389	85.31
519.605	80.31
519.82	76.31
520.036	83.31
