Data from Background_2_HRD10591_00027.txt Node
Date: Wed Nov 05 14:47:10 EST 2025
User: Yrep
Spectrometer: HR+D1059
Trigger mode: 1
Integration Time (sec): 1.000000E-1
Scans to average: 1
Electric dark correction enabled: true
Nonlinearity correction enabled: false
Boxcar width: 0
XAxis mode: Wavelengths
Number of Pixels in Spectrum: 2048
>>>>>Begin Spectral Data<<<<<
223.165	-14.69
223.4	-14.69
223.635	-14.69
223.869	-8.69
224.104	-13.69
224.338	-15.69
224.573	-14.69
224.808	-15.69
225.042	1.31
225.277	-15.69
225.511	-11.69
225.746	10.31
225.98	4.31
226.215	12.31
226.449	12.31
226.683	21.31
226.918	28.31
227.152	20.31
227.387	28.31
227.621	41.31
227.856	65.31
228.09	50.31
228.324	55.31
228.559	65.31
228.793	65.31
229.027	67.31
229.262	78.31
229.496	83.31
229.73	63.31
229.964	85.31
230.199	84.31
230.433	75.31
230.667	85.31
230.901	78.31
231.136	91.31
231.37	81.31
231.604	82.31
231.838	80.31
232.072	80.31
232.306	79.31
232.541	75.31
232.775	79.31
233.009	76.31
233.243	89.31
233.477	86.31
233.711	73.31
233.945	77.31
234.179	84.31
234.413	75.31
234.647	71.31
234.881	86.31
235.115	89.31
235.349	93.31
235.583	83.31
235.817	75.31
236.051	82.31
236.285	84.31
236.519	105.31
236.753	84.31
236.987	75.31
237.221	88.31
237.455	79.31
237.689	81.31
237.922	93.31
238.156	71.31
238.39	77.31
238.624	70.31
238.858	87.31
239.091	71.31
239.325	88.31
239.559	81.31
239.793	84.31
240.027	85.31
240.26	84.31
240.494	90.31
240.728	70.31
240.961	78.31
241.195	73.31
241.429	88.31
241.662	80.31
241.896	63.31
242.13	64.31
242.363	79.31
242.597	85.31
242.83	68.31
243.064	91.31
243.298	65.31
243.531	83.31
243.765	77.31
243.998	90.31
244.232	76.31
244.465	86.31
244.699	69.31
244.932	73.31
245.166	80.31
245.399	65.31
245.633	83.31
245.866	64.31
246.099	83.31
246.333	69.31
246.566	73.31
246.8	64.31
247.033	71.31
247.266	72.31
247.5	63.31
247.733	88.31
247.966	63.31
248.2	86.31
248.433	67.31
248.666	78.31
248.899	77.31
249.133	78.31
249.366	83.31
249.599	97.31
249.832	78.31
250.066	86.31
250.299	83.31
250.532	89.31
250.765	79.31
250.998	69.31
251.231	91.31
251.465	85.31
251.698	79.31
251.931	80.31
252.164	84.31
252.397	93.31
252.63	89.31
252.863	66.31
253.096	72.31
253.329	79.31
253.562	78.31
253.795	73.31
254.028	86.31
254.261	78.31
254.494	81.31
254.727	69.31
254.96	73.31
255.193	89.31
255.426	74.31
255.659	88.31
255.892	87.31
256.124	80.31
256.357	82.31
256.59	76.31
256.823	90.31
257.056	70.31
257.289	83.31
257.521	81.31
257.754	70.31
257.987	76.31
258.22	93.31
258.452	81.31
258.685	69.31
258.918	79.31
259.151	81.31
259.383	80.31
259.616	80.31
259.849	82.31
260.081	80.31
260.314	94.31
260.547	84.31
260.779	85.31
261.012	95.31
261.244	72.31
261.477	81.31
261.71	75.31
261.942	89.31
262.175	82.31
262.407	77.31
262.64	74.31
262.872	85.31
263.105	81.31
263.337	80.31
263.57	77.31
263.802	90.31
264.035	87.31
264.267	93.31
264.499	92.31
264.732	70.31
264.964	90.31
265.197	94.31
265.429	90.31
265.661	81.31
265.894	81.31
266.126	87.31
266.358	85.31
266.591	81.31
266.823	82.31
267.055	78.31
267.287	84.31
267.52	80.31
267.752	85.31
267.984	83.31
268.216	87.31
268.448	83.31
268.681	102.31
268.913	85.31
269.145	88.31
269.377	80.31
269.609	75.31
269.841	89.31
270.073	84.31
270.306	91.31
270.538	78.31
270.77	80.31
271.002	88.31
271.234	86.31
271.466	74.31
271.698	83.31
271.93	78.31
272.162	79.31
272.394	87.31
272.626	86.31
272.858	69.31
273.09	77.31
273.322	80.31
273.553	84.31
273.785	76.31
274.017	87.31
274.249	84.31
274.481	87.31
274.713	80.31
274.945	89.31
275.176	85.31
275.408	84.31
275.64	70.31
275.872	92.31
276.104	85.31
276.335	89.31
276.567	81.31
276.799	81.31
277.031	75.31
277.262	91.31
277.494	93.31
277.726	80.31
277.957	82.31
278.189	83.31
278.421	87.31
278.652	82.31
278.884	73.31
279.115	97.31
279.347	94.31
279.579	85.31
279.81	88.31
280.042	89.31
280.273	83.31
280.505	78.31
280.736	81.31
280.968	81.31
281.199	86.31
281.431	95.31
281.662	87.31
281.894	85.31
282.125	84.31
282.356	81.31
282.588	97.31
282.819	90.31
283.051	80.31
283.282	93.31
283.513	98.31
283.745	101.31
283.976	73.31
284.207	90.31
284.439	86.31
284.67	83.31
284.901	77.31
285.132	98.31
285.364	87.31
285.595	104.31
285.826	83.31
286.057	96.31
286.288	87.31
286.52	80.31
286.751	90.31
286.982	76.31
287.213	76.31
287.444	93.31
287.675	82.31
287.906	100.31
288.138	76.31
288.369	81.31
288.6	86.31
288.831	99.31
289.062	89.31
289.293	77.31
289.524	77.31
289.755	85.31
289.986	88.31
290.217	98.31
290.448	79.31
290.679	74.31
290.91	86.31
291.141	84.31
291.371	86.31
291.602	87.31
291.833	80.31
292.064	90.31
292.295	90.31
292.526	79.31
292.757	93.31
292.987	74.31
293.218	98.31
293.449	93.31
293.68	73.31
293.91	94.31
294.141	86.31
294.372	83.31
294.603	90.31
294.833	90.31
295.064	77.31
295.295	90.31
295.525	85.31
295.756	102.31
295.987	77.31
296.217	91.31
296.448	97.31
296.679	82.31
296.909	98.31
297.14	80.31
297.37	90.31
297.601	97.31
297.831	81.31
298.062	93.31
298.292	93.31
298.523	96.31
298.753	87.31
298.984	94.31
299.214	79.31
299.445	96.31
299.675	93.31
299.905	86.31
300.136	94.31
300.366	77.31
300.597	91.31
300.827	91.31
301.057	83.31
301.288	88.31
301.518	89.31
301.748	105.31
301.979	80.31
302.209	88.31
302.439	73.31
302.669	95.31
302.9	78.31
303.13	81.31
303.36	77.31
303.59	85.31
303.82	86.31
304.051	90.31
304.281	90.31
304.511	80.31
304.741	91.31
304.971	102.31
305.201	94.31
305.431	94.31
305.661	73.31
305.891	94.31
306.121	81.31
306.352	88.31
306.582	72.31
306.812	87.31
307.042	86.31
307.272	95.31
307.502	82.31
307.731	101.31
307.961	83.31
308.191	93.31
308.421	95.31
308.651	98.31
308.881	87.31
309.111	85.31
309.341	92.31
309.571	85.31
309.8	81.31
310.03	87.31
310.26	74.31
310.49	95.31
310.72	98.31
310.949	84.31
311.179	86.31
311.409	89.31
311.639	86.31
311.868	93.31
312.098	87.31
312.328	88.31
312.557	92.31
312.787	87.31
313.017	75.31
313.246	77.31
313.476	79.31
313.706	78.31
313.935	81.31
314.165	87.31
314.394	70.31
314.624	82.31
314.853	83.31
315.083	84.31
315.312	91.31
315.542	88.31
315.771	85.31
316.001	84.31
316.23	84.31
316.46	85.31
316.689	88.31
316.919	92.31
317.148	79.31
317.377	89.31
317.607	83.31
317.836	90.31
318.065	79.31
318.295	75.31
318.524	87.31
318.753	92.31
318.983	89.31
319.212	82.31
319.441	82.31
319.67	97.31
319.9	75.31
320.129	101.31
320.358	78.31
320.587	92.31
320.816	93.31
321.046	84.31
321.275	94.31
321.504	90.31
321.733	84.31
321.962	86.31
322.191	84.31
322.42	85.31
322.649	95.31
322.878	75.31
323.108	78.31
323.337	91.31
323.566	91.31
323.795	78.31
324.024	98.31
324.253	85.31
324.482	81.31
324.71	87.31
324.939	88.31
325.168	83.31
325.397	82.31
325.626	87.31
325.855	83.31
326.084	88.31
326.313	79.31
326.542	101.31
326.77	84.31
326.999	81.31
327.228	91.31
327.457	85.31
327.686	93.31
327.914	94.31
328.143	83.31
328.372	98.31
328.6	79.31
328.829	83.31
329.058	86.31
329.287	84.31
329.515	79.31
329.744	89.31
329.972	82.31
330.201	93.31
330.43	86.31
330.658	101.31
330.887	100.31
331.115	86.31
331.344	79.31
331.572	79.31
331.801	83.31
332.03	96.31
332.258	85.31
332.486	83.31
332.715	84.31
332.943	72.31
333.172	97.31
333.4	93.31
333.629	86.31
333.857	79.31
334.085	84.31
334.314	89.31
334.542	89.31
334.771	94.31
334.999	72.31
335.227	81.31
335.455	84.31
335.684	90.31
335.912	83.31
336.14	85.31
336.369	80.31
336.597	85.31
336.825	89.31
337.053	71.31
337.281	89.31
337.51	95.31
337.738	86.31
337.966	81.31
338.194	92.31
338.422	83.31
338.65	83.31
338.878	84.31
339.106	89.31
339.334	80.31
339.562	75.31
339.79	73.31
340.018	81.31
340.246	66.31
340.474	72.31
340.702	89.31
340.93	85.31
341.158	71.31
341.386	78.31
341.614	81.31
341.842	79.31
342.07	103.31
342.298	81.31
342.526	94.31
342.754	81.31
342.981	77.31
343.209	82.31
343.437	81.31
343.665	74.31
343.893	93.31
344.12	86.31
344.348	87.31
344.576	84.31
344.804	81.31
345.031	75.31
345.259	94.31
345.487	86.31
345.714	101.31
345.942	84.31
346.17	81.31
346.397	82.31
346.625	82.31
346.853	84.31
347.08	97.31
347.308	86.31
347.535	87.31
347.763	93.31
347.99	77.31
348.218	83.31
348.445	85.31
348.673	79.31
348.9	100.31
349.128	82.31
349.355	87.31
349.583	85.31
349.81	93.31
350.037	97.31
350.265	72.31
350.492	86.31
350.72	81.31
350.947	83.31
351.174	112.31
351.402	93.31
351.629	87.31
351.856	84.31
352.083	101.31
352.311	85.31
352.538	82.31
352.765	91.31
352.992	84.31
353.22	86.31
353.447	77.31
353.674	91.31
353.901	95.31
354.128	90.31
354.355	85.31
354.583	98.31
354.81	75.31
355.037	72.31
355.264	72.31
355.491	82.31
355.718	82.31
355.945	90.31
356.172	86.31
356.399	84.31
356.626	65.31
356.853	81.31
357.08	88.31
357.307	85.31
357.534	83.31
357.761	78.31
357.988	83.31
358.215	74.31
358.441	83.31
358.668	95.31
358.895	72.31
359.122	82.31
359.349	82.31
359.576	75.31
359.802	84.31
360.029	81.31
360.256	78.31
360.483	87.31
360.709	95.31
360.936	98.31
361.163	89.31
361.39	89.31
361.616	91.31
361.843	85.31
362.07	80.31
362.296	95.31
362.523	80.31
362.749	77.31
362.976	82.31
363.203	88.31
363.429	77.31
363.656	97.31
363.882	83.31
364.109	82.31
364.335	88.31
364.562	77.31
364.788	78.31
365.015	81.31
365.241	65.31
365.468	87.31
365.694	85.31
365.92	74.31
366.147	87.31
366.373	91.31
366.599	87.31
366.826	85.31
367.052	76.31
367.278	99.31
367.505	85.31
367.731	91.31
367.957	78.31
368.184	89.31
368.41	92.31
368.636	88.31
368.862	69.31
369.089	89.31
369.315	83.31
369.541	87.31
369.767	90.31
369.993	95.31
370.219	89.31
370.445	93.31
370.672	82.31
370.898	75.31
371.124	87.31
371.35	79.31
371.576	86.31
371.802	87.31
372.028	83.31
372.254	82.31
372.48	81.31
372.706	83.31
372.932	81.31
373.158	95.31
373.384	98.31
373.61	75.31
373.835	95.31
374.061	99.31
374.287	86.31
374.513	86.31
374.739	90.31
374.965	77.31
375.191	83.31
375.416	86.31
375.642	86.31
375.868	75.31
376.094	85.31
376.319	75.31
376.545	79.31
376.771	91.31
376.997	89.31
377.222	90.31
377.448	87.31
377.674	91.31
377.899	90.31
378.125	83.31
378.35	81.31
378.576	81.31
378.802	93.31
379.027	87.31
379.253	88.31
379.478	81.31
379.704	98.31
379.929	99.31
380.155	84.31
380.38	79.31
380.606	75.31
380.831	84.31
381.057	82.31
381.282	63.31
381.507	80.31
381.733	93.31
381.958	101.31
382.184	91.31
382.409	87.31
382.634	76.31
382.86	93.31
383.085	73.31
383.31	73.31
383.535	85.31
383.761	98.31
383.986	97.31
384.211	97.31
384.436	81.31
384.662	87.31
384.887	65.31
385.112	87.31
385.337	77.31
385.562	77.31
385.787	87.31
386.013	93.31
386.238	90.31
386.463	81.31
386.688	97.31
386.913	94.31
387.138	90.31
387.363	84.31
387.588	77.31
387.813	70.31
388.038	84.31
388.263	83.31
388.488	91.31
388.713	80.31
388.938	81.31
389.163	84.31
389.387	84.31
389.612	89.31
389.837	73.31
390.062	88.31
390.287	86.31
390.512	75.31
390.736	86.31
390.961	84.31
391.186	85.31
391.411	72.31
391.636	93.31
391.86	83.31
392.085	90.31
392.31	76.31
392.534	87.31
392.759	84.31
392.984	83.31
393.208	84.31
393.433	91.31
393.658	86.31
393.882	85.31
394.107	91.31
394.331	86.31
394.556	85.31
394.78	77.31
395.005	96.31
395.229	77.31
395.454	86.31
395.678	93.31
395.903	91.31
396.127	83.31
396.352	90.31
396.576	83.31
396.801	81.31
397.025	86.31
397.249	76.31
397.474	84.31
397.698	83.31
397.922	84.31
398.147	79.31
398.371	76.31
398.595	87.31
398.82	91.31
399.044	87.31
399.268	81.31
399.492	80.31
399.717	85.31
399.941	86.31
400.165	82.31
400.389	92.31
400.613	83.31
400.837	84.31
401.062	72.31
401.286	82.31
401.51	71.31
401.734	90.31
401.958	85.31
402.182	85.31
402.406	94.31
402.63	81.31
402.854	77.31
403.078	92.31
403.302	74.31
403.526	77.31
403.75	79.31
403.974	72.31
404.198	81.31
404.422	84.31
404.645	98.31
404.869	91.31
405.093	86.31
405.317	92.31
405.541	83.31
405.765	87.31
405.988	81.31
406.212	80.31
406.436	80.31
406.66	84.31
406.883	81.31
407.107	71.31
407.331	78.31
407.555	78.31
407.778	78.31
408.002	84.31
408.226	88.31
408.449	82.31
408.673	70.31
408.896	73.31
409.12	82.31
409.344	106.31
409.567	89.31
409.791	80.31
410.014	77.31
410.238	82.31
410.461	88.31
410.685	83.31
410.908	85.31
411.132	85.31
411.355	82.31
411.578	77.31
411.802	85.31
412.025	81.31
412.249	73.31
412.472	79.31
412.695	82.31
412.919	90.31
413.142	85.31
413.365	77.31
413.589	70.31
413.812	67.31
414.035	73.31
414.258	87.31
414.482	86.31
414.705	79.31
414.928	87.31
415.151	80.31
415.374	69.31
415.597	70.31
415.821	86.31
416.044	81.31
416.267	74.31
416.49	79.31
416.713	72.31
416.936	77.31
417.159	75.31
417.382	93.31
417.605	91.31
417.828	72.31
418.051	79.31
418.274	84.31
418.497	81.31
418.72	83.31
418.943	87.31
419.166	86.31
419.389	91.31
419.611	75.31
419.834	95.31
420.057	82.31
420.28	73.31
420.503	68.31
420.726	91.31
420.948	79.31
421.171	75.31
421.394	67.31
421.617	77.31
421.839	94.31
422.062	98.31
422.285	83.31
422.507	87.31
422.73	77.31
422.953	81.31
423.175	75.31
423.398	71.31
423.621	83.31
423.843	83.31
424.066	82.31
424.288	84.31
424.511	87.31
424.733	82.31
424.956	70.31
425.178	68.31
425.401	79.31
425.623	69.31
425.846	87.31
426.068	75.31
426.291	79.31
426.513	92.31
426.735	79.31
426.958	91.31
427.18	95.31
427.402	79.31
427.625	85.31
427.847	83.31
428.069	77.31
428.292	79.31
428.514	86.31
428.736	82.31
428.958	75.31
429.181	88.31
429.403	80.31
429.625	79.31
429.847	78.31
430.069	93.31
430.292	63.31
430.514	84.31
430.736	97.31
430.958	77.31
431.18	86.31
431.402	79.31
431.624	86.31
431.846	79.31
432.068	83.31
432.29	78.31
432.512	80.31
432.734	84.31
432.956	78.31
433.178	93.31
433.4	87.31
433.622	68.31
433.844	80.31
434.066	92.31
434.287	79.31
434.509	86.31
434.731	89.31
434.953	74.31
435.175	90.31
435.397	76.31
435.618	80.31
435.84	71.31
436.062	75.31
436.284	89.31
436.505	78.31
436.727	103.31
436.949	92.31
437.17	79.31
437.392	83.31
437.614	75.31
437.835	74.31
438.057	86.31
438.278	89.31
438.5	99.31
438.721	77.31
438.943	85.31
439.165	85.31
439.386	78.31
439.608	79.31
439.829	70.31
440.05	63.31
440.272	80.31
440.493	77.31
440.715	89.31
440.936	80.31
441.158	88.31
441.379	80.31
441.6	83.31
441.822	92.31
442.043	89.31
442.264	80.31
442.486	77.31
442.707	91.31
442.928	78.31
443.149	86.31
443.371	97.31
443.592	89.31
443.813	79.31
444.034	92.31
444.255	78.31
444.476	71.31
444.698	81.31
444.919	89.31
445.14	133.31
445.361	110.31
445.582	70.31
445.803	88.31
446.024	76.31
446.245	80.31
446.466	90.31
446.687	89.31
446.908	66.31
447.129	85.31
447.35	79.31
447.571	97.31
447.792	76.31
448.013	84.31
448.234	82.31
448.455	80.31
448.675	97.31
448.896	83.31
449.117	89.31
449.338	84.31
449.559	83.31
449.779	75.31
450	84.31
450.221	83.31
450.442	95.31
450.662	97.31
450.883	79.31
451.104	87.31
451.324	69.31
451.545	76.31
451.766	69.31
451.986	82.31
452.207	70.31
452.428	80.31
452.648	83.31
452.869	98.31
453.089	85.31
453.31	92.31
453.53	71.31
453.751	87.31
453.971	91.31
454.192	94.31
454.412	66.31
454.633	91.31
454.853	82.31
455.073	77.31
455.294	80.31
455.514	89.31
455.734	75.31
455.955	82.31
456.175	82.31
456.395	71.31
456.616	91.31
456.836	87.31
457.056	83.31
457.276	93.31
457.497	69.31
457.717	69.31
457.937	93.31
458.157	82.31
458.377	91.31
458.598	86.31
458.818	77.31
459.038	84.31
459.258	72.31
459.478	81.31
459.698	99.31
459.918	77.31
460.138	78.31
460.358	80.31
460.578	87.31
460.798	77.31
461.018	89.31
461.238	94.31
461.458	67.31
461.678	74.31
461.898	85.31
462.118	88.31
462.338	82.31
462.558	72.31
462.777	82.31
462.997	94.31
463.217	89.31
463.437	73.31
463.657	81.31
463.876	86.31
464.096	89.31
464.316	78.31
464.536	72.31
464.755	81.31
464.975	74.31
465.195	86.31
465.414	69.31
465.634	71.31
465.854	75.31
466.073	71.31
466.293	93.31
466.512	76.31
466.732	79.31
466.951	79.31
467.171	91.31
467.391	73.31
467.61	76.31
467.829	81.31
468.049	77.31
468.268	65.31
468.488	86.31
468.707	77.31
468.927	63.31
469.146	77.31
469.365	82.31
469.585	72.31
469.804	86.31
470.023	76.31
470.243	78.31
470.462	86.31
470.681	73.31
470.901	85.31
471.12	82.31
471.339	81.31
471.558	76.31
471.777	84.31
471.997	79.31
472.216	82.31
472.435	79.31
472.654	67.31
472.873	75.31
473.092	84.31
473.311	94.31
473.53	74.31
473.749	71.31
473.968	97.31
474.187	77.31
474.406	86.31
474.625	82.31
474.844	102.31
475.063	92.31
475.282	89.31
475.501	84.31
475.72	86.31
475.939	73.31
476.158	77.31
476.377	79.31
476.596	78.31
476.814	83.31
477.033	87.31
477.252	74.31
477.471	79.31
477.69	82.31
477.908	74.31
478.127	83.31
478.346	80.31
478.564	72.31
478.783	76.31
479.002	80.31
479.22	76.31
479.439	74.31
479.658	74.31
479.876	80.31
480.095	85.31
480.313	85.31
480.532	82.31
480.751	82.31
480.969	86.31
481.188	68.31
481.406	77.31
481.624	81.31
481.843	90.31
482.061	79.31
482.28	86.31
482.498	71.31
482.717	99.31
482.935	97.31
483.153	74.31
483.372	75.31
483.59	86.31
483.808	83.31
484.027	81.31
484.245	79.31
484.463	77.31
484.681	77.31
484.9	77.31
485.118	88.31
485.336	75.31
485.554	84.31
485.772	87.31
485.99	89.31
486.209	96.31
486.427	91.31
486.645	80.31
486.863	82.31
487.081	76.31
487.299	93.31
487.517	88.31
487.735	69.31
487.953	91.31
488.171	79.31
488.389	89.31
488.607	86.31
488.825	81.31
489.043	77.31
489.261	78.31
489.479	86.31
489.696	78.31
489.914	74.31
490.132	87.31
490.35	80.31
490.568	83.31
490.786	85.31
491.003	76.31
491.221	82.31
491.439	81.31
491.657	84.31
491.874	72.31
492.092	96.31
492.31	75.31
492.527	85.31
492.745	80.31
492.963	62.31
493.18	80.31
493.398	86.31
493.615	86.31
493.833	80.31
494.05	86.31
494.268	84.31
494.485	89.31
494.703	91.31
494.92	73.31
495.138	87.31
495.355	89.31
495.573	93.31
495.79	99.31
496.008	90.31
496.225	84.31
496.442	75.31
496.66	78.31
496.877	91.31
497.094	87.31
497.312	91.31
497.529	84.31
497.746	68.31
497.963	87.31
498.181	91.31
498.398	103.31
498.615	87.31
498.832	86.31
499.049	74.31
499.267	91.31
499.484	87.31
499.701	85.31
499.918	90.31
500.135	84.31
500.352	70.31
500.569	90.31
500.786	93.31
501.003	95.31
501.22	82.31
501.437	85.31
501.654	81.31
501.871	77.31
502.088	69.31
502.305	88.31
502.522	84.31
502.739	80.31
502.956	89.31
503.172	80.31
503.389	99.31
503.606	89.31
503.823	78.31
504.04	90.31
504.256	94.31
504.473	82.31
504.69	79.31
504.907	92.31
505.123	103.31
505.34	90.31
505.557	99.31
505.773	76.31
505.99	84.31
506.207	97.31
506.423	84.31
506.64	69.31
506.856	71.31
507.073	87.31
507.289	88.31
507.506	93.31
507.722	84.31
507.939	72.31
508.155	93.31
508.372	79.31
508.588	78.31
508.805	70.31
509.021	74.31
509.238	90.31
509.454	80.31
509.67	77.31
509.887	79.31
510.103	84.31
510.319	85.31
510.536	66.31
510.752	94.31
510.968	97.31
511.184	88.31
511.401	94.31
511.617	86.31
511.833	87.31
512.049	81.31
512.265	72.31
512.481	91.31
512.698	97.31
512.914	92.31
513.13	81.31
513.346	82.31
513.562	89.31
513.778	87.31
513.994	88.31
514.21	79.31
514.426	80.31
514.642	79.31
514.858	89.31
515.074	75.31
515.29	98.31
515.506	91.31
515.721	71.31
515.937	91.31
516.153	71.31
516.369	69.31
516.585	75.31
516.801	85.31
517.016	79.31
517.232	86.31
517.448	90.31
517.664	79.31
517.879	87.31
518.095	77.31
518.311	84.31
518.527	77.31
518.742	99.31
518.958	80.31
519.173	92.31
519.389	97.31
519.605	69.31
519.82	78.31
