Data from Background_2_HRD10591_00034.txt Node
Date: Wed Nov 05 14:47:14 EST 2025
User: Yrep
Spectrometer: HR+D1059
Trigger mode: 1
Integration Time (sec): 1.000000E-1
Scans to average: 1
Electric dark correction enabled: true
Nonlinearity correction enabled: false
Boxcar width: 0
XAxis mode: Wavelengths
Number of Pixels in Spectrum: 2048
>>>>>Begin Spectral Data<<<<<
223.165	-19.19
223.4	-19.19
223.635	-19.19
223.869	-23.19
224.104	-8.19
224.338	-13.19
224.573	-13.19
224.808	-11.19
225.042	-6.19
225.277	6.81
225.511	-1.19
225.746	8.81
225.98	1.81
226.215	16.81
226.449	14.81
226.683	14.81
226.918	12.81
227.152	18.81
227.387	29.81
227.621	36.81
227.856	42.81
228.09	44.81
228.324	42.81
228.559	52.81
228.793	70.81
229.027	46.81
229.262	67.81
229.496	70.81
229.73	56.81
229.964	67.81
230.199	76.81
230.433	70.81
230.667	73.81
230.901	73.81
231.136	81.81
231.37	83.81
231.604	66.81
231.838	73.81
232.072	63.81
232.306	72.81
232.541	62.81
232.775	60.81
233.009	77.81
233.243	80.81
233.477	76.81
233.711	90.81
233.945	74.81
234.179	75.81
234.413	83.81
234.647	73.81
234.881	72.81
235.115	82.81
235.349	84.81
235.583	74.81
235.817	75.81
236.051	78.81
236.285	82.81
236.519	79.81
236.753	74.81
236.987	78.81
237.221	62.81
237.455	78.81
237.689	90.81
237.922	64.81
238.156	73.81
238.39	72.81
238.624	73.81
238.858	69.81
239.091	63.81
239.325	56.81
239.559	65.81
239.793	72.81
240.027	70.81
240.26	79.81
240.494	80.81
240.728	64.81
240.961	75.81
241.195	72.81
241.429	87.81
241.662	65.81
241.896	64.81
242.13	80.81
242.363	61.81
242.597	86.81
242.83	78.81
243.064	77.81
243.298	73.81
243.531	66.81
243.765	57.81
243.998	79.81
244.232	88.81
244.465	58.81
244.699	57.81
244.932	74.81
245.166	80.81
245.399	82.81
245.633	81.81
245.866	74.81
246.099	67.81
246.333	66.81
246.566	80.81
246.8	68.81
247.033	81.81
247.266	64.81
247.5	88.81
247.733	84.81
247.966	81.81
248.2	78.81
248.433	78.81
248.666	76.81
248.899	70.81
249.133	76.81
249.366	89.81
249.599	68.81
249.832	82.81
250.066	72.81
250.299	68.81
250.532	80.81
250.765	76.81
250.998	80.81
251.231	67.81
251.465	73.81
251.698	78.81
251.931	71.81
252.164	64.81
252.397	76.81
252.63	72.81
252.863	81.81
253.096	70.81
253.329	84.81
253.562	82.81
253.795	85.81
254.028	86.81
254.261	74.81
254.494	61.81
254.727	75.81
254.96	68.81
255.193	87.81
255.426	85.81
255.659	72.81
255.892	90.81
256.124	68.81
256.357	77.81
256.59	89.81
256.823	78.81
257.056	74.81
257.289	79.81
257.521	80.81
257.754	73.81
257.987	62.81
258.22	87.81
258.452	79.81
258.685	74.81
258.918	80.81
259.151	71.81
259.383	69.81
259.616	82.81
259.849	83.81
260.081	84.81
260.314	81.81
260.547	84.81
260.779	82.81
261.012	76.81
261.244	86.81
261.477	89.81
261.71	61.81
261.942	77.81
262.175	59.81
262.407	73.81
262.64	78.81
262.872	95.81
263.105	80.81
263.337	89.81
263.57	73.81
263.802	86.81
264.035	72.81
264.267	70.81
264.499	86.81
264.732	72.81
264.964	67.81
265.197	75.81
265.429	79.81
265.661	65.81
265.894	69.81
266.126	86.81
266.358	79.81
266.591	85.81
266.823	63.81
267.055	79.81
267.287	72.81
267.52	80.81
267.752	84.81
267.984	95.81
268.216	80.81
268.448	81.81
268.681	81.81
268.913	76.81
269.145	69.81
269.377	77.81
269.609	95.81
269.841	62.81
270.073	71.81
270.306	74.81
270.538	66.81
270.77	67.81
271.002	76.81
271.234	81.81
271.466	86.81
271.698	84.81
271.93	73.81
272.162	77.81
272.394	74.81
272.626	64.81
272.858	65.81
273.09	77.81
273.322	84.81
273.553	76.81
273.785	81.81
274.017	72.81
274.249	84.81
274.481	80.81
274.713	82.81
274.945	71.81
275.176	78.81
275.408	74.81
275.64	70.81
275.872	90.81
276.104	83.81
276.335	76.81
276.567	79.81
276.799	78.81
277.031	67.81
277.262	76.81
277.494	80.81
277.726	73.81
277.957	70.81
278.189	86.81
278.421	76.81
278.652	83.81
278.884	80.81
279.115	84.81
279.347	84.81
279.579	79.81
279.81	77.81
280.042	83.81
280.273	58.81
280.505	85.81
280.736	72.81
280.968	67.81
281.199	78.81
281.431	67.81
281.662	73.81
281.894	65.81
282.125	84.81
282.356	56.81
282.588	83.81
282.819	80.81
283.051	88.81
283.282	85.81
283.513	88.81
283.745	86.81
283.976	73.81
284.207	79.81
284.439	97.81
284.67	80.81
284.901	76.81
285.132	70.81
285.364	89.81
285.595	74.81
285.826	80.81
286.057	91.81
286.288	80.81
286.52	74.81
286.751	89.81
286.982	74.81
287.213	77.81
287.444	77.81
287.675	76.81
287.906	60.81
288.138	86.81
288.369	85.81
288.6	94.81
288.831	103.81
289.062	86.81
289.293	73.81
289.524	67.81
289.755	76.81
289.986	90.81
290.217	80.81
290.448	76.81
290.679	81.81
290.91	76.81
291.141	85.81
291.371	78.81
291.602	85.81
291.833	76.81
292.064	86.81
292.295	65.81
292.526	78.81
292.757	94.81
292.987	79.81
293.218	82.81
293.449	80.81
293.68	73.81
293.91	74.81
294.141	84.81
294.372	86.81
294.603	83.81
294.833	74.81
295.064	84.81
295.295	88.81
295.525	76.81
295.756	82.81
295.987	78.81
296.217	78.81
296.448	77.81
296.679	71.81
296.909	74.81
297.14	74.81
297.37	67.81
297.601	82.81
297.831	90.81
298.062	73.81
298.292	65.81
298.523	81.81
298.753	80.81
298.984	57.81
299.214	79.81
299.445	75.81
299.675	89.81
299.905	83.81
300.136	63.81
300.366	76.81
300.597	84.81
300.827	72.81
301.057	93.81
301.288	72.81
301.518	69.81
301.748	85.81
301.979	81.81
302.209	76.81
302.439	72.81
302.669	77.81
302.9	76.81
303.13	92.81
303.36	87.81
303.59	67.81
303.82	87.81
304.051	76.81
304.281	80.81
304.511	90.81
304.741	70.81
304.971	86.81
305.201	89.81
305.431	78.81
305.661	76.81
305.891	80.81
306.121	74.81
306.352	76.81
306.582	88.81
306.812	72.81
307.042	89.81
307.272	80.81
307.502	85.81
307.731	71.81
307.961	79.81
308.191	87.81
308.421	65.81
308.651	80.81
308.881	82.81
309.111	73.81
309.341	86.81
309.571	76.81
309.8	76.81
310.03	77.81
310.26	80.81
310.49	89.81
310.72	72.81
310.949	76.81
311.179	79.81
311.409	84.81
311.639	76.81
311.868	68.81
312.098	73.81
312.328	83.81
312.557	90.81
312.787	79.81
313.017	92.81
313.246	90.81
313.476	71.81
313.706	84.81
313.935	77.81
314.165	64.81
314.394	89.81
314.624	70.81
314.853	80.81
315.083	72.81
315.312	80.81
315.542	83.81
315.771	81.81
316.001	94.81
316.23	84.81
316.46	88.81
316.689	73.81
316.919	79.81
317.148	84.81
317.377	76.81
317.607	70.81
317.836	85.81
318.065	72.81
318.295	73.81
318.524	80.81
318.753	77.81
318.983	78.81
319.212	73.81
319.441	89.81
319.67	74.81
319.9	63.81
320.129	76.81
320.358	71.81
320.587	88.81
320.816	78.81
321.046	75.81
321.275	69.81
321.504	71.81
321.733	77.81
321.962	96.81
322.191	87.81
322.42	88.81
322.649	86.81
322.878	97.81
323.108	79.81
323.337	66.81
323.566	82.81
323.795	84.81
324.024	76.81
324.253	79.81
324.482	77.81
324.71	80.81
324.939	89.81
325.168	81.81
325.397	74.81
325.626	78.81
325.855	74.81
326.084	89.81
326.313	86.81
326.542	90.81
326.77	85.81
326.999	72.81
327.228	74.81
327.457	82.81
327.686	77.81
327.914	76.81
328.143	89.81
328.372	81.81
328.6	89.81
328.829	84.81
329.058	74.81
329.287	78.81
329.515	84.81
329.744	69.81
329.972	77.81
330.201	78.81
330.43	89.81
330.658	80.81
330.887	74.81
331.115	72.81
331.344	72.81
331.572	84.81
331.801	88.81
332.03	75.81
332.258	72.81
332.486	76.81
332.715	82.81
332.943	70.81
333.172	81.81
333.4	69.81
333.629	87.81
333.857	72.81
334.085	90.81
334.314	80.81
334.542	76.81
334.771	76.81
334.999	78.81
335.227	74.81
335.455	75.81
335.684	81.81
335.912	73.81
336.14	66.81
336.369	74.81
336.597	86.81
336.825	93.81
337.053	77.81
337.281	79.81
337.51	79.81
337.738	93.81
337.966	87.81
338.194	89.81
338.422	63.81
338.65	73.81
338.878	76.81
339.106	65.81
339.334	76.81
339.562	81.81
339.79	89.81
340.018	67.81
340.246	90.81
340.474	74.81
340.702	89.81
340.93	81.81
341.158	84.81
341.386	90.81
341.614	88.81
341.842	78.81
342.07	80.81
342.298	84.81
342.526	81.81
342.754	72.81
342.981	76.81
343.209	72.81
343.437	82.81
343.665	77.81
343.893	88.81
344.12	77.81
344.348	73.81
344.576	82.81
344.804	94.81
345.031	77.81
345.259	76.81
345.487	79.81
345.714	81.81
345.942	72.81
346.17	74.81
346.397	81.81
346.625	81.81
346.853	76.81
347.08	75.81
347.308	89.81
347.535	73.81
347.763	80.81
347.99	76.81
348.218	82.81
348.445	74.81
348.673	85.81
348.9	93.81
349.128	72.81
349.355	66.81
349.583	83.81
349.81	76.81
350.037	80.81
350.265	75.81
350.492	85.81
350.72	81.81
350.947	74.81
351.174	78.81
351.402	76.81
351.629	72.81
351.856	89.81
352.083	80.81
352.311	64.81
352.538	70.81
352.765	76.81
352.992	76.81
353.22	67.81
353.447	85.81
353.674	78.81
353.901	87.81
354.128	82.81
354.355	85.81
354.583	76.81
354.81	97.81
355.037	89.81
355.264	80.81
355.491	74.81
355.718	85.81
355.945	84.81
356.172	70.81
356.399	77.81
356.626	76.81
356.853	86.81
357.08	76.81
357.307	89.81
357.534	83.81
357.761	75.81
357.988	65.81
358.215	72.81
358.441	68.81
358.668	76.81
358.895	77.81
359.122	79.81
359.349	84.81
359.576	80.81
359.802	74.81
360.029	76.81
360.256	76.81
360.483	68.81
360.709	68.81
360.936	88.81
361.163	86.81
361.39	69.81
361.616	73.81
361.843	63.81
362.07	85.81
362.296	70.81
362.523	78.81
362.749	85.81
362.976	85.81
363.203	73.81
363.429	72.81
363.656	81.81
363.882	72.81
364.109	80.81
364.335	92.81
364.562	71.81
364.788	81.81
365.015	79.81
365.241	67.81
365.468	71.81
365.694	86.81
365.92	71.81
366.147	90.81
366.373	74.81
366.599	79.81
366.826	86.81
367.052	84.81
367.278	68.81
367.505	88.81
367.731	87.81
367.957	62.81
368.184	81.81
368.41	76.81
368.636	91.81
368.862	76.81
369.089	66.81
369.315	76.81
369.541	68.81
369.767	64.81
369.993	67.81
370.219	76.81
370.445	80.81
370.672	78.81
370.898	82.81
371.124	87.81
371.35	90.81
371.576	70.81
371.802	87.81
372.028	84.81
372.254	70.81
372.48	74.81
372.706	79.81
372.932	79.81
373.158	83.81
373.384	90.81
373.61	82.81
373.835	80.81
374.061	92.81
374.287	70.81
374.513	76.81
374.739	60.81
374.965	87.81
375.191	80.81
375.416	78.81
375.642	75.81
375.868	74.81
376.094	72.81
376.319	92.81
376.545	70.81
376.771	62.81
376.997	72.81
377.222	68.81
377.448	75.81
377.674	82.81
377.899	80.81
378.125	72.81
378.35	77.81
378.576	69.81
378.802	75.81
379.027	85.81
379.253	87.81
379.478	83.81
379.704	74.81
379.929	76.81
380.155	78.81
380.38	73.81
380.606	93.81
380.831	83.81
381.057	80.81
381.282	82.81
381.507	74.81
381.733	65.81
381.958	61.81
382.184	84.81
382.409	79.81
382.634	74.81
382.86	77.81
383.085	84.81
383.31	87.81
383.535	67.81
383.761	65.81
383.986	76.81
384.211	66.81
384.436	88.81
384.662	69.81
384.887	78.81
385.112	60.81
385.337	76.81
385.562	84.81
385.787	72.81
386.013	72.81
386.238	77.81
386.463	76.81
386.688	83.81
386.913	78.81
387.138	86.81
387.363	79.81
387.588	82.81
387.813	79.81
388.038	72.81
388.263	65.81
388.488	70.81
388.713	74.81
388.938	61.81
389.163	62.81
389.387	86.81
389.612	72.81
389.837	76.81
390.062	93.81
390.287	89.81
390.512	77.81
390.736	79.81
390.961	75.81
391.186	84.81
391.411	85.81
391.636	73.81
391.86	84.81
392.085	75.81
392.31	66.81
392.534	79.81
392.759	76.81
392.984	73.81
393.208	76.81
393.433	85.81
393.658	72.81
393.882	78.81
394.107	79.81
394.331	82.81
394.556	72.81
394.78	69.81
395.005	80.81
395.229	81.81
395.454	85.81
395.678	78.81
395.903	74.81
396.127	84.81
396.352	81.81
396.576	84.81
396.801	79.81
397.025	82.81
397.249	80.81
397.474	82.81
397.698	81.81
397.922	79.81
398.147	85.81
398.371	74.81
398.595	77.81
398.82	81.81
399.044	73.81
399.268	79.81
399.492	84.81
399.717	79.81
399.941	63.81
400.165	72.81
400.389	77.81
400.613	76.81
400.837	72.81
401.062	75.81
401.286	74.81
401.51	70.81
401.734	63.81
401.958	69.81
402.182	77.81
402.406	71.81
402.63	72.81
402.854	66.81
403.078	81.81
403.302	83.81
403.526	81.81
403.75	77.81
403.974	70.81
404.198	67.81
404.422	72.81
404.645	72.81
404.869	84.81
405.093	68.81
405.317	66.81
405.541	60.81
405.765	78.81
405.988	75.81
406.212	75.81
406.436	79.81
406.66	71.81
406.883	70.81
407.107	73.81
407.331	73.81
407.555	87.81
407.778	83.81
408.002	78.81
408.226	70.81
408.449	77.81
408.673	93.81
408.896	78.81
409.12	73.81
409.344	76.81
409.567	74.81
409.791	60.81
410.014	76.81
410.238	76.81
410.461	73.81
410.685	72.81
410.908	76.81
411.132	76.81
411.355	63.81
411.578	79.81
411.802	77.81
412.025	92.81
412.249	78.81
412.472	76.81
412.695	73.81
412.919	60.81
413.142	72.81
413.365	63.81
413.589	76.81
413.812	82.81
414.035	76.81
414.258	75.81
414.482	70.81
414.705	76.81
414.928	66.81
415.151	76.81
415.374	67.81
415.597	72.81
415.821	75.81
416.044	75.81
416.267	75.81
416.49	79.81
416.713	88.81
416.936	87.81
417.159	75.81
417.382	74.81
417.605	79.81
417.828	79.81
418.051	66.81
418.274	70.81
418.497	79.81
418.72	72.81
418.943	75.81
419.166	67.81
419.389	85.81
419.611	76.81
419.834	78.81
420.057	76.81
420.28	89.81
420.503	80.81
420.726	78.81
420.948	78.81
421.171	63.81
421.394	80.81
421.617	64.81
421.839	61.81
422.062	78.81
422.285	77.81
422.507	70.81
422.73	72.81
422.953	77.81
423.175	80.81
423.398	78.81
423.621	72.81
423.843	80.81
424.066	69.81
424.288	72.81
424.511	90.81
424.733	81.81
424.956	74.81
425.178	79.81
425.401	87.81
425.623	72.81
425.846	74.81
426.068	70.81
426.291	79.81
426.513	68.81
426.735	68.81
426.958	71.81
427.18	63.81
427.402	72.81
427.625	79.81
427.847	80.81
428.069	88.81
428.292	93.81
428.514	78.81
428.736	82.81
428.958	87.81
429.181	68.81
429.403	77.81
429.625	82.81
429.847	82.81
430.069	67.81
430.292	76.81
430.514	73.81
430.736	80.81
430.958	91.81
431.18	70.81
431.402	83.81
431.624	82.81
431.846	76.81
432.068	85.81
432.29	78.81
432.512	74.81
432.734	74.81
432.956	71.81
433.178	71.81
433.4	81.81
433.622	75.81
433.844	82.81
434.066	72.81
434.287	79.81
434.509	70.81
434.731	66.81
434.953	71.81
435.175	79.81
435.397	85.81
435.618	84.81
435.84	67.81
436.062	78.81
436.284	79.81
436.505	96.81
436.727	85.81
436.949	85.81
437.17	68.81
437.392	68.81
437.614	69.81
437.835	83.81
438.057	87.81
438.278	73.81
438.5	69.81
438.721	73.81
438.943	73.81
439.165	74.81
439.386	81.81
439.608	92.81
439.829	76.81
440.05	69.81
440.272	81.81
440.493	88.81
440.715	84.81
440.936	89.81
441.158	73.81
441.379	83.81
441.6	79.81
441.822	70.81
442.043	79.81
442.264	77.81
442.486	77.81
442.707	87.81
442.928	74.81
443.149	67.81
443.371	86.81
443.592	75.81
443.813	73.81
444.034	76.81
444.255	70.81
444.476	66.81
444.698	84.81
444.919	76.81
445.14	149.81
445.361	116.81
445.582	67.81
445.803	69.81
446.024	74.81
446.245	73.81
446.466	73.81
446.687	73.81
446.908	78.81
447.129	65.81
447.35	65.81
447.571	69.81
447.792	58.81
448.013	74.81
448.234	80.81
448.455	78.81
448.675	80.81
448.896	89.81
449.117	76.81
449.338	68.81
449.559	77.81
449.779	65.81
450	85.81
450.221	80.81
450.442	90.81
450.662	73.81
450.883	79.81
451.104	76.81
451.324	88.81
451.545	74.81
451.766	66.81
451.986	73.81
452.207	81.81
452.428	82.81
452.648	72.81
452.869	93.81
453.089	74.81
453.31	81.81
453.53	88.81
453.751	67.81
453.971	74.81
454.192	73.81
454.412	71.81
454.633	80.81
454.853	50.81
455.073	74.81
455.294	73.81
455.514	86.81
455.734	84.81
455.955	74.81
456.175	64.81
456.395	84.81
456.616	70.81
456.836	80.81
457.056	76.81
457.276	81.81
457.497	68.81
457.717	79.81
457.937	83.81
458.157	77.81
458.377	82.81
458.598	72.81
458.818	79.81
459.038	78.81
459.258	68.81
459.478	76.81
459.698	66.81
459.918	73.81
460.138	89.81
460.358	76.81
460.578	84.81
460.798	84.81
461.018	75.81
461.238	80.81
461.458	66.81
461.678	62.81
461.898	67.81
462.118	80.81
462.338	77.81
462.558	79.81
462.777	73.81
462.997	86.81
463.217	91.81
463.437	80.81
463.657	74.81
463.876	81.81
464.096	69.81
464.316	68.81
464.536	72.81
464.755	94.81
464.975	73.81
465.195	60.81
465.414	82.81
465.634	84.81
465.854	72.81
466.073	87.81
466.293	91.81
466.512	80.81
466.732	79.81
466.951	66.81
467.171	68.81
467.391	70.81
467.61	76.81
467.829	69.81
468.049	72.81
468.268	65.81
468.488	63.81
468.707	63.81
468.927	81.81
469.146	75.81
469.365	79.81
469.585	73.81
469.804	72.81
470.023	77.81
470.243	72.81
470.462	75.81
470.681	96.81
470.901	75.81
471.12	78.81
471.339	70.81
471.558	84.81
471.777	80.81
471.997	88.81
472.216	73.81
472.435	84.81
472.654	87.81
472.873	82.81
473.092	92.81
473.311	83.81
473.53	68.81
473.749	87.81
473.968	80.81
474.187	73.81
474.406	78.81
474.625	76.81
474.844	80.81
475.063	82.81
475.282	80.81
475.501	77.81
475.72	88.81
475.939	78.81
476.158	77.81
476.377	71.81
476.596	81.81
476.814	76.81
477.033	74.81
477.252	76.81
477.471	89.81
477.69	70.81
477.908	68.81
478.127	68.81
478.346	84.81
478.564	85.81
478.783	87.81
479.002	77.81
479.22	66.81
479.439	70.81
479.658	86.81
479.876	71.81
480.095	73.81
480.313	79.81
480.532	89.81
480.751	88.81
480.969	70.81
481.188	84.81
481.406	76.81
481.624	97.81
481.843	85.81
482.061	86.81
482.28	64.81
482.498	86.81
482.717	81.81
482.935	74.81
483.153	79.81
483.372	82.81
483.59	74.81
483.808	85.81
484.027	87.81
484.245	83.81
484.463	65.81
484.681	80.81
484.9	78.81
485.118	75.81
485.336	63.81
485.554	78.81
485.772	81.81
485.99	79.81
486.209	84.81
486.427	73.81
486.645	69.81
486.863	80.81
487.081	72.81
487.299	84.81
487.517	81.81
487.735	86.81
487.953	68.81
488.171	91.81
488.389	90.81
488.607	81.81
488.825	74.81
489.043	70.81
489.261	84.81
489.479	74.81
489.696	76.81
489.914	62.81
490.132	87.81
490.35	70.81
490.568	79.81
490.786	80.81
491.003	78.81
491.221	70.81
491.439	80.81
491.657	90.81
491.874	70.81
492.092	77.81
492.31	87.81
492.527	75.81
492.745	82.81
492.963	87.81
493.18	78.81
493.398	70.81
493.615	81.81
493.833	67.81
494.05	95.81
494.268	70.81
494.485	79.81
494.703	76.81
494.92	78.81
495.138	70.81
495.355	70.81
495.573	69.81
495.79	81.81
496.008	84.81
496.225	82.81
496.442	70.81
496.66	75.81
496.877	85.81
497.094	84.81
497.312	90.81
497.529	87.81
497.746	69.81
497.963	85.81
498.181	59.81
498.398	74.81
498.615	62.81
498.832	81.81
499.049	65.81
499.267	87.81
499.484	86.81
499.701	80.81
499.918	77.81
500.135	81.81
500.352	81.81
500.569	66.81
500.786	73.81
501.003	80.81
501.22	73.81
501.437	89.81
501.654	75.81
501.871	80.81
502.088	82.81
502.305	87.81
502.522	70.81
502.739	84.81
502.956	75.81
503.172	92.81
503.389	71.81
503.606	76.81
503.823	86.81
504.04	73.81
504.256	73.81
504.473	67.81
504.69	76.81
504.907	91.81
505.123	87.81
505.34	63.81
505.557	84.81
505.773	74.81
505.99	72.81
506.207	90.81
506.423	75.81
506.64	93.81
506.856	87.81
507.073	72.81
507.289	69.81
507.506	88.81
507.722	81.81
507.939	59.81
508.155	71.81
508.372	59.81
508.588	61.81
508.805	77.81
509.021	77.81
509.238	92.81
509.454	89.81
509.67	77.81
509.887	95.81
510.103	92.81
510.319	78.81
510.536	79.81
510.752	74.81
510.968	85.81
511.184	70.81
511.401	86.81
511.617	87.81
511.833	64.81
512.049	74.81
512.265	73.81
512.481	92.81
512.698	79.81
512.914	63.81
513.13	72.81
513.346	73.81
513.562	79.81
513.778	86.81
513.994	86.81
514.21	84.81
514.426	85.81
514.642	64.81
514.858	72.81
515.074	73.81
515.29	81.81
515.506	79.81
515.721	91.81
515.937	85.81
516.153	70.81
516.369	72.81
516.585	83.81
516.801	63.81
517.016	79.81
517.232	78.81
517.448	67.81
517.664	82.81
517.879	60.81
518.095	72.81
518.311	88.81
518.527	72.81
518.742	80.81
518.958	80.81
519.173	87.81
519.389	80.81
519.605	82.81
519.82	67.81
520.036	81.81
520.251	81.81
