Data from Background_2_HRD10591_00023.txt Node
Date: Wed Nov 05 14:47:08 EST 2025
User: Yrep
Spectrometer: HR+D1059
Trigger mode: 1
Integration Time (sec): 1.000000E-1
Scans to average: 1
Electric dark correction enabled: true
Nonlinearity correction enabled: false
Boxcar width: 0
XAxis mode: Wavelengths
Number of Pixels in Spectrum: 2048
>>>>>Begin Spectral Data<<<<<
223.165	-22.06
223.4	-22.06
223.635	-22.06
223.869	-23.06
224.104	-28.06
224.338	-12.06
224.573	-11.06
224.808	0.94
225.042	3.94
225.277	1.94
225.511	-14.06
225.746	6.94
225.98	2.94
226.215	-9.06
226.449	10.94
226.683	25.94
226.918	27.94
227.152	37.94
227.387	30.94
227.621	40.94
227.856	46.94
228.09	44.94
228.324	50.94
228.559	54.94
228.793	60.94
229.027	57.94
229.262	64.94
229.496	66.94
229.73	86.94
229.964	68.94
230.199	78.94
230.433	68.94
230.667	64.94
230.901	78.94
231.136	77.94
231.37	60.94
231.604	88.94
231.838	81.94
232.072	93.94
232.306	82.94
232.541	89.94
232.775	83.94
233.009	72.94
233.243	82.94
233.477	76.94
233.711	93.94
233.945	88.94
234.179	78.94
234.413	86.94
234.647	88.94
234.881	70.94
235.115	81.94
235.349	84.94
235.583	92.94
235.817	78.94
236.051	79.94
236.285	80.94
236.519	68.94
236.753	85.94
236.987	78.94
237.221	78.94
237.455	95.94
237.689	80.94
237.922	85.94
238.156	89.94
238.39	91.94
238.624	77.94
238.858	79.94
239.091	94.94
239.325	73.94
239.559	88.94
239.793	79.94
240.027	72.94
240.26	72.94
240.494	71.94
240.728	73.94
240.961	82.94
241.195	78.94
241.429	80.94
241.662	64.94
241.896	75.94
242.13	74.94
242.363	85.94
242.597	89.94
242.83	85.94
243.064	61.94
243.298	69.94
243.531	76.94
243.765	80.94
243.998	84.94
244.232	76.94
244.465	84.94
244.699	60.94
244.932	74.94
245.166	73.94
245.399	74.94
245.633	68.94
245.866	75.94
246.099	67.94
246.333	92.94
246.566	81.94
246.8	74.94
247.033	76.94
247.266	90.94
247.5	76.94
247.733	84.94
247.966	84.94
248.2	89.94
248.433	74.94
248.666	72.94
248.899	78.94
249.133	84.94
249.366	79.94
249.599	89.94
249.832	90.94
250.066	81.94
250.299	89.94
250.532	82.94
250.765	90.94
250.998	84.94
251.231	82.94
251.465	71.94
251.698	63.94
251.931	73.94
252.164	94.94
252.397	70.94
252.63	68.94
252.863	86.94
253.096	75.94
253.329	77.94
253.562	78.94
253.795	92.94
254.028	72.94
254.261	78.94
254.494	80.94
254.727	82.94
254.96	82.94
255.193	84.94
255.426	76.94
255.659	45.94
255.892	84.94
256.124	82.94
256.357	70.94
256.59	81.94
256.823	74.94
257.056	79.94
257.289	80.94
257.521	66.94
257.754	71.94
257.987	74.94
258.22	81.94
258.452	83.94
258.685	79.94
258.918	82.94
259.151	79.94
259.383	86.94
259.616	91.94
259.849	90.94
260.081	93.94
260.314	79.94
260.547	86.94
260.779	78.94
261.012	79.94
261.244	82.94
261.477	84.94
261.71	65.94
261.942	84.94
262.175	79.94
262.407	87.94
262.64	94.94
262.872	98.94
263.105	86.94
263.337	98.94
263.57	99.94
263.802	70.94
264.035	71.94
264.267	78.94
264.499	95.94
264.732	77.94
264.964	80.94
265.197	74.94
265.429	88.94
265.661	81.94
265.894	86.94
266.126	88.94
266.358	85.94
266.591	87.94
266.823	82.94
267.055	78.94
267.287	86.94
267.52	77.94
267.752	75.94
267.984	86.94
268.216	64.94
268.448	77.94
268.681	81.94
268.913	76.94
269.145	77.94
269.377	62.94
269.609	79.94
269.841	81.94
270.073	79.94
270.306	76.94
270.538	70.94
270.77	75.94
271.002	92.94
271.234	80.94
271.466	70.94
271.698	74.94
271.93	73.94
272.162	82.94
272.394	71.94
272.626	71.94
272.858	85.94
273.09	80.94
273.322	91.94
273.553	83.94
273.785	91.94
274.017	72.94
274.249	80.94
274.481	76.94
274.713	85.94
274.945	79.94
275.176	70.94
275.408	71.94
275.64	82.94
275.872	84.94
276.104	74.94
276.335	78.94
276.567	62.94
276.799	81.94
277.031	84.94
277.262	76.94
277.494	86.94
277.726	98.94
277.957	85.94
278.189	94.94
278.421	82.94
278.652	73.94
278.884	82.94
279.115	84.94
279.347	95.94
279.579	73.94
279.81	84.94
280.042	71.94
280.273	82.94
280.505	72.94
280.736	68.94
280.968	83.94
281.199	85.94
281.431	79.94
281.662	66.94
281.894	76.94
282.125	78.94
282.356	79.94
282.588	91.94
282.819	84.94
283.051	77.94
283.282	70.94
283.513	94.94
283.745	87.94
283.976	82.94
284.207	94.94
284.439	84.94
284.67	74.94
284.901	80.94
285.132	81.94
285.364	68.94
285.595	85.94
285.826	73.94
286.057	77.94
286.288	83.94
286.52	92.94
286.751	76.94
286.982	93.94
287.213	95.94
287.444	96.94
287.675	94.94
287.906	91.94
288.138	81.94
288.369	81.94
288.6	80.94
288.831	96.94
289.062	76.94
289.293	86.94
289.524	82.94
289.755	84.94
289.986	81.94
290.217	83.94
290.448	86.94
290.679	81.94
290.91	79.94
291.141	88.94
291.371	86.94
291.602	91.94
291.833	98.94
292.064	88.94
292.295	90.94
292.526	93.94
292.757	93.94
292.987	81.94
293.218	85.94
293.449	69.94
293.68	82.94
293.91	85.94
294.141	81.94
294.372	97.94
294.603	86.94
294.833	84.94
295.064	66.94
295.295	88.94
295.525	88.94
295.756	87.94
295.987	94.94
296.217	72.94
296.448	92.94
296.679	78.94
296.909	77.94
297.14	93.94
297.37	100.94
297.601	86.94
297.831	89.94
298.062	95.94
298.292	89.94
298.523	90.94
298.753	85.94
298.984	90.94
299.214	90.94
299.445	72.94
299.675	88.94
299.905	88.94
300.136	85.94
300.366	78.94
300.597	87.94
300.827	78.94
301.057	90.94
301.288	77.94
301.518	83.94
301.748	85.94
301.979	92.94
302.209	93.94
302.439	85.94
302.669	95.94
302.9	71.94
303.13	80.94
303.36	80.94
303.59	77.94
303.82	86.94
304.051	78.94
304.281	93.94
304.511	90.94
304.741	86.94
304.971	74.94
305.201	88.94
305.431	86.94
305.661	76.94
305.891	93.94
306.121	78.94
306.352	77.94
306.582	85.94
306.812	83.94
307.042	76.94
307.272	87.94
307.502	88.94
307.731	84.94
307.961	89.94
308.191	89.94
308.421	73.94
308.651	85.94
308.881	88.94
309.111	78.94
309.341	84.94
309.571	70.94
309.8	76.94
310.03	85.94
310.26	77.94
310.49	82.94
310.72	85.94
310.949	81.94
311.179	84.94
311.409	100.94
311.639	83.94
311.868	74.94
312.098	84.94
312.328	80.94
312.557	98.94
312.787	85.94
313.017	86.94
313.246	90.94
313.476	90.94
313.706	83.94
313.935	82.94
314.165	74.94
314.394	87.94
314.624	80.94
314.853	91.94
315.083	74.94
315.312	83.94
315.542	90.94
315.771	74.94
316.001	81.94
316.23	85.94
316.46	86.94
316.689	86.94
316.919	80.94
317.148	84.94
317.377	89.94
317.607	98.94
317.836	85.94
318.065	70.94
318.295	91.94
318.524	81.94
318.753	94.94
318.983	84.94
319.212	72.94
319.441	74.94
319.67	76.94
319.9	84.94
320.129	80.94
320.358	89.94
320.587	92.94
320.816	84.94
321.046	82.94
321.275	100.94
321.504	86.94
321.733	86.94
321.962	71.94
322.191	76.94
322.42	85.94
322.649	79.94
322.878	97.94
323.108	89.94
323.337	84.94
323.566	90.94
323.795	85.94
324.024	82.94
324.253	82.94
324.482	70.94
324.71	94.94
324.939	84.94
325.168	87.94
325.397	93.94
325.626	82.94
325.855	90.94
326.084	86.94
326.313	64.94
326.542	66.94
326.77	80.94
326.999	95.94
327.228	84.94
327.457	68.94
327.686	89.94
327.914	75.94
328.143	90.94
328.372	91.94
328.6	88.94
328.829	82.94
329.058	77.94
329.287	90.94
329.515	81.94
329.744	86.94
329.972	84.94
330.201	94.94
330.43	85.94
330.658	86.94
330.887	83.94
331.115	98.94
331.344	91.94
331.572	82.94
331.801	71.94
332.03	93.94
332.258	79.94
332.486	80.94
332.715	85.94
332.943	81.94
333.172	86.94
333.4	84.94
333.629	79.94
333.857	93.94
334.085	79.94
334.314	73.94
334.542	86.94
334.771	99.94
334.999	95.94
335.227	71.94
335.455	96.94
335.684	101.94
335.912	81.94
336.14	81.94
336.369	80.94
336.597	93.94
336.825	96.94
337.053	95.94
337.281	87.94
337.51	81.94
337.738	78.94
337.966	93.94
338.194	64.94
338.422	86.94
338.65	79.94
338.878	68.94
339.106	94.94
339.334	83.94
339.562	80.94
339.79	93.94
340.018	90.94
340.246	77.94
340.474	80.94
340.702	98.94
340.93	92.94
341.158	79.94
341.386	79.94
341.614	91.94
341.842	95.94
342.07	100.94
342.298	95.94
342.526	97.94
342.754	66.94
342.981	76.94
343.209	85.94
343.437	90.94
343.665	80.94
343.893	84.94
344.12	88.94
344.348	81.94
344.576	88.94
344.804	75.94
345.031	76.94
345.259	79.94
345.487	81.94
345.714	82.94
345.942	88.94
346.17	93.94
346.397	82.94
346.625	81.94
346.853	67.94
347.08	80.94
347.308	93.94
347.535	80.94
347.763	93.94
347.99	90.94
348.218	88.94
348.445	93.94
348.673	101.94
348.9	77.94
349.128	93.94
349.355	77.94
349.583	85.94
349.81	81.94
350.037	75.94
350.265	72.94
350.492	96.94
350.72	91.94
350.947	80.94
351.174	86.94
351.402	73.94
351.629	73.94
351.856	91.94
352.083	73.94
352.311	94.94
352.538	78.94
352.765	74.94
352.992	80.94
353.22	90.94
353.447	84.94
353.674	81.94
353.901	94.94
354.128	78.94
354.355	77.94
354.583	88.94
354.81	87.94
355.037	75.94
355.264	81.94
355.491	82.94
355.718	90.94
355.945	80.94
356.172	88.94
356.399	68.94
356.626	79.94
356.853	84.94
357.08	76.94
357.307	80.94
357.534	83.94
357.761	82.94
357.988	97.94
358.215	82.94
358.441	80.94
358.668	81.94
358.895	91.94
359.122	75.94
359.349	79.94
359.576	78.94
359.802	95.94
360.029	73.94
360.256	82.94
360.483	76.94
360.709	80.94
360.936	80.94
361.163	96.94
361.39	99.94
361.616	75.94
361.843	88.94
362.07	92.94
362.296	85.94
362.523	88.94
362.749	84.94
362.976	84.94
363.203	84.94
363.429	86.94
363.656	82.94
363.882	82.94
364.109	93.94
364.335	83.94
364.562	80.94
364.788	88.94
365.015	87.94
365.241	91.94
365.468	95.94
365.694	67.94
365.92	81.94
366.147	70.94
366.373	72.94
366.599	80.94
366.826	79.94
367.052	80.94
367.278	88.94
367.505	67.94
367.731	83.94
367.957	84.94
368.184	93.94
368.41	76.94
368.636	65.94
368.862	85.94
369.089	100.94
369.315	92.94
369.541	79.94
369.767	69.94
369.993	86.94
370.219	76.94
370.445	76.94
370.672	84.94
370.898	86.94
371.124	85.94
371.35	76.94
371.576	81.94
371.802	91.94
372.028	80.94
372.254	78.94
372.48	74.94
372.706	69.94
372.932	82.94
373.158	82.94
373.384	97.94
373.61	81.94
373.835	79.94
374.061	78.94
374.287	92.94
374.513	78.94
374.739	82.94
374.965	84.94
375.191	95.94
375.416	89.94
375.642	86.94
375.868	85.94
376.094	90.94
376.319	84.94
376.545	85.94
376.771	84.94
376.997	83.94
377.222	103.94
377.448	80.94
377.674	81.94
377.899	83.94
378.125	80.94
378.35	82.94
378.576	81.94
378.802	84.94
379.027	87.94
379.253	70.94
379.478	63.94
379.704	66.94
379.929	55.94
380.155	87.94
380.38	77.94
380.606	90.94
380.831	76.94
381.057	86.94
381.282	74.94
381.507	86.94
381.733	97.94
381.958	93.94
382.184	80.94
382.409	82.94
382.634	81.94
382.86	86.94
383.085	80.94
383.31	81.94
383.535	92.94
383.761	77.94
383.986	82.94
384.211	81.94
384.436	75.94
384.662	92.94
384.887	71.94
385.112	90.94
385.337	81.94
385.562	72.94
385.787	68.94
386.013	78.94
386.238	83.94
386.463	80.94
386.688	82.94
386.913	83.94
387.138	70.94
387.363	73.94
387.588	101.94
387.813	98.94
388.038	77.94
388.263	86.94
388.488	91.94
388.713	84.94
388.938	65.94
389.163	72.94
389.387	84.94
389.612	85.94
389.837	68.94
390.062	83.94
390.287	96.94
390.512	84.94
390.736	95.94
390.961	70.94
391.186	81.94
391.411	94.94
391.636	82.94
391.86	91.94
392.085	87.94
392.31	78.94
392.534	85.94
392.759	84.94
392.984	77.94
393.208	94.94
393.433	102.94
393.658	86.94
393.882	68.94
394.107	83.94
394.331	79.94
394.556	75.94
394.78	94.94
395.005	82.94
395.229	88.94
395.454	82.94
395.678	83.94
395.903	68.94
396.127	90.94
396.352	82.94
396.576	80.94
396.801	92.94
397.025	86.94
397.249	89.94
397.474	81.94
397.698	81.94
397.922	92.94
398.147	82.94
398.371	75.94
398.595	80.94
398.82	98.94
399.044	84.94
399.268	85.94
399.492	90.94
399.717	80.94
399.941	86.94
400.165	78.94
400.389	93.94
400.613	84.94
400.837	76.94
401.062	70.94
401.286	78.94
401.51	88.94
401.734	81.94
401.958	82.94
402.182	74.94
402.406	75.94
402.63	82.94
402.854	88.94
403.078	82.94
403.302	75.94
403.526	86.94
403.75	70.94
403.974	69.94
404.198	82.94
404.422	83.94
404.645	84.94
404.869	94.94
405.093	75.94
405.317	92.94
405.541	78.94
405.765	78.94
405.988	76.94
406.212	76.94
406.436	82.94
406.66	85.94
406.883	77.94
407.107	80.94
407.331	82.94
407.555	92.94
407.778	80.94
408.002	77.94
408.226	86.94
408.449	87.94
408.673	90.94
408.896	81.94
409.12	76.94
409.344	82.94
409.567	78.94
409.791	83.94
410.014	76.94
410.238	71.94
410.461	83.94
410.685	70.94
410.908	65.94
411.132	82.94
411.355	88.94
411.578	77.94
411.802	76.94
412.025	88.94
412.249	72.94
412.472	81.94
412.695	83.94
412.919	74.94
413.142	73.94
413.365	78.94
413.589	88.94
413.812	86.94
414.035	80.94
414.258	83.94
414.482	76.94
414.705	84.94
414.928	76.94
415.151	84.94
415.374	66.94
415.597	86.94
415.821	73.94
416.044	88.94
416.267	78.94
416.49	72.94
416.713	83.94
416.936	77.94
417.159	86.94
417.382	93.94
417.605	69.94
417.828	84.94
418.051	78.94
418.274	91.94
418.497	74.94
418.72	78.94
418.943	80.94
419.166	68.94
419.389	79.94
419.611	82.94
419.834	83.94
420.057	65.94
420.28	78.94
420.503	78.94
420.726	76.94
420.948	73.94
421.171	88.94
421.394	75.94
421.617	84.94
421.839	68.94
422.062	87.94
422.285	90.94
422.507	72.94
422.73	72.94
422.953	74.94
423.175	75.94
423.398	69.94
423.621	77.94
423.843	82.94
424.066	75.94
424.288	66.94
424.511	80.94
424.733	86.94
424.956	82.94
425.178	86.94
425.401	79.94
425.623	84.94
425.846	75.94
426.068	77.94
426.291	97.94
426.513	83.94
426.735	77.94
426.958	82.94
427.18	77.94
427.402	85.94
427.625	89.94
427.847	81.94
428.069	97.94
428.292	77.94
428.514	90.94
428.736	80.94
428.958	86.94
429.181	85.94
429.403	73.94
429.625	74.94
429.847	90.94
430.069	80.94
430.292	66.94
430.514	76.94
430.736	96.94
430.958	92.94
431.18	82.94
431.402	85.94
431.624	76.94
431.846	86.94
432.068	80.94
432.29	80.94
432.512	78.94
432.734	93.94
432.956	79.94
433.178	82.94
433.4	83.94
433.622	86.94
433.844	92.94
434.066	71.94
434.287	68.94
434.509	90.94
434.731	89.94
434.953	89.94
435.175	93.94
435.397	82.94
435.618	78.94
435.84	84.94
436.062	80.94
436.284	81.94
436.505	85.94
436.727	67.94
436.949	89.94
437.17	67.94
437.392	78.94
437.614	84.94
437.835	85.94
438.057	84.94
438.278	88.94
438.5	80.94
438.721	86.94
438.943	81.94
439.165	84.94
439.386	96.94
439.608	82.94
439.829	64.94
440.05	75.94
440.272	84.94
440.493	85.94
440.715	71.94
440.936	85.94
441.158	75.94
441.379	95.94
441.6	72.94
441.822	80.94
442.043	81.94
442.264	68.94
442.486	76.94
442.707	86.94
442.928	81.94
443.149	78.94
443.371	72.94
443.592	77.94
443.813	92.94
444.034	80.94
444.255	92.94
444.476	85.94
444.698	84.94
444.919	75.94
445.14	127.94
445.361	111.94
445.582	105.94
445.803	74.94
446.024	86.94
446.245	79.94
446.466	81.94
446.687	81.94
446.908	77.94
447.129	76.94
447.35	81.94
447.571	91.94
447.792	86.94
448.013	87.94
448.234	79.94
448.455	89.94
448.675	85.94
448.896	71.94
449.117	75.94
449.338	81.94
449.559	85.94
449.779	74.94
450	83.94
450.221	89.94
450.442	98.94
450.662	83.94
450.883	88.94
451.104	86.94
451.324	79.94
451.545	80.94
451.766	76.94
451.986	78.94
452.207	84.94
452.428	77.94
452.648	77.94
452.869	71.94
453.089	75.94
453.31	76.94
453.53	78.94
453.751	71.94
453.971	78.94
454.192	80.94
454.412	82.94
454.633	93.94
454.853	96.94
455.073	91.94
455.294	74.94
455.514	84.94
455.734	65.94
455.955	67.94
456.175	84.94
456.395	78.94
456.616	77.94
456.836	81.94
457.056	93.94
457.276	79.94
457.497	82.94
457.717	81.94
457.937	95.94
458.157	90.94
458.377	74.94
458.598	80.94
458.818	71.94
459.038	86.94
459.258	71.94
459.478	82.94
459.698	73.94
459.918	75.94
460.138	80.94
460.358	78.94
460.578	76.94
460.798	77.94
461.018	84.94
461.238	78.94
461.458	79.94
461.678	91.94
461.898	100.94
462.118	68.94
462.338	85.94
462.558	82.94
462.777	69.94
462.997	84.94
463.217	70.94
463.437	76.94
463.657	81.94
463.876	70.94
464.096	72.94
464.316	76.94
464.536	78.94
464.755	81.94
464.975	82.94
465.195	70.94
465.414	91.94
465.634	82.94
465.854	89.94
466.073	63.94
466.293	78.94
466.512	78.94
466.732	84.94
466.951	89.94
467.171	86.94
467.391	77.94
467.61	87.94
467.829	84.94
468.049	87.94
468.268	90.94
468.488	74.94
468.707	76.94
468.927	67.94
469.146	88.94
469.365	75.94
469.585	78.94
469.804	84.94
470.023	77.94
470.243	73.94
470.462	90.94
470.681	94.94
470.901	73.94
471.12	84.94
471.339	77.94
471.558	84.94
471.777	94.94
471.997	84.94
472.216	96.94
472.435	89.94
472.654	79.94
472.873	84.94
473.092	81.94
473.311	87.94
473.53	76.94
473.749	78.94
473.968	70.94
474.187	87.94
474.406	88.94
474.625	84.94
474.844	76.94
475.063	74.94
475.282	82.94
475.501	76.94
475.72	84.94
475.939	68.94
476.158	70.94
476.377	82.94
476.596	86.94
476.814	80.94
477.033	98.94
477.252	94.94
477.471	93.94
477.69	84.94
477.908	82.94
478.127	89.94
478.346	83.94
478.564	71.94
478.783	67.94
479.002	80.94
479.22	84.94
479.439	84.94
479.658	77.94
479.876	77.94
480.095	73.94
480.313	92.94
480.532	83.94
480.751	80.94
480.969	86.94
481.188	69.94
481.406	95.94
481.624	76.94
481.843	74.94
482.061	77.94
482.28	100.94
482.498	82.94
482.717	80.94
482.935	84.94
483.153	87.94
483.372	92.94
483.59	87.94
483.808	88.94
484.027	86.94
484.245	82.94
484.463	87.94
484.681	90.94
484.9	101.94
485.118	91.94
485.336	75.94
485.554	92.94
485.772	77.94
485.99	82.94
486.209	82.94
486.427	93.94
486.645	88.94
486.863	72.94
487.081	79.94
487.299	86.94
487.517	81.94
487.735	70.94
487.953	96.94
488.171	88.94
488.389	82.94
488.607	76.94
488.825	86.94
489.043	96.94
489.261	85.94
489.479	86.94
489.696	82.94
489.914	82.94
490.132	71.94
490.35	91.94
490.568	82.94
490.786	78.94
491.003	81.94
491.221	89.94
491.439	76.94
491.657	74.94
491.874	82.94
492.092	98.94
492.31	97.94
492.527	68.94
492.745	89.94
492.963	89.94
493.18	82.94
493.398	90.94
493.615	82.94
493.833	76.94
494.05	91.94
494.268	92.94
494.485	73.94
494.703	62.94
494.92	78.94
495.138	80.94
495.355	76.94
495.573	80.94
495.79	81.94
496.008	96.94
496.225	87.94
496.442	74.94
496.66	76.94
496.877	73.94
497.094	86.94
497.312	76.94
497.529	85.94
497.746	78.94
497.963	85.94
498.181	83.94
498.398	85.94
498.615	91.94
498.832	84.94
499.049	81.94
499.267	93.94
499.484	91.94
499.701	92.94
499.918	86.94
500.135	91.94
500.352	76.94
500.569	97.94
500.786	104.94
501.003	80.94
501.22	85.94
501.437	84.94
501.654	81.94
501.871	89.94
502.088	78.94
502.305	87.94
502.522	82.94
502.739	87.94
502.956	84.94
503.172	90.94
503.389	85.94
503.606	76.94
503.823	91.94
504.04	91.94
504.256	96.94
504.473	79.94
504.69	96.94
504.907	90.94
505.123	77.94
505.34	74.94
505.557	83.94
505.773	78.94
505.99	85.94
506.207	90.94
506.423	95.94
506.64	81.94
506.856	69.94
507.073	96.94
507.289	75.94
507.506	84.94
507.722	65.94
507.939	77.94
508.155	93.94
508.372	86.94
508.588	82.94
508.805	81.94
509.021	99.94
509.238	92.94
509.454	78.94
509.67	78.94
509.887	88.94
510.103	92.94
510.319	83.94
510.536	75.94
510.752	85.94
510.968	83.94
511.184	83.94
511.401	70.94
511.617	82.94
511.833	88.94
512.049	78.94
512.265	74.94
512.481	78.94
512.698	77.94
512.914	93.94
513.13	100.94
513.346	79.94
513.562	79.94
513.778	84.94
513.994	89.94
514.21	95.94
514.426	82.94
514.642	74.94
514.858	88.94
515.074	89.94
515.29	92.94
515.506	84.94
515.721	97.94
515.937	80.94
516.153	78.94
516.369	71.94
516.585	81.94
516.801	86.94
517.016	91.94
517.232	86.94
517.448	74.94
517.664	81.94
517.879	81.94
518.095	86.94
518.311	76.94
518.527	90.94
518.742	88.94
518.958	89.94
519.173	74.94
519.389	93.94
519.605	89.94
519.82	85.94
520.036	83.94
