Data from Background_2_HRD10591_00001.txt Node
Date: Wed Nov 05 14:46:57 EST 2025
User: Yrep
Spectrometer: HR+D1059
Trigger mode: 1
Integration Time (sec): 1.000000E-1
Scans to average: 1
Electric dark correction enabled: true
Nonlinearity correction enabled: false
Boxcar width: 0
XAxis mode: Wavelengths
Number of Pixels in Spectrum: 2048
>>>>>Begin Spectral Data<<<<<
223.165	-8.44
223.4	-8.44
223.635	-8.44
223.869	-11.44
224.104	-13.44
224.338	-15.44
224.573	-16.44
224.808	-18.44
225.042	-6.44
225.277	-1.44
225.511	5.56
225.746	5.56
225.98	4.56
226.215	4.56
226.449	6.56
226.683	7.56
226.918	23.56
227.152	33.56
227.387	44.56
227.621	48.56
227.856	36.56
228.09	39.56
228.324	43.56
228.559	54.56
228.793	66.56
229.027	67.56
229.262	51.56
229.496	63.56
229.73	82.56
229.964	82.56
230.199	73.56
230.433	75.56
230.667	71.56
230.901	76.56
231.136	81.56
231.37	79.56
231.604	88.56
231.838	77.56
232.072	73.56
232.306	72.56
232.541	80.56
232.775	85.56
233.009	77.56
233.243	79.56
233.477	92.56
233.711	96.56
233.945	106.56
234.179	85.56
234.413	80.56
234.647	86.56
234.881	80.56
235.115	83.56
235.349	82.56
235.583	79.56
235.817	74.56
236.051	79.56
236.285	72.56
236.519	66.56
236.753	82.56
236.987	68.56
237.221	72.56
237.455	70.56
237.689	68.56
237.922	81.56
238.156	80.56
238.39	73.56
238.624	74.56
238.858	85.56
239.091	81.56
239.325	71.56
239.559	71.56
239.793	71.56
240.027	75.56
240.26	78.56
240.494	76.56
240.728	73.56
240.961	87.56
241.195	82.56
241.429	94.56
241.662	81.56
241.896	75.56
242.13	64.56
242.363	68.56
242.597	86.56
242.83	95.56
243.064	76.56
243.298	78.56
243.531	81.56
243.765	63.56
243.998	79.56
244.232	78.56
244.465	84.56
244.699	71.56
244.932	87.56
245.166	77.56
245.399	89.56
245.633	84.56
245.866	76.56
246.099	79.56
246.333	68.56
246.566	83.56
246.8	83.56
247.033	82.56
247.266	52.56
247.5	71.56
247.733	65.56
247.966	68.56
248.2	76.56
248.433	84.56
248.666	82.56
248.899	84.56
249.133	91.56
249.366	96.56
249.599	73.56
249.832	83.56
250.066	86.56
250.299	82.56
250.532	85.56
250.765	80.56
250.998	76.56
251.231	67.56
251.465	84.56
251.698	73.56
251.931	78.56
252.164	71.56
252.397	85.56
252.63	79.56
252.863	94.56
253.096	80.56
253.329	64.56
253.562	76.56
253.795	71.56
254.028	82.56
254.261	73.56
254.494	86.56
254.727	73.56
254.96	86.56
255.193	94.56
255.426	72.56
255.659	74.56
255.892	69.56
256.124	79.56
256.357	84.56
256.59	86.56
256.823	78.56
257.056	76.56
257.289	67.56
257.521	76.56
257.754	84.56
257.987	94.56
258.22	87.56
258.452	91.56
258.685	94.56
258.918	70.56
259.151	72.56
259.383	81.56
259.616	91.56
259.849	87.56
260.081	92.56
260.314	87.56
260.547	74.56
260.779	93.56
261.012	76.56
261.244	78.56
261.477	71.56
261.71	78.56
261.942	75.56
262.175	80.56
262.407	104.56
262.64	87.56
262.872	90.56
263.105	90.56
263.337	76.56
263.57	84.56
263.802	84.56
264.035	81.56
264.267	78.56
264.499	78.56
264.732	71.56
264.964	66.56
265.197	89.56
265.429	100.56
265.661	85.56
265.894	94.56
266.126	77.56
266.358	84.56
266.591	84.56
266.823	91.56
267.055	90.56
267.287	81.56
267.52	78.56
267.752	96.56
267.984	86.56
268.216	81.56
268.448	86.56
268.681	63.56
268.913	94.56
269.145	77.56
269.377	93.56
269.609	77.56
269.841	87.56
270.073	80.56
270.306	94.56
270.538	79.56
270.77	92.56
271.002	74.56
271.234	82.56
271.466	76.56
271.698	83.56
271.93	82.56
272.162	56.56
272.394	90.56
272.626	78.56
272.858	87.56
273.09	94.56
273.322	74.56
273.553	68.56
273.785	83.56
274.017	69.56
274.249	84.56
274.481	87.56
274.713	97.56
274.945	81.56
275.176	76.56
275.408	78.56
275.64	68.56
275.872	80.56
276.104	91.56
276.335	79.56
276.567	68.56
276.799	91.56
277.031	67.56
277.262	61.56
277.494	85.56
277.726	79.56
277.957	72.56
278.189	74.56
278.421	81.56
278.652	79.56
278.884	66.56
279.115	81.56
279.347	84.56
279.579	84.56
279.81	101.56
280.042	92.56
280.273	79.56
280.505	73.56
280.736	85.56
280.968	87.56
281.199	68.56
281.431	89.56
281.662	70.56
281.894	96.56
282.125	87.56
282.356	77.56
282.588	78.56
282.819	67.56
283.051	74.56
283.282	80.56
283.513	65.56
283.745	70.56
283.976	91.56
284.207	90.56
284.439	89.56
284.67	84.56
284.901	77.56
285.132	80.56
285.364	91.56
285.595	89.56
285.826	78.56
286.057	83.56
286.288	88.56
286.52	85.56
286.751	92.56
286.982	76.56
287.213	95.56
287.444	71.56
287.675	86.56
287.906	83.56
288.138	71.56
288.369	85.56
288.6	86.56
288.831	94.56
289.062	105.56
289.293	86.56
289.524	90.56
289.755	86.56
289.986	96.56
290.217	85.56
290.448	72.56
290.679	83.56
290.91	86.56
291.141	74.56
291.371	77.56
291.602	98.56
291.833	83.56
292.064	86.56
292.295	96.56
292.526	88.56
292.757	90.56
292.987	93.56
293.218	89.56
293.449	75.56
293.68	61.56
293.91	74.56
294.141	82.56
294.372	88.56
294.603	79.56
294.833	68.56
295.064	87.56
295.295	91.56
295.525	82.56
295.756	87.56
295.987	72.56
296.217	95.56
296.448	86.56
296.679	82.56
296.909	87.56
297.14	83.56
297.37	92.56
297.601	103.56
297.831	86.56
298.062	94.56
298.292	66.56
298.523	83.56
298.753	78.56
298.984	93.56
299.214	82.56
299.445	81.56
299.675	78.56
299.905	87.56
300.136	78.56
300.366	77.56
300.597	87.56
300.827	84.56
301.057	75.56
301.288	94.56
301.518	98.56
301.748	92.56
301.979	100.56
302.209	92.56
302.439	87.56
302.669	80.56
302.9	84.56
303.13	82.56
303.36	80.56
303.59	72.56
303.82	91.56
304.051	73.56
304.281	99.56
304.511	90.56
304.741	84.56
304.971	85.56
305.201	86.56
305.431	81.56
305.661	80.56
305.891	83.56
306.121	78.56
306.352	74.56
306.582	76.56
306.812	91.56
307.042	85.56
307.272	86.56
307.502	82.56
307.731	77.56
307.961	78.56
308.191	92.56
308.421	92.56
308.651	77.56
308.881	79.56
309.111	85.56
309.341	94.56
309.571	80.56
309.8	87.56
310.03	99.56
310.26	94.56
310.49	84.56
310.72	81.56
310.949	92.56
311.179	81.56
311.409	81.56
311.639	76.56
311.868	80.56
312.098	78.56
312.328	71.56
312.557	81.56
312.787	91.56
313.017	71.56
313.246	81.56
313.476	86.56
313.706	95.56
313.935	84.56
314.165	80.56
314.394	76.56
314.624	100.56
314.853	74.56
315.083	85.56
315.312	86.56
315.542	85.56
315.771	87.56
316.001	90.56
316.23	85.56
316.46	82.56
316.689	87.56
316.919	87.56
317.148	84.56
317.377	80.56
317.607	86.56
317.836	92.56
318.065	76.56
318.295	81.56
318.524	70.56
318.753	79.56
318.983	85.56
319.212	83.56
319.441	82.56
319.67	83.56
319.9	88.56
320.129	88.56
320.358	87.56
320.587	83.56
320.816	92.56
321.046	85.56
321.275	92.56
321.504	78.56
321.733	88.56
321.962	95.56
322.191	77.56
322.42	102.56
322.649	77.56
322.878	83.56
323.108	72.56
323.337	86.56
323.566	92.56
323.795	96.56
324.024	87.56
324.253	84.56
324.482	69.56
324.71	85.56
324.939	90.56
325.168	88.56
325.397	75.56
325.626	90.56
325.855	79.56
326.084	82.56
326.313	90.56
326.542	85.56
326.77	80.56
326.999	70.56
327.228	74.56
327.457	93.56
327.686	73.56
327.914	85.56
328.143	93.56
328.372	78.56
328.6	92.56
328.829	82.56
329.058	79.56
329.287	82.56
329.515	78.56
329.744	90.56
329.972	87.56
330.201	102.56
330.43	94.56
330.658	84.56
330.887	87.56
331.115	86.56
331.344	80.56
331.572	106.56
331.801	74.56
332.03	73.56
332.258	82.56
332.486	77.56
332.715	88.56
332.943	91.56
333.172	77.56
333.4	86.56
333.629	85.56
333.857	76.56
334.085	89.56
334.314	87.56
334.542	85.56
334.771	76.56
334.999	72.56
335.227	82.56
335.455	81.56
335.684	83.56
335.912	83.56
336.14	86.56
336.369	63.56
336.597	82.56
336.825	94.56
337.053	66.56
337.281	77.56
337.51	81.56
337.738	83.56
337.966	92.56
338.194	76.56
338.422	83.56
338.65	97.56
338.878	94.56
339.106	76.56
339.334	85.56
339.562	87.56
339.79	81.56
340.018	67.56
340.246	76.56
340.474	79.56
340.702	78.56
340.93	88.56
341.158	69.56
341.386	70.56
341.614	78.56
341.842	92.56
342.07	78.56
342.298	99.56
342.526	86.56
342.754	89.56
342.981	76.56
343.209	76.56
343.437	94.56
343.665	88.56
343.893	72.56
344.12	79.56
344.348	87.56
344.576	82.56
344.804	87.56
345.031	80.56
345.259	81.56
345.487	78.56
345.714	82.56
345.942	80.56
346.17	83.56
346.397	85.56
346.625	85.56
346.853	82.56
347.08	76.56
347.308	90.56
347.535	80.56
347.763	79.56
347.99	89.56
348.218	83.56
348.445	89.56
348.673	64.56
348.9	89.56
349.128	76.56
349.355	80.56
349.583	83.56
349.81	81.56
350.037	82.56
350.265	85.56
350.492	78.56
350.72	93.56
350.947	98.56
351.174	87.56
351.402	82.56
351.629	104.56
351.856	82.56
352.083	98.56
352.311	89.56
352.538	70.56
352.765	72.56
352.992	81.56
353.22	85.56
353.447	84.56
353.674	95.56
353.901	83.56
354.128	90.56
354.355	78.56
354.583	81.56
354.81	93.56
355.037	94.56
355.264	85.56
355.491	72.56
355.718	74.56
355.945	94.56
356.172	85.56
356.399	96.56
356.626	70.56
356.853	85.56
357.08	94.56
357.307	82.56
357.534	86.56
357.761	75.56
357.988	97.56
358.215	79.56
358.441	94.56
358.668	104.56
358.895	96.56
359.122	86.56
359.349	83.56
359.576	88.56
359.802	70.56
360.029	78.56
360.256	85.56
360.483	82.56
360.709	82.56
360.936	79.56
361.163	82.56
361.39	78.56
361.616	93.56
361.843	78.56
362.07	78.56
362.296	79.56
362.523	71.56
362.749	93.56
362.976	77.56
363.203	95.56
363.429	95.56
363.656	80.56
363.882	85.56
364.109	86.56
364.335	93.56
364.562	84.56
364.788	90.56
365.015	88.56
365.241	82.56
365.468	92.56
365.694	80.56
365.92	76.56
366.147	94.56
366.373	84.56
366.599	84.56
366.826	81.56
367.052	79.56
367.278	75.56
367.505	75.56
367.731	80.56
367.957	92.56
368.184	84.56
368.41	87.56
368.636	79.56
368.862	88.56
369.089	83.56
369.315	89.56
369.541	75.56
369.767	83.56
369.993	78.56
370.219	77.56
370.445	83.56
370.672	94.56
370.898	92.56
371.124	84.56
371.35	72.56
371.576	75.56
371.802	71.56
372.028	88.56
372.254	81.56
372.48	82.56
372.706	90.56
372.932	78.56
373.158	94.56
373.384	76.56
373.61	90.56
373.835	72.56
374.061	83.56
374.287	82.56
374.513	90.56
374.739	83.56
374.965	92.56
375.191	78.56
375.416	94.56
375.642	84.56
375.868	85.56
376.094	88.56
376.319	88.56
376.545	83.56
376.771	83.56
376.997	88.56
377.222	83.56
377.448	77.56
377.674	73.56
377.899	75.56
378.125	80.56
378.35	88.56
378.576	83.56
378.802	78.56
379.027	94.56
379.253	90.56
379.478	70.56
379.704	83.56
379.929	90.56
380.155	84.56
380.38	95.56
380.606	75.56
380.831	85.56
381.057	90.56
381.282	83.56
381.507	86.56
381.733	82.56
381.958	73.56
382.184	69.56
382.409	70.56
382.634	87.56
382.86	98.56
383.085	89.56
383.31	94.56
383.535	82.56
383.761	84.56
383.986	95.56
384.211	86.56
384.436	74.56
384.662	88.56
384.887	78.56
385.112	88.56
385.337	86.56
385.562	83.56
385.787	82.56
386.013	75.56
386.238	92.56
386.463	80.56
386.688	100.56
386.913	84.56
387.138	91.56
387.363	85.56
387.588	88.56
387.813	92.56
388.038	80.56
388.263	83.56
388.488	86.56
388.713	77.56
388.938	77.56
389.163	79.56
389.387	80.56
389.612	68.56
389.837	74.56
390.062	95.56
390.287	64.56
390.512	79.56
390.736	72.56
390.961	91.56
391.186	69.56
391.411	86.56
391.636	75.56
391.86	82.56
392.085	86.56
392.31	77.56
392.534	82.56
392.759	80.56
392.984	78.56
393.208	84.56
393.433	81.56
393.658	79.56
393.882	90.56
394.107	84.56
394.331	80.56
394.556	80.56
394.78	71.56
395.005	79.56
395.229	77.56
395.454	70.56
395.678	71.56
395.903	74.56
396.127	85.56
396.352	84.56
396.576	76.56
396.801	81.56
397.025	90.56
397.249	88.56
397.474	93.56
397.698	84.56
397.922	88.56
398.147	84.56
398.371	82.56
398.595	89.56
398.82	77.56
399.044	77.56
399.268	89.56
399.492	76.56
399.717	76.56
399.941	77.56
400.165	81.56
400.389	89.56
400.613	85.56
400.837	77.56
401.062	70.56
401.286	80.56
401.51	76.56
401.734	81.56
401.958	68.56
402.182	84.56
402.406	91.56
402.63	82.56
402.854	92.56
403.078	92.56
403.302	83.56
403.526	81.56
403.75	70.56
403.974	95.56
404.198	71.56
404.422	79.56
404.645	68.56
404.869	87.56
405.093	79.56
405.317	74.56
405.541	79.56
405.765	80.56
405.988	70.56
406.212	83.56
406.436	80.56
406.66	82.56
406.883	86.56
407.107	87.56
407.331	96.56
407.555	66.56
407.778	88.56
408.002	73.56
408.226	54.56
408.449	81.56
408.673	88.56
408.896	89.56
409.12	66.56
409.344	80.56
409.567	78.56
409.791	83.56
410.014	74.56
410.238	75.56
410.461	91.56
410.685	71.56
410.908	77.56
411.132	79.56
411.355	81.56
411.578	79.56
411.802	74.56
412.025	93.56
412.249	76.56
412.472	69.56
412.695	88.56
412.919	80.56
413.142	76.56
413.365	88.56
413.589	95.56
413.812	73.56
414.035	83.56
414.258	84.56
414.482	87.56
414.705	92.56
414.928	82.56
415.151	78.56
415.374	85.56
415.597	78.56
415.821	90.56
416.044	94.56
416.267	84.56
416.49	92.56
416.713	88.56
416.936	78.56
417.159	70.56
417.382	68.56
417.605	71.56
417.828	86.56
418.051	72.56
418.274	76.56
418.497	78.56
418.72	92.56
418.943	84.56
419.166	90.56
419.389	90.56
419.611	67.56
419.834	70.56
420.057	87.56
420.28	85.56
420.503	85.56
420.726	77.56
420.948	84.56
421.171	82.56
421.394	96.56
421.617	79.56
421.839	78.56
422.062	85.56
422.285	86.56
422.507	87.56
422.73	87.56
422.953	76.56
423.175	86.56
423.398	84.56
423.621	71.56
423.843	84.56
424.066	95.56
424.288	87.56
424.511	95.56
424.733	87.56
424.956	86.56
425.178	72.56
425.401	79.56
425.623	68.56
425.846	73.56
426.068	90.56
426.291	76.56
426.513	96.56
426.735	98.56
426.958	95.56
427.18	78.56
427.402	79.56
427.625	82.56
427.847	73.56
428.069	95.56
428.292	73.56
428.514	82.56
428.736	78.56
428.958	80.56
429.181	84.56
429.403	84.56
429.625	91.56
429.847	79.56
430.069	83.56
430.292	79.56
430.514	81.56
430.736	90.56
430.958	80.56
431.18	80.56
431.402	77.56
431.624	80.56
431.846	88.56
432.068	90.56
432.29	86.56
432.512	84.56
432.734	94.56
432.956	87.56
433.178	88.56
433.4	83.56
433.622	76.56
433.844	98.56
434.066	88.56
434.287	83.56
434.509	74.56
434.731	74.56
434.953	76.56
435.175	81.56
435.397	86.56
435.618	81.56
435.84	66.56
436.062	79.56
436.284	70.56
436.505	79.56
436.727	70.56
436.949	76.56
437.17	68.56
437.392	82.56
437.614	85.56
437.835	69.56
438.057	83.56
438.278	90.56
438.5	91.56
438.721	85.56
438.943	78.56
439.165	78.56
439.386	98.56
439.608	91.56
439.829	85.56
440.05	86.56
440.272	64.56
440.493	73.56
440.715	82.56
440.936	96.56
441.158	73.56
441.379	78.56
441.6	77.56
441.822	74.56
442.043	70.56
442.264	67.56
442.486	86.56
442.707	84.56
442.928	82.56
443.149	91.56
443.371	99.56
443.592	80.56
443.813	76.56
444.034	77.56
444.255	76.56
444.476	70.56
444.698	78.56
444.919	82.56
445.14	153.56
445.361	102.56
445.582	87.56
445.803	92.56
446.024	98.56
446.245	84.56
446.466	77.56
446.687	62.56
446.908	78.56
447.129	82.56
447.35	96.56
447.571	93.56
447.792	86.56
448.013	70.56
448.234	67.56
448.455	78.56
448.675	77.56
448.896	83.56
449.117	85.56
449.338	96.56
449.559	85.56
449.779	80.56
450	79.56
450.221	79.56
450.442	77.56
450.662	69.56
450.883	70.56
451.104	67.56
451.324	79.56
451.545	87.56
451.766	81.56
451.986	65.56
452.207	71.56
452.428	69.56
452.648	89.56
452.869	89.56
453.089	80.56
453.31	71.56
453.53	83.56
453.751	82.56
453.971	84.56
454.192	90.56
454.412	95.56
454.633	92.56
454.853	77.56
455.073	89.56
455.294	96.56
455.514	77.56
455.734	90.56
455.955	93.56
456.175	69.56
456.395	76.56
456.616	87.56
456.836	93.56
457.056	93.56
457.276	87.56
457.497	83.56
457.717	67.56
457.937	89.56
458.157	66.56
458.377	68.56
458.598	82.56
458.818	71.56
459.038	74.56
459.258	73.56
459.478	86.56
459.698	74.56
459.918	82.56
460.138	62.56
460.358	91.56
460.578	92.56
460.798	83.56
461.018	76.56
461.238	88.56
461.458	76.56
461.678	85.56
461.898	81.56
462.118	81.56
462.338	91.56
462.558	82.56
462.777	71.56
462.997	68.56
463.217	81.56
463.437	79.56
463.657	81.56
463.876	87.56
464.096	82.56
464.316	71.56
464.536	91.56
464.755	85.56
464.975	80.56
465.195	88.56
465.414	84.56
465.634	80.56
465.854	69.56
466.073	68.56
466.293	75.56
466.512	82.56
466.732	69.56
466.951	83.56
467.171	64.56
467.391	92.56
467.61	86.56
467.829	72.56
468.049	63.56
468.268	87.56
468.488	75.56
468.707	94.56
468.927	87.56
469.146	90.56
469.365	72.56
469.585	79.56
469.804	74.56
470.023	90.56
470.243	90.56
470.462	80.56
470.681	88.56
470.901	69.56
471.12	86.56
471.339	75.56
471.558	80.56
471.777	73.56
471.997	81.56
472.216	69.56
472.435	86.56
472.654	74.56
472.873	80.56
473.092	93.56
473.311	85.56
473.53	88.56
473.749	86.56
473.968	86.56
474.187	87.56
474.406	84.56
474.625	89.56
474.844	77.56
475.063	82.56
475.282	90.56
475.501	68.56
475.72	97.56
475.939	78.56
476.158	88.56
476.377	77.56
476.596	82.56
476.814	90.56
477.033	86.56
477.252	70.56
477.471	95.56
477.69	72.56
477.908	73.56
478.127	78.56
478.346	77.56
478.564	69.56
478.783	90.56
479.002	94.56
479.22	75.56
479.439	85.56
479.658	84.56
479.876	81.56
480.095	90.56
480.313	85.56
480.532	84.56
480.751	94.56
480.969	89.56
481.188	74.56
481.406	84.56
481.624	93.56
481.843	79.56
482.061	96.56
482.28	81.56
482.498	71.56
482.717	76.56
482.935	84.56
483.153	86.56
483.372	87.56
483.59	77.56
483.808	81.56
484.027	87.56
484.245	83.56
484.463	87.56
484.681	85.56
484.9	63.56
485.118	70.56
485.336	76.56
485.554	74.56
485.772	69.56
485.99	92.56
486.209	66.56
486.427	82.56
486.645	90.56
486.863	79.56
487.081	76.56
487.299	75.56
487.517	80.56
487.735	105.56
487.953	84.56
488.171	76.56
488.389	87.56
488.607	89.56
488.825	88.56
489.043	80.56
489.261	75.56
489.479	88.56
489.696	79.56
489.914	92.56
490.132	86.56
490.35	82.56
490.568	84.56
490.786	80.56
491.003	83.56
491.221	87.56
491.439	88.56
491.657	73.56
491.874	85.56
492.092	87.56
492.31	91.56
492.527	98.56
492.745	85.56
492.963	69.56
493.18	79.56
493.398	85.56
493.615	92.56
493.833	80.56
494.05	85.56
494.268	83.56
494.485	95.56
494.703	90.56
494.92	75.56
495.138	84.56
495.355	86.56
495.573	86.56
495.79	86.56
496.008	78.56
496.225	88.56
496.442	81.56
496.66	85.56
496.877	76.56
497.094	87.56
497.312	85.56
497.529	75.56
497.746	80.56
497.963	79.56
498.181	80.56
498.398	92.56
498.615	86.56
498.832	84.56
499.049	85.56
499.267	85.56
499.484	77.56
499.701	101.56
499.918	100.56
500.135	90.56
500.352	91.56
500.569	103.56
500.786	94.56
501.003	73.56
501.22	92.56
501.437	91.56
501.654	86.56
501.871	85.56
502.088	83.56
502.305	93.56
502.522	83.56
502.739	97.56
502.956	83.56
503.172	69.56
503.389	79.56
503.606	88.56
503.823	84.56
504.04	95.56
504.256	87.56
504.473	77.56
504.69	92.56
504.907	83.56
505.123	78.56
505.34	93.56
505.557	99.56
505.773	72.56
505.99	75.56
506.207	72.56
506.423	82.56
506.64	74.56
506.856	88.56
507.073	94.56
507.289	85.56
507.506	80.56
507.722	80.56
507.939	94.56
508.155	96.56
508.372	72.56
508.588	81.56
508.805	75.56
509.021	86.56
509.238	84.56
509.454	92.56
509.67	86.56
509.887	82.56
510.103	81.56
510.319	87.56
510.536	85.56
510.752	90.56
510.968	84.56
511.184	80.56
511.401	67.56
511.617	89.56
511.833	76.56
512.049	81.56
512.265	78.56
512.481	86.56
512.698	84.56
512.914	102.56
513.13	68.56
513.346	89.56
513.562	74.56
513.778	84.56
513.994	76.56
514.21	83.56
514.426	95.56
514.642	92.56
514.858	78.56
515.074	96.56
515.29	78.56
515.506	81.56
515.721	92.56
515.937	80.56
516.153	80.56
516.369	93.56
516.585	86.56
516.801	95.56
517.016	71.56
517.232	85.56
517.448	78.56
517.664	92.56
517.879	81.56
518.095	96.56
518.311	94.56
518.527	77.56
518.742	77.56
518.958	75.56
519.173	99.56
519.389	71.56
519.605	94.56
519.82	86.56
520.036	99.56
