Data from Background_2_HRD10591_00100.txt Node
Date: Wed Nov 05 14:47:46 EST 2025
User: Yrep
Spectrometer: HR+D1059
Trigger mode: 1
Integration Time (sec): 1.000000E-1
Scans to average: 1
Electric dark correction enabled: true
Nonlinearity correction enabled: false
Boxcar width: 0
XAxis mode: Wavelengths
Number of Pixels in Spectrum: 2048
>>>>>Begin Spectral Data<<<<<
223.165	-14.12
223.4	-14.12
223.635	-14.12
223.869	-14.12
224.104	-14.12
224.338	-10.12
224.573	-24.12
224.808	-7.12
225.042	-8.12
225.277	-10.12
225.511	-4.12
225.746	-7.12
225.98	10.88
226.215	16.88
226.449	13.88
226.683	20.88
226.918	12.88
227.152	37.88
227.387	44.88
227.621	44.88
227.856	40.88
228.09	53.88
228.324	53.88
228.559	46.88
228.793	65.88
229.027	56.88
229.262	63.88
229.496	68.88
229.73	64.88
229.964	73.88
230.199	63.88
230.433	66.88
230.667	81.88
230.901	81.88
231.136	84.88
231.37	73.88
231.604	89.88
231.838	72.88
232.072	76.88
232.306	80.88
232.541	92.88
232.775	85.88
233.009	95.88
233.243	90.88
233.477	85.88
233.711	77.88
233.945	77.88
234.179	75.88
234.413	81.88
234.647	93.88
234.881	73.88
235.115	76.88
235.349	71.88
235.583	76.88
235.817	75.88
236.051	79.88
236.285	68.88
236.519	84.88
236.753	76.88
236.987	72.88
237.221	67.88
237.455	77.88
237.689	67.88
237.922	70.88
238.156	79.88
238.39	72.88
238.624	75.88
238.858	72.88
239.091	80.88
239.325	67.88
239.559	74.88
239.793	73.88
240.027	83.88
240.26	67.88
240.494	78.88
240.728	63.88
240.961	83.88
241.195	90.88
241.429	73.88
241.662	84.88
241.896	65.88
242.13	73.88
242.363	81.88
242.597	64.88
242.83	87.88
243.064	76.88
243.298	84.88
243.531	69.88
243.765	73.88
243.998	72.88
244.232	74.88
244.465	79.88
244.699	73.88
244.932	72.88
245.166	74.88
245.399	79.88
245.633	91.88
245.866	70.88
246.099	83.88
246.333	70.88
246.566	92.88
246.8	75.88
247.033	77.88
247.266	74.88
247.5	82.88
247.733	86.88
247.966	69.88
248.2	72.88
248.433	81.88
248.666	85.88
248.899	81.88
249.133	77.88
249.366	78.88
249.599	77.88
249.832	78.88
250.066	88.88
250.299	75.88
250.532	93.88
250.765	71.88
250.998	69.88
251.231	94.88
251.465	71.88
251.698	63.88
251.931	81.88
252.164	77.88
252.397	74.88
252.63	76.88
252.863	86.88
253.096	84.88
253.329	82.88
253.562	81.88
253.795	86.88
254.028	70.88
254.261	74.88
254.494	77.88
254.727	77.88
254.96	81.88
255.193	69.88
255.426	63.88
255.659	79.88
255.892	83.88
256.124	88.88
256.357	75.88
256.59	83.88
256.823	84.88
257.056	91.88
257.289	75.88
257.521	80.88
257.754	79.88
257.987	74.88
258.22	85.88
258.452	95.88
258.685	77.88
258.918	65.88
259.151	75.88
259.383	79.88
259.616	78.88
259.849	65.88
260.081	78.88
260.314	88.88
260.547	82.88
260.779	84.88
261.012	84.88
261.244	93.88
261.477	79.88
261.71	84.88
261.942	77.88
262.175	85.88
262.407	87.88
262.64	70.88
262.872	67.88
263.105	92.88
263.337	87.88
263.57	88.88
263.802	78.88
264.035	77.88
264.267	75.88
264.499	89.88
264.732	82.88
264.964	78.88
265.197	83.88
265.429	82.88
265.661	76.88
265.894	75.88
266.126	85.88
266.358	87.88
266.591	87.88
266.823	80.88
267.055	87.88
267.287	87.88
267.52	81.88
267.752	75.88
267.984	76.88
268.216	86.88
268.448	81.88
268.681	84.88
268.913	85.88
269.145	71.88
269.377	77.88
269.609	75.88
269.841	76.88
270.073	89.88
270.306	93.88
270.538	85.88
270.77	88.88
271.002	85.88
271.234	83.88
271.466	71.88
271.698	77.88
271.93	90.88
272.162	88.88
272.394	73.88
272.626	88.88
272.858	81.88
273.09	76.88
273.322	83.88
273.553	77.88
273.785	75.88
274.017	88.88
274.249	84.88
274.481	87.88
274.713	71.88
274.945	80.88
275.176	82.88
275.408	78.88
275.64	80.88
275.872	87.88
276.104	89.88
276.335	90.88
276.567	81.88
276.799	88.88
277.031	77.88
277.262	84.88
277.494	91.88
277.726	78.88
277.957	81.88
278.189	75.88
278.421	84.88
278.652	89.88
278.884	81.88
279.115	77.88
279.347	73.88
279.579	68.88
279.81	71.88
280.042	77.88
280.273	98.88
280.505	80.88
280.736	76.88
280.968	76.88
281.199	80.88
281.431	75.88
281.662	73.88
281.894	76.88
282.125	78.88
282.356	89.88
282.588	93.88
282.819	83.88
283.051	79.88
283.282	81.88
283.513	87.88
283.745	90.88
283.976	95.88
284.207	88.88
284.439	77.88
284.67	84.88
284.901	74.88
285.132	65.88
285.364	98.88
285.595	95.88
285.826	73.88
286.057	86.88
286.288	86.88
286.52	75.88
286.751	91.88
286.982	78.88
287.213	77.88
287.444	84.88
287.675	74.88
287.906	96.88
288.138	83.88
288.369	79.88
288.6	88.88
288.831	98.88
289.062	80.88
289.293	82.88
289.524	82.88
289.755	78.88
289.986	78.88
290.217	84.88
290.448	77.88
290.679	77.88
290.91	87.88
291.141	85.88
291.371	96.88
291.602	86.88
291.833	84.88
292.064	83.88
292.295	87.88
292.526	76.88
292.757	75.88
292.987	87.88
293.218	78.88
293.449	89.88
293.68	87.88
293.91	84.88
294.141	103.88
294.372	76.88
294.603	78.88
294.833	75.88
295.064	74.88
295.295	69.88
295.525	87.88
295.756	87.88
295.987	83.88
296.217	91.88
296.448	78.88
296.679	85.88
296.909	75.88
297.14	79.88
297.37	83.88
297.601	71.88
297.831	78.88
298.062	93.88
298.292	89.88
298.523	77.88
298.753	82.88
298.984	70.88
299.214	78.88
299.445	79.88
299.675	69.88
299.905	83.88
300.136	71.88
300.366	79.88
300.597	95.88
300.827	91.88
301.057	81.88
301.288	91.88
301.518	75.88
301.748	77.88
301.979	82.88
302.209	89.88
302.439	79.88
302.669	79.88
302.9	90.88
303.13	84.88
303.36	89.88
303.59	87.88
303.82	82.88
304.051	88.88
304.281	91.88
304.511	89.88
304.741	75.88
304.971	79.88
305.201	89.88
305.431	89.88
305.661	85.88
305.891	82.88
306.121	85.88
306.352	80.88
306.582	89.88
306.812	88.88
307.042	92.88
307.272	91.88
307.502	84.88
307.731	88.88
307.961	85.88
308.191	80.88
308.421	97.88
308.651	71.88
308.881	79.88
309.111	80.88
309.341	83.88
309.571	72.88
309.8	87.88
310.03	82.88
310.26	81.88
310.49	84.88
310.72	93.88
310.949	82.88
311.179	79.88
311.409	92.88
311.639	83.88
311.868	96.88
312.098	77.88
312.328	85.88
312.557	87.88
312.787	84.88
313.017	99.88
313.246	84.88
313.476	94.88
313.706	81.88
313.935	85.88
314.165	78.88
314.394	82.88
314.624	83.88
314.853	96.88
315.083	79.88
315.312	85.88
315.542	78.88
315.771	85.88
316.001	85.88
316.23	88.88
316.46	89.88
316.689	67.88
316.919	79.88
317.148	85.88
317.377	88.88
317.607	72.88
317.836	84.88
318.065	72.88
318.295	69.88
318.524	68.88
318.753	79.88
318.983	72.88
319.212	73.88
319.441	88.88
319.67	69.88
319.9	81.88
320.129	84.88
320.358	88.88
320.587	72.88
320.816	76.88
321.046	68.88
321.275	79.88
321.504	87.88
321.733	83.88
321.962	79.88
322.191	91.88
322.42	78.88
322.649	81.88
322.878	92.88
323.108	77.88
323.337	83.88
323.566	87.88
323.795	76.88
324.024	91.88
324.253	82.88
324.482	81.88
324.71	91.88
324.939	84.88
325.168	83.88
325.397	83.88
325.626	79.88
325.855	87.88
326.084	63.88
326.313	81.88
326.542	95.88
326.77	89.88
326.999	89.88
327.228	100.88
327.457	83.88
327.686	100.88
327.914	86.88
328.143	84.88
328.372	64.88
328.6	80.88
328.829	91.88
329.058	97.88
329.287	83.88
329.515	65.88
329.744	91.88
329.972	94.88
330.201	93.88
330.43	83.88
330.658	89.88
330.887	81.88
331.115	96.88
331.344	87.88
331.572	76.88
331.801	90.88
332.03	82.88
332.258	93.88
332.486	93.88
332.715	77.88
332.943	85.88
333.172	90.88
333.4	71.88
333.629	92.88
333.857	80.88
334.085	89.88
334.314	66.88
334.542	90.88
334.771	84.88
334.999	81.88
335.227	71.88
335.455	89.88
335.684	85.88
335.912	83.88
336.14	92.88
336.369	76.88
336.597	88.88
336.825	74.88
337.053	74.88
337.281	81.88
337.51	89.88
337.738	79.88
337.966	88.88
338.194	89.88
338.422	67.88
338.65	83.88
338.878	75.88
339.106	77.88
339.334	98.88
339.562	85.88
339.79	76.88
340.018	79.88
340.246	98.88
340.474	85.88
340.702	77.88
340.93	67.88
341.158	80.88
341.386	82.88
341.614	93.88
341.842	89.88
342.07	90.88
342.298	87.88
342.526	83.88
342.754	81.88
342.981	71.88
343.209	77.88
343.437	86.88
343.665	93.88
343.893	93.88
344.12	83.88
344.348	81.88
344.576	76.88
344.804	86.88
345.031	87.88
345.259	81.88
345.487	88.88
345.714	77.88
345.942	84.88
346.17	80.88
346.397	89.88
346.625	93.88
346.853	85.88
347.08	87.88
347.308	92.88
347.535	80.88
347.763	76.88
347.99	94.88
348.218	91.88
348.445	85.88
348.673	89.88
348.9	83.88
349.128	91.88
349.355	86.88
349.583	77.88
349.81	84.88
350.037	78.88
350.265	93.88
350.492	75.88
350.72	92.88
350.947	77.88
351.174	85.88
351.402	78.88
351.629	79.88
351.856	81.88
352.083	80.88
352.311	99.88
352.538	77.88
352.765	75.88
352.992	86.88
353.22	84.88
353.447	88.88
353.674	79.88
353.901	95.88
354.128	77.88
354.355	74.88
354.583	81.88
354.81	74.88
355.037	89.88
355.264	87.88
355.491	77.88
355.718	79.88
355.945	79.88
356.172	85.88
356.399	67.88
356.626	94.88
356.853	78.88
357.08	69.88
357.307	97.88
357.534	80.88
357.761	91.88
357.988	79.88
358.215	83.88
358.441	74.88
358.668	83.88
358.895	80.88
359.122	73.88
359.349	83.88
359.576	77.88
359.802	74.88
360.029	86.88
360.256	77.88
360.483	81.88
360.709	84.88
360.936	91.88
361.163	82.88
361.39	84.88
361.616	71.88
361.843	87.88
362.07	72.88
362.296	76.88
362.523	79.88
362.749	83.88
362.976	83.88
363.203	88.88
363.429	87.88
363.656	69.88
363.882	84.88
364.109	86.88
364.335	83.88
364.562	76.88
364.788	91.88
365.015	83.88
365.241	82.88
365.468	77.88
365.694	85.88
365.92	73.88
366.147	90.88
366.373	80.88
366.599	63.88
366.826	79.88
367.052	82.88
367.278	82.88
367.505	83.88
367.731	91.88
367.957	84.88
368.184	77.88
368.41	87.88
368.636	64.88
368.862	80.88
369.089	83.88
369.315	95.88
369.541	64.88
369.767	79.88
369.993	83.88
370.219	76.88
370.445	83.88
370.672	92.88
370.898	81.88
371.124	75.88
371.35	75.88
371.576	87.88
371.802	96.88
372.028	73.88
372.254	78.88
372.48	87.88
372.706	86.88
372.932	78.88
373.158	72.88
373.384	96.88
373.61	73.88
373.835	83.88
374.061	92.88
374.287	87.88
374.513	80.88
374.739	91.88
374.965	89.88
375.191	74.88
375.416	84.88
375.642	87.88
375.868	82.88
376.094	82.88
376.319	97.88
376.545	77.88
376.771	85.88
376.997	79.88
377.222	88.88
377.448	74.88
377.674	69.88
377.899	85.88
378.125	80.88
378.35	78.88
378.576	76.88
378.802	84.88
379.027	78.88
379.253	88.88
379.478	79.88
379.704	71.88
379.929	83.88
380.155	69.88
380.38	79.88
380.606	82.88
380.831	83.88
381.057	80.88
381.282	65.88
381.507	86.88
381.733	73.88
381.958	80.88
382.184	72.88
382.409	82.88
382.634	88.88
382.86	93.88
383.085	79.88
383.31	83.88
383.535	81.88
383.761	70.88
383.986	84.88
384.211	79.88
384.436	77.88
384.662	74.88
384.887	92.88
385.112	83.88
385.337	77.88
385.562	79.88
385.787	82.88
386.013	81.88
386.238	67.88
386.463	80.88
386.688	84.88
386.913	79.88
387.138	95.88
387.363	64.88
387.588	79.88
387.813	75.88
388.038	71.88
388.263	73.88
388.488	80.88
388.713	89.88
388.938	87.88
389.163	71.88
389.387	90.88
389.612	69.88
389.837	76.88
390.062	83.88
390.287	68.88
390.512	75.88
390.736	83.88
390.961	88.88
391.186	69.88
391.411	75.88
391.636	74.88
391.86	72.88
392.085	89.88
392.31	81.88
392.534	89.88
392.759	89.88
392.984	81.88
393.208	86.88
393.433	66.88
393.658	85.88
393.882	83.88
394.107	76.88
394.331	76.88
394.556	77.88
394.78	76.88
395.005	73.88
395.229	80.88
395.454	84.88
395.678	93.88
395.903	74.88
396.127	84.88
396.352	89.88
396.576	75.88
396.801	78.88
397.025	79.88
397.249	78.88
397.474	82.88
397.698	77.88
397.922	70.88
398.147	88.88
398.371	93.88
398.595	82.88
398.82	82.88
399.044	84.88
399.268	87.88
399.492	85.88
399.717	78.88
399.941	89.88
400.165	83.88
400.389	67.88
400.613	76.88
400.837	76.88
401.062	96.88
401.286	93.88
401.51	79.88
401.734	75.88
401.958	74.88
402.182	79.88
402.406	73.88
402.63	85.88
402.854	85.88
403.078	82.88
403.302	82.88
403.526	72.88
403.75	86.88
403.974	97.88
404.198	82.88
404.422	79.88
404.645	86.88
404.869	76.88
405.093	77.88
405.317	81.88
405.541	67.88
405.765	82.88
405.988	69.88
406.212	79.88
406.436	76.88
406.66	84.88
406.883	89.88
407.107	80.88
407.331	86.88
407.555	82.88
407.778	68.88
408.002	87.88
408.226	71.88
408.449	80.88
408.673	91.88
408.896	76.88
409.12	98.88
409.344	73.88
409.567	74.88
409.791	94.88
410.014	79.88
410.238	75.88
410.461	86.88
410.685	81.88
410.908	76.88
411.132	72.88
411.355	77.88
411.578	94.88
411.802	86.88
412.025	75.88
412.249	61.88
412.472	71.88
412.695	71.88
412.919	81.88
413.142	76.88
413.365	90.88
413.589	79.88
413.812	77.88
414.035	98.88
414.258	73.88
414.482	77.88
414.705	65.88
414.928	73.88
415.151	75.88
415.374	80.88
415.597	84.88
415.821	75.88
416.044	79.88
416.267	77.88
416.49	81.88
416.713	69.88
416.936	83.88
417.159	80.88
417.382	73.88
417.605	76.88
417.828	59.88
418.051	59.88
418.274	74.88
418.497	81.88
418.72	80.88
418.943	79.88
419.166	78.88
419.389	82.88
419.611	76.88
419.834	87.88
420.057	69.88
420.28	81.88
420.503	75.88
420.726	76.88
420.948	89.88
421.171	87.88
421.394	59.88
421.617	76.88
421.839	69.88
422.062	79.88
422.285	86.88
422.507	90.88
422.73	86.88
422.953	80.88
423.175	79.88
423.398	80.88
423.621	76.88
423.843	85.88
424.066	73.88
424.288	77.88
424.511	87.88
424.733	81.88
424.956	74.88
425.178	95.88
425.401	71.88
425.623	85.88
425.846	88.88
426.068	90.88
426.291	81.88
426.513	88.88
426.735	79.88
426.958	94.88
427.18	80.88
427.402	70.88
427.625	72.88
427.847	87.88
428.069	71.88
428.292	84.88
428.514	93.88
428.736	85.88
428.958	83.88
429.181	90.88
429.403	71.88
429.625	89.88
429.847	93.88
430.069	82.88
430.292	79.88
430.514	75.88
430.736	81.88
430.958	71.88
431.18	77.88
431.402	80.88
431.624	83.88
431.846	76.88
432.068	81.88
432.29	88.88
432.512	70.88
432.734	85.88
432.956	79.88
433.178	76.88
433.4	77.88
433.622	78.88
433.844	81.88
434.066	80.88
434.287	82.88
434.509	86.88
434.731	79.88
434.953	75.88
435.175	77.88
435.397	79.88
435.618	74.88
435.84	84.88
436.062	74.88
436.284	76.88
436.505	86.88
436.727	84.88
436.949	85.88
437.17	77.88
437.392	76.88
437.614	72.88
437.835	74.88
438.057	89.88
438.278	70.88
438.5	82.88
438.721	74.88
438.943	87.88
439.165	93.88
439.386	80.88
439.608	90.88
439.829	83.88
440.05	66.88
440.272	71.88
440.493	83.88
440.715	85.88
440.936	68.88
441.158	96.88
441.379	81.88
441.6	62.88
441.822	67.88
442.043	80.88
442.264	78.88
442.486	66.88
442.707	74.88
442.928	87.88
443.149	79.88
443.371	79.88
443.592	76.88
443.813	89.88
444.034	76.88
444.255	87.88
444.476	73.88
444.698	84.88
444.919	81.88
445.14	143.88
445.361	122.88
445.582	95.88
445.803	85.88
446.024	79.88
446.245	88.88
446.466	62.88
446.687	91.88
446.908	82.88
447.129	80.88
447.35	82.88
447.571	59.88
447.792	79.88
448.013	63.88
448.234	80.88
448.455	86.88
448.675	82.88
448.896	75.88
449.117	75.88
449.338	81.88
449.559	81.88
449.779	68.88
450	75.88
450.221	77.88
450.442	89.88
450.662	99.88
450.883	70.88
451.104	87.88
451.324	75.88
451.545	75.88
451.766	79.88
451.986	75.88
452.207	79.88
452.428	80.88
452.648	85.88
452.869	82.88
453.089	83.88
453.31	86.88
453.53	73.88
453.751	79.88
453.971	69.88
454.192	75.88
454.412	78.88
454.633	69.88
454.853	79.88
455.073	78.88
455.294	75.88
455.514	78.88
455.734	88.88
455.955	68.88
456.175	77.88
456.395	87.88
456.616	83.88
456.836	78.88
457.056	85.88
457.276	79.88
457.497	69.88
457.717	74.88
457.937	75.88
458.157	81.88
458.377	84.88
458.598	83.88
458.818	85.88
459.038	81.88
459.258	75.88
459.478	78.88
459.698	83.88
459.918	83.88
460.138	72.88
460.358	83.88
460.578	71.88
460.798	80.88
461.018	72.88
461.238	77.88
461.458	82.88
461.678	89.88
461.898	69.88
462.118	89.88
462.338	88.88
462.558	79.88
462.777	61.88
462.997	81.88
463.217	81.88
463.437	76.88
463.657	87.88
463.876	81.88
464.096	75.88
464.316	89.88
464.536	81.88
464.755	79.88
464.975	77.88
465.195	73.88
465.414	81.88
465.634	88.88
465.854	92.88
466.073	68.88
466.293	85.88
466.512	82.88
466.732	75.88
466.951	93.88
467.171	92.88
467.391	83.88
467.61	69.88
467.829	82.88
468.049	73.88
468.268	75.88
468.488	77.88
468.707	91.88
468.927	89.88
469.146	85.88
469.365	91.88
469.585	83.88
469.804	79.88
470.023	78.88
470.243	81.88
470.462	88.88
470.681	80.88
470.901	82.88
471.12	88.88
471.339	74.88
471.558	75.88
471.777	75.88
471.997	78.88
472.216	81.88
472.435	92.88
472.654	80.88
472.873	101.88
473.092	81.88
473.311	78.88
473.53	83.88
473.749	94.88
473.968	91.88
474.187	76.88
474.406	76.88
474.625	84.88
474.844	88.88
475.063	63.88
475.282	73.88
475.501	87.88
475.72	76.88
475.939	86.88
476.158	77.88
476.377	87.88
476.596	89.88
476.814	89.88
477.033	80.88
477.252	89.88
477.471	85.88
477.69	79.88
477.908	89.88
478.127	87.88
478.346	63.88
478.564	73.88
478.783	68.88
479.002	75.88
479.22	91.88
479.439	73.88
479.658	83.88
479.876	92.88
480.095	79.88
480.313	79.88
480.532	71.88
480.751	85.88
480.969	77.88
481.188	77.88
481.406	92.88
481.624	80.88
481.843	71.88
482.061	95.88
482.28	74.88
482.498	86.88
482.717	74.88
482.935	94.88
483.153	77.88
483.372	91.88
483.59	75.88
483.808	84.88
484.027	89.88
484.245	98.88
484.463	97.88
484.681	85.88
484.9	76.88
485.118	96.88
485.336	89.88
485.554	90.88
485.772	73.88
485.99	84.88
486.209	81.88
486.427	83.88
486.645	89.88
486.863	85.88
487.081	90.88
487.299	72.88
487.517	69.88
487.735	90.88
487.953	84.88
488.171	84.88
488.389	78.88
488.607	77.88
488.825	68.88
489.043	80.88
489.261	89.88
489.479	87.88
489.696	92.88
489.914	89.88
490.132	65.88
490.35	100.88
490.568	93.88
490.786	85.88
491.003	74.88
491.221	85.88
491.439	67.88
491.657	87.88
491.874	91.88
492.092	84.88
492.31	83.88
492.527	77.88
492.745	73.88
492.963	82.88
493.18	76.88
493.398	80.88
493.615	92.88
493.833	81.88
494.05	78.88
494.268	66.88
494.485	89.88
494.703	80.88
494.92	70.88
495.138	87.88
495.355	80.88
495.573	72.88
495.79	90.88
496.008	86.88
496.225	91.88
496.442	81.88
496.66	79.88
496.877	93.88
497.094	93.88
497.312	93.88
497.529	82.88
497.746	87.88
497.963	88.88
498.181	80.88
498.398	80.88
498.615	82.88
498.832	74.88
499.049	95.88
499.267	75.88
499.484	70.88
499.701	91.88
499.918	79.88
500.135	74.88
500.352	85.88
500.569	81.88
500.786	88.88
501.003	79.88
501.22	73.88
501.437	91.88
501.654	90.88
501.871	75.88
502.088	78.88
502.305	77.88
502.522	95.88
502.739	87.88
502.956	84.88
503.172	89.88
503.389	76.88
503.606	97.88
503.823	91.88
504.04	73.88
504.256	74.88
504.473	71.88
504.69	77.88
504.907	87.88
505.123	73.88
505.34	72.88
505.557	82.88
505.773	69.88
505.99	76.88
506.207	88.88
506.423	79.88
506.64	71.88
506.856	83.88
507.073	71.88
507.289	75.88
507.506	92.88
507.722	86.88
507.939	90.88
508.155	84.88
508.372	81.88
508.588	82.88
508.805	72.88
509.021	75.88
509.238	74.88
509.454	83.88
509.67	83.88
509.887	88.88
510.103	86.88
510.319	81.88
510.536	95.88
510.752	76.88
510.968	81.88
511.184	77.88
511.401	83.88
511.617	91.88
511.833	85.88
512.049	83.88
512.265	73.88
512.481	90.88
512.698	78.88
512.914	85.88
513.13	87.88
513.346	85.88
513.562	92.88
513.778	91.88
513.994	84.88
514.21	84.88
514.426	78.88
514.642	100.88
514.858	75.88
515.074	93.88
515.29	87.88
515.506	83.88
515.721	88.88
515.937	97.88
516.153	84.88
516.369	88.88
516.585	79.88
516.801	72.88
517.016	76.88
517.232	87.88
517.448	89.88
517.664	83.88
517.879	90.88
518.095	79.88
518.311	82.88
518.527	77.88
518.742	78.88
518.958	76.88
519.173	99.88
519.389	84.88
519.605	93.88
519.82	67.88
520.036	93.88
