Data from Background_2_HRD10591_00059.txt Node
Date: Wed Nov 05 14:47:25 EST 2025
User: Yrep
Spectrometer: HR+D1059
Trigger mode: 1
Integration Time (sec): 1.000000E-1
Scans to average: 1
Electric dark correction enabled: true
Nonlinearity correction enabled: false
Boxcar width: 0
XAxis mode: Wavelengths
Number of Pixels in Spectrum: 2048
>>>>>Begin Spectral Data<<<<<
223.165	-18.75
223.4	-18.75
223.635	-18.75
223.869	-20.75
224.104	-17.75
224.338	-4.75
224.573	-9.75
224.808	-17.75
225.042	-0.75
225.277	3.25
225.511	-5.75
225.746	-4.75
225.98	16.25
226.215	1.25
226.449	6.25
226.683	19.25
226.918	19.25
227.152	35.25
227.387	35.25
227.621	38.25
227.856	53.25
228.09	33.25
228.324	45.25
228.559	67.25
228.793	55.25
229.027	69.25
229.262	50.25
229.496	60.25
229.73	61.25
229.964	81.25
230.199	68.25
230.433	62.25
230.667	69.25
230.901	77.25
231.136	65.25
231.37	77.25
231.604	91.25
231.838	89.25
232.072	91.25
232.306	93.25
232.541	68.25
232.775	77.25
233.009	85.25
233.243	98.25
233.477	89.25
233.711	94.25
233.945	74.25
234.179	65.25
234.413	80.25
234.647	65.25
234.881	69.25
235.115	87.25
235.349	95.25
235.583	74.25
235.817	87.25
236.051	81.25
236.285	81.25
236.519	78.25
236.753	75.25
236.987	77.25
237.221	79.25
237.455	82.25
237.689	80.25
237.922	81.25
238.156	68.25
238.39	81.25
238.624	75.25
238.858	65.25
239.091	84.25
239.325	86.25
239.559	74.25
239.793	63.25
240.027	61.25
240.26	72.25
240.494	62.25
240.728	88.25
240.961	56.25
241.195	89.25
241.429	80.25
241.662	67.25
241.896	75.25
242.13	85.25
242.363	67.25
242.597	70.25
242.83	81.25
243.064	80.25
243.298	82.25
243.531	65.25
243.765	71.25
243.998	67.25
244.232	85.25
244.465	81.25
244.699	107.25
244.932	69.25
245.166	52.25
245.399	82.25
245.633	77.25
245.866	78.25
246.099	83.25
246.333	90.25
246.566	68.25
246.8	76.25
247.033	68.25
247.266	71.25
247.5	81.25
247.733	79.25
247.966	94.25
248.2	80.25
248.433	78.25
248.666	63.25
248.899	63.25
249.133	89.25
249.366	76.25
249.599	72.25
249.832	73.25
250.066	73.25
250.299	79.25
250.532	88.25
250.765	88.25
250.998	73.25
251.231	73.25
251.465	59.25
251.698	69.25
251.931	89.25
252.164	82.25
252.397	74.25
252.63	72.25
252.863	85.25
253.096	84.25
253.329	78.25
253.562	71.25
253.795	89.25
254.028	70.25
254.261	76.25
254.494	66.25
254.727	78.25
254.96	84.25
255.193	88.25
255.426	81.25
255.659	75.25
255.892	73.25
256.124	76.25
256.357	81.25
256.59	66.25
256.823	77.25
257.056	91.25
257.289	83.25
257.521	80.25
257.754	69.25
257.987	75.25
258.22	80.25
258.452	87.25
258.685	85.25
258.918	67.25
259.151	61.25
259.383	88.25
259.616	78.25
259.849	79.25
260.081	79.25
260.314	70.25
260.547	68.25
260.779	75.25
261.012	84.25
261.244	75.25
261.477	88.25
261.71	85.25
261.942	95.25
262.175	71.25
262.407	90.25
262.64	81.25
262.872	81.25
263.105	65.25
263.337	75.25
263.57	90.25
263.802	88.25
264.035	73.25
264.267	85.25
264.499	78.25
264.732	69.25
264.964	79.25
265.197	79.25
265.429	94.25
265.661	75.25
265.894	78.25
266.126	73.25
266.358	76.25
266.591	88.25
266.823	80.25
267.055	76.25
267.287	81.25
267.52	77.25
267.752	79.25
267.984	84.25
268.216	78.25
268.448	79.25
268.681	91.25
268.913	67.25
269.145	75.25
269.377	92.25
269.609	80.25
269.841	76.25
270.073	83.25
270.306	67.25
270.538	79.25
270.77	73.25
271.002	79.25
271.234	90.25
271.466	79.25
271.698	76.25
271.93	75.25
272.162	84.25
272.394	79.25
272.626	77.25
272.858	75.25
273.09	83.25
273.322	83.25
273.553	69.25
273.785	78.25
274.017	88.25
274.249	89.25
274.481	79.25
274.713	81.25
274.945	72.25
275.176	73.25
275.408	78.25
275.64	81.25
275.872	84.25
276.104	78.25
276.335	85.25
276.567	69.25
276.799	87.25
277.031	70.25
277.262	85.25
277.494	70.25
277.726	83.25
277.957	82.25
278.189	96.25
278.421	95.25
278.652	81.25
278.884	83.25
279.115	98.25
279.347	91.25
279.579	87.25
279.81	85.25
280.042	83.25
280.273	75.25
280.505	77.25
280.736	73.25
280.968	101.25
281.199	86.25
281.431	93.25
281.662	92.25
281.894	77.25
282.125	76.25
282.356	79.25
282.588	81.25
282.819	73.25
283.051	77.25
283.282	75.25
283.513	93.25
283.745	91.25
283.976	91.25
284.207	81.25
284.439	85.25
284.67	91.25
284.901	81.25
285.132	85.25
285.364	88.25
285.595	77.25
285.826	85.25
286.057	81.25
286.288	92.25
286.52	95.25
286.751	70.25
286.982	60.25
287.213	69.25
287.444	88.25
287.675	87.25
287.906	73.25
288.138	87.25
288.369	88.25
288.6	91.25
288.831	77.25
289.062	84.25
289.293	81.25
289.524	71.25
289.755	75.25
289.986	81.25
290.217	87.25
290.448	81.25
290.679	84.25
290.91	96.25
291.141	51.25
291.371	84.25
291.602	82.25
291.833	69.25
292.064	87.25
292.295	91.25
292.526	93.25
292.757	84.25
292.987	91.25
293.218	77.25
293.449	86.25
293.68	82.25
293.91	73.25
294.141	91.25
294.372	104.25
294.603	85.25
294.833	91.25
295.064	84.25
295.295	68.25
295.525	75.25
295.756	81.25
295.987	88.25
296.217	82.25
296.448	87.25
296.679	86.25
296.909	81.25
297.14	80.25
297.37	78.25
297.601	97.25
297.831	91.25
298.062	88.25
298.292	94.25
298.523	90.25
298.753	75.25
298.984	87.25
299.214	81.25
299.445	79.25
299.675	79.25
299.905	87.25
300.136	80.25
300.366	87.25
300.597	83.25
300.827	79.25
301.057	72.25
301.288	71.25
301.518	87.25
301.748	97.25
301.979	97.25
302.209	96.25
302.439	69.25
302.669	87.25
302.9	89.25
303.13	90.25
303.36	84.25
303.59	86.25
303.82	76.25
304.051	80.25
304.281	87.25
304.511	93.25
304.741	79.25
304.971	77.25
305.201	81.25
305.431	74.25
305.661	91.25
305.891	88.25
306.121	90.25
306.352	85.25
306.582	79.25
306.812	83.25
307.042	74.25
307.272	90.25
307.502	84.25
307.731	65.25
307.961	79.25
308.191	74.25
308.421	84.25
308.651	79.25
308.881	91.25
309.111	97.25
309.341	92.25
309.571	91.25
309.8	91.25
310.03	105.25
310.26	79.25
310.49	81.25
310.72	79.25
310.949	80.25
311.179	95.25
311.409	92.25
311.639	92.25
311.868	71.25
312.098	84.25
312.328	85.25
312.557	96.25
312.787	95.25
313.017	88.25
313.246	81.25
313.476	85.25
313.706	93.25
313.935	79.25
314.165	82.25
314.394	83.25
314.624	82.25
314.853	77.25
315.083	67.25
315.312	75.25
315.542	84.25
315.771	85.25
316.001	75.25
316.23	70.25
316.46	66.25
316.689	82.25
316.919	80.25
317.148	95.25
317.377	86.25
317.607	85.25
317.836	89.25
318.065	89.25
318.295	72.25
318.524	83.25
318.753	79.25
318.983	73.25
319.212	79.25
319.441	76.25
319.67	96.25
319.9	100.25
320.129	67.25
320.358	89.25
320.587	84.25
320.816	82.25
321.046	91.25
321.275	99.25
321.504	78.25
321.733	75.25
321.962	79.25
322.191	76.25
322.42	81.25
322.649	85.25
322.878	75.25
323.108	78.25
323.337	89.25
323.566	91.25
323.795	100.25
324.024	83.25
324.253	75.25
324.482	77.25
324.71	88.25
324.939	80.25
325.168	85.25
325.397	84.25
325.626	81.25
325.855	78.25
326.084	90.25
326.313	92.25
326.542	94.25
326.77	84.25
326.999	82.25
327.228	86.25
327.457	82.25
327.686	81.25
327.914	97.25
328.143	98.25
328.372	80.25
328.6	87.25
328.829	91.25
329.058	91.25
329.287	77.25
329.515	88.25
329.744	77.25
329.972	74.25
330.201	95.25
330.43	78.25
330.658	83.25
330.887	91.25
331.115	90.25
331.344	93.25
331.572	82.25
331.801	78.25
332.03	83.25
332.258	67.25
332.486	60.25
332.715	69.25
332.943	87.25
333.172	88.25
333.4	85.25
333.629	91.25
333.857	90.25
334.085	87.25
334.314	82.25
334.542	91.25
334.771	91.25
334.999	75.25
335.227	79.25
335.455	84.25
335.684	85.25
335.912	86.25
336.14	86.25
336.369	75.25
336.597	71.25
336.825	80.25
337.053	79.25
337.281	86.25
337.51	77.25
337.738	79.25
337.966	69.25
338.194	84.25
338.422	76.25
338.65	75.25
338.878	91.25
339.106	90.25
339.334	76.25
339.562	94.25
339.79	90.25
340.018	72.25
340.246	71.25
340.474	85.25
340.702	73.25
340.93	81.25
341.158	68.25
341.386	79.25
341.614	78.25
341.842	85.25
342.07	75.25
342.298	87.25
342.526	84.25
342.754	84.25
342.981	78.25
343.209	75.25
343.437	93.25
343.665	93.25
343.893	97.25
344.12	79.25
344.348	84.25
344.576	93.25
344.804	84.25
345.031	73.25
345.259	82.25
345.487	88.25
345.714	93.25
345.942	84.25
346.17	91.25
346.397	79.25
346.625	79.25
346.853	85.25
347.08	85.25
347.308	75.25
347.535	85.25
347.763	83.25
347.99	84.25
348.218	87.25
348.445	95.25
348.673	72.25
348.9	96.25
349.128	88.25
349.355	86.25
349.583	84.25
349.81	93.25
350.037	68.25
350.265	79.25
350.492	75.25
350.72	89.25
350.947	89.25
351.174	92.25
351.402	98.25
351.629	84.25
351.856	85.25
352.083	94.25
352.311	80.25
352.538	77.25
352.765	82.25
352.992	96.25
353.22	87.25
353.447	74.25
353.674	89.25
353.901	83.25
354.128	80.25
354.355	81.25
354.583	85.25
354.81	69.25
355.037	76.25
355.264	77.25
355.491	99.25
355.718	81.25
355.945	85.25
356.172	84.25
356.399	83.25
356.626	87.25
356.853	80.25
357.08	76.25
357.307	74.25
357.534	74.25
357.761	83.25
357.988	89.25
358.215	91.25
358.441	78.25
358.668	93.25
358.895	71.25
359.122	71.25
359.349	99.25
359.576	87.25
359.802	76.25
360.029	90.25
360.256	96.25
360.483	75.25
360.709	81.25
360.936	88.25
361.163	79.25
361.39	81.25
361.616	74.25
361.843	89.25
362.07	66.25
362.296	82.25
362.523	86.25
362.749	80.25
362.976	78.25
363.203	75.25
363.429	89.25
363.656	80.25
363.882	69.25
364.109	76.25
364.335	73.25
364.562	79.25
364.788	80.25
365.015	80.25
365.241	64.25
365.468	80.25
365.694	91.25
365.92	82.25
366.147	81.25
366.373	77.25
366.599	83.25
366.826	76.25
367.052	93.25
367.278	90.25
367.505	81.25
367.731	80.25
367.957	82.25
368.184	97.25
368.41	73.25
368.636	85.25
368.862	81.25
369.089	83.25
369.315	75.25
369.541	93.25
369.767	76.25
369.993	80.25
370.219	77.25
370.445	84.25
370.672	91.25
370.898	75.25
371.124	95.25
371.35	84.25
371.576	85.25
371.802	85.25
372.028	67.25
372.254	77.25
372.48	75.25
372.706	77.25
372.932	93.25
373.158	81.25
373.384	78.25
373.61	68.25
373.835	84.25
374.061	83.25
374.287	93.25
374.513	91.25
374.739	88.25
374.965	73.25
375.191	82.25
375.416	70.25
375.642	85.25
375.868	93.25
376.094	86.25
376.319	83.25
376.545	77.25
376.771	83.25
376.997	82.25
377.222	82.25
377.448	83.25
377.674	86.25
377.899	87.25
378.125	74.25
378.35	83.25
378.576	77.25
378.802	73.25
379.027	74.25
379.253	85.25
379.478	95.25
379.704	84.25
379.929	77.25
380.155	65.25
380.38	81.25
380.606	90.25
380.831	76.25
381.057	82.25
381.282	90.25
381.507	84.25
381.733	75.25
381.958	73.25
382.184	80.25
382.409	76.25
382.634	85.25
382.86	77.25
383.085	79.25
383.31	92.25
383.535	71.25
383.761	88.25
383.986	84.25
384.211	92.25
384.436	103.25
384.662	83.25
384.887	87.25
385.112	77.25
385.337	65.25
385.562	67.25
385.787	75.25
386.013	87.25
386.238	88.25
386.463	74.25
386.688	98.25
386.913	81.25
387.138	88.25
387.363	80.25
387.588	93.25
387.813	80.25
388.038	87.25
388.263	89.25
388.488	87.25
388.713	75.25
388.938	80.25
389.163	77.25
389.387	81.25
389.612	75.25
389.837	93.25
390.062	71.25
390.287	72.25
390.512	88.25
390.736	97.25
390.961	89.25
391.186	61.25
391.411	81.25
391.636	69.25
391.86	60.25
392.085	75.25
392.31	82.25
392.534	81.25
392.759	84.25
392.984	80.25
393.208	89.25
393.433	87.25
393.658	84.25
393.882	79.25
394.107	83.25
394.331	90.25
394.556	76.25
394.78	71.25
395.005	81.25
395.229	76.25
395.454	89.25
395.678	80.25
395.903	85.25
396.127	94.25
396.352	78.25
396.576	86.25
396.801	87.25
397.025	82.25
397.249	87.25
397.474	95.25
397.698	69.25
397.922	79.25
398.147	75.25
398.371	61.25
398.595	87.25
398.82	70.25
399.044	73.25
399.268	85.25
399.492	90.25
399.717	85.25
399.941	89.25
400.165	78.25
400.389	82.25
400.613	80.25
400.837	80.25
401.062	70.25
401.286	84.25
401.51	76.25
401.734	82.25
401.958	57.25
402.182	69.25
402.406	101.25
402.63	91.25
402.854	73.25
403.078	84.25
403.302	83.25
403.526	68.25
403.75	80.25
403.974	83.25
404.198	82.25
404.422	80.25
404.645	97.25
404.869	80.25
405.093	82.25
405.317	82.25
405.541	94.25
405.765	75.25
405.988	81.25
406.212	75.25
406.436	83.25
406.66	72.25
406.883	98.25
407.107	59.25
407.331	68.25
407.555	83.25
407.778	78.25
408.002	79.25
408.226	61.25
408.449	79.25
408.673	81.25
408.896	88.25
409.12	77.25
409.344	79.25
409.567	71.25
409.791	84.25
410.014	80.25
410.238	72.25
410.461	81.25
410.685	82.25
410.908	72.25
411.132	75.25
411.355	81.25
411.578	67.25
411.802	73.25
412.025	77.25
412.249	80.25
412.472	88.25
412.695	77.25
412.919	81.25
413.142	75.25
413.365	82.25
413.589	81.25
413.812	74.25
414.035	85.25
414.258	84.25
414.482	87.25
414.705	88.25
414.928	80.25
415.151	73.25
415.374	69.25
415.597	77.25
415.821	72.25
416.044	85.25
416.267	70.25
416.49	73.25
416.713	91.25
416.936	64.25
417.159	95.25
417.382	75.25
417.605	81.25
417.828	79.25
418.051	72.25
418.274	75.25
418.497	80.25
418.72	92.25
418.943	82.25
419.166	57.25
419.389	79.25
419.611	83.25
419.834	75.25
420.057	72.25
420.28	75.25
420.503	70.25
420.726	89.25
420.948	71.25
421.171	83.25
421.394	87.25
421.617	78.25
421.839	67.25
422.062	80.25
422.285	90.25
422.507	78.25
422.73	91.25
422.953	84.25
423.175	91.25
423.398	75.25
423.621	77.25
423.843	77.25
424.066	80.25
424.288	82.25
424.511	84.25
424.733	92.25
424.956	90.25
425.178	79.25
425.401	85.25
425.623	89.25
425.846	78.25
426.068	77.25
426.291	76.25
426.513	81.25
426.735	88.25
426.958	70.25
427.18	84.25
427.402	97.25
427.625	87.25
427.847	68.25
428.069	80.25
428.292	77.25
428.514	80.25
428.736	83.25
428.958	89.25
429.181	83.25
429.403	68.25
429.625	77.25
429.847	76.25
430.069	95.25
430.292	67.25
430.514	72.25
430.736	89.25
430.958	67.25
431.18	75.25
431.402	89.25
431.624	82.25
431.846	67.25
432.068	84.25
432.29	90.25
432.512	82.25
432.734	96.25
432.956	87.25
433.178	88.25
433.4	87.25
433.622	83.25
433.844	75.25
434.066	79.25
434.287	82.25
434.509	86.25
434.731	74.25
434.953	81.25
435.175	95.25
435.397	86.25
435.618	75.25
435.84	66.25
436.062	83.25
436.284	88.25
436.505	83.25
436.727	83.25
436.949	73.25
437.17	66.25
437.392	91.25
437.614	84.25
437.835	52.25
438.057	71.25
438.278	81.25
438.5	69.25
438.721	87.25
438.943	82.25
439.165	79.25
439.386	75.25
439.608	85.25
439.829	88.25
440.05	74.25
440.272	80.25
440.493	67.25
440.715	86.25
440.936	83.25
441.158	79.25
441.379	72.25
441.6	85.25
441.822	75.25
442.043	76.25
442.264	73.25
442.486	84.25
442.707	91.25
442.928	73.25
443.149	83.25
443.371	92.25
443.592	83.25
443.813	73.25
444.034	74.25
444.255	85.25
444.476	83.25
444.698	91.25
444.919	72.25
445.14	151.25
445.361	117.25
445.582	89.25
445.803	81.25
446.024	76.25
446.245	82.25
446.466	78.25
446.687	72.25
446.908	88.25
447.129	81.25
447.35	70.25
447.571	84.25
447.792	81.25
448.013	69.25
448.234	75.25
448.455	84.25
448.675	65.25
448.896	69.25
449.117	73.25
449.338	76.25
449.559	84.25
449.779	63.25
450	65.25
450.221	83.25
450.442	74.25
450.662	84.25
450.883	82.25
451.104	67.25
451.324	79.25
451.545	84.25
451.766	70.25
451.986	77.25
452.207	63.25
452.428	77.25
452.648	79.25
452.869	66.25
453.089	84.25
453.31	75.25
453.53	88.25
453.751	76.25
453.971	74.25
454.192	70.25
454.412	81.25
454.633	83.25
454.853	78.25
455.073	90.25
455.294	91.25
455.514	99.25
455.734	77.25
455.955	69.25
456.175	82.25
456.395	72.25
456.616	92.25
456.836	77.25
457.056	77.25
457.276	80.25
457.497	83.25
457.717	61.25
457.937	65.25
458.157	85.25
458.377	69.25
458.598	80.25
458.818	80.25
459.038	83.25
459.258	81.25
459.478	82.25
459.698	80.25
459.918	84.25
460.138	71.25
460.358	93.25
460.578	81.25
460.798	83.25
461.018	73.25
461.238	89.25
461.458	75.25
461.678	78.25
461.898	79.25
462.118	81.25
462.338	80.25
462.558	85.25
462.777	68.25
462.997	88.25
463.217	87.25
463.437	85.25
463.657	68.25
463.876	76.25
464.096	84.25
464.316	86.25
464.536	70.25
464.755	85.25
464.975	91.25
465.195	77.25
465.414	78.25
465.634	80.25
465.854	87.25
466.073	76.25
466.293	86.25
466.512	92.25
466.732	82.25
466.951	76.25
467.171	76.25
467.391	68.25
467.61	73.25
467.829	94.25
468.049	80.25
468.268	103.25
468.488	81.25
468.707	89.25
468.927	87.25
469.146	93.25
469.365	93.25
469.585	78.25
469.804	69.25
470.023	61.25
470.243	79.25
470.462	79.25
470.681	84.25
470.901	85.25
471.12	85.25
471.339	80.25
471.558	69.25
471.777	89.25
471.997	69.25
472.216	76.25
472.435	71.25
472.654	83.25
472.873	74.25
473.092	84.25
473.311	78.25
473.53	68.25
473.749	77.25
473.968	75.25
474.187	76.25
474.406	89.25
474.625	88.25
474.844	73.25
475.063	83.25
475.282	79.25
475.501	88.25
475.72	94.25
475.939	87.25
476.158	71.25
476.377	68.25
476.596	87.25
476.814	87.25
477.033	82.25
477.252	63.25
477.471	69.25
477.69	90.25
477.908	83.25
478.127	89.25
478.346	90.25
478.564	83.25
478.783	86.25
479.002	68.25
479.22	97.25
479.439	83.25
479.658	60.25
479.876	80.25
480.095	71.25
480.313	109.25
480.532	83.25
480.751	86.25
480.969	79.25
481.188	87.25
481.406	65.25
481.624	79.25
481.843	76.25
482.061	69.25
482.28	78.25
482.498	84.25
482.717	84.25
482.935	103.25
483.153	81.25
483.372	90.25
483.59	77.25
483.808	95.25
484.027	85.25
484.245	91.25
484.463	91.25
484.681	83.25
484.9	84.25
485.118	89.25
485.336	69.25
485.554	82.25
485.772	89.25
485.99	79.25
486.209	94.25
486.427	80.25
486.645	74.25
486.863	84.25
487.081	88.25
487.299	84.25
487.517	81.25
487.735	79.25
487.953	72.25
488.171	91.25
488.389	79.25
488.607	66.25
488.825	89.25
489.043	84.25
489.261	79.25
489.479	65.25
489.696	82.25
489.914	85.25
490.132	78.25
490.35	77.25
490.568	79.25
490.786	90.25
491.003	83.25
491.221	82.25
491.439	83.25
491.657	95.25
491.874	80.25
492.092	91.25
492.31	81.25
492.527	79.25
492.745	79.25
492.963	68.25
493.18	81.25
493.398	83.25
493.615	79.25
493.833	69.25
494.05	95.25
494.268	77.25
494.485	77.25
494.703	89.25
494.92	76.25
495.138	84.25
495.355	78.25
495.573	88.25
495.79	95.25
496.008	86.25
496.225	93.25
496.442	82.25
496.66	91.25
496.877	81.25
497.094	86.25
497.312	77.25
497.529	84.25
497.746	67.25
497.963	89.25
498.181	81.25
498.398	77.25
498.615	81.25
498.832	75.25
499.049	77.25
499.267	84.25
499.484	84.25
499.701	80.25
499.918	92.25
500.135	85.25
500.352	82.25
500.569	83.25
500.786	90.25
501.003	73.25
501.22	75.25
501.437	105.25
501.654	81.25
501.871	83.25
502.088	75.25
502.305	74.25
502.522	92.25
502.739	69.25
502.956	75.25
503.172	95.25
503.389	78.25
503.606	86.25
503.823	89.25
504.04	81.25
504.256	72.25
504.473	79.25
504.69	91.25
504.907	78.25
505.123	70.25
505.34	61.25
505.557	77.25
505.773	77.25
505.99	83.25
506.207	78.25
506.423	69.25
506.64	88.25
506.856	83.25
507.073	77.25
507.289	82.25
507.506	87.25
507.722	83.25
507.939	89.25
508.155	94.25
508.372	84.25
508.588	81.25
508.805	89.25
509.021	90.25
509.238	84.25
509.454	60.25
509.67	86.25
509.887	77.25
510.103	79.25
510.319	63.25
510.536	65.25
510.752	86.25
510.968	87.25
511.184	65.25
511.401	74.25
511.617	92.25
511.833	84.25
512.049	81.25
512.265	90.25
512.481	85.25
512.698	67.25
512.914	69.25
513.13	80.25
513.346	93.25
513.562	81.25
513.778	87.25
513.994	81.25
514.21	79.25
514.426	83.25
514.642	90.25
514.858	80.25
515.074	83.25
515.29	69.25
515.506	82.25
515.721	73.25
515.937	83.25
516.153	68.25
516.369	81.25
516.585	81.25
516.801	93.25
517.016	78.25
517.232	94.25
517.448	77.25
517.664	71.25
517.879	79.25
518.095	80.25
518.311	97.25
518.527	78.25
518.742	87.25
518.958	83.25
519.173	75.25
519.389	74.25
519.605	81.25
519.82	83.25
520.036	77.25
