Data from Background_2_HRD10591_00002.txt Node
Date: Wed Nov 05 14:46:58 EST 2025
User: Yrep
Spectrometer: HR+D1059
Trigger mode: 1
Integration Time (sec): 1.000000E-1
Scans to average: 1
Electric dark correction enabled: true
Nonlinearity correction enabled: false
Boxcar width: 0
XAxis mode: Wavelengths
Number of Pixels in Spectrum: 2048
>>>>>Begin Spectral Data<<<<<
223.165	-25.44
223.4	-25.44
223.635	-25.44
223.869	-14.44
224.104	-22.44
224.338	-16.44
224.573	-14.44
224.808	-27.44
225.042	-11.44
225.277	6.56
225.511	-2.44
225.746	6.56
225.98	12.56
226.215	17.56
226.449	29.56
226.683	14.56
226.918	15.56
227.152	31.56
227.387	28.56
227.621	29.56
227.856	37.56
228.09	37.56
228.324	49.56
228.559	50.56
228.793	52.56
229.027	61.56
229.262	72.56
229.496	75.56
229.73	64.56
229.964	65.56
230.199	78.56
230.433	63.56
230.667	73.56
230.901	83.56
231.136	75.56
231.37	76.56
231.604	69.56
231.838	63.56
232.072	59.56
232.306	74.56
232.541	77.56
232.775	74.56
233.009	58.56
233.243	64.56
233.477	86.56
233.711	76.56
233.945	75.56
234.179	85.56
234.413	77.56
234.647	64.56
234.881	84.56
235.115	67.56
235.349	79.56
235.583	84.56
235.817	68.56
236.051	69.56
236.285	74.56
236.519	75.56
236.753	75.56
236.987	101.56
237.221	77.56
237.455	79.56
237.689	72.56
237.922	71.56
238.156	77.56
238.39	72.56
238.624	67.56
238.858	66.56
239.091	54.56
239.325	69.56
239.559	69.56
239.793	78.56
240.027	77.56
240.26	71.56
240.494	73.56
240.728	61.56
240.961	56.56
241.195	75.56
241.429	67.56
241.662	76.56
241.896	66.56
242.13	62.56
242.363	64.56
242.597	66.56
242.83	72.56
243.064	61.56
243.298	72.56
243.531	70.56
243.765	73.56
243.998	88.56
244.232	79.56
244.465	73.56
244.699	68.56
244.932	73.56
245.166	74.56
245.399	72.56
245.633	62.56
245.866	64.56
246.099	61.56
246.333	60.56
246.566	63.56
246.8	79.56
247.033	63.56
247.266	62.56
247.5	69.56
247.733	83.56
247.966	85.56
248.2	76.56
248.433	69.56
248.666	71.56
248.899	89.56
249.133	84.56
249.366	63.56
249.599	85.56
249.832	73.56
250.066	86.56
250.299	78.56
250.532	82.56
250.765	77.56
250.998	75.56
251.231	71.56
251.465	64.56
251.698	78.56
251.931	76.56
252.164	78.56
252.397	76.56
252.63	88.56
252.863	69.56
253.096	76.56
253.329	75.56
253.562	59.56
253.795	66.56
254.028	86.56
254.261	72.56
254.494	72.56
254.727	80.56
254.96	72.56
255.193	80.56
255.426	79.56
255.659	57.56
255.892	77.56
256.124	84.56
256.357	75.56
256.59	75.56
256.823	65.56
257.056	72.56
257.289	65.56
257.521	69.56
257.754	72.56
257.987	83.56
258.22	81.56
258.452	67.56
258.685	71.56
258.918	77.56
259.151	72.56
259.383	86.56
259.616	62.56
259.849	66.56
260.081	79.56
260.314	72.56
260.547	100.56
260.779	73.56
261.012	77.56
261.244	79.56
261.477	77.56
261.71	75.56
261.942	69.56
262.175	72.56
262.407	80.56
262.64	74.56
262.872	77.56
263.105	78.56
263.337	69.56
263.57	80.56
263.802	80.56
264.035	70.56
264.267	76.56
264.499	70.56
264.732	71.56
264.964	76.56
265.197	65.56
265.429	76.56
265.661	53.56
265.894	66.56
266.126	63.56
266.358	83.56
266.591	99.56
266.823	85.56
267.055	67.56
267.287	59.56
267.52	72.56
267.752	67.56
267.984	80.56
268.216	67.56
268.448	91.56
268.681	76.56
268.913	83.56
269.145	73.56
269.377	76.56
269.609	63.56
269.841	71.56
270.073	70.56
270.306	68.56
270.538	82.56
270.77	64.56
271.002	80.56
271.234	92.56
271.466	57.56
271.698	62.56
271.93	70.56
272.162	82.56
272.394	74.56
272.626	73.56
272.858	78.56
273.09	65.56
273.322	65.56
273.553	83.56
273.785	71.56
274.017	78.56
274.249	69.56
274.481	90.56
274.713	79.56
274.945	88.56
275.176	67.56
275.408	65.56
275.64	76.56
275.872	77.56
276.104	87.56
276.335	87.56
276.567	72.56
276.799	77.56
277.031	90.56
277.262	54.56
277.494	89.56
277.726	76.56
277.957	80.56
278.189	74.56
278.421	83.56
278.652	69.56
278.884	82.56
279.115	80.56
279.347	79.56
279.579	66.56
279.81	80.56
280.042	77.56
280.273	69.56
280.505	84.56
280.736	72.56
280.968	83.56
281.199	85.56
281.431	70.56
281.662	77.56
281.894	71.56
282.125	74.56
282.356	68.56
282.588	80.56
282.819	73.56
283.051	81.56
283.282	85.56
283.513	74.56
283.745	68.56
283.976	82.56
284.207	85.56
284.439	80.56
284.67	83.56
284.901	72.56
285.132	88.56
285.364	71.56
285.595	90.56
285.826	75.56
286.057	69.56
286.288	86.56
286.52	80.56
286.751	69.56
286.982	75.56
287.213	73.56
287.444	71.56
287.675	68.56
287.906	81.56
288.138	83.56
288.369	86.56
288.6	77.56
288.831	65.56
289.062	83.56
289.293	82.56
289.524	84.56
289.755	78.56
289.986	78.56
290.217	77.56
290.448	83.56
290.679	63.56
290.91	80.56
291.141	92.56
291.371	89.56
291.602	83.56
291.833	76.56
292.064	73.56
292.295	83.56
292.526	73.56
292.757	70.56
292.987	71.56
293.218	72.56
293.449	76.56
293.68	77.56
293.91	78.56
294.141	91.56
294.372	83.56
294.603	71.56
294.833	86.56
295.064	86.56
295.295	81.56
295.525	96.56
295.756	72.56
295.987	77.56
296.217	81.56
296.448	75.56
296.679	64.56
296.909	80.56
297.14	68.56
297.37	77.56
297.601	85.56
297.831	66.56
298.062	64.56
298.292	71.56
298.523	75.56
298.753	71.56
298.984	80.56
299.214	81.56
299.445	77.56
299.675	72.56
299.905	77.56
300.136	78.56
300.366	68.56
300.597	89.56
300.827	80.56
301.057	71.56
301.288	87.56
301.518	81.56
301.748	84.56
301.979	91.56
302.209	66.56
302.439	74.56
302.669	83.56
302.9	95.56
303.13	79.56
303.36	73.56
303.59	59.56
303.82	77.56
304.051	73.56
304.281	82.56
304.511	73.56
304.741	73.56
304.971	77.56
305.201	95.56
305.431	79.56
305.661	86.56
305.891	78.56
306.121	70.56
306.352	75.56
306.582	81.56
306.812	89.56
307.042	84.56
307.272	85.56
307.502	74.56
307.731	79.56
307.961	73.56
308.191	71.56
308.421	66.56
308.651	77.56
308.881	72.56
309.111	87.56
309.341	71.56
309.571	69.56
309.8	72.56
310.03	76.56
310.26	69.56
310.49	81.56
310.72	95.56
310.949	82.56
311.179	75.56
311.409	75.56
311.639	85.56
311.868	79.56
312.098	85.56
312.328	84.56
312.557	85.56
312.787	78.56
313.017	73.56
313.246	73.56
313.476	76.56
313.706	77.56
313.935	86.56
314.165	87.56
314.394	91.56
314.624	91.56
314.853	74.56
315.083	77.56
315.312	75.56
315.542	78.56
315.771	73.56
316.001	79.56
316.23	72.56
316.46	92.56
316.689	84.56
316.919	88.56
317.148	94.56
317.377	80.56
317.607	78.56
317.836	85.56
318.065	84.56
318.295	72.56
318.524	83.56
318.753	82.56
318.983	82.56
319.212	87.56
319.441	79.56
319.67	79.56
319.9	68.56
320.129	73.56
320.358	71.56
320.587	81.56
320.816	82.56
321.046	83.56
321.275	75.56
321.504	76.56
321.733	83.56
321.962	80.56
322.191	84.56
322.42	63.56
322.649	72.56
322.878	78.56
323.108	80.56
323.337	83.56
323.566	86.56
323.795	83.56
324.024	75.56
324.253	79.56
324.482	71.56
324.71	84.56
324.939	87.56
325.168	83.56
325.397	67.56
325.626	77.56
325.855	68.56
326.084	76.56
326.313	77.56
326.542	86.56
326.77	83.56
326.999	74.56
327.228	65.56
327.457	93.56
327.686	87.56
327.914	87.56
328.143	84.56
328.372	75.56
328.6	95.56
328.829	80.56
329.058	72.56
329.287	75.56
329.515	85.56
329.744	83.56
329.972	71.56
330.201	81.56
330.43	87.56
330.658	78.56
330.887	89.56
331.115	90.56
331.344	83.56
331.572	83.56
331.801	72.56
332.03	75.56
332.258	70.56
332.486	77.56
332.715	83.56
332.943	80.56
333.172	82.56
333.4	75.56
333.629	93.56
333.857	79.56
334.085	79.56
334.314	79.56
334.542	76.56
334.771	86.56
334.999	86.56
335.227	89.56
335.455	74.56
335.684	88.56
335.912	84.56
336.14	76.56
336.369	88.56
336.597	75.56
336.825	87.56
337.053	68.56
337.281	81.56
337.51	77.56
337.738	78.56
337.966	86.56
338.194	80.56
338.422	81.56
338.65	71.56
338.878	81.56
339.106	84.56
339.334	77.56
339.562	89.56
339.79	80.56
340.018	74.56
340.246	67.56
340.474	86.56
340.702	80.56
340.93	80.56
341.158	76.56
341.386	73.56
341.614	77.56
341.842	76.56
342.07	84.56
342.298	83.56
342.526	78.56
342.754	62.56
342.981	67.56
343.209	81.56
343.437	76.56
343.665	88.56
343.893	67.56
344.12	86.56
344.348	84.56
344.576	88.56
344.804	60.56
345.031	81.56
345.259	73.56
345.487	65.56
345.714	85.56
345.942	84.56
346.17	95.56
346.397	76.56
346.625	82.56
346.853	73.56
347.08	80.56
347.308	82.56
347.535	90.56
347.763	85.56
347.99	79.56
348.218	66.56
348.445	74.56
348.673	68.56
348.9	78.56
349.128	64.56
349.355	90.56
349.583	78.56
349.81	76.56
350.037	75.56
350.265	74.56
350.492	78.56
350.72	79.56
350.947	91.56
351.174	75.56
351.402	59.56
351.629	67.56
351.856	65.56
352.083	93.56
352.311	83.56
352.538	74.56
352.765	77.56
352.992	88.56
353.22	78.56
353.447	82.56
353.674	71.56
353.901	73.56
354.128	80.56
354.355	89.56
354.583	85.56
354.81	76.56
355.037	70.56
355.264	92.56
355.491	86.56
355.718	72.56
355.945	83.56
356.172	78.56
356.399	71.56
356.626	77.56
356.853	55.56
357.08	83.56
357.307	80.56
357.534	58.56
357.761	78.56
357.988	71.56
358.215	94.56
358.441	82.56
358.668	76.56
358.895	72.56
359.122	71.56
359.349	82.56
359.576	76.56
359.802	76.56
360.029	85.56
360.256	85.56
360.483	60.56
360.709	82.56
360.936	75.56
361.163	73.56
361.39	73.56
361.616	65.56
361.843	79.56
362.07	81.56
362.296	76.56
362.523	84.56
362.749	68.56
362.976	75.56
363.203	74.56
363.429	59.56
363.656	78.56
363.882	82.56
364.109	66.56
364.335	81.56
364.562	62.56
364.788	62.56
365.015	74.56
365.241	84.56
365.468	69.56
365.694	83.56
365.92	77.56
366.147	80.56
366.373	65.56
366.599	74.56
366.826	69.56
367.052	69.56
367.278	76.56
367.505	60.56
367.731	64.56
367.957	78.56
368.184	70.56
368.41	68.56
368.636	74.56
368.862	89.56
369.089	80.56
369.315	62.56
369.541	72.56
369.767	79.56
369.993	86.56
370.219	82.56
370.445	69.56
370.672	92.56
370.898	81.56
371.124	88.56
371.35	71.56
371.576	79.56
371.802	65.56
372.028	84.56
372.254	69.56
372.48	94.56
372.706	77.56
372.932	63.56
373.158	71.56
373.384	81.56
373.61	85.56
373.835	70.56
374.061	72.56
374.287	70.56
374.513	74.56
374.739	85.56
374.965	77.56
375.191	60.56
375.416	72.56
375.642	79.56
375.868	89.56
376.094	69.56
376.319	70.56
376.545	83.56
376.771	81.56
376.997	76.56
377.222	84.56
377.448	94.56
377.674	72.56
377.899	75.56
378.125	67.56
378.35	61.56
378.576	80.56
378.802	79.56
379.027	73.56
379.253	73.56
379.478	70.56
379.704	82.56
379.929	67.56
380.155	72.56
380.38	71.56
380.606	80.56
380.831	86.56
381.057	97.56
381.282	73.56
381.507	73.56
381.733	72.56
381.958	82.56
382.184	94.56
382.409	82.56
382.634	83.56
382.86	72.56
383.085	76.56
383.31	73.56
383.535	70.56
383.761	76.56
383.986	91.56
384.211	69.56
384.436	89.56
384.662	75.56
384.887	71.56
385.112	73.56
385.337	70.56
385.562	63.56
385.787	64.56
386.013	84.56
386.238	85.56
386.463	68.56
386.688	93.56
386.913	75.56
387.138	67.56
387.363	68.56
387.588	80.56
387.813	86.56
388.038	82.56
388.263	84.56
388.488	88.56
388.713	84.56
388.938	71.56
389.163	71.56
389.387	86.56
389.612	75.56
389.837	64.56
390.062	78.56
390.287	80.56
390.512	79.56
390.736	73.56
390.961	68.56
391.186	82.56
391.411	75.56
391.636	83.56
391.86	83.56
392.085	73.56
392.31	73.56
392.534	73.56
392.759	86.56
392.984	73.56
393.208	71.56
393.433	65.56
393.658	72.56
393.882	68.56
394.107	78.56
394.331	76.56
394.556	65.56
394.78	92.56
395.005	75.56
395.229	60.56
395.454	62.56
395.678	74.56
395.903	99.56
396.127	77.56
396.352	73.56
396.576	81.56
396.801	92.56
397.025	87.56
397.249	70.56
397.474	62.56
397.698	78.56
397.922	75.56
398.147	81.56
398.371	77.56
398.595	84.56
398.82	89.56
399.044	91.56
399.268	85.56
399.492	71.56
399.717	64.56
399.941	62.56
400.165	66.56
400.389	80.56
400.613	90.56
400.837	57.56
401.062	71.56
401.286	69.56
401.51	79.56
401.734	71.56
401.958	79.56
402.182	75.56
402.406	89.56
402.63	75.56
402.854	63.56
403.078	78.56
403.302	58.56
403.526	70.56
403.75	63.56
403.974	57.56
404.198	75.56
404.422	71.56
404.645	77.56
404.869	75.56
405.093	85.56
405.317	79.56
405.541	66.56
405.765	68.56
405.988	80.56
406.212	74.56
406.436	55.56
406.66	79.56
406.883	67.56
407.107	76.56
407.331	77.56
407.555	66.56
407.778	63.56
408.002	72.56
408.226	75.56
408.449	85.56
408.673	83.56
408.896	92.56
409.12	70.56
409.344	83.56
409.567	71.56
409.791	69.56
410.014	77.56
410.238	80.56
410.461	73.56
410.685	83.56
410.908	83.56
411.132	86.56
411.355	73.56
411.578	71.56
411.802	61.56
412.025	77.56
412.249	78.56
412.472	77.56
412.695	65.56
412.919	80.56
413.142	63.56
413.365	78.56
413.589	77.56
413.812	74.56
414.035	75.56
414.258	72.56
414.482	84.56
414.705	69.56
414.928	93.56
415.151	68.56
415.374	71.56
415.597	86.56
415.821	83.56
416.044	77.56
416.267	71.56
416.49	73.56
416.713	79.56
416.936	69.56
417.159	79.56
417.382	73.56
417.605	70.56
417.828	64.56
418.051	77.56
418.274	91.56
418.497	81.56
418.72	83.56
418.943	79.56
419.166	72.56
419.389	60.56
419.611	77.56
419.834	78.56
420.057	60.56
420.28	59.56
420.503	69.56
420.726	77.56
420.948	77.56
421.171	76.56
421.394	69.56
421.617	68.56
421.839	69.56
422.062	60.56
422.285	75.56
422.507	94.56
422.73	91.56
422.953	62.56
423.175	72.56
423.398	75.56
423.621	75.56
423.843	73.56
424.066	76.56
424.288	81.56
424.511	88.56
424.733	76.56
424.956	86.56
425.178	82.56
425.401	78.56
425.623	69.56
425.846	83.56
426.068	75.56
426.291	73.56
426.513	76.56
426.735	75.56
426.958	83.56
427.18	96.56
427.402	92.56
427.625	79.56
427.847	74.56
428.069	76.56
428.292	66.56
428.514	79.56
428.736	79.56
428.958	71.56
429.181	86.56
429.403	58.56
429.625	74.56
429.847	78.56
430.069	76.56
430.292	72.56
430.514	84.56
430.736	58.56
430.958	74.56
431.18	78.56
431.402	65.56
431.624	78.56
431.846	76.56
432.068	80.56
432.29	71.56
432.512	64.56
432.734	71.56
432.956	89.56
433.178	87.56
433.4	70.56
433.622	76.56
433.844	78.56
434.066	64.56
434.287	81.56
434.509	74.56
434.731	77.56
434.953	64.56
435.175	65.56
435.397	62.56
435.618	66.56
435.84	59.56
436.062	65.56
436.284	77.56
436.505	73.56
436.727	89.56
436.949	73.56
437.17	68.56
437.392	65.56
437.614	75.56
437.835	87.56
438.057	76.56
438.278	79.56
438.5	74.56
438.721	72.56
438.943	81.56
439.165	89.56
439.386	73.56
439.608	87.56
439.829	75.56
440.05	65.56
440.272	65.56
440.493	70.56
440.715	75.56
440.936	68.56
441.158	77.56
441.379	84.56
441.6	84.56
441.822	78.56
442.043	79.56
442.264	73.56
442.486	82.56
442.707	71.56
442.928	77.56
443.149	75.56
443.371	78.56
443.592	78.56
443.813	70.56
444.034	72.56
444.255	67.56
444.476	72.56
444.698	80.56
444.919	78.56
445.14	143.56
445.361	114.56
445.582	75.56
445.803	63.56
446.024	65.56
446.245	71.56
446.466	71.56
446.687	66.56
446.908	79.56
447.129	71.56
447.35	63.56
447.571	95.56
447.792	85.56
448.013	65.56
448.234	71.56
448.455	76.56
448.675	61.56
448.896	64.56
449.117	75.56
449.338	64.56
449.559	65.56
449.779	63.56
450	63.56
450.221	73.56
450.442	65.56
450.662	79.56
450.883	70.56
451.104	77.56
451.324	56.56
451.545	71.56
451.766	83.56
451.986	75.56
452.207	65.56
452.428	89.56
452.648	77.56
452.869	80.56
453.089	83.56
453.31	80.56
453.53	69.56
453.751	75.56
453.971	74.56
454.192	87.56
454.412	81.56
454.633	63.56
454.853	74.56
455.073	72.56
455.294	74.56
455.514	76.56
455.734	77.56
455.955	72.56
456.175	71.56
456.395	70.56
456.616	80.56
456.836	75.56
457.056	63.56
457.276	61.56
457.497	63.56
457.717	53.56
457.937	72.56
458.157	72.56
458.377	66.56
458.598	82.56
458.818	66.56
459.038	61.56
459.258	71.56
459.478	79.56
459.698	83.56
459.918	74.56
460.138	61.56
460.358	81.56
460.578	77.56
460.798	79.56
461.018	97.56
461.238	75.56
461.458	71.56
461.678	66.56
461.898	78.56
462.118	66.56
462.338	75.56
462.558	65.56
462.777	83.56
462.997	72.56
463.217	81.56
463.437	71.56
463.657	66.56
463.876	65.56
464.096	81.56
464.316	81.56
464.536	64.56
464.755	80.56
464.975	83.56
465.195	65.56
465.414	77.56
465.634	62.56
465.854	75.56
466.073	75.56
466.293	77.56
466.512	72.56
466.732	77.56
466.951	59.56
467.171	88.56
467.391	71.56
467.61	77.56
467.829	65.56
468.049	70.56
468.268	73.56
468.488	82.56
468.707	81.56
468.927	68.56
469.146	69.56
469.365	63.56
469.585	80.56
469.804	88.56
470.023	62.56
470.243	75.56
470.462	72.56
470.681	80.56
470.901	74.56
471.12	81.56
471.339	79.56
471.558	67.56
471.777	78.56
471.997	76.56
472.216	74.56
472.435	79.56
472.654	83.56
472.873	77.56
473.092	88.56
473.311	72.56
473.53	63.56
473.749	75.56
473.968	74.56
474.187	74.56
474.406	76.56
474.625	79.56
474.844	68.56
475.063	66.56
475.282	80.56
475.501	72.56
475.72	75.56
475.939	59.56
476.158	73.56
476.377	90.56
476.596	79.56
476.814	77.56
477.033	68.56
477.252	76.56
477.471	84.56
477.69	80.56
477.908	91.56
478.127	87.56
478.346	75.56
478.564	63.56
478.783	76.56
479.002	85.56
479.22	79.56
479.439	71.56
479.658	74.56
479.876	70.56
480.095	69.56
480.313	81.56
480.532	76.56
480.751	74.56
480.969	64.56
481.188	64.56
481.406	58.56
481.624	74.56
481.843	93.56
482.061	65.56
482.28	92.56
482.498	67.56
482.717	63.56
482.935	66.56
483.153	73.56
483.372	78.56
483.59	88.56
483.808	80.56
484.027	77.56
484.245	70.56
484.463	73.56
484.681	67.56
484.9	75.56
485.118	76.56
485.336	77.56
485.554	67.56
485.772	77.56
485.99	77.56
486.209	74.56
486.427	70.56
486.645	74.56
486.863	79.56
487.081	79.56
487.299	72.56
487.517	65.56
487.735	68.56
487.953	92.56
488.171	72.56
488.389	82.56
488.607	59.56
488.825	83.56
489.043	65.56
489.261	61.56
489.479	71.56
489.696	77.56
489.914	68.56
490.132	82.56
490.35	68.56
490.568	62.56
490.786	73.56
491.003	75.56
491.221	77.56
491.439	77.56
491.657	71.56
491.874	88.56
492.092	85.56
492.31	86.56
492.527	73.56
492.745	80.56
492.963	69.56
493.18	75.56
493.398	69.56
493.615	67.56
493.833	63.56
494.05	79.56
494.268	83.56
494.485	86.56
494.703	83.56
494.92	62.56
495.138	69.56
495.355	73.56
495.573	77.56
495.79	83.56
496.008	62.56
496.225	79.56
496.442	65.56
496.66	68.56
496.877	68.56
497.094	72.56
497.312	85.56
497.529	76.56
497.746	78.56
497.963	78.56
498.181	73.56
498.398	79.56
498.615	94.56
498.832	71.56
499.049	76.56
499.267	89.56
499.484	73.56
499.701	86.56
499.918	79.56
500.135	70.56
500.352	77.56
500.569	69.56
500.786	76.56
501.003	71.56
501.22	66.56
501.437	72.56
501.654	64.56
501.871	81.56
502.088	84.56
502.305	82.56
502.522	79.56
502.739	74.56
502.956	66.56
503.172	85.56
503.389	66.56
503.606	73.56
503.823	70.56
504.04	81.56
504.256	71.56
504.473	92.56
504.69	74.56
504.907	92.56
505.123	74.56
505.34	79.56
505.557	79.56
505.773	79.56
505.99	76.56
506.207	66.56
506.423	64.56
506.64	83.56
506.856	73.56
507.073	82.56
507.289	79.56
507.506	74.56
507.722	89.56
507.939	80.56
508.155	63.56
508.372	75.56
508.588	69.56
508.805	74.56
509.021	71.56
509.238	62.56
509.454	85.56
509.67	75.56
509.887	85.56
510.103	83.56
510.319	94.56
510.536	85.56
510.752	62.56
510.968	69.56
511.184	73.56
511.401	67.56
511.617	77.56
511.833	72.56
512.049	74.56
512.265	77.56
512.481	78.56
512.698	80.56
512.914	72.56
513.13	81.56
513.346	77.56
513.562	76.56
513.778	70.56
513.994	76.56
514.21	72.56
514.426	87.56
514.642	73.56
514.858	76.56
515.074	74.56
515.29	87.56
515.506	64.56
515.721	83.56
515.937	71.56
516.153	79.56
516.369	66.56
516.585	73.56
516.801	82.56
517.016	76.56
517.232	81.56
517.448	70.56
517.664	67.56
517.879	83.56
518.095	76.56
518.311	70.56
518.527	77.56
518.742	77.56
518.958	81.56
519.173	78.56
519.389	72.56
519.605	82.56
519.82	70.56
520.036	80.56
520.251	102.56
