Data from Background_2_HRD10591_00069.txt Node
Date: Wed Nov 05 14:47:30 EST 2025
User: Yrep
Spectrometer: HR+D1059
Trigger mode: 1
Integration Time (sec): 1.000000E-1
Scans to average: 1
Electric dark correction enabled: true
Nonlinearity correction enabled: false
Boxcar width: 0
XAxis mode: Wavelengths
Number of Pixels in Spectrum: 2048
>>>>>Begin Spectral Data<<<<<
223.165	-20.88
223.4	-20.88
223.635	-20.88
223.869	-17.88
224.104	-16.88
224.338	-2.88
224.573	-3.88
224.808	-9.88
225.042	-5.88
225.277	0.12
225.511	1.12
225.746	3.12
225.98	5.12
226.215	2.12
226.449	5.12
226.683	4.12
226.918	20.12
227.152	37.12
227.387	36.12
227.621	29.12
227.856	46.12
228.09	48.12
228.324	64.12
228.559	57.12
228.793	42.12
229.027	58.12
229.262	68.12
229.496	61.12
229.73	69.12
229.964	63.12
230.199	69.12
230.433	61.12
230.667	76.12
230.901	76.12
231.136	69.12
231.37	81.12
231.604	70.12
231.838	89.12
232.072	74.12
232.306	85.12
232.541	93.12
232.775	89.12
233.009	77.12
233.243	75.12
233.477	90.12
233.711	82.12
233.945	70.12
234.179	78.12
234.413	80.12
234.647	72.12
234.881	77.12
235.115	75.12
235.349	70.12
235.583	71.12
235.817	75.12
236.051	92.12
236.285	81.12
236.519	83.12
236.753	80.12
236.987	82.12
237.221	75.12
237.455	76.12
237.689	70.12
237.922	65.12
238.156	81.12
238.39	96.12
238.624	67.12
238.858	84.12
239.091	74.12
239.325	75.12
239.559	80.12
239.793	75.12
240.027	84.12
240.26	83.12
240.494	77.12
240.728	63.12
240.961	65.12
241.195	75.12
241.429	74.12
241.662	68.12
241.896	64.12
242.13	68.12
242.363	69.12
242.597	74.12
242.83	82.12
243.064	63.12
243.298	65.12
243.531	73.12
243.765	74.12
243.998	66.12
244.232	85.12
244.465	65.12
244.699	75.12
244.932	77.12
245.166	68.12
245.399	83.12
245.633	84.12
245.866	74.12
246.099	69.12
246.333	57.12
246.566	74.12
246.8	74.12
247.033	84.12
247.266	81.12
247.5	79.12
247.733	81.12
247.966	69.12
248.2	79.12
248.433	67.12
248.666	85.12
248.899	77.12
249.133	88.12
249.366	78.12
249.599	76.12
249.832	84.12
250.066	87.12
250.299	71.12
250.532	83.12
250.765	87.12
250.998	87.12
251.231	66.12
251.465	79.12
251.698	87.12
251.931	75.12
252.164	66.12
252.397	71.12
252.63	86.12
252.863	77.12
253.096	65.12
253.329	65.12
253.562	74.12
253.795	65.12
254.028	75.12
254.261	75.12
254.494	74.12
254.727	82.12
254.96	79.12
255.193	83.12
255.426	88.12
255.659	74.12
255.892	85.12
256.124	78.12
256.357	94.12
256.59	82.12
256.823	74.12
257.056	75.12
257.289	78.12
257.521	72.12
257.754	79.12
257.987	72.12
258.22	76.12
258.452	74.12
258.685	99.12
258.918	90.12
259.151	87.12
259.383	89.12
259.616	91.12
259.849	87.12
260.081	82.12
260.314	79.12
260.547	78.12
260.779	78.12
261.012	84.12
261.244	74.12
261.477	86.12
261.71	87.12
261.942	74.12
262.175	89.12
262.407	85.12
262.64	70.12
262.872	75.12
263.105	84.12
263.337	77.12
263.57	83.12
263.802	87.12
264.035	76.12
264.267	77.12
264.499	71.12
264.732	77.12
264.964	85.12
265.197	86.12
265.429	78.12
265.661	75.12
265.894	79.12
266.126	78.12
266.358	64.12
266.591	85.12
266.823	88.12
267.055	91.12
267.287	88.12
267.52	77.12
267.752	84.12
267.984	91.12
268.216	81.12
268.448	70.12
268.681	100.12
268.913	83.12
269.145	86.12
269.377	78.12
269.609	74.12
269.841	74.12
270.073	74.12
270.306	76.12
270.538	64.12
270.77	94.12
271.002	78.12
271.234	88.12
271.466	83.12
271.698	63.12
271.93	81.12
272.162	83.12
272.394	81.12
272.626	69.12
272.858	91.12
273.09	79.12
273.322	76.12
273.553	77.12
273.785	83.12
274.017	91.12
274.249	93.12
274.481	93.12
274.713	83.12
274.945	100.12
275.176	78.12
275.408	85.12
275.64	77.12
275.872	71.12
276.104	84.12
276.335	72.12
276.567	77.12
276.799	90.12
277.031	76.12
277.262	77.12
277.494	87.12
277.726	69.12
277.957	85.12
278.189	87.12
278.421	88.12
278.652	80.12
278.884	85.12
279.115	71.12
279.347	90.12
279.579	88.12
279.81	74.12
280.042	79.12
280.273	63.12
280.505	77.12
280.736	71.12
280.968	83.12
281.199	89.12
281.431	90.12
281.662	89.12
281.894	76.12
282.125	82.12
282.356	79.12
282.588	76.12
282.819	78.12
283.051	86.12
283.282	84.12
283.513	76.12
283.745	88.12
283.976	96.12
284.207	79.12
284.439	83.12
284.67	84.12
284.901	70.12
285.132	87.12
285.364	76.12
285.595	77.12
285.826	93.12
286.057	102.12
286.288	84.12
286.52	81.12
286.751	92.12
286.982	104.12
287.213	75.12
287.444	77.12
287.675	71.12
287.906	89.12
288.138	89.12
288.369	77.12
288.6	86.12
288.831	90.12
289.062	90.12
289.293	77.12
289.524	73.12
289.755	91.12
289.986	71.12
290.217	91.12
290.448	72.12
290.679	91.12
290.91	78.12
291.141	85.12
291.371	101.12
291.602	77.12
291.833	80.12
292.064	87.12
292.295	101.12
292.526	86.12
292.757	82.12
292.987	89.12
293.218	87.12
293.449	93.12
293.68	90.12
293.91	85.12
294.141	81.12
294.372	78.12
294.603	85.12
294.833	65.12
295.064	76.12
295.295	73.12
295.525	91.12
295.756	91.12
295.987	87.12
296.217	76.12
296.448	96.12
296.679	91.12
296.909	93.12
297.14	90.12
297.37	71.12
297.601	85.12
297.831	101.12
298.062	82.12
298.292	77.12
298.523	84.12
298.753	85.12
298.984	99.12
299.214	72.12
299.445	99.12
299.675	89.12
299.905	78.12
300.136	85.12
300.366	74.12
300.597	87.12
300.827	86.12
301.057	82.12
301.288	82.12
301.518	71.12
301.748	87.12
301.979	94.12
302.209	83.12
302.439	83.12
302.669	82.12
302.9	69.12
303.13	80.12
303.36	69.12
303.59	79.12
303.82	87.12
304.051	92.12
304.281	79.12
304.511	91.12
304.741	82.12
304.971	92.12
305.201	89.12
305.431	88.12
305.661	77.12
305.891	85.12
306.121	92.12
306.352	87.12
306.582	89.12
306.812	77.12
307.042	89.12
307.272	83.12
307.502	75.12
307.731	91.12
307.961	83.12
308.191	91.12
308.421	78.12
308.651	92.12
308.881	79.12
309.111	93.12
309.341	83.12
309.571	84.12
309.8	94.12
310.03	84.12
310.26	86.12
310.49	81.12
310.72	86.12
310.949	86.12
311.179	97.12
311.409	90.12
311.639	85.12
311.868	92.12
312.098	89.12
312.328	89.12
312.557	78.12
312.787	91.12
313.017	87.12
313.246	76.12
313.476	83.12
313.706	76.12
313.935	85.12
314.165	87.12
314.394	82.12
314.624	82.12
314.853	83.12
315.083	87.12
315.312	87.12
315.542	85.12
315.771	84.12
316.001	92.12
316.23	90.12
316.46	81.12
316.689	67.12
316.919	82.12
317.148	95.12
317.377	85.12
317.607	96.12
317.836	92.12
318.065	76.12
318.295	83.12
318.524	83.12
318.753	79.12
318.983	83.12
319.212	86.12
319.441	89.12
319.67	79.12
319.9	88.12
320.129	83.12
320.358	87.12
320.587	85.12
320.816	82.12
321.046	82.12
321.275	93.12
321.504	87.12
321.733	81.12
321.962	87.12
322.191	96.12
322.42	87.12
322.649	89.12
322.878	89.12
323.108	95.12
323.337	101.12
323.566	85.12
323.795	72.12
324.024	79.12
324.253	86.12
324.482	69.12
324.71	80.12
324.939	80.12
325.168	92.12
325.397	87.12
325.626	94.12
325.855	84.12
326.084	73.12
326.313	83.12
326.542	78.12
326.77	86.12
326.999	68.12
327.228	85.12
327.457	91.12
327.686	87.12
327.914	94.12
328.143	85.12
328.372	75.12
328.6	92.12
328.829	88.12
329.058	83.12
329.287	100.12
329.515	94.12
329.744	90.12
329.972	81.12
330.201	80.12
330.43	68.12
330.658	67.12
330.887	89.12
331.115	74.12
331.344	83.12
331.572	78.12
331.801	85.12
332.03	95.12
332.258	77.12
332.486	79.12
332.715	85.12
332.943	94.12
333.172	81.12
333.4	83.12
333.629	87.12
333.857	91.12
334.085	94.12
334.314	85.12
334.542	75.12
334.771	88.12
334.999	88.12
335.227	89.12
335.455	90.12
335.684	77.12
335.912	78.12
336.14	83.12
336.369	110.12
336.597	90.12
336.825	80.12
337.053	80.12
337.281	74.12
337.51	68.12
337.738	87.12
337.966	77.12
338.194	82.12
338.422	81.12
338.65	71.12
338.878	78.12
339.106	82.12
339.334	99.12
339.562	86.12
339.79	94.12
340.018	87.12
340.246	75.12
340.474	86.12
340.702	78.12
340.93	91.12
341.158	89.12
341.386	66.12
341.614	71.12
341.842	74.12
342.07	83.12
342.298	100.12
342.526	85.12
342.754	74.12
342.981	77.12
343.209	80.12
343.437	103.12
343.665	80.12
343.893	99.12
344.12	99.12
344.348	92.12
344.576	82.12
344.804	102.12
345.031	72.12
345.259	83.12
345.487	69.12
345.714	85.12
345.942	73.12
346.17	95.12
346.397	87.12
346.625	85.12
346.853	89.12
347.08	77.12
347.308	84.12
347.535	78.12
347.763	79.12
347.99	82.12
348.218	86.12
348.445	83.12
348.673	82.12
348.9	91.12
349.128	89.12
349.355	98.12
349.583	83.12
349.81	77.12
350.037	79.12
350.265	92.12
350.492	82.12
350.72	87.12
350.947	85.12
351.174	85.12
351.402	84.12
351.629	89.12
351.856	81.12
352.083	76.12
352.311	90.12
352.538	77.12
352.765	108.12
352.992	95.12
353.22	85.12
353.447	84.12
353.674	75.12
353.901	79.12
354.128	91.12
354.355	87.12
354.583	92.12
354.81	84.12
355.037	90.12
355.264	89.12
355.491	85.12
355.718	91.12
355.945	82.12
356.172	88.12
356.399	89.12
356.626	76.12
356.853	79.12
357.08	93.12
357.307	92.12
357.534	83.12
357.761	85.12
357.988	79.12
358.215	93.12
358.441	82.12
358.668	79.12
358.895	79.12
359.122	75.12
359.349	79.12
359.576	76.12
359.802	85.12
360.029	89.12
360.256	99.12
360.483	73.12
360.709	92.12
360.936	81.12
361.163	71.12
361.39	78.12
361.616	79.12
361.843	85.12
362.07	77.12
362.296	82.12
362.523	68.12
362.749	71.12
362.976	85.12
363.203	87.12
363.429	81.12
363.656	70.12
363.882	78.12
364.109	90.12
364.335	98.12
364.562	79.12
364.788	76.12
365.015	83.12
365.241	79.12
365.468	86.12
365.694	74.12
365.92	87.12
366.147	79.12
366.373	82.12
366.599	73.12
366.826	75.12
367.052	83.12
367.278	71.12
367.505	84.12
367.731	85.12
367.957	72.12
368.184	94.12
368.41	93.12
368.636	83.12
368.862	83.12
369.089	90.12
369.315	76.12
369.541	73.12
369.767	83.12
369.993	68.12
370.219	83.12
370.445	73.12
370.672	86.12
370.898	90.12
371.124	85.12
371.35	95.12
371.576	108.12
371.802	85.12
372.028	71.12
372.254	100.12
372.48	94.12
372.706	92.12
372.932	92.12
373.158	79.12
373.384	84.12
373.61	79.12
373.835	84.12
374.061	71.12
374.287	93.12
374.513	80.12
374.739	85.12
374.965	94.12
375.191	71.12
375.416	81.12
375.642	93.12
375.868	101.12
376.094	85.12
376.319	89.12
376.545	84.12
376.771	90.12
376.997	68.12
377.222	69.12
377.448	85.12
377.674	88.12
377.899	81.12
378.125	73.12
378.35	65.12
378.576	77.12
378.802	85.12
379.027	83.12
379.253	86.12
379.478	80.12
379.704	77.12
379.929	77.12
380.155	81.12
380.38	79.12
380.606	81.12
380.831	92.12
381.057	79.12
381.282	85.12
381.507	79.12
381.733	99.12
381.958	99.12
382.184	78.12
382.409	93.12
382.634	94.12
382.86	84.12
383.085	88.12
383.31	74.12
383.535	70.12
383.761	85.12
383.986	82.12
384.211	84.12
384.436	88.12
384.662	88.12
384.887	73.12
385.112	77.12
385.337	72.12
385.562	78.12
385.787	86.12
386.013	82.12
386.238	77.12
386.463	82.12
386.688	89.12
386.913	88.12
387.138	85.12
387.363	83.12
387.588	87.12
387.813	88.12
388.038	91.12
388.263	75.12
388.488	83.12
388.713	86.12
388.938	91.12
389.163	87.12
389.387	91.12
389.612	102.12
389.837	92.12
390.062	81.12
390.287	83.12
390.512	78.12
390.736	92.12
390.961	69.12
391.186	81.12
391.411	94.12
391.636	77.12
391.86	82.12
392.085	81.12
392.31	74.12
392.534	82.12
392.759	75.12
392.984	85.12
393.208	86.12
393.433	84.12
393.658	93.12
393.882	80.12
394.107	83.12
394.331	67.12
394.556	83.12
394.78	76.12
395.005	90.12
395.229	79.12
395.454	93.12
395.678	84.12
395.903	69.12
396.127	91.12
396.352	67.12
396.576	85.12
396.801	97.12
397.025	85.12
397.249	71.12
397.474	82.12
397.698	84.12
397.922	93.12
398.147	86.12
398.371	75.12
398.595	85.12
398.82	70.12
399.044	83.12
399.268	88.12
399.492	77.12
399.717	83.12
399.941	88.12
400.165	89.12
400.389	79.12
400.613	76.12
400.837	79.12
401.062	79.12
401.286	75.12
401.51	76.12
401.734	72.12
401.958	91.12
402.182	77.12
402.406	72.12
402.63	93.12
402.854	83.12
403.078	77.12
403.302	81.12
403.526	97.12
403.75	70.12
403.974	78.12
404.198	77.12
404.422	78.12
404.645	85.12
404.869	86.12
405.093	72.12
405.317	75.12
405.541	85.12
405.765	78.12
405.988	82.12
406.212	88.12
406.436	78.12
406.66	84.12
406.883	81.12
407.107	86.12
407.331	81.12
407.555	85.12
407.778	74.12
408.002	85.12
408.226	80.12
408.449	65.12
408.673	74.12
408.896	77.12
409.12	75.12
409.344	85.12
409.567	77.12
409.791	88.12
410.014	79.12
410.238	71.12
410.461	74.12
410.685	87.12
410.908	84.12
411.132	86.12
411.355	71.12
411.578	84.12
411.802	63.12
412.025	84.12
412.249	85.12
412.472	80.12
412.695	87.12
412.919	87.12
413.142	87.12
413.365	77.12
413.589	71.12
413.812	84.12
414.035	81.12
414.258	80.12
414.482	65.12
414.705	66.12
414.928	85.12
415.151	97.12
415.374	85.12
415.597	86.12
415.821	84.12
416.044	83.12
416.267	79.12
416.49	82.12
416.713	83.12
416.936	88.12
417.159	87.12
417.382	101.12
417.605	80.12
417.828	77.12
418.051	98.12
418.274	89.12
418.497	69.12
418.72	89.12
418.943	83.12
419.166	77.12
419.389	94.12
419.611	93.12
419.834	78.12
420.057	104.12
420.28	83.12
420.503	71.12
420.726	66.12
420.948	85.12
421.171	83.12
421.394	76.12
421.617	65.12
421.839	83.12
422.062	94.12
422.285	100.12
422.507	78.12
422.73	71.12
422.953	77.12
423.175	84.12
423.398	83.12
423.621	94.12
423.843	84.12
424.066	80.12
424.288	86.12
424.511	73.12
424.733	83.12
424.956	83.12
425.178	85.12
425.401	93.12
425.623	96.12
425.846	99.12
426.068	73.12
426.291	81.12
426.513	71.12
426.735	99.12
426.958	84.12
427.18	80.12
427.402	84.12
427.625	82.12
427.847	72.12
428.069	98.12
428.292	90.12
428.514	91.12
428.736	83.12
428.958	87.12
429.181	66.12
429.403	75.12
429.625	95.12
429.847	84.12
430.069	85.12
430.292	82.12
430.514	81.12
430.736	65.12
430.958	71.12
431.18	83.12
431.402	85.12
431.624	94.12
431.846	69.12
432.068	79.12
432.29	75.12
432.512	74.12
432.734	74.12
432.956	84.12
433.178	68.12
433.4	95.12
433.622	76.12
433.844	76.12
434.066	83.12
434.287	82.12
434.509	67.12
434.731	89.12
434.953	77.12
435.175	80.12
435.397	85.12
435.618	87.12
435.84	90.12
436.062	69.12
436.284	78.12
436.505	77.12
436.727	81.12
436.949	84.12
437.17	82.12
437.392	79.12
437.614	88.12
437.835	83.12
438.057	88.12
438.278	74.12
438.5	68.12
438.721	80.12
438.943	71.12
439.165	82.12
439.386	69.12
439.608	67.12
439.829	75.12
440.05	82.12
440.272	75.12
440.493	94.12
440.715	92.12
440.936	91.12
441.158	83.12
441.379	78.12
441.6	91.12
441.822	85.12
442.043	86.12
442.264	71.12
442.486	75.12
442.707	69.12
442.928	65.12
443.149	76.12
443.371	83.12
443.592	71.12
443.813	82.12
444.034	91.12
444.255	97.12
444.476	70.12
444.698	76.12
444.919	79.12
445.14	168.12
445.361	119.12
445.582	91.12
445.803	78.12
446.024	81.12
446.245	80.12
446.466	78.12
446.687	78.12
446.908	84.12
447.129	87.12
447.35	75.12
447.571	80.12
447.792	73.12
448.013	71.12
448.234	85.12
448.455	82.12
448.675	63.12
448.896	78.12
449.117	86.12
449.338	93.12
449.559	93.12
449.779	82.12
450	87.12
450.221	93.12
450.442	72.12
450.662	89.12
450.883	83.12
451.104	66.12
451.324	87.12
451.545	84.12
451.766	79.12
451.986	69.12
452.207	79.12
452.428	83.12
452.648	77.12
452.869	77.12
453.089	70.12
453.31	89.12
453.53	93.12
453.751	68.12
453.971	81.12
454.192	84.12
454.412	78.12
454.633	71.12
454.853	78.12
455.073	70.12
455.294	85.12
455.514	82.12
455.734	83.12
455.955	80.12
456.175	78.12
456.395	85.12
456.616	83.12
456.836	87.12
457.056	84.12
457.276	86.12
457.497	76.12
457.717	89.12
457.937	81.12
458.157	93.12
458.377	81.12
458.598	89.12
458.818	84.12
459.038	80.12
459.258	75.12
459.478	80.12
459.698	83.12
459.918	83.12
460.138	87.12
460.358	75.12
460.578	70.12
460.798	85.12
461.018	81.12
461.238	93.12
461.458	79.12
461.678	78.12
461.898	77.12
462.118	85.12
462.338	84.12
462.558	82.12
462.777	88.12
462.997	86.12
463.217	89.12
463.437	83.12
463.657	80.12
463.876	84.12
464.096	59.12
464.316	79.12
464.536	80.12
464.755	85.12
464.975	80.12
465.195	77.12
465.414	75.12
465.634	77.12
465.854	91.12
466.073	87.12
466.293	81.12
466.512	95.12
466.732	71.12
466.951	79.12
467.171	77.12
467.391	72.12
467.61	74.12
467.829	81.12
468.049	69.12
468.268	90.12
468.488	81.12
468.707	94.12
468.927	87.12
469.146	71.12
469.365	86.12
469.585	83.12
469.804	92.12
470.023	87.12
470.243	81.12
470.462	96.12
470.681	85.12
470.901	86.12
471.12	83.12
471.339	75.12
471.558	68.12
471.777	77.12
471.997	77.12
472.216	77.12
472.435	87.12
472.654	95.12
472.873	81.12
473.092	95.12
473.311	92.12
473.53	86.12
473.749	76.12
473.968	80.12
474.187	89.12
474.406	85.12
474.625	75.12
474.844	81.12
475.063	91.12
475.282	85.12
475.501	77.12
475.72	81.12
475.939	80.12
476.158	86.12
476.377	80.12
476.596	84.12
476.814	82.12
477.033	89.12
477.252	72.12
477.471	77.12
477.69	71.12
477.908	79.12
478.127	80.12
478.346	84.12
478.564	86.12
478.783	84.12
479.002	83.12
479.22	79.12
479.439	70.12
479.658	65.12
479.876	74.12
480.095	75.12
480.313	64.12
480.532	79.12
480.751	75.12
480.969	82.12
481.188	82.12
481.406	74.12
481.624	72.12
481.843	70.12
482.061	87.12
482.28	82.12
482.498	81.12
482.717	68.12
482.935	99.12
483.153	85.12
483.372	81.12
483.59	78.12
483.808	97.12
484.027	65.12
484.245	89.12
484.463	65.12
484.681	71.12
484.9	72.12
485.118	81.12
485.336	74.12
485.554	75.12
485.772	90.12
485.99	81.12
486.209	93.12
486.427	97.12
486.645	88.12
486.863	79.12
487.081	93.12
487.299	82.12
487.517	78.12
487.735	72.12
487.953	85.12
488.171	86.12
488.389	61.12
488.607	71.12
488.825	80.12
489.043	81.12
489.261	85.12
489.479	85.12
489.696	83.12
489.914	83.12
490.132	83.12
490.35	98.12
490.568	89.12
490.786	80.12
491.003	86.12
491.221	70.12
491.439	81.12
491.657	74.12
491.874	77.12
492.092	64.12
492.31	91.12
492.527	93.12
492.745	84.12
492.963	74.12
493.18	90.12
493.398	90.12
493.615	86.12
493.833	82.12
494.05	77.12
494.268	70.12
494.485	69.12
494.703	69.12
494.92	97.12
495.138	85.12
495.355	86.12
495.573	96.12
495.79	84.12
496.008	78.12
496.225	72.12
496.442	85.12
496.66	91.12
496.877	74.12
497.094	91.12
497.312	82.12
497.529	75.12
497.746	76.12
497.963	78.12
498.181	78.12
498.398	73.12
498.615	75.12
498.832	90.12
499.049	82.12
499.267	87.12
499.484	69.12
499.701	92.12
499.918	89.12
500.135	75.12
500.352	76.12
500.569	75.12
500.786	83.12
501.003	90.12
501.22	88.12
501.437	84.12
501.654	67.12
501.871	92.12
502.088	73.12
502.305	86.12
502.522	83.12
502.739	95.12
502.956	93.12
503.172	90.12
503.389	80.12
503.606	86.12
503.823	85.12
504.04	85.12
504.256	79.12
504.473	87.12
504.69	76.12
504.907	82.12
505.123	91.12
505.34	67.12
505.557	79.12
505.773	72.12
505.99	83.12
506.207	69.12
506.423	72.12
506.64	78.12
506.856	93.12
507.073	91.12
507.289	79.12
507.506	82.12
507.722	86.12
507.939	90.12
508.155	89.12
508.372	79.12
508.588	77.12
508.805	86.12
509.021	81.12
509.238	79.12
509.454	81.12
509.67	82.12
509.887	89.12
510.103	89.12
510.319	86.12
510.536	79.12
510.752	73.12
510.968	92.12
511.184	93.12
511.401	96.12
511.617	85.12
511.833	83.12
512.049	91.12
512.265	94.12
512.481	77.12
512.698	77.12
512.914	90.12
513.13	77.12
513.346	80.12
513.562	89.12
513.778	74.12
513.994	81.12
514.21	75.12
514.426	80.12
514.642	82.12
514.858	77.12
515.074	76.12
515.29	81.12
515.506	78.12
515.721	83.12
515.937	72.12
516.153	78.12
516.369	89.12
516.585	78.12
516.801	83.12
517.016	77.12
517.232	76.12
517.448	82.12
517.664	75.12
517.879	92.12
518.095	85.12
518.311	90.12
518.527	92.12
518.742	85.12
518.958	80.12
519.173	85.12
519.389	86.12
519.605	71.12
519.82	80.12
520.036	85.12
