Data from Background_2_HRD10591_00036.txt Node
Date: Wed Nov 05 14:47:15 EST 2025
User: Yrep
Spectrometer: HR+D1059
Trigger mode: 1
Integration Time (sec): 1.000000E-1
Scans to average: 1
Electric dark correction enabled: true
Nonlinearity correction enabled: false
Boxcar width: 0
XAxis mode: Wavelengths
Number of Pixels in Spectrum: 2048
>>>>>Begin Spectral Data<<<<<
223.165	-9.75
223.4	-9.75
223.635	-9.75
223.869	-17.75
224.104	-9.75
224.338	-15.75
224.573	-11.75
224.808	-6.75
225.042	-10.75
225.277	-17.75
225.511	8.25
225.746	6.25
225.98	2.25
226.215	15.25
226.449	8.25
226.683	18.25
226.918	24.25
227.152	17.25
227.387	33.25
227.621	33.25
227.856	58.25
228.09	43.25
228.324	56.25
228.559	46.25
228.793	58.25
229.027	50.25
229.262	56.25
229.496	63.25
229.73	73.25
229.964	68.25
230.199	68.25
230.433	72.25
230.667	73.25
230.901	76.25
231.136	76.25
231.37	76.25
231.604	65.25
231.838	81.25
232.072	69.25
232.306	72.25
232.541	73.25
232.775	82.25
233.009	75.25
233.243	81.25
233.477	77.25
233.711	90.25
233.945	68.25
234.179	67.25
234.413	83.25
234.647	69.25
234.881	82.25
235.115	81.25
235.349	78.25
235.583	84.25
235.817	78.25
236.051	75.25
236.285	79.25
236.519	68.25
236.753	83.25
236.987	75.25
237.221	78.25
237.455	86.25
237.689	81.25
237.922	63.25
238.156	51.25
238.39	74.25
238.624	73.25
238.858	72.25
239.091	80.25
239.325	78.25
239.559	87.25
239.793	79.25
240.027	73.25
240.26	92.25
240.494	64.25
240.728	88.25
240.961	81.25
241.195	66.25
241.429	68.25
241.662	73.25
241.896	81.25
242.13	65.25
242.363	69.25
242.597	58.25
242.83	69.25
243.064	68.25
243.298	81.25
243.531	80.25
243.765	68.25
243.998	69.25
244.232	59.25
244.465	74.25
244.699	71.25
244.932	63.25
245.166	70.25
245.399	82.25
245.633	70.25
245.866	76.25
246.099	71.25
246.333	83.25
246.566	83.25
246.8	80.25
247.033	72.25
247.266	81.25
247.5	65.25
247.733	70.25
247.966	60.25
248.2	89.25
248.433	78.25
248.666	79.25
248.899	63.25
249.133	75.25
249.366	75.25
249.599	82.25
249.832	77.25
250.066	79.25
250.299	73.25
250.532	66.25
250.765	63.25
250.998	72.25
251.231	89.25
251.465	80.25
251.698	79.25
251.931	87.25
252.164	76.25
252.397	75.25
252.63	81.25
252.863	71.25
253.096	65.25
253.329	82.25
253.562	69.25
253.795	63.25
254.028	77.25
254.261	77.25
254.494	91.25
254.727	81.25
254.96	85.25
255.193	85.25
255.426	83.25
255.659	78.25
255.892	76.25
256.124	79.25
256.357	69.25
256.59	69.25
256.823	77.25
257.056	70.25
257.289	69.25
257.521	77.25
257.754	74.25
257.987	78.25
258.22	84.25
258.452	81.25
258.685	73.25
258.918	68.25
259.151	72.25
259.383	84.25
259.616	75.25
259.849	73.25
260.081	92.25
260.314	75.25
260.547	81.25
260.779	100.25
261.012	95.25
261.244	65.25
261.477	74.25
261.71	85.25
261.942	75.25
262.175	81.25
262.407	86.25
262.64	80.25
262.872	77.25
263.105	80.25
263.337	63.25
263.57	88.25
263.802	90.25
264.035	77.25
264.267	78.25
264.499	69.25
264.732	85.25
264.964	83.25
265.197	70.25
265.429	81.25
265.661	78.25
265.894	78.25
266.126	80.25
266.358	80.25
266.591	82.25
266.823	78.25
267.055	83.25
267.287	73.25
267.52	70.25
267.752	69.25
267.984	73.25
268.216	76.25
268.448	75.25
268.681	83.25
268.913	79.25
269.145	76.25
269.377	76.25
269.609	75.25
269.841	72.25
270.073	83.25
270.306	67.25
270.538	85.25
270.77	90.25
271.002	73.25
271.234	94.25
271.466	84.25
271.698	76.25
271.93	83.25
272.162	73.25
272.394	70.25
272.626	83.25
272.858	83.25
273.09	67.25
273.322	72.25
273.553	81.25
273.785	81.25
274.017	87.25
274.249	81.25
274.481	89.25
274.713	77.25
274.945	81.25
275.176	76.25
275.408	75.25
275.64	87.25
275.872	69.25
276.104	91.25
276.335	69.25
276.567	86.25
276.799	90.25
277.031	76.25
277.262	85.25
277.494	77.25
277.726	82.25
277.957	78.25
278.189	87.25
278.421	85.25
278.652	77.25
278.884	73.25
279.115	73.25
279.347	82.25
279.579	77.25
279.81	76.25
280.042	67.25
280.273	80.25
280.505	83.25
280.736	83.25
280.968	70.25
281.199	76.25
281.431	83.25
281.662	88.25
281.894	76.25
282.125	72.25
282.356	77.25
282.588	74.25
282.819	76.25
283.051	79.25
283.282	81.25
283.513	84.25
283.745	91.25
283.976	83.25
284.207	70.25
284.439	73.25
284.67	88.25
284.901	70.25
285.132	78.25
285.364	84.25
285.595	85.25
285.826	91.25
286.057	88.25
286.288	83.25
286.52	77.25
286.751	76.25
286.982	73.25
287.213	83.25
287.444	83.25
287.675	90.25
287.906	88.25
288.138	89.25
288.369	74.25
288.6	89.25
288.831	82.25
289.062	76.25
289.293	77.25
289.524	80.25
289.755	72.25
289.986	75.25
290.217	63.25
290.448	75.25
290.679	77.25
290.91	84.25
291.141	79.25
291.371	90.25
291.602	84.25
291.833	95.25
292.064	80.25
292.295	87.25
292.526	68.25
292.757	77.25
292.987	97.25
293.218	91.25
293.449	71.25
293.68	83.25
293.91	73.25
294.141	88.25
294.372	92.25
294.603	90.25
294.833	86.25
295.064	84.25
295.295	65.25
295.525	85.25
295.756	96.25
295.987	88.25
296.217	81.25
296.448	87.25
296.679	75.25
296.909	81.25
297.14	65.25
297.37	82.25
297.601	73.25
297.831	72.25
298.062	91.25
298.292	93.25
298.523	83.25
298.753	76.25
298.984	82.25
299.214	83.25
299.445	72.25
299.675	73.25
299.905	75.25
300.136	84.25
300.366	82.25
300.597	93.25
300.827	78.25
301.057	80.25
301.288	93.25
301.518	82.25
301.748	76.25
301.979	104.25
302.209	85.25
302.439	79.25
302.669	74.25
302.9	84.25
303.13	82.25
303.36	74.25
303.59	73.25
303.82	81.25
304.051	88.25
304.281	87.25
304.511	94.25
304.741	70.25
304.971	69.25
305.201	78.25
305.431	77.25
305.661	73.25
305.891	92.25
306.121	84.25
306.352	87.25
306.582	90.25
306.812	82.25
307.042	92.25
307.272	76.25
307.502	82.25
307.731	94.25
307.961	81.25
308.191	84.25
308.421	78.25
308.651	83.25
308.881	78.25
309.111	69.25
309.341	77.25
309.571	82.25
309.8	75.25
310.03	84.25
310.26	79.25
310.49	79.25
310.72	86.25
310.949	78.25
311.179	81.25
311.409	77.25
311.639	73.25
311.868	71.25
312.098	73.25
312.328	80.25
312.557	82.25
312.787	88.25
313.017	73.25
313.246	71.25
313.476	87.25
313.706	79.25
313.935	91.25
314.165	80.25
314.394	84.25
314.624	83.25
314.853	90.25
315.083	83.25
315.312	98.25
315.542	83.25
315.771	78.25
316.001	82.25
316.23	76.25
316.46	85.25
316.689	89.25
316.919	82.25
317.148	84.25
317.377	72.25
317.607	73.25
317.836	75.25
318.065	78.25
318.295	84.25
318.524	83.25
318.753	96.25
318.983	75.25
319.212	73.25
319.441	81.25
319.67	78.25
319.9	91.25
320.129	82.25
320.358	78.25
320.587	92.25
320.816	69.25
321.046	78.25
321.275	91.25
321.504	73.25
321.733	78.25
321.962	97.25
322.191	88.25
322.42	81.25
322.649	73.25
322.878	77.25
323.108	85.25
323.337	91.25
323.566	83.25
323.795	85.25
324.024	80.25
324.253	82.25
324.482	79.25
324.71	76.25
324.939	84.25
325.168	69.25
325.397	94.25
325.626	84.25
325.855	84.25
326.084	94.25
326.313	75.25
326.542	73.25
326.77	81.25
326.999	79.25
327.228	93.25
327.457	75.25
327.686	77.25
327.914	78.25
328.143	81.25
328.372	97.25
328.6	80.25
328.829	90.25
329.058	79.25
329.287	80.25
329.515	79.25
329.744	68.25
329.972	77.25
330.201	79.25
330.43	75.25
330.658	80.25
330.887	91.25
331.115	89.25
331.344	81.25
331.572	88.25
331.801	72.25
332.03	76.25
332.258	82.25
332.486	89.25
332.715	79.25
332.943	90.25
333.172	95.25
333.4	96.25
333.629	82.25
333.857	91.25
334.085	80.25
334.314	75.25
334.542	79.25
334.771	72.25
334.999	93.25
335.227	76.25
335.455	87.25
335.684	82.25
335.912	80.25
336.14	87.25
336.369	71.25
336.597	76.25
336.825	90.25
337.053	89.25
337.281	87.25
337.51	82.25
337.738	70.25
337.966	83.25
338.194	81.25
338.422	86.25
338.65	80.25
338.878	77.25
339.106	76.25
339.334	84.25
339.562	85.25
339.79	76.25
340.018	77.25
340.246	75.25
340.474	69.25
340.702	84.25
340.93	79.25
341.158	66.25
341.386	79.25
341.614	97.25
341.842	85.25
342.07	80.25
342.298	83.25
342.526	80.25
342.754	91.25
342.981	69.25
343.209	75.25
343.437	89.25
343.665	93.25
343.893	76.25
344.12	89.25
344.348	86.25
344.576	74.25
344.804	89.25
345.031	77.25
345.259	89.25
345.487	90.25
345.714	86.25
345.942	82.25
346.17	78.25
346.397	85.25
346.625	93.25
346.853	95.25
347.08	90.25
347.308	92.25
347.535	84.25
347.763	79.25
347.99	82.25
348.218	94.25
348.445	77.25
348.673	79.25
348.9	84.25
349.128	88.25
349.355	91.25
349.583	75.25
349.81	90.25
350.037	95.25
350.265	75.25
350.492	93.25
350.72	98.25
350.947	85.25
351.174	78.25
351.402	79.25
351.629	77.25
351.856	79.25
352.083	80.25
352.311	87.25
352.538	64.25
352.765	84.25
352.992	75.25
353.22	80.25
353.447	80.25
353.674	78.25
353.901	81.25
354.128	86.25
354.355	66.25
354.583	82.25
354.81	71.25
355.037	85.25
355.264	83.25
355.491	92.25
355.718	75.25
355.945	71.25
356.172	76.25
356.399	77.25
356.626	86.25
356.853	89.25
357.08	69.25
357.307	87.25
357.534	87.25
357.761	84.25
357.988	93.25
358.215	80.25
358.441	81.25
358.668	75.25
358.895	83.25
359.122	78.25
359.349	81.25
359.576	84.25
359.802	89.25
360.029	66.25
360.256	77.25
360.483	90.25
360.709	75.25
360.936	81.25
361.163	83.25
361.39	73.25
361.616	83.25
361.843	87.25
362.07	76.25
362.296	93.25
362.523	76.25
362.749	75.25
362.976	74.25
363.203	81.25
363.429	79.25
363.656	85.25
363.882	77.25
364.109	95.25
364.335	94.25
364.562	74.25
364.788	88.25
365.015	80.25
365.241	79.25
365.468	81.25
365.694	82.25
365.92	77.25
366.147	83.25
366.373	82.25
366.599	65.25
366.826	87.25
367.052	63.25
367.278	91.25
367.505	85.25
367.731	87.25
367.957	91.25
368.184	83.25
368.41	77.25
368.636	79.25
368.862	81.25
369.089	96.25
369.315	75.25
369.541	93.25
369.767	79.25
369.993	95.25
370.219	82.25
370.445	82.25
370.672	76.25
370.898	72.25
371.124	73.25
371.35	80.25
371.576	67.25
371.802	70.25
372.028	81.25
372.254	91.25
372.48	72.25
372.706	68.25
372.932	91.25
373.158	92.25
373.384	72.25
373.61	73.25
373.835	83.25
374.061	87.25
374.287	80.25
374.513	83.25
374.739	86.25
374.965	83.25
375.191	76.25
375.416	83.25
375.642	88.25
375.868	92.25
376.094	72.25
376.319	85.25
376.545	85.25
376.771	80.25
376.997	83.25
377.222	81.25
377.448	84.25
377.674	86.25
377.899	79.25
378.125	81.25
378.35	86.25
378.576	68.25
378.802	70.25
379.027	85.25
379.253	79.25
379.478	90.25
379.704	89.25
379.929	78.25
380.155	94.25
380.38	83.25
380.606	89.25
380.831	75.25
381.057	84.25
381.282	89.25
381.507	82.25
381.733	95.25
381.958	87.25
382.184	65.25
382.409	85.25
382.634	88.25
382.86	68.25
383.085	95.25
383.31	87.25
383.535	73.25
383.761	85.25
383.986	72.25
384.211	83.25
384.436	87.25
384.662	102.25
384.887	68.25
385.112	70.25
385.337	93.25
385.562	79.25
385.787	73.25
386.013	73.25
386.238	79.25
386.463	83.25
386.688	90.25
386.913	51.25
387.138	76.25
387.363	82.25
387.588	85.25
387.813	82.25
388.038	87.25
388.263	78.25
388.488	68.25
388.713	77.25
388.938	79.25
389.163	81.25
389.387	80.25
389.612	62.25
389.837	78.25
390.062	81.25
390.287	84.25
390.512	78.25
390.736	68.25
390.961	81.25
391.186	68.25
391.411	79.25
391.636	67.25
391.86	76.25
392.085	89.25
392.31	71.25
392.534	91.25
392.759	91.25
392.984	73.25
393.208	87.25
393.433	73.25
393.658	79.25
393.882	88.25
394.107	90.25
394.331	76.25
394.556	79.25
394.78	68.25
395.005	76.25
395.229	79.25
395.454	81.25
395.678	89.25
395.903	79.25
396.127	81.25
396.352	94.25
396.576	95.25
396.801	88.25
397.025	63.25
397.249	74.25
397.474	82.25
397.698	76.25
397.922	94.25
398.147	79.25
398.371	82.25
398.595	94.25
398.82	69.25
399.044	75.25
399.268	83.25
399.492	72.25
399.717	89.25
399.941	95.25
400.165	89.25
400.389	88.25
400.613	92.25
400.837	77.25
401.062	80.25
401.286	73.25
401.51	88.25
401.734	70.25
401.958	78.25
402.182	84.25
402.406	83.25
402.63	79.25
402.854	64.25
403.078	91.25
403.302	82.25
403.526	83.25
403.75	75.25
403.974	86.25
404.198	86.25
404.422	72.25
404.645	87.25
404.869	77.25
405.093	80.25
405.317	80.25
405.541	75.25
405.765	82.25
405.988	82.25
406.212	79.25
406.436	76.25
406.66	76.25
406.883	69.25
407.107	87.25
407.331	69.25
407.555	87.25
407.778	71.25
408.002	80.25
408.226	87.25
408.449	68.25
408.673	81.25
408.896	88.25
409.12	89.25
409.344	87.25
409.567	81.25
409.791	79.25
410.014	83.25
410.238	78.25
410.461	87.25
410.685	77.25
410.908	77.25
411.132	63.25
411.355	89.25
411.578	87.25
411.802	73.25
412.025	77.25
412.249	77.25
412.472	74.25
412.695	77.25
412.919	69.25
413.142	86.25
413.365	85.25
413.589	69.25
413.812	92.25
414.035	76.25
414.258	80.25
414.482	84.25
414.705	88.25
414.928	79.25
415.151	81.25
415.374	78.25
415.597	87.25
415.821	92.25
416.044	74.25
416.267	75.25
416.49	93.25
416.713	74.25
416.936	93.25
417.159	92.25
417.382	78.25
417.605	88.25
417.828	81.25
418.051	103.25
418.274	97.25
418.497	75.25
418.72	67.25
418.943	73.25
419.166	71.25
419.389	84.25
419.611	77.25
419.834	79.25
420.057	75.25
420.28	79.25
420.503	89.25
420.726	82.25
420.948	96.25
421.171	83.25
421.394	79.25
421.617	76.25
421.839	79.25
422.062	77.25
422.285	83.25
422.507	76.25
422.73	88.25
422.953	80.25
423.175	67.25
423.398	90.25
423.621	80.25
423.843	83.25
424.066	63.25
424.288	81.25
424.511	76.25
424.733	78.25
424.956	89.25
425.178	83.25
425.401	73.25
425.623	68.25
425.846	71.25
426.068	81.25
426.291	63.25
426.513	60.25
426.735	76.25
426.958	77.25
427.18	88.25
427.402	77.25
427.625	75.25
427.847	84.25
428.069	76.25
428.292	81.25
428.514	86.25
428.736	78.25
428.958	76.25
429.181	81.25
429.403	85.25
429.625	84.25
429.847	83.25
430.069	84.25
430.292	89.25
430.514	66.25
430.736	72.25
430.958	77.25
431.18	68.25
431.402	76.25
431.624	73.25
431.846	81.25
432.068	78.25
432.29	74.25
432.512	78.25
432.734	77.25
432.956	77.25
433.178	92.25
433.4	88.25
433.622	78.25
433.844	82.25
434.066	103.25
434.287	84.25
434.509	77.25
434.731	77.25
434.953	81.25
435.175	75.25
435.397	90.25
435.618	76.25
435.84	89.25
436.062	87.25
436.284	76.25
436.505	85.25
436.727	105.25
436.949	78.25
437.17	66.25
437.392	75.25
437.614	87.25
437.835	79.25
438.057	78.25
438.278	81.25
438.5	78.25
438.721	75.25
438.943	82.25
439.165	78.25
439.386	88.25
439.608	70.25
439.829	84.25
440.05	71.25
440.272	83.25
440.493	79.25
440.715	67.25
440.936	87.25
441.158	87.25
441.379	89.25
441.6	83.25
441.822	76.25
442.043	73.25
442.264	67.25
442.486	77.25
442.707	77.25
442.928	79.25
443.149	68.25
443.371	82.25
443.592	74.25
443.813	75.25
444.034	78.25
444.255	84.25
444.476	83.25
444.698	72.25
444.919	70.25
445.14	142.25
445.361	109.25
445.582	90.25
445.803	79.25
446.024	81.25
446.245	89.25
446.466	69.25
446.687	89.25
446.908	81.25
447.129	61.25
447.35	83.25
447.571	85.25
447.792	85.25
448.013	85.25
448.234	87.25
448.455	79.25
448.675	95.25
448.896	83.25
449.117	84.25
449.338	68.25
449.559	79.25
449.779	76.25
450	93.25
450.221	88.25
450.442	89.25
450.662	78.25
450.883	88.25
451.104	83.25
451.324	75.25
451.545	74.25
451.766	91.25
451.986	73.25
452.207	83.25
452.428	80.25
452.648	93.25
452.869	92.25
453.089	91.25
453.31	82.25
453.53	68.25
453.751	89.25
453.971	81.25
454.192	76.25
454.412	68.25
454.633	68.25
454.853	86.25
455.073	87.25
455.294	79.25
455.514	82.25
455.734	82.25
455.955	70.25
456.175	79.25
456.395	75.25
456.616	93.25
456.836	73.25
457.056	73.25
457.276	89.25
457.497	78.25
457.717	73.25
457.937	79.25
458.157	75.25
458.377	85.25
458.598	82.25
458.818	79.25
459.038	79.25
459.258	74.25
459.478	68.25
459.698	83.25
459.918	83.25
460.138	62.25
460.358	77.25
460.578	89.25
460.798	70.25
461.018	72.25
461.238	77.25
461.458	88.25
461.678	73.25
461.898	78.25
462.118	87.25
462.338	97.25
462.558	84.25
462.777	75.25
462.997	72.25
463.217	77.25
463.437	83.25
463.657	72.25
463.876	70.25
464.096	74.25
464.316	87.25
464.536	81.25
464.755	88.25
464.975	76.25
465.195	78.25
465.414	87.25
465.634	67.25
465.854	83.25
466.073	75.25
466.293	82.25
466.512	98.25
466.732	68.25
466.951	63.25
467.171	77.25
467.391	87.25
467.61	91.25
467.829	76.25
468.049	61.25
468.268	82.25
468.488	90.25
468.707	82.25
468.927	73.25
469.146	84.25
469.365	80.25
469.585	75.25
469.804	86.25
470.023	82.25
470.243	75.25
470.462	83.25
470.681	57.25
470.901	59.25
471.12	67.25
471.339	80.25
471.558	74.25
471.777	73.25
471.997	86.25
472.216	69.25
472.435	65.25
472.654	74.25
472.873	85.25
473.092	84.25
473.311	92.25
473.53	79.25
473.749	96.25
473.968	86.25
474.187	71.25
474.406	89.25
474.625	87.25
474.844	84.25
475.063	88.25
475.282	73.25
475.501	84.25
475.72	92.25
475.939	84.25
476.158	87.25
476.377	75.25
476.596	73.25
476.814	79.25
477.033	75.25
477.252	92.25
477.471	85.25
477.69	85.25
477.908	82.25
478.127	83.25
478.346	93.25
478.564	81.25
478.783	74.25
479.002	80.25
479.22	76.25
479.439	87.25
479.658	75.25
479.876	65.25
480.095	79.25
480.313	65.25
480.532	95.25
480.751	73.25
480.969	61.25
481.188	78.25
481.406	81.25
481.624	87.25
481.843	76.25
482.061	87.25
482.28	84.25
482.498	82.25
482.717	79.25
482.935	81.25
483.153	85.25
483.372	76.25
483.59	86.25
483.808	89.25
484.027	84.25
484.245	87.25
484.463	86.25
484.681	90.25
484.9	85.25
485.118	83.25
485.336	72.25
485.554	74.25
485.772	78.25
485.99	80.25
486.209	81.25
486.427	77.25
486.645	77.25
486.863	80.25
487.081	75.25
487.299	75.25
487.517	87.25
487.735	92.25
487.953	75.25
488.171	87.25
488.389	68.25
488.607	71.25
488.825	79.25
489.043	90.25
489.261	75.25
489.479	81.25
489.696	67.25
489.914	78.25
490.132	81.25
490.35	83.25
490.568	73.25
490.786	76.25
491.003	80.25
491.221	77.25
491.439	71.25
491.657	68.25
491.874	84.25
492.092	84.25
492.31	83.25
492.527	96.25
492.745	80.25
492.963	69.25
493.18	83.25
493.398	80.25
493.615	68.25
493.833	81.25
494.05	79.25
494.268	84.25
494.485	96.25
494.703	81.25
494.92	83.25
495.138	82.25
495.355	90.25
495.573	81.25
495.79	78.25
496.008	67.25
496.225	83.25
496.442	81.25
496.66	92.25
496.877	82.25
497.094	70.25
497.312	100.25
497.529	87.25
497.746	84.25
497.963	74.25
498.181	81.25
498.398	72.25
498.615	82.25
498.832	80.25
499.049	88.25
499.267	84.25
499.484	88.25
499.701	81.25
499.918	73.25
500.135	68.25
500.352	71.25
500.569	77.25
500.786	73.25
501.003	81.25
501.22	79.25
501.437	89.25
501.654	89.25
501.871	73.25
502.088	85.25
502.305	69.25
502.522	81.25
502.739	70.25
502.956	73.25
503.172	80.25
503.389	75.25
503.606	80.25
503.823	92.25
504.04	79.25
504.256	81.25
504.473	85.25
504.69	87.25
504.907	74.25
505.123	85.25
505.34	84.25
505.557	83.25
505.773	77.25
505.99	79.25
506.207	97.25
506.423	76.25
506.64	92.25
506.856	71.25
507.073	74.25
507.289	84.25
507.506	81.25
507.722	89.25
507.939	88.25
508.155	91.25
508.372	79.25
508.588	89.25
508.805	81.25
509.021	82.25
509.238	71.25
509.454	81.25
509.67	75.25
509.887	80.25
510.103	92.25
510.319	93.25
510.536	82.25
510.752	84.25
510.968	87.25
511.184	81.25
511.401	88.25
511.617	74.25
511.833	83.25
512.049	83.25
512.265	78.25
512.481	77.25
512.698	93.25
512.914	85.25
513.13	82.25
513.346	94.25
513.562	77.25
513.778	79.25
513.994	77.25
514.21	69.25
514.426	83.25
514.642	67.25
514.858	88.25
515.074	84.25
515.29	83.25
515.506	77.25
515.721	84.25
515.937	77.25
516.153	90.25
516.369	75.25
516.585	73.25
516.801	86.25
517.016	72.25
517.232	88.25
517.448	77.25
517.664	89.25
517.879	73.25
518.095	91.25
518.311	77.25
518.527	77.25
518.742	77.25
518.958	82.25
519.173	84.25
519.389	87.25
519.605	81.25
519.82	69.25
520.036	85.25
520.251	84.25
