Data from Background_2_HRD10591_00053.txt Node
Date: Wed Nov 05 14:47:23 EST 2025
User: Yrep
Spectrometer: HR+D1059
Trigger mode: 1
Integration Time (sec): 1.000000E-1
Scans to average: 1
Electric dark correction enabled: true
Nonlinearity correction enabled: false
Boxcar width: 0
XAxis mode: Wavelengths
Number of Pixels in Spectrum: 2048
>>>>>Begin Spectral Data<<<<<
223.165	-7.44
223.4	-7.44
223.635	-7.44
223.869	-3.44
224.104	-3.44
224.338	-12.44
224.573	-23.44
224.808	-4.44
225.042	-19.44
225.277	-7.44
225.511	-11.44
225.746	-2.44
225.98	16.56
226.215	3.56
226.449	11.56
226.683	21.56
226.918	28.56
227.152	13.56
227.387	30.56
227.621	27.56
227.856	48.56
228.09	48.56
228.324	51.56
228.559	64.56
228.793	53.56
229.027	74.56
229.262	56.56
229.496	62.56
229.73	74.56
229.964	62.56
230.199	63.56
230.433	57.56
230.667	70.56
230.901	66.56
231.136	87.56
231.37	72.56
231.604	82.56
231.838	82.56
232.072	86.56
232.306	77.56
232.541	98.56
232.775	86.56
233.009	82.56
233.243	89.56
233.477	75.56
233.711	83.56
233.945	68.56
234.179	73.56
234.413	78.56
234.647	84.56
234.881	83.56
235.115	78.56
235.349	74.56
235.583	74.56
235.817	67.56
236.051	78.56
236.285	78.56
236.519	78.56
236.753	71.56
236.987	82.56
237.221	76.56
237.455	66.56
237.689	74.56
237.922	74.56
238.156	80.56
238.39	74.56
238.624	66.56
238.858	89.56
239.091	75.56
239.325	84.56
239.559	76.56
239.793	71.56
240.027	79.56
240.26	73.56
240.494	64.56
240.728	74.56
240.961	72.56
241.195	79.56
241.429	78.56
241.662	81.56
241.896	78.56
242.13	82.56
242.363	69.56
242.597	95.56
242.83	88.56
243.064	79.56
243.298	84.56
243.531	68.56
243.765	80.56
243.998	74.56
244.232	85.56
244.465	86.56
244.699	68.56
244.932	66.56
245.166	80.56
245.399	95.56
245.633	78.56
245.866	76.56
246.099	84.56
246.333	78.56
246.566	84.56
246.8	75.56
247.033	72.56
247.266	95.56
247.5	70.56
247.733	73.56
247.966	79.56
248.2	75.56
248.433	78.56
248.666	66.56
248.899	80.56
249.133	70.56
249.366	68.56
249.599	71.56
249.832	86.56
250.066	79.56
250.299	66.56
250.532	68.56
250.765	77.56
250.998	72.56
251.231	80.56
251.465	90.56
251.698	66.56
251.931	69.56
252.164	81.56
252.397	97.56
252.63	81.56
252.863	73.56
253.096	61.56
253.329	72.56
253.562	77.56
253.795	72.56
254.028	75.56
254.261	89.56
254.494	90.56
254.727	82.56
254.96	75.56
255.193	79.56
255.426	67.56
255.659	83.56
255.892	82.56
256.124	77.56
256.357	78.56
256.59	71.56
256.823	90.56
257.056	85.56
257.289	75.56
257.521	64.56
257.754	76.56
257.987	78.56
258.22	88.56
258.452	81.56
258.685	65.56
258.918	82.56
259.151	81.56
259.383	98.56
259.616	87.56
259.849	76.56
260.081	87.56
260.314	83.56
260.547	82.56
260.779	80.56
261.012	81.56
261.244	71.56
261.477	77.56
261.71	84.56
261.942	85.56
262.175	87.56
262.407	74.56
262.64	88.56
262.872	86.56
263.105	77.56
263.337	90.56
263.57	82.56
263.802	82.56
264.035	85.56
264.267	74.56
264.499	82.56
264.732	94.56
264.964	75.56
265.197	74.56
265.429	83.56
265.661	82.56
265.894	86.56
266.126	81.56
266.358	66.56
266.591	86.56
266.823	93.56
267.055	71.56
267.287	74.56
267.52	89.56
267.752	73.56
267.984	75.56
268.216	82.56
268.448	99.56
268.681	79.56
268.913	76.56
269.145	88.56
269.377	90.56
269.609	80.56
269.841	77.56
270.073	86.56
270.306	87.56
270.538	72.56
270.77	78.56
271.002	79.56
271.234	71.56
271.466	76.56
271.698	92.56
271.93	78.56
272.162	88.56
272.394	76.56
272.626	82.56
272.858	78.56
273.09	85.56
273.322	80.56
273.553	75.56
273.785	83.56
274.017	71.56
274.249	89.56
274.481	92.56
274.713	77.56
274.945	85.56
275.176	83.56
275.408	76.56
275.64	74.56
275.872	89.56
276.104	78.56
276.335	76.56
276.567	77.56
276.799	81.56
277.031	81.56
277.262	79.56
277.494	110.56
277.726	76.56
277.957	79.56
278.189	68.56
278.421	78.56
278.652	66.56
278.884	77.56
279.115	94.56
279.347	89.56
279.579	99.56
279.81	76.56
280.042	74.56
280.273	83.56
280.505	81.56
280.736	83.56
280.968	82.56
281.199	82.56
281.431	84.56
281.662	98.56
281.894	71.56
282.125	80.56
282.356	90.56
282.588	84.56
282.819	73.56
283.051	75.56
283.282	87.56
283.513	84.56
283.745	78.56
283.976	80.56
284.207	78.56
284.439	92.56
284.67	78.56
284.901	94.56
285.132	79.56
285.364	84.56
285.595	78.56
285.826	78.56
286.057	103.56
286.288	78.56
286.52	78.56
286.751	74.56
286.982	88.56
287.213	62.56
287.444	79.56
287.675	84.56
287.906	78.56
288.138	79.56
288.369	86.56
288.6	86.56
288.831	72.56
289.062	107.56
289.293	68.56
289.524	76.56
289.755	76.56
289.986	89.56
290.217	78.56
290.448	87.56
290.679	88.56
290.91	86.56
291.141	95.56
291.371	78.56
291.602	74.56
291.833	73.56
292.064	83.56
292.295	88.56
292.526	87.56
292.757	87.56
292.987	84.56
293.218	88.56
293.449	93.56
293.68	82.56
293.91	81.56
294.141	80.56
294.372	75.56
294.603	82.56
294.833	74.56
295.064	87.56
295.295	74.56
295.525	94.56
295.756	72.56
295.987	84.56
296.217	86.56
296.448	79.56
296.679	86.56
296.909	93.56
297.14	71.56
297.37	67.56
297.601	86.56
297.831	86.56
298.062	68.56
298.292	82.56
298.523	80.56
298.753	86.56
298.984	79.56
299.214	86.56
299.445	90.56
299.675	87.56
299.905	83.56
300.136	97.56
300.366	77.56
300.597	83.56
300.827	95.56
301.057	88.56
301.288	77.56
301.518	92.56
301.748	102.56
301.979	108.56
302.209	77.56
302.439	82.56
302.669	90.56
302.9	79.56
303.13	95.56
303.36	76.56
303.59	82.56
303.82	74.56
304.051	82.56
304.281	86.56
304.511	94.56
304.741	73.56
304.971	82.56
305.201	85.56
305.431	82.56
305.661	84.56
305.891	83.56
306.121	100.56
306.352	81.56
306.582	84.56
306.812	88.56
307.042	91.56
307.272	85.56
307.502	60.56
307.731	71.56
307.961	69.56
308.191	88.56
308.421	84.56
308.651	80.56
308.881	77.56
309.111	83.56
309.341	63.56
309.571	88.56
309.8	94.56
310.03	98.56
310.26	75.56
310.49	99.56
310.72	83.56
310.949	81.56
311.179	100.56
311.409	83.56
311.639	92.56
311.868	90.56
312.098	85.56
312.328	93.56
312.557	76.56
312.787	90.56
313.017	77.56
313.246	92.56
313.476	91.56
313.706	87.56
313.935	95.56
314.165	80.56
314.394	88.56
314.624	82.56
314.853	75.56
315.083	81.56
315.312	81.56
315.542	93.56
315.771	79.56
316.001	88.56
316.23	68.56
316.46	96.56
316.689	77.56
316.919	78.56
317.148	85.56
317.377	83.56
317.607	78.56
317.836	74.56
318.065	90.56
318.295	79.56
318.524	75.56
318.753	82.56
318.983	91.56
319.212	88.56
319.441	76.56
319.67	93.56
319.9	82.56
320.129	76.56
320.358	82.56
320.587	86.56
320.816	89.56
321.046	81.56
321.275	88.56
321.504	91.56
321.733	87.56
321.962	75.56
322.191	92.56
322.42	86.56
322.649	68.56
322.878	75.56
323.108	97.56
323.337	74.56
323.566	85.56
323.795	86.56
324.024	76.56
324.253	80.56
324.482	90.56
324.71	94.56
324.939	84.56
325.168	77.56
325.397	72.56
325.626	81.56
325.855	86.56
326.084	72.56
326.313	83.56
326.542	104.56
326.77	74.56
326.999	83.56
327.228	74.56
327.457	83.56
327.686	89.56
327.914	84.56
328.143	83.56
328.372	89.56
328.6	92.56
328.829	84.56
329.058	85.56
329.287	77.56
329.515	78.56
329.744	90.56
329.972	92.56
330.201	70.56
330.43	98.56
330.658	74.56
330.887	74.56
331.115	91.56
331.344	85.56
331.572	82.56
331.801	93.56
332.03	80.56
332.258	78.56
332.486	74.56
332.715	78.56
332.943	96.56
333.172	60.56
333.4	88.56
333.629	92.56
333.857	90.56
334.085	83.56
334.314	84.56
334.542	80.56
334.771	80.56
334.999	71.56
335.227	76.56
335.455	79.56
335.684	72.56
335.912	81.56
336.14	85.56
336.369	77.56
336.597	78.56
336.825	95.56
337.053	81.56
337.281	75.56
337.51	79.56
337.738	79.56
337.966	85.56
338.194	80.56
338.422	75.56
338.65	90.56
338.878	78.56
339.106	72.56
339.334	87.56
339.562	86.56
339.79	81.56
340.018	79.56
340.246	76.56
340.474	83.56
340.702	95.56
340.93	83.56
341.158	91.56
341.386	97.56
341.614	77.56
341.842	72.56
342.07	76.56
342.298	76.56
342.526	69.56
342.754	83.56
342.981	78.56
343.209	89.56
343.437	94.56
343.665	87.56
343.893	83.56
344.12	84.56
344.348	75.56
344.576	72.56
344.804	78.56
345.031	84.56
345.259	85.56
345.487	94.56
345.714	74.56
345.942	79.56
346.17	74.56
346.397	72.56
346.625	85.56
346.853	90.56
347.08	81.56
347.308	84.56
347.535	74.56
347.763	72.56
347.99	80.56
348.218	84.56
348.445	74.56
348.673	76.56
348.9	74.56
349.128	80.56
349.355	78.56
349.583	84.56
349.81	70.56
350.037	83.56
350.265	82.56
350.492	80.56
350.72	72.56
350.947	84.56
351.174	74.56
351.402	75.56
351.629	85.56
351.856	70.56
352.083	82.56
352.311	82.56
352.538	80.56
352.765	82.56
352.992	89.56
353.22	76.56
353.447	84.56
353.674	69.56
353.901	80.56
354.128	76.56
354.355	79.56
354.583	74.56
354.81	89.56
355.037	78.56
355.264	100.56
355.491	76.56
355.718	85.56
355.945	83.56
356.172	89.56
356.399	72.56
356.626	69.56
356.853	70.56
357.08	90.56
357.307	84.56
357.534	84.56
357.761	86.56
357.988	88.56
358.215	79.56
358.441	95.56
358.668	73.56
358.895	75.56
359.122	90.56
359.349	83.56
359.576	70.56
359.802	68.56
360.029	80.56
360.256	76.56
360.483	88.56
360.709	87.56
360.936	76.56
361.163	76.56
361.39	72.56
361.616	87.56
361.843	68.56
362.07	74.56
362.296	85.56
362.523	87.56
362.749	76.56
362.976	89.56
363.203	86.56
363.429	71.56
363.656	76.56
363.882	75.56
364.109	93.56
364.335	76.56
364.562	86.56
364.788	71.56
365.015	77.56
365.241	73.56
365.468	66.56
365.694	90.56
365.92	67.56
366.147	81.56
366.373	84.56
366.599	89.56
366.826	88.56
367.052	79.56
367.278	87.56
367.505	77.56
367.731	94.56
367.957	84.56
368.184	75.56
368.41	74.56
368.636	86.56
368.862	83.56
369.089	80.56
369.315	82.56
369.541	74.56
369.767	64.56
369.993	89.56
370.219	86.56
370.445	77.56
370.672	76.56
370.898	79.56
371.124	58.56
371.35	78.56
371.576	77.56
371.802	72.56
372.028	74.56
372.254	78.56
372.48	84.56
372.706	69.56
372.932	94.56
373.158	74.56
373.384	83.56
373.61	86.56
373.835	66.56
374.061	67.56
374.287	82.56
374.513	72.56
374.739	72.56
374.965	77.56
375.191	82.56
375.416	84.56
375.642	81.56
375.868	86.56
376.094	77.56
376.319	69.56
376.545	76.56
376.771	80.56
376.997	81.56
377.222	81.56
377.448	71.56
377.674	82.56
377.899	80.56
378.125	89.56
378.35	80.56
378.576	78.56
378.802	89.56
379.027	76.56
379.253	77.56
379.478	78.56
379.704	74.56
379.929	73.56
380.155	78.56
380.38	77.56
380.606	78.56
380.831	92.56
381.057	82.56
381.282	63.56
381.507	91.56
381.733	88.56
381.958	77.56
382.184	74.56
382.409	84.56
382.634	88.56
382.86	73.56
383.085	89.56
383.31	86.56
383.535	94.56
383.761	88.56
383.986	80.56
384.211	64.56
384.436	69.56
384.662	64.56
384.887	78.56
385.112	80.56
385.337	79.56
385.562	83.56
385.787	72.56
386.013	84.56
386.238	85.56
386.463	79.56
386.688	95.56
386.913	90.56
387.138	76.56
387.363	69.56
387.588	81.56
387.813	88.56
388.038	68.56
388.263	74.56
388.488	82.56
388.713	74.56
388.938	85.56
389.163	74.56
389.387	68.56
389.612	75.56
389.837	82.56
390.062	88.56
390.287	78.56
390.512	81.56
390.736	76.56
390.961	86.56
391.186	75.56
391.411	78.56
391.636	80.56
391.86	69.56
392.085	78.56
392.31	76.56
392.534	67.56
392.759	90.56
392.984	80.56
393.208	69.56
393.433	78.56
393.658	68.56
393.882	79.56
394.107	70.56
394.331	85.56
394.556	81.56
394.78	76.56
395.005	89.56
395.229	80.56
395.454	84.56
395.678	87.56
395.903	76.56
396.127	79.56
396.352	79.56
396.576	74.56
396.801	77.56
397.025	81.56
397.249	83.56
397.474	69.56
397.698	77.56
397.922	85.56
398.147	80.56
398.371	74.56
398.595	79.56
398.82	76.56
399.044	87.56
399.268	63.56
399.492	66.56
399.717	83.56
399.941	69.56
400.165	77.56
400.389	77.56
400.613	78.56
400.837	90.56
401.062	73.56
401.286	81.56
401.51	76.56
401.734	74.56
401.958	75.56
402.182	78.56
402.406	70.56
402.63	78.56
402.854	77.56
403.078	91.56
403.302	86.56
403.526	82.56
403.75	77.56
403.974	63.56
404.198	72.56
404.422	85.56
404.645	70.56
404.869	67.56
405.093	72.56
405.317	76.56
405.541	99.56
405.765	86.56
405.988	68.56
406.212	82.56
406.436	80.56
406.66	85.56
406.883	64.56
407.107	87.56
407.331	92.56
407.555	84.56
407.778	72.56
408.002	73.56
408.226	80.56
408.449	74.56
408.673	71.56
408.896	83.56
409.12	97.56
409.344	91.56
409.567	74.56
409.791	80.56
410.014	68.56
410.238	70.56
410.461	76.56
410.685	63.56
410.908	76.56
411.132	76.56
411.355	73.56
411.578	73.56
411.802	88.56
412.025	70.56
412.249	78.56
412.472	82.56
412.695	78.56
412.919	76.56
413.142	82.56
413.365	84.56
413.589	78.56
413.812	79.56
414.035	83.56
414.258	91.56
414.482	84.56
414.705	73.56
414.928	65.56
415.151	62.56
415.374	75.56
415.597	74.56
415.821	93.56
416.044	80.56
416.267	66.56
416.49	78.56
416.713	79.56
416.936	68.56
417.159	80.56
417.382	75.56
417.605	74.56
417.828	87.56
418.051	85.56
418.274	75.56
418.497	91.56
418.72	91.56
418.943	81.56
419.166	77.56
419.389	86.56
419.611	81.56
419.834	69.56
420.057	74.56
420.28	77.56
420.503	93.56
420.726	68.56
420.948	79.56
421.171	75.56
421.394	89.56
421.617	58.56
421.839	70.56
422.062	67.56
422.285	80.56
422.507	76.56
422.73	77.56
422.953	80.56
423.175	78.56
423.398	71.56
423.621	76.56
423.843	71.56
424.066	72.56
424.288	74.56
424.511	81.56
424.733	71.56
424.956	74.56
425.178	82.56
425.401	74.56
425.623	93.56
425.846	74.56
426.068	75.56
426.291	86.56
426.513	75.56
426.735	81.56
426.958	81.56
427.18	87.56
427.402	89.56
427.625	74.56
427.847	82.56
428.069	87.56
428.292	74.56
428.514	83.56
428.736	84.56
428.958	83.56
429.181	65.56
429.403	69.56
429.625	80.56
429.847	70.56
430.069	74.56
430.292	82.56
430.514	68.56
430.736	86.56
430.958	80.56
431.18	77.56
431.402	76.56
431.624	72.56
431.846	71.56
432.068	84.56
432.29	67.56
432.512	81.56
432.734	73.56
432.956	72.56
433.178	95.56
433.4	83.56
433.622	84.56
433.844	89.56
434.066	82.56
434.287	79.56
434.509	86.56
434.731	68.56
434.953	68.56
435.175	75.56
435.397	78.56
435.618	82.56
435.84	79.56
436.062	82.56
436.284	64.56
436.505	76.56
436.727	69.56
436.949	80.56
437.17	87.56
437.392	73.56
437.614	75.56
437.835	83.56
438.057	81.56
438.278	72.56
438.5	85.56
438.721	82.56
438.943	81.56
439.165	71.56
439.386	82.56
439.608	80.56
439.829	76.56
440.05	71.56
440.272	92.56
440.493	84.56
440.715	76.56
440.936	84.56
441.158	91.56
441.379	82.56
441.6	82.56
441.822	74.56
442.043	81.56
442.264	65.56
442.486	80.56
442.707	66.56
442.928	78.56
443.149	67.56
443.371	86.56
443.592	81.56
443.813	82.56
444.034	69.56
444.255	80.56
444.476	71.56
444.698	80.56
444.919	88.56
445.14	142.56
445.361	113.56
445.582	75.56
445.803	60.56
446.024	82.56
446.245	67.56
446.466	68.56
446.687	66.56
446.908	78.56
447.129	90.56
447.35	79.56
447.571	71.56
447.792	82.56
448.013	73.56
448.234	65.56
448.455	86.56
448.675	68.56
448.896	81.56
449.117	80.56
449.338	78.56
449.559	91.56
449.779	76.56
450	87.56
450.221	76.56
450.442	72.56
450.662	81.56
450.883	78.56
451.104	76.56
451.324	102.56
451.545	78.56
451.766	83.56
451.986	81.56
452.207	90.56
452.428	81.56
452.648	78.56
452.869	76.56
453.089	70.56
453.31	70.56
453.53	62.56
453.751	71.56
453.971	82.56
454.192	80.56
454.412	76.56
454.633	69.56
454.853	63.56
455.073	70.56
455.294	68.56
455.514	97.56
455.734	78.56
455.955	82.56
456.175	77.56
456.395	79.56
456.616	96.56
456.836	80.56
457.056	80.56
457.276	76.56
457.497	81.56
457.717	72.56
457.937	82.56
458.157	81.56
458.377	92.56
458.598	75.56
458.818	68.56
459.038	72.56
459.258	85.56
459.478	85.56
459.698	88.56
459.918	70.56
460.138	70.56
460.358	63.56
460.578	76.56
460.798	75.56
461.018	88.56
461.238	76.56
461.458	88.56
461.678	91.56
461.898	86.56
462.118	82.56
462.338	82.56
462.558	66.56
462.777	72.56
462.997	84.56
463.217	68.56
463.437	86.56
463.657	76.56
463.876	83.56
464.096	81.56
464.316	84.56
464.536	81.56
464.755	77.56
464.975	76.56
465.195	87.56
465.414	70.56
465.634	77.56
465.854	78.56
466.073	78.56
466.293	71.56
466.512	60.56
466.732	79.56
466.951	74.56
467.171	66.56
467.391	71.56
467.61	78.56
467.829	63.56
468.049	86.56
468.268	75.56
468.488	89.56
468.707	92.56
468.927	88.56
469.146	72.56
469.365	89.56
469.585	86.56
469.804	83.56
470.023	83.56
470.243	78.56
470.462	68.56
470.681	78.56
470.901	69.56
471.12	80.56
471.339	76.56
471.558	87.56
471.777	80.56
471.997	78.56
472.216	76.56
472.435	86.56
472.654	93.56
472.873	80.56
473.092	84.56
473.311	81.56
473.53	67.56
473.749	89.56
473.968	89.56
474.187	93.56
474.406	75.56
474.625	84.56
474.844	66.56
475.063	82.56
475.282	82.56
475.501	87.56
475.72	94.56
475.939	77.56
476.158	84.56
476.377	65.56
476.596	76.56
476.814	67.56
477.033	89.56
477.252	78.56
477.471	86.56
477.69	72.56
477.908	56.56
478.127	82.56
478.346	80.56
478.564	79.56
478.783	86.56
479.002	91.56
479.22	74.56
479.439	75.56
479.658	81.56
479.876	81.56
480.095	77.56
480.313	97.56
480.532	92.56
480.751	63.56
480.969	68.56
481.188	68.56
481.406	88.56
481.624	66.56
481.843	66.56
482.061	77.56
482.28	77.56
482.498	74.56
482.717	81.56
482.935	77.56
483.153	75.56
483.372	86.56
483.59	72.56
483.808	76.56
484.027	99.56
484.245	87.56
484.463	80.56
484.681	78.56
484.9	89.56
485.118	80.56
485.336	75.56
485.554	74.56
485.772	75.56
485.99	84.56
486.209	78.56
486.427	72.56
486.645	79.56
486.863	83.56
487.081	71.56
487.299	90.56
487.517	90.56
487.735	89.56
487.953	77.56
488.171	87.56
488.389	79.56
488.607	92.56
488.825	54.56
489.043	64.56
489.261	87.56
489.479	82.56
489.696	78.56
489.914	67.56
490.132	78.56
490.35	62.56
490.568	80.56
490.786	73.56
491.003	92.56
491.221	89.56
491.439	77.56
491.657	79.56
491.874	74.56
492.092	80.56
492.31	95.56
492.527	82.56
492.745	75.56
492.963	78.56
493.18	79.56
493.398	86.56
493.615	74.56
493.833	76.56
494.05	78.56
494.268	82.56
494.485	69.56
494.703	83.56
494.92	80.56
495.138	77.56
495.355	73.56
495.573	91.56
495.79	85.56
496.008	70.56
496.225	83.56
496.442	83.56
496.66	82.56
496.877	66.56
497.094	79.56
497.312	66.56
497.529	83.56
497.746	76.56
497.963	89.56
498.181	85.56
498.398	74.56
498.615	82.56
498.832	63.56
499.049	76.56
499.267	78.56
499.484	88.56
499.701	78.56
499.918	74.56
500.135	76.56
500.352	71.56
500.569	81.56
500.786	91.56
501.003	82.56
501.22	82.56
501.437	88.56
501.654	92.56
501.871	90.56
502.088	88.56
502.305	85.56
502.522	86.56
502.739	98.56
502.956	87.56
503.172	73.56
503.389	86.56
503.606	88.56
503.823	90.56
504.04	87.56
504.256	84.56
504.473	75.56
504.69	72.56
504.907	94.56
505.123	76.56
505.34	83.56
505.557	82.56
505.773	74.56
505.99	86.56
506.207	84.56
506.423	80.56
506.64	80.56
506.856	95.56
507.073	65.56
507.289	87.56
507.506	76.56
507.722	82.56
507.939	90.56
508.155	85.56
508.372	70.56
508.588	82.56
508.805	84.56
509.021	83.56
509.238	93.56
509.454	82.56
509.67	80.56
509.887	80.56
510.103	73.56
510.319	76.56
510.536	82.56
510.752	80.56
510.968	68.56
511.184	71.56
511.401	72.56
511.617	84.56
511.833	62.56
512.049	82.56
512.265	78.56
512.481	89.56
512.698	86.56
512.914	82.56
513.13	88.56
513.346	78.56
513.562	76.56
513.778	83.56
513.994	83.56
514.21	82.56
514.426	88.56
514.642	79.56
514.858	55.56
515.074	70.56
515.29	82.56
515.506	85.56
515.721	79.56
515.937	88.56
516.153	74.56
516.369	78.56
516.585	64.56
516.801	83.56
517.016	99.56
517.232	76.56
517.448	89.56
517.664	77.56
517.879	87.56
518.095	89.56
518.311	87.56
518.527	73.56
518.742	78.56
518.958	79.56
519.173	89.56
519.389	87.56
519.605	94.56
519.82	88.56
520.036	84.56
