Data from Background_2_HRD10591_00020.txt Node
Date: Wed Nov 05 14:47:07 EST 2025
User: Yrep
Spectrometer: HR+D1059
Trigger mode: 1
Integration Time (sec): 1.000000E-1
Scans to average: 1
Electric dark correction enabled: true
Nonlinearity correction enabled: false
Boxcar width: 0
XAxis mode: Wavelengths
Number of Pixels in Spectrum: 2048
>>>>>Begin Spectral Data<<<<<
223.165	-24.12
223.4	-24.12
223.635	-24.12
223.869	-25.12
224.104	-21.12
224.338	-12.12
224.573	-17.12
224.808	-8.12
225.042	-5.12
225.277	6.88
225.511	-12.12
225.746	2.88
225.98	-2.12
226.215	15.88
226.449	27.88
226.683	32.88
226.918	22.88
227.152	17.88
227.387	27.88
227.621	38.88
227.856	40.88
228.09	38.88
228.324	44.88
228.559	48.88
228.793	55.88
229.027	60.88
229.262	59.88
229.496	73.88
229.73	54.88
229.964	48.88
230.199	80.88
230.433	61.88
230.667	81.88
230.901	74.88
231.136	77.88
231.37	81.88
231.604	78.88
231.838	68.88
232.072	74.88
232.306	88.88
232.541	77.88
232.775	85.88
233.009	80.88
233.243	63.88
233.477	65.88
233.711	91.88
233.945	77.88
234.179	73.88
234.413	68.88
234.647	72.88
234.881	74.88
235.115	82.88
235.349	75.88
235.583	71.88
235.817	81.88
236.051	80.88
236.285	74.88
236.519	88.88
236.753	77.88
236.987	86.88
237.221	77.88
237.455	94.88
237.689	76.88
237.922	67.88
238.156	76.88
238.39	73.88
238.624	86.88
238.858	80.88
239.091	75.88
239.325	71.88
239.559	75.88
239.793	69.88
240.027	81.88
240.26	72.88
240.494	59.88
240.728	80.88
240.961	75.88
241.195	77.88
241.429	77.88
241.662	81.88
241.896	76.88
242.13	73.88
242.363	75.88
242.597	81.88
242.83	80.88
243.064	68.88
243.298	63.88
243.531	87.88
243.765	73.88
243.998	55.88
244.232	76.88
244.465	73.88
244.699	76.88
244.932	77.88
245.166	68.88
245.399	79.88
245.633	67.88
245.866	89.88
246.099	81.88
246.333	73.88
246.566	85.88
246.8	75.88
247.033	71.88
247.266	81.88
247.5	90.88
247.733	73.88
247.966	79.88
248.2	75.88
248.433	94.88
248.666	72.88
248.899	77.88
249.133	77.88
249.366	87.88
249.599	67.88
249.832	77.88
250.066	73.88
250.299	67.88
250.532	91.88
250.765	78.88
250.998	81.88
251.231	66.88
251.465	80.88
251.698	74.88
251.931	68.88
252.164	65.88
252.397	69.88
252.63	75.88
252.863	82.88
253.096	82.88
253.329	85.88
253.562	72.88
253.795	80.88
254.028	63.88
254.261	69.88
254.494	91.88
254.727	66.88
254.96	76.88
255.193	78.88
255.426	82.88
255.659	75.88
255.892	88.88
256.124	76.88
256.357	78.88
256.59	66.88
256.823	87.88
257.056	91.88
257.289	76.88
257.521	85.88
257.754	75.88
257.987	85.88
258.22	82.88
258.452	73.88
258.685	80.88
258.918	81.88
259.151	83.88
259.383	91.88
259.616	69.88
259.849	79.88
260.081	71.88
260.314	74.88
260.547	91.88
260.779	76.88
261.012	77.88
261.244	70.88
261.477	90.88
261.71	61.88
261.942	88.88
262.175	79.88
262.407	78.88
262.64	82.88
262.872	79.88
263.105	83.88
263.337	73.88
263.57	79.88
263.802	78.88
264.035	81.88
264.267	66.88
264.499	81.88
264.732	76.88
264.964	87.88
265.197	95.88
265.429	76.88
265.661	65.88
265.894	65.88
266.126	82.88
266.358	75.88
266.591	68.88
266.823	86.88
267.055	79.88
267.287	65.88
267.52	85.88
267.752	88.88
267.984	96.88
268.216	84.88
268.448	86.88
268.681	86.88
268.913	78.88
269.145	74.88
269.377	78.88
269.609	76.88
269.841	78.88
270.073	90.88
270.306	85.88
270.538	96.88
270.77	73.88
271.002	73.88
271.234	89.88
271.466	78.88
271.698	81.88
271.93	63.88
272.162	94.88
272.394	82.88
272.626	80.88
272.858	71.88
273.09	82.88
273.322	76.88
273.553	82.88
273.785	70.88
274.017	79.88
274.249	82.88
274.481	86.88
274.713	75.88
274.945	82.88
275.176	89.88
275.408	79.88
275.64	85.88
275.872	76.88
276.104	94.88
276.335	84.88
276.567	82.88
276.799	80.88
277.031	77.88
277.262	76.88
277.494	79.88
277.726	90.88
277.957	86.88
278.189	78.88
278.421	85.88
278.652	68.88
278.884	79.88
279.115	86.88
279.347	89.88
279.579	78.88
279.81	86.88
280.042	71.88
280.273	73.88
280.505	66.88
280.736	77.88
280.968	91.88
281.199	88.88
281.431	67.88
281.662	77.88
281.894	67.88
282.125	85.88
282.356	83.88
282.588	69.88
282.819	85.88
283.051	88.88
283.282	94.88
283.513	95.88
283.745	98.88
283.976	95.88
284.207	73.88
284.439	79.88
284.67	95.88
284.901	81.88
285.132	85.88
285.364	75.88
285.595	86.88
285.826	72.88
286.057	86.88
286.288	83.88
286.52	89.88
286.751	65.88
286.982	94.88
287.213	86.88
287.444	81.88
287.675	81.88
287.906	83.88
288.138	86.88
288.369	83.88
288.6	76.88
288.831	97.88
289.062	93.88
289.293	75.88
289.524	75.88
289.755	86.88
289.986	80.88
290.217	89.88
290.448	94.88
290.679	78.88
290.91	82.88
291.141	71.88
291.371	87.88
291.602	100.88
291.833	86.88
292.064	76.88
292.295	80.88
292.526	94.88
292.757	71.88
292.987	101.88
293.218	83.88
293.449	71.88
293.68	81.88
293.91	71.88
294.141	84.88
294.372	73.88
294.603	65.88
294.833	76.88
295.064	95.88
295.295	87.88
295.525	81.88
295.756	81.88
295.987	85.88
296.217	78.88
296.448	88.88
296.679	81.88
296.909	89.88
297.14	93.88
297.37	73.88
297.601	80.88
297.831	86.88
298.062	83.88
298.292	86.88
298.523	85.88
298.753	83.88
298.984	68.88
299.214	77.88
299.445	81.88
299.675	77.88
299.905	74.88
300.136	89.88
300.366	75.88
300.597	94.88
300.827	95.88
301.057	78.88
301.288	78.88
301.518	97.88
301.748	71.88
301.979	111.88
302.209	101.88
302.439	77.88
302.669	106.88
302.9	78.88
303.13	84.88
303.36	63.88
303.59	71.88
303.82	84.88
304.051	68.88
304.281	70.88
304.511	61.88
304.741	62.88
304.971	91.88
305.201	77.88
305.431	75.88
305.661	86.88
305.891	73.88
306.121	79.88
306.352	77.88
306.582	65.88
306.812	72.88
307.042	87.88
307.272	83.88
307.502	74.88
307.731	68.88
307.961	83.88
308.191	79.88
308.421	68.88
308.651	66.88
308.881	91.88
309.111	94.88
309.341	86.88
309.571	83.88
309.8	82.88
310.03	75.88
310.26	79.88
310.49	87.88
310.72	90.88
310.949	88.88
311.179	73.88
311.409	86.88
311.639	88.88
311.868	76.88
312.098	94.88
312.328	75.88
312.557	81.88
312.787	93.88
313.017	96.88
313.246	77.88
313.476	76.88
313.706	89.88
313.935	81.88
314.165	74.88
314.394	79.88
314.624	65.88
314.853	86.88
315.083	66.88
315.312	67.88
315.542	73.88
315.771	83.88
316.001	67.88
316.23	86.88
316.46	89.88
316.689	82.88
316.919	85.88
317.148	89.88
317.377	76.88
317.607	105.88
317.836	91.88
318.065	79.88
318.295	79.88
318.524	90.88
318.753	93.88
318.983	91.88
319.212	84.88
319.441	96.88
319.67	81.88
319.9	79.88
320.129	79.88
320.358	86.88
320.587	71.88
320.816	95.88
321.046	86.88
321.275	97.88
321.504	73.88
321.733	95.88
321.962	68.88
322.191	80.88
322.42	78.88
322.649	89.88
322.878	86.88
323.108	75.88
323.337	85.88
323.566	85.88
323.795	88.88
324.024	82.88
324.253	86.88
324.482	79.88
324.71	92.88
324.939	82.88
325.168	94.88
325.397	73.88
325.626	80.88
325.855	80.88
326.084	73.88
326.313	73.88
326.542	83.88
326.77	96.88
326.999	89.88
327.228	77.88
327.457	74.88
327.686	79.88
327.914	74.88
328.143	98.88
328.372	75.88
328.6	70.88
328.829	91.88
329.058	77.88
329.287	75.88
329.515	75.88
329.744	96.88
329.972	86.88
330.201	87.88
330.43	70.88
330.658	82.88
330.887	90.88
331.115	75.88
331.344	78.88
331.572	81.88
331.801	84.88
332.03	81.88
332.258	85.88
332.486	72.88
332.715	81.88
332.943	86.88
333.172	83.88
333.4	77.88
333.629	93.88
333.857	75.88
334.085	71.88
334.314	90.88
334.542	71.88
334.771	74.88
334.999	78.88
335.227	68.88
335.455	87.88
335.684	89.88
335.912	78.88
336.14	83.88
336.369	74.88
336.597	83.88
336.825	71.88
337.053	68.88
337.281	82.88
337.51	87.88
337.738	85.88
337.966	69.88
338.194	65.88
338.422	80.88
338.65	92.88
338.878	79.88
339.106	85.88
339.334	86.88
339.562	85.88
339.79	71.88
340.018	92.88
340.246	83.88
340.474	76.88
340.702	77.88
340.93	83.88
341.158	72.88
341.386	89.88
341.614	89.88
341.842	88.88
342.07	71.88
342.298	77.88
342.526	80.88
342.754	77.88
342.981	77.88
343.209	74.88
343.437	93.88
343.665	73.88
343.893	62.88
344.12	78.88
344.348	86.88
344.576	84.88
344.804	80.88
345.031	87.88
345.259	85.88
345.487	74.88
345.714	63.88
345.942	71.88
346.17	72.88
346.397	77.88
346.625	95.88
346.853	77.88
347.08	74.88
347.308	73.88
347.535	75.88
347.763	77.88
347.99	89.88
348.218	80.88
348.445	88.88
348.673	84.88
348.9	78.88
349.128	71.88
349.355	69.88
349.583	88.88
349.81	78.88
350.037	87.88
350.265	88.88
350.492	92.88
350.72	83.88
350.947	73.88
351.174	77.88
351.402	68.88
351.629	81.88
351.856	73.88
352.083	82.88
352.311	79.88
352.538	76.88
352.765	70.88
352.992	90.88
353.22	69.88
353.447	82.88
353.674	81.88
353.901	83.88
354.128	68.88
354.355	80.88
354.583	82.88
354.81	85.88
355.037	85.88
355.264	71.88
355.491	65.88
355.718	89.88
355.945	84.88
356.172	90.88
356.399	77.88
356.626	66.88
356.853	82.88
357.08	80.88
357.307	76.88
357.534	85.88
357.761	75.88
357.988	78.88
358.215	79.88
358.441	78.88
358.668	79.88
358.895	78.88
359.122	74.88
359.349	70.88
359.576	79.88
359.802	77.88
360.029	81.88
360.256	76.88
360.483	83.88
360.709	66.88
360.936	74.88
361.163	75.88
361.39	73.88
361.616	83.88
361.843	82.88
362.07	76.88
362.296	82.88
362.523	75.88
362.749	73.88
362.976	67.88
363.203	78.88
363.429	75.88
363.656	82.88
363.882	79.88
364.109	83.88
364.335	87.88
364.562	93.88
364.788	64.88
365.015	79.88
365.241	79.88
365.468	95.88
365.694	91.88
365.92	91.88
366.147	76.88
366.373	76.88
366.599	87.88
366.826	67.88
367.052	75.88
367.278	73.88
367.505	80.88
367.731	77.88
367.957	71.88
368.184	84.88
368.41	86.88
368.636	70.88
368.862	93.88
369.089	77.88
369.315	82.88
369.541	83.88
369.767	78.88
369.993	76.88
370.219	73.88
370.445	79.88
370.672	71.88
370.898	78.88
371.124	81.88
371.35	83.88
371.576	87.88
371.802	95.88
372.028	82.88
372.254	74.88
372.48	76.88
372.706	95.88
372.932	71.88
373.158	58.88
373.384	66.88
373.61	74.88
373.835	92.88
374.061	89.88
374.287	81.88
374.513	82.88
374.739	81.88
374.965	79.88
375.191	91.88
375.416	71.88
375.642	74.88
375.868	83.88
376.094	76.88
376.319	77.88
376.545	75.88
376.771	78.88
376.997	77.88
377.222	88.88
377.448	74.88
377.674	80.88
377.899	84.88
378.125	75.88
378.35	79.88
378.576	72.88
378.802	93.88
379.027	86.88
379.253	85.88
379.478	74.88
379.704	81.88
379.929	71.88
380.155	84.88
380.38	73.88
380.606	75.88
380.831	85.88
381.057	89.88
381.282	75.88
381.507	86.88
381.733	88.88
381.958	88.88
382.184	86.88
382.409	72.88
382.634	98.88
382.86	81.88
383.085	78.88
383.31	81.88
383.535	71.88
383.761	88.88
383.986	88.88
384.211	73.88
384.436	82.88
384.662	79.88
384.887	85.88
385.112	64.88
385.337	69.88
385.562	71.88
385.787	90.88
386.013	88.88
386.238	73.88
386.463	87.88
386.688	82.88
386.913	76.88
387.138	67.88
387.363	78.88
387.588	66.88
387.813	77.88
388.038	73.88
388.263	85.88
388.488	85.88
388.713	62.88
388.938	59.88
389.163	72.88
389.387	72.88
389.612	80.88
389.837	86.88
390.062	81.88
390.287	88.88
390.512	71.88
390.736	75.88
390.961	83.88
391.186	77.88
391.411	81.88
391.636	69.88
391.86	72.88
392.085	55.88
392.31	85.88
392.534	67.88
392.759	86.88
392.984	71.88
393.208	66.88
393.433	75.88
393.658	87.88
393.882	77.88
394.107	93.88
394.331	73.88
394.556	77.88
394.78	81.88
395.005	74.88
395.229	78.88
395.454	83.88
395.678	78.88
395.903	84.88
396.127	69.88
396.352	73.88
396.576	84.88
396.801	81.88
397.025	80.88
397.249	97.88
397.474	90.88
397.698	72.88
397.922	82.88
398.147	81.88
398.371	78.88
398.595	88.88
398.82	88.88
399.044	73.88
399.268	59.88
399.492	73.88
399.717	78.88
399.941	71.88
400.165	93.88
400.389	85.88
400.613	76.88
400.837	76.88
401.062	75.88
401.286	76.88
401.51	85.88
401.734	89.88
401.958	79.88
402.182	81.88
402.406	73.88
402.63	86.88
402.854	85.88
403.078	77.88
403.302	79.88
403.526	78.88
403.75	77.88
403.974	77.88
404.198	76.88
404.422	72.88
404.645	94.88
404.869	80.88
405.093	75.88
405.317	82.88
405.541	87.88
405.765	79.88
405.988	88.88
406.212	93.88
406.436	80.88
406.66	74.88
406.883	89.88
407.107	73.88
407.331	81.88
407.555	84.88
407.778	90.88
408.002	83.88
408.226	79.88
408.449	62.88
408.673	84.88
408.896	89.88
409.12	88.88
409.344	83.88
409.567	79.88
409.791	78.88
410.014	93.88
410.238	73.88
410.461	87.88
410.685	77.88
410.908	70.88
411.132	83.88
411.355	65.88
411.578	66.88
411.802	73.88
412.025	61.88
412.249	74.88
412.472	67.88
412.695	68.88
412.919	82.88
413.142	86.88
413.365	86.88
413.589	74.88
413.812	73.88
414.035	79.88
414.258	69.88
414.482	84.88
414.705	80.88
414.928	81.88
415.151	76.88
415.374	83.88
415.597	82.88
415.821	78.88
416.044	72.88
416.267	82.88
416.49	78.88
416.713	73.88
416.936	95.88
417.159	79.88
417.382	54.88
417.605	66.88
417.828	79.88
418.051	70.88
418.274	74.88
418.497	77.88
418.72	78.88
418.943	81.88
419.166	78.88
419.389	83.88
419.611	88.88
419.834	81.88
420.057	75.88
420.28	85.88
420.503	89.88
420.726	86.88
420.948	79.88
421.171	86.88
421.394	76.88
421.617	81.88
421.839	71.88
422.062	73.88
422.285	71.88
422.507	75.88
422.73	79.88
422.953	56.88
423.175	72.88
423.398	80.88
423.621	71.88
423.843	83.88
424.066	83.88
424.288	82.88
424.511	85.88
424.733	73.88
424.956	82.88
425.178	80.88
425.401	92.88
425.623	85.88
425.846	79.88
426.068	71.88
426.291	67.88
426.513	81.88
426.735	83.88
426.958	95.88
427.18	64.88
427.402	89.88
427.625	67.88
427.847	76.88
428.069	81.88
428.292	74.88
428.514	81.88
428.736	71.88
428.958	83.88
429.181	64.88
429.403	77.88
429.625	86.88
429.847	78.88
430.069	81.88
430.292	81.88
430.514	64.88
430.736	80.88
430.958	77.88
431.18	87.88
431.402	77.88
431.624	73.88
431.846	67.88
432.068	77.88
432.29	87.88
432.512	82.88
432.734	75.88
432.956	79.88
433.178	89.88
433.4	68.88
433.622	87.88
433.844	72.88
434.066	79.88
434.287	79.88
434.509	64.88
434.731	77.88
434.953	62.88
435.175	78.88
435.397	89.88
435.618	80.88
435.84	81.88
436.062	71.88
436.284	68.88
436.505	68.88
436.727	77.88
436.949	83.88
437.17	68.88
437.392	80.88
437.614	74.88
437.835	75.88
438.057	75.88
438.278	69.88
438.5	69.88
438.721	80.88
438.943	79.88
439.165	81.88
439.386	80.88
439.608	93.88
439.829	78.88
440.05	75.88
440.272	89.88
440.493	72.88
440.715	88.88
440.936	85.88
441.158	77.88
441.379	77.88
441.6	84.88
441.822	68.88
442.043	60.88
442.264	89.88
442.486	81.88
442.707	82.88
442.928	73.88
443.149	86.88
443.371	85.88
443.592	78.88
443.813	86.88
444.034	77.88
444.255	77.88
444.476	75.88
444.698	79.88
444.919	73.88
445.14	138.88
445.361	91.88
445.582	72.88
445.803	64.88
446.024	72.88
446.245	81.88
446.466	86.88
446.687	82.88
446.908	86.88
447.129	88.88
447.35	74.88
447.571	95.88
447.792	85.88
448.013	74.88
448.234	85.88
448.455	63.88
448.675	81.88
448.896	77.88
449.117	80.88
449.338	90.88
449.559	81.88
449.779	75.88
450	85.88
450.221	83.88
450.442	71.88
450.662	96.88
450.883	93.88
451.104	82.88
451.324	82.88
451.545	67.88
451.766	74.88
451.986	61.88
452.207	73.88
452.428	81.88
452.648	88.88
452.869	78.88
453.089	71.88
453.31	82.88
453.53	78.88
453.751	67.88
453.971	69.88
454.192	61.88
454.412	81.88
454.633	82.88
454.853	81.88
455.073	68.88
455.294	82.88
455.514	85.88
455.734	79.88
455.955	89.88
456.175	87.88
456.395	83.88
456.616	80.88
456.836	77.88
457.056	78.88
457.276	70.88
457.497	86.88
457.717	72.88
457.937	82.88
458.157	85.88
458.377	86.88
458.598	78.88
458.818	94.88
459.038	79.88
459.258	94.88
459.478	74.88
459.698	83.88
459.918	72.88
460.138	83.88
460.358	88.88
460.578	82.88
460.798	76.88
461.018	74.88
461.238	80.88
461.458	74.88
461.678	64.88
461.898	76.88
462.118	70.88
462.338	85.88
462.558	77.88
462.777	67.88
462.997	59.88
463.217	67.88
463.437	69.88
463.657	69.88
463.876	74.88
464.096	78.88
464.316	77.88
464.536	58.88
464.755	82.88
464.975	77.88
465.195	69.88
465.414	76.88
465.634	71.88
465.854	73.88
466.073	85.88
466.293	89.88
466.512	74.88
466.732	71.88
466.951	77.88
467.171	79.88
467.391	81.88
467.61	70.88
467.829	87.88
468.049	86.88
468.268	70.88
468.488	86.88
468.707	77.88
468.927	67.88
469.146	69.88
469.365	91.88
469.585	69.88
469.804	86.88
470.023	75.88
470.243	74.88
470.462	75.88
470.681	91.88
470.901	79.88
471.12	75.88
471.339	71.88
471.558	74.88
471.777	80.88
471.997	81.88
472.216	76.88
472.435	80.88
472.654	81.88
472.873	80.88
473.092	85.88
473.311	81.88
473.53	67.88
473.749	87.88
473.968	85.88
474.187	74.88
474.406	66.88
474.625	67.88
474.844	85.88
475.063	76.88
475.282	79.88
475.501	62.88
475.72	89.88
475.939	93.88
476.158	67.88
476.377	81.88
476.596	79.88
476.814	93.88
477.033	75.88
477.252	92.88
477.471	69.88
477.69	78.88
477.908	77.88
478.127	83.88
478.346	82.88
478.564	82.88
478.783	76.88
479.002	86.88
479.22	78.88
479.439	80.88
479.658	80.88
479.876	75.88
480.095	74.88
480.313	77.88
480.532	79.88
480.751	85.88
480.969	92.88
481.188	85.88
481.406	87.88
481.624	71.88
481.843	71.88
482.061	77.88
482.28	71.88
482.498	85.88
482.717	83.88
482.935	71.88
483.153	85.88
483.372	93.88
483.59	82.88
483.808	79.88
484.027	81.88
484.245	75.88
484.463	74.88
484.681	70.88
484.9	77.88
485.118	65.88
485.336	64.88
485.554	78.88
485.772	88.88
485.99	74.88
486.209	70.88
486.427	77.88
486.645	73.88
486.863	81.88
487.081	65.88
487.299	69.88
487.517	85.88
487.735	79.88
487.953	69.88
488.171	74.88
488.389	72.88
488.607	74.88
488.825	89.88
489.043	79.88
489.261	59.88
489.479	83.88
489.696	79.88
489.914	74.88
490.132	74.88
490.35	73.88
490.568	70.88
490.786	78.88
491.003	73.88
491.221	71.88
491.439	85.88
491.657	80.88
491.874	88.88
492.092	96.88
492.31	95.88
492.527	67.88
492.745	78.88
492.963	74.88
493.18	68.88
493.398	74.88
493.615	88.88
493.833	73.88
494.05	74.88
494.268	76.88
494.485	68.88
494.703	73.88
494.92	91.88
495.138	78.88
495.355	80.88
495.573	77.88
495.79	73.88
496.008	83.88
496.225	79.88
496.442	67.88
496.66	88.88
496.877	77.88
497.094	73.88
497.312	77.88
497.529	72.88
497.746	59.88
497.963	77.88
498.181	96.88
498.398	94.88
498.615	79.88
498.832	69.88
499.049	65.88
499.267	85.88
499.484	74.88
499.701	94.88
499.918	92.88
500.135	94.88
500.352	102.88
500.569	79.88
500.786	82.88
501.003	55.88
501.22	81.88
501.437	64.88
501.654	72.88
501.871	87.88
502.088	83.88
502.305	70.88
502.522	67.88
502.739	85.88
502.956	77.88
503.172	75.88
503.389	77.88
503.606	78.88
503.823	86.88
504.04	80.88
504.256	80.88
504.473	73.88
504.69	78.88
504.907	70.88
505.123	69.88
505.34	82.88
505.557	88.88
505.773	78.88
505.99	79.88
506.207	72.88
506.423	82.88
506.64	67.88
506.856	77.88
507.073	77.88
507.289	70.88
507.506	86.88
507.722	83.88
507.939	86.88
508.155	81.88
508.372	99.88
508.588	97.88
508.805	78.88
509.021	82.88
509.238	85.88
509.454	71.88
509.67	67.88
509.887	73.88
510.103	79.88
510.319	80.88
510.536	97.88
510.752	86.88
510.968	87.88
511.184	80.88
511.401	74.88
511.617	79.88
511.833	102.88
512.049	90.88
512.265	74.88
512.481	84.88
512.698	82.88
512.914	84.88
513.13	77.88
513.346	77.88
513.562	89.88
513.778	80.88
513.994	75.88
514.21	83.88
514.426	80.88
514.642	69.88
514.858	73.88
515.074	79.88
515.29	91.88
515.506	73.88
515.721	80.88
515.937	86.88
516.153	75.88
516.369	79.88
516.585	61.88
516.801	73.88
517.016	86.88
517.232	95.88
517.448	78.88
517.664	69.88
517.879	74.88
518.095	73.88
518.311	82.88
518.527	79.88
518.742	65.88
518.958	77.88
519.173	78.88
519.389	92.88
519.605	75.88
519.82	89.88
520.036	86.88
