Data from Background_2_HRD10591_00044.txt Node
Date: Wed Nov 05 14:47:18 EST 2025
User: Yrep
Spectrometer: HR+D1059
Trigger mode: 1
Integration Time (sec): 1.000000E-1
Scans to average: 1
Electric dark correction enabled: true
Nonlinearity correction enabled: false
Boxcar width: 0
XAxis mode: Wavelengths
Number of Pixels in Spectrum: 2048
>>>>>Begin Spectral Data<<<<<
223.165	-5.81
223.4	-5.81
223.635	-5.81
223.869	-17.81
224.104	-26.81
224.338	-16.81
224.573	-18.81
224.808	-5.81
225.042	-8.81
225.277	-1.81
225.511	-15.81
225.746	1.19
225.98	10.19
226.215	12.19
226.449	24.19
226.683	12.19
226.918	29.19
227.152	29.19
227.387	25.19
227.621	24.19
227.856	36.19
228.09	42.19
228.324	42.19
228.559	61.19
228.793	60.19
229.027	50.19
229.262	69.19
229.496	64.19
229.73	71.19
229.964	61.19
230.199	77.19
230.433	79.19
230.667	83.19
230.901	69.19
231.136	87.19
231.37	77.19
231.604	85.19
231.838	73.19
232.072	91.19
232.306	65.19
232.541	71.19
232.775	75.19
233.009	69.19
233.243	74.19
233.477	80.19
233.711	86.19
233.945	76.19
234.179	85.19
234.413	73.19
234.647	82.19
234.881	93.19
235.115	81.19
235.349	78.19
235.583	67.19
235.817	72.19
236.051	77.19
236.285	83.19
236.519	74.19
236.753	85.19
236.987	80.19
237.221	72.19
237.455	80.19
237.689	81.19
237.922	56.19
238.156	77.19
238.39	75.19
238.624	92.19
238.858	74.19
239.091	63.19
239.325	77.19
239.559	86.19
239.793	79.19
240.027	82.19
240.26	74.19
240.494	80.19
240.728	85.19
240.961	68.19
241.195	61.19
241.429	77.19
241.662	85.19
241.896	73.19
242.13	81.19
242.363	81.19
242.597	78.19
242.83	91.19
243.064	90.19
243.298	72.19
243.531	81.19
243.765	69.19
243.998	71.19
244.232	70.19
244.465	80.19
244.699	77.19
244.932	70.19
245.166	76.19
245.399	69.19
245.633	78.19
245.866	76.19
246.099	72.19
246.333	73.19
246.566	76.19
246.8	64.19
247.033	77.19
247.266	86.19
247.5	78.19
247.733	87.19
247.966	65.19
248.2	65.19
248.433	83.19
248.666	83.19
248.899	82.19
249.133	81.19
249.366	84.19
249.599	82.19
249.832	85.19
250.066	81.19
250.299	81.19
250.532	71.19
250.765	83.19
250.998	71.19
251.231	77.19
251.465	77.19
251.698	91.19
251.931	67.19
252.164	76.19
252.397	80.19
252.63	86.19
252.863	77.19
253.096	71.19
253.329	93.19
253.562	64.19
253.795	79.19
254.028	92.19
254.261	78.19
254.494	81.19
254.727	74.19
254.96	79.19
255.193	75.19
255.426	77.19
255.659	71.19
255.892	89.19
256.124	91.19
256.357	76.19
256.59	78.19
256.823	67.19
257.056	88.19
257.289	87.19
257.521	85.19
257.754	73.19
257.987	77.19
258.22	78.19
258.452	83.19
258.685	80.19
258.918	82.19
259.151	76.19
259.383	75.19
259.616	81.19
259.849	85.19
260.081	88.19
260.314	79.19
260.547	88.19
260.779	79.19
261.012	84.19
261.244	72.19
261.477	87.19
261.71	85.19
261.942	71.19
262.175	77.19
262.407	63.19
262.64	80.19
262.872	81.19
263.105	82.19
263.337	75.19
263.57	83.19
263.802	91.19
264.035	77.19
264.267	90.19
264.499	73.19
264.732	79.19
264.964	87.19
265.197	86.19
265.429	80.19
265.661	82.19
265.894	74.19
266.126	71.19
266.358	79.19
266.591	85.19
266.823	91.19
267.055	75.19
267.287	70.19
267.52	71.19
267.752	73.19
267.984	87.19
268.216	75.19
268.448	83.19
268.681	82.19
268.913	84.19
269.145	83.19
269.377	89.19
269.609	74.19
269.841	90.19
270.073	84.19
270.306	81.19
270.538	77.19
270.77	78.19
271.002	83.19
271.234	83.19
271.466	84.19
271.698	83.19
271.93	72.19
272.162	75.19
272.394	75.19
272.626	90.19
272.858	83.19
273.09	84.19
273.322	81.19
273.553	87.19
273.785	79.19
274.017	79.19
274.249	92.19
274.481	74.19
274.713	80.19
274.945	80.19
275.176	69.19
275.408	99.19
275.64	72.19
275.872	86.19
276.104	94.19
276.335	82.19
276.567	89.19
276.799	83.19
277.031	77.19
277.262	75.19
277.494	89.19
277.726	94.19
277.957	85.19
278.189	100.19
278.421	84.19
278.652	81.19
278.884	78.19
279.115	82.19
279.347	60.19
279.579	80.19
279.81	89.19
280.042	84.19
280.273	86.19
280.505	84.19
280.736	75.19
280.968	81.19
281.199	87.19
281.431	96.19
281.662	70.19
281.894	59.19
282.125	90.19
282.356	84.19
282.588	63.19
282.819	75.19
283.051	85.19
283.282	81.19
283.513	79.19
283.745	89.19
283.976	87.19
284.207	97.19
284.439	81.19
284.67	85.19
284.901	74.19
285.132	81.19
285.364	83.19
285.595	85.19
285.826	81.19
286.057	72.19
286.288	89.19
286.52	99.19
286.751	86.19
286.982	71.19
287.213	80.19
287.444	89.19
287.675	79.19
287.906	85.19
288.138	72.19
288.369	70.19
288.6	81.19
288.831	94.19
289.062	80.19
289.293	95.19
289.524	84.19
289.755	82.19
289.986	74.19
290.217	92.19
290.448	93.19
290.679	84.19
290.91	77.19
291.141	87.19
291.371	77.19
291.602	98.19
291.833	84.19
292.064	83.19
292.295	89.19
292.526	81.19
292.757	78.19
292.987	84.19
293.218	72.19
293.449	81.19
293.68	81.19
293.91	82.19
294.141	79.19
294.372	74.19
294.603	83.19
294.833	85.19
295.064	80.19
295.295	87.19
295.525	86.19
295.756	75.19
295.987	79.19
296.217	86.19
296.448	93.19
296.679	84.19
296.909	97.19
297.14	90.19
297.37	78.19
297.601	82.19
297.831	83.19
298.062	78.19
298.292	86.19
298.523	79.19
298.753	84.19
298.984	77.19
299.214	83.19
299.445	80.19
299.675	86.19
299.905	74.19
300.136	83.19
300.366	98.19
300.597	94.19
300.827	89.19
301.057	79.19
301.288	86.19
301.518	86.19
301.748	85.19
301.979	99.19
302.209	90.19
302.439	91.19
302.669	86.19
302.9	78.19
303.13	90.19
303.36	85.19
303.59	90.19
303.82	90.19
304.051	85.19
304.281	93.19
304.511	90.19
304.741	84.19
304.971	96.19
305.201	81.19
305.431	79.19
305.661	74.19
305.891	66.19
306.121	71.19
306.352	86.19
306.582	77.19
306.812	85.19
307.042	81.19
307.272	84.19
307.502	77.19
307.731	95.19
307.961	78.19
308.191	77.19
308.421	79.19
308.651	89.19
308.881	87.19
309.111	77.19
309.341	93.19
309.571	86.19
309.8	90.19
310.03	77.19
310.26	75.19
310.49	86.19
310.72	74.19
310.949	92.19
311.179	91.19
311.409	77.19
311.639	89.19
311.868	101.19
312.098	89.19
312.328	83.19
312.557	82.19
312.787	74.19
313.017	68.19
313.246	83.19
313.476	83.19
313.706	84.19
313.935	78.19
314.165	80.19
314.394	66.19
314.624	88.19
314.853	80.19
315.083	84.19
315.312	93.19
315.542	95.19
315.771	86.19
316.001	82.19
316.23	74.19
316.46	80.19
316.689	82.19
316.919	81.19
317.148	82.19
317.377	78.19
317.607	91.19
317.836	78.19
318.065	77.19
318.295	67.19
318.524	67.19
318.753	84.19
318.983	69.19
319.212	96.19
319.441	81.19
319.67	93.19
319.9	81.19
320.129	77.19
320.358	105.19
320.587	79.19
320.816	78.19
321.046	79.19
321.275	84.19
321.504	87.19
321.733	95.19
321.962	74.19
322.191	85.19
322.42	77.19
322.649	84.19
322.878	102.19
323.108	79.19
323.337	85.19
323.566	90.19
323.795	89.19
324.024	82.19
324.253	91.19
324.482	87.19
324.71	84.19
324.939	93.19
325.168	79.19
325.397	81.19
325.626	95.19
325.855	103.19
326.084	84.19
326.313	84.19
326.542	79.19
326.77	79.19
326.999	83.19
327.228	97.19
327.457	89.19
327.686	92.19
327.914	80.19
328.143	81.19
328.372	80.19
328.6	82.19
328.829	67.19
329.058	81.19
329.287	92.19
329.515	99.19
329.744	85.19
329.972	98.19
330.201	96.19
330.43	87.19
330.658	84.19
330.887	67.19
331.115	83.19
331.344	81.19
331.572	85.19
331.801	85.19
332.03	84.19
332.258	80.19
332.486	93.19
332.715	79.19
332.943	88.19
333.172	81.19
333.4	89.19
333.629	84.19
333.857	94.19
334.085	88.19
334.314	98.19
334.542	92.19
334.771	79.19
334.999	76.19
335.227	89.19
335.455	77.19
335.684	87.19
335.912	86.19
336.14	75.19
336.369	90.19
336.597	70.19
336.825	86.19
337.053	92.19
337.281	78.19
337.51	73.19
337.738	71.19
337.966	71.19
338.194	83.19
338.422	87.19
338.65	81.19
338.878	75.19
339.106	76.19
339.334	85.19
339.562	74.19
339.79	85.19
340.018	79.19
340.246	81.19
340.474	107.19
340.702	78.19
340.93	93.19
341.158	84.19
341.386	85.19
341.614	89.19
341.842	90.19
342.07	97.19
342.298	83.19
342.526	89.19
342.754	88.19
342.981	93.19
343.209	81.19
343.437	76.19
343.665	86.19
343.893	86.19
344.12	84.19
344.348	83.19
344.576	99.19
344.804	99.19
345.031	89.19
345.259	78.19
345.487	75.19
345.714	81.19
345.942	86.19
346.17	78.19
346.397	82.19
346.625	92.19
346.853	67.19
347.08	72.19
347.308	79.19
347.535	91.19
347.763	78.19
347.99	89.19
348.218	80.19
348.445	78.19
348.673	85.19
348.9	85.19
349.128	77.19
349.355	77.19
349.583	84.19
349.81	66.19
350.037	85.19
350.265	82.19
350.492	73.19
350.72	83.19
350.947	90.19
351.174	109.19
351.402	87.19
351.629	82.19
351.856	71.19
352.083	90.19
352.311	78.19
352.538	74.19
352.765	65.19
352.992	77.19
353.22	96.19
353.447	92.19
353.674	92.19
353.901	103.19
354.128	79.19
354.355	73.19
354.583	89.19
354.81	94.19
355.037	93.19
355.264	87.19
355.491	71.19
355.718	81.19
355.945	86.19
356.172	81.19
356.399	91.19
356.626	89.19
356.853	68.19
357.08	87.19
357.307	91.19
357.534	77.19
357.761	85.19
357.988	81.19
358.215	83.19
358.441	80.19
358.668	79.19
358.895	89.19
359.122	78.19
359.349	82.19
359.576	71.19
359.802	88.19
360.029	87.19
360.256	83.19
360.483	94.19
360.709	77.19
360.936	85.19
361.163	83.19
361.39	89.19
361.616	96.19
361.843	82.19
362.07	90.19
362.296	83.19
362.523	71.19
362.749	90.19
362.976	82.19
363.203	92.19
363.429	75.19
363.656	77.19
363.882	84.19
364.109	101.19
364.335	85.19
364.562	75.19
364.788	80.19
365.015	77.19
365.241	81.19
365.468	88.19
365.694	69.19
365.92	85.19
366.147	72.19
366.373	75.19
366.599	86.19
366.826	81.19
367.052	84.19
367.278	84.19
367.505	72.19
367.731	72.19
367.957	77.19
368.184	80.19
368.41	89.19
368.636	97.19
368.862	83.19
369.089	75.19
369.315	82.19
369.541	86.19
369.767	68.19
369.993	75.19
370.219	81.19
370.445	77.19
370.672	88.19
370.898	65.19
371.124	77.19
371.35	80.19
371.576	95.19
371.802	73.19
372.028	96.19
372.254	77.19
372.48	89.19
372.706	77.19
372.932	77.19
373.158	82.19
373.384	101.19
373.61	81.19
373.835	83.19
374.061	101.19
374.287	79.19
374.513	70.19
374.739	76.19
374.965	92.19
375.191	93.19
375.416	74.19
375.642	87.19
375.868	83.19
376.094	84.19
376.319	82.19
376.545	78.19
376.771	78.19
376.997	93.19
377.222	83.19
377.448	102.19
377.674	91.19
377.899	73.19
378.125	69.19
378.35	94.19
378.576	95.19
378.802	75.19
379.027	85.19
379.253	86.19
379.478	88.19
379.704	80.19
379.929	84.19
380.155	76.19
380.38	71.19
380.606	86.19
380.831	82.19
381.057	90.19
381.282	91.19
381.507	89.19
381.733	83.19
381.958	81.19
382.184	99.19
382.409	77.19
382.634	82.19
382.86	83.19
383.085	87.19
383.31	83.19
383.535	85.19
383.761	82.19
383.986	73.19
384.211	73.19
384.436	72.19
384.662	90.19
384.887	66.19
385.112	81.19
385.337	77.19
385.562	77.19
385.787	94.19
386.013	82.19
386.238	79.19
386.463	93.19
386.688	88.19
386.913	89.19
387.138	74.19
387.363	81.19
387.588	86.19
387.813	99.19
388.038	81.19
388.263	89.19
388.488	68.19
388.713	81.19
388.938	82.19
389.163	87.19
389.387	85.19
389.612	88.19
389.837	81.19
390.062	82.19
390.287	97.19
390.512	88.19
390.736	91.19
390.961	80.19
391.186	84.19
391.411	71.19
391.636	89.19
391.86	86.19
392.085	80.19
392.31	85.19
392.534	89.19
392.759	94.19
392.984	89.19
393.208	86.19
393.433	77.19
393.658	79.19
393.882	77.19
394.107	95.19
394.331	78.19
394.556	72.19
394.78	85.19
395.005	85.19
395.229	71.19
395.454	81.19
395.678	96.19
395.903	77.19
396.127	78.19
396.352	81.19
396.576	79.19
396.801	82.19
397.025	76.19
397.249	84.19
397.474	86.19
397.698	74.19
397.922	77.19
398.147	84.19
398.371	83.19
398.595	79.19
398.82	71.19
399.044	95.19
399.268	87.19
399.492	91.19
399.717	77.19
399.941	66.19
400.165	77.19
400.389	87.19
400.613	73.19
400.837	76.19
401.062	85.19
401.286	87.19
401.51	70.19
401.734	70.19
401.958	77.19
402.182	73.19
402.406	92.19
402.63	85.19
402.854	77.19
403.078	92.19
403.302	89.19
403.526	93.19
403.75	78.19
403.974	64.19
404.198	69.19
404.422	79.19
404.645	90.19
404.869	70.19
405.093	89.19
405.317	81.19
405.541	80.19
405.765	87.19
405.988	78.19
406.212	67.19
406.436	75.19
406.66	76.19
406.883	78.19
407.107	88.19
407.331	83.19
407.555	70.19
407.778	81.19
408.002	87.19
408.226	74.19
408.449	75.19
408.673	86.19
408.896	71.19
409.12	85.19
409.344	73.19
409.567	74.19
409.791	76.19
410.014	93.19
410.238	91.19
410.461	69.19
410.685	70.19
410.908	73.19
411.132	77.19
411.355	77.19
411.578	88.19
411.802	82.19
412.025	84.19
412.249	68.19
412.472	83.19
412.695	79.19
412.919	74.19
413.142	80.19
413.365	78.19
413.589	85.19
413.812	90.19
414.035	76.19
414.258	79.19
414.482	86.19
414.705	71.19
414.928	87.19
415.151	77.19
415.374	65.19
415.597	74.19
415.821	82.19
416.044	84.19
416.267	73.19
416.49	80.19
416.713	86.19
416.936	77.19
417.159	69.19
417.382	69.19
417.605	73.19
417.828	71.19
418.051	72.19
418.274	86.19
418.497	76.19
418.72	75.19
418.943	93.19
419.166	88.19
419.389	63.19
419.611	70.19
419.834	75.19
420.057	59.19
420.28	79.19
420.503	74.19
420.726	87.19
420.948	77.19
421.171	77.19
421.394	82.19
421.617	83.19
421.839	83.19
422.062	90.19
422.285	71.19
422.507	82.19
422.73	81.19
422.953	78.19
423.175	88.19
423.398	71.19
423.621	77.19
423.843	87.19
424.066	86.19
424.288	87.19
424.511	73.19
424.733	66.19
424.956	66.19
425.178	79.19
425.401	79.19
425.623	97.19
425.846	89.19
426.068	80.19
426.291	80.19
426.513	75.19
426.735	89.19
426.958	87.19
427.18	91.19
427.402	76.19
427.625	73.19
427.847	75.19
428.069	82.19
428.292	78.19
428.514	70.19
428.736	78.19
428.958	89.19
429.181	77.19
429.403	84.19
429.625	79.19
429.847	83.19
430.069	86.19
430.292	69.19
430.514	88.19
430.736	83.19
430.958	65.19
431.18	84.19
431.402	75.19
431.624	76.19
431.846	94.19
432.068	82.19
432.29	77.19
432.512	82.19
432.734	74.19
432.956	78.19
433.178	91.19
433.4	89.19
433.622	78.19
433.844	93.19
434.066	89.19
434.287	58.19
434.509	76.19
434.731	72.19
434.953	71.19
435.175	82.19
435.397	92.19
435.618	91.19
435.84	85.19
436.062	90.19
436.284	71.19
436.505	80.19
436.727	77.19
436.949	80.19
437.17	87.19
437.392	79.19
437.614	67.19
437.835	75.19
438.057	79.19
438.278	72.19
438.5	83.19
438.721	84.19
438.943	87.19
439.165	93.19
439.386	96.19
439.608	71.19
439.829	77.19
440.05	88.19
440.272	91.19
440.493	87.19
440.715	85.19
440.936	72.19
441.158	71.19
441.379	77.19
441.6	86.19
441.822	76.19
442.043	90.19
442.264	85.19
442.486	94.19
442.707	98.19
442.928	75.19
443.149	78.19
443.371	85.19
443.592	76.19
443.813	71.19
444.034	84.19
444.255	85.19
444.476	76.19
444.698	82.19
444.919	94.19
445.14	159.19
445.361	104.19
445.582	79.19
445.803	75.19
446.024	96.19
446.245	94.19
446.466	76.19
446.687	98.19
446.908	77.19
447.129	94.19
447.35	90.19
447.571	82.19
447.792	100.19
448.013	80.19
448.234	79.19
448.455	79.19
448.675	89.19
448.896	78.19
449.117	86.19
449.338	84.19
449.559	67.19
449.779	79.19
450	85.19
450.221	97.19
450.442	85.19
450.662	78.19
450.883	84.19
451.104	83.19
451.324	84.19
451.545	89.19
451.766	86.19
451.986	85.19
452.207	81.19
452.428	78.19
452.648	77.19
452.869	86.19
453.089	77.19
453.31	90.19
453.53	83.19
453.751	95.19
453.971	86.19
454.192	78.19
454.412	81.19
454.633	78.19
454.853	85.19
455.073	78.19
455.294	91.19
455.514	83.19
455.734	85.19
455.955	86.19
456.175	76.19
456.395	86.19
456.616	95.19
456.836	88.19
457.056	82.19
457.276	83.19
457.497	78.19
457.717	71.19
457.937	81.19
458.157	84.19
458.377	84.19
458.598	72.19
458.818	84.19
459.038	90.19
459.258	89.19
459.478	87.19
459.698	88.19
459.918	73.19
460.138	69.19
460.358	83.19
460.578	83.19
460.798	95.19
461.018	83.19
461.238	78.19
461.458	75.19
461.678	76.19
461.898	85.19
462.118	82.19
462.338	85.19
462.558	89.19
462.777	81.19
462.997	78.19
463.217	80.19
463.437	71.19
463.657	76.19
463.876	82.19
464.096	72.19
464.316	69.19
464.536	87.19
464.755	73.19
464.975	91.19
465.195	85.19
465.414	90.19
465.634	92.19
465.854	76.19
466.073	72.19
466.293	77.19
466.512	83.19
466.732	83.19
466.951	84.19
467.171	79.19
467.391	83.19
467.61	84.19
467.829	72.19
468.049	78.19
468.268	81.19
468.488	90.19
468.707	91.19
468.927	94.19
469.146	79.19
469.365	84.19
469.585	81.19
469.804	78.19
470.023	85.19
470.243	84.19
470.462	82.19
470.681	70.19
470.901	77.19
471.12	83.19
471.339	87.19
471.558	77.19
471.777	66.19
471.997	77.19
472.216	77.19
472.435	77.19
472.654	82.19
472.873	95.19
473.092	74.19
473.311	90.19
473.53	82.19
473.749	76.19
473.968	77.19
474.187	77.19
474.406	81.19
474.625	81.19
474.844	92.19
475.063	74.19
475.282	75.19
475.501	86.19
475.72	79.19
475.939	69.19
476.158	64.19
476.377	94.19
476.596	91.19
476.814	68.19
477.033	85.19
477.252	94.19
477.471	95.19
477.69	92.19
477.908	92.19
478.127	85.19
478.346	81.19
478.564	66.19
478.783	77.19
479.002	84.19
479.22	79.19
479.439	91.19
479.658	80.19
479.876	62.19
480.095	74.19
480.313	83.19
480.532	83.19
480.751	85.19
480.969	97.19
481.188	79.19
481.406	73.19
481.624	80.19
481.843	78.19
482.061	79.19
482.28	78.19
482.498	76.19
482.717	75.19
482.935	83.19
483.153	82.19
483.372	78.19
483.59	85.19
483.808	77.19
484.027	76.19
484.245	77.19
484.463	86.19
484.681	90.19
484.9	83.19
485.118	97.19
485.336	81.19
485.554	76.19
485.772	86.19
485.99	73.19
486.209	67.19
486.427	99.19
486.645	90.19
486.863	82.19
487.081	78.19
487.299	67.19
487.517	83.19
487.735	86.19
487.953	81.19
488.171	91.19
488.389	93.19
488.607	94.19
488.825	75.19
489.043	96.19
489.261	93.19
489.479	96.19
489.696	74.19
489.914	83.19
490.132	77.19
490.35	74.19
490.568	84.19
490.786	75.19
491.003	74.19
491.221	78.19
491.439	90.19
491.657	70.19
491.874	84.19
492.092	78.19
492.31	90.19
492.527	79.19
492.745	89.19
492.963	75.19
493.18	96.19
493.398	96.19
493.615	74.19
493.833	84.19
494.05	75.19
494.268	85.19
494.485	89.19
494.703	73.19
494.92	84.19
495.138	90.19
495.355	82.19
495.573	94.19
495.79	77.19
496.008	77.19
496.225	76.19
496.442	89.19
496.66	80.19
496.877	74.19
497.094	89.19
497.312	93.19
497.529	76.19
497.746	75.19
497.963	70.19
498.181	57.19
498.398	75.19
498.615	71.19
498.832	71.19
499.049	90.19
499.267	92.19
499.484	85.19
499.701	104.19
499.918	86.19
500.135	80.19
500.352	92.19
500.569	75.19
500.786	92.19
501.003	72.19
501.22	94.19
501.437	74.19
501.654	73.19
501.871	82.19
502.088	86.19
502.305	82.19
502.522	83.19
502.739	80.19
502.956	87.19
503.172	93.19
503.389	92.19
503.606	72.19
503.823	84.19
504.04	85.19
504.256	74.19
504.473	92.19
504.69	99.19
504.907	90.19
505.123	94.19
505.34	77.19
505.557	81.19
505.773	89.19
505.99	83.19
506.207	85.19
506.423	80.19
506.64	89.19
506.856	74.19
507.073	87.19
507.289	74.19
507.506	101.19
507.722	75.19
507.939	85.19
508.155	83.19
508.372	88.19
508.588	75.19
508.805	91.19
509.021	88.19
509.238	81.19
509.454	89.19
509.67	72.19
509.887	87.19
510.103	89.19
510.319	92.19
510.536	89.19
510.752	82.19
510.968	78.19
511.184	74.19
511.401	79.19
511.617	90.19
511.833	71.19
512.049	97.19
512.265	77.19
512.481	62.19
512.698	93.19
512.914	84.19
513.13	93.19
513.346	83.19
513.562	76.19
513.778	66.19
513.994	84.19
514.21	86.19
514.426	84.19
514.642	94.19
514.858	84.19
515.074	63.19
515.29	93.19
515.506	90.19
515.721	98.19
515.937	86.19
516.153	91.19
516.369	90.19
516.585	89.19
516.801	72.19
517.016	85.19
517.232	71.19
517.448	91.19
517.664	84.19
517.879	86.19
518.095	75.19
518.311	102.19
518.527	91.19
518.742	71.19
518.958	68.19
519.173	82.19
519.389	83.19
519.605	82.19
519.82	81.19
520.036	94.19
