Data from Background_2_HRD10591_00052.txt Node
Date: Wed Nov 05 14:47:22 EST 2025
User: Yrep
Spectrometer: HR+D1059
Trigger mode: 1
Integration Time (sec): 1.000000E-1
Scans to average: 1
Electric dark correction enabled: true
Nonlinearity correction enabled: false
Boxcar width: 0
XAxis mode: Wavelengths
Number of Pixels in Spectrum: 2048
>>>>>Begin Spectral Data<<<<<
223.165	-11.44
223.4	-11.44
223.635	-11.44
223.869	-10.44
224.104	-22.44
224.338	-7.44
224.573	-27.44
224.808	-15.44
225.042	-7.44
225.277	-9.44
225.511	-0.44
225.746	3.56
225.98	10.56
226.215	12.56
226.449	26.56
226.683	11.56
226.918	20.56
227.152	26.56
227.387	48.56
227.621	36.56
227.856	50.56
228.09	42.56
228.324	52.56
228.559	40.56
228.793	64.56
229.027	58.56
229.262	57.56
229.496	85.56
229.73	56.56
229.964	58.56
230.199	67.56
230.433	93.56
230.667	94.56
230.901	78.56
231.136	79.56
231.37	79.56
231.604	91.56
231.838	89.56
232.072	88.56
232.306	79.56
232.541	83.56
232.775	81.56
233.009	82.56
233.243	85.56
233.477	84.56
233.711	81.56
233.945	79.56
234.179	83.56
234.413	69.56
234.647	77.56
234.881	79.56
235.115	74.56
235.349	77.56
235.583	64.56
235.817	68.56
236.051	61.56
236.285	80.56
236.519	61.56
236.753	83.56
236.987	76.56
237.221	77.56
237.455	75.56
237.689	81.56
237.922	77.56
238.156	67.56
238.39	89.56
238.624	74.56
238.858	76.56
239.091	79.56
239.325	78.56
239.559	79.56
239.793	90.56
240.027	62.56
240.26	77.56
240.494	69.56
240.728	77.56
240.961	66.56
241.195	73.56
241.429	78.56
241.662	77.56
241.896	74.56
242.13	78.56
242.363	76.56
242.597	74.56
242.83	73.56
243.064	68.56
243.298	79.56
243.531	68.56
243.765	73.56
243.998	85.56
244.232	77.56
244.465	73.56
244.699	64.56
244.932	76.56
245.166	78.56
245.399	82.56
245.633	92.56
245.866	75.56
246.099	82.56
246.333	60.56
246.566	74.56
246.8	84.56
247.033	81.56
247.266	96.56
247.5	85.56
247.733	76.56
247.966	76.56
248.2	75.56
248.433	92.56
248.666	80.56
248.899	84.56
249.133	73.56
249.366	85.56
249.599	82.56
249.832	78.56
250.066	81.56
250.299	80.56
250.532	70.56
250.765	90.56
250.998	81.56
251.231	78.56
251.465	89.56
251.698	83.56
251.931	85.56
252.164	80.56
252.397	78.56
252.63	67.56
252.863	69.56
253.096	71.56
253.329	74.56
253.562	74.56
253.795	73.56
254.028	86.56
254.261	81.56
254.494	89.56
254.727	89.56
254.96	81.56
255.193	71.56
255.426	93.56
255.659	69.56
255.892	81.56
256.124	74.56
256.357	91.56
256.59	80.56
256.823	74.56
257.056	70.56
257.289	78.56
257.521	94.56
257.754	65.56
257.987	73.56
258.22	77.56
258.452	84.56
258.685	94.56
258.918	74.56
259.151	84.56
259.383	83.56
259.616	76.56
259.849	76.56
260.081	92.56
260.314	62.56
260.547	80.56
260.779	79.56
261.012	77.56
261.244	88.56
261.477	73.56
261.71	74.56
261.942	75.56
262.175	77.56
262.407	81.56
262.64	76.56
262.872	66.56
263.105	69.56
263.337	65.56
263.57	78.56
263.802	74.56
264.035	81.56
264.267	76.56
264.499	93.56
264.732	63.56
264.964	68.56
265.197	69.56
265.429	82.56
265.661	77.56
265.894	80.56
266.126	82.56
266.358	85.56
266.591	88.56
266.823	74.56
267.055	78.56
267.287	72.56
267.52	72.56
267.752	86.56
267.984	76.56
268.216	74.56
268.448	81.56
268.681	81.56
268.913	84.56
269.145	91.56
269.377	91.56
269.609	90.56
269.841	67.56
270.073	85.56
270.306	85.56
270.538	83.56
270.77	81.56
271.002	75.56
271.234	77.56
271.466	76.56
271.698	77.56
271.93	84.56
272.162	74.56
272.394	95.56
272.626	96.56
272.858	90.56
273.09	89.56
273.322	88.56
273.553	81.56
273.785	77.56
274.017	77.56
274.249	83.56
274.481	62.56
274.713	76.56
274.945	97.56
275.176	67.56
275.408	78.56
275.64	78.56
275.872	82.56
276.104	81.56
276.335	83.56
276.567	93.56
276.799	90.56
277.031	72.56
277.262	83.56
277.494	92.56
277.726	82.56
277.957	86.56
278.189	78.56
278.421	80.56
278.652	78.56
278.884	88.56
279.115	77.56
279.347	81.56
279.579	96.56
279.81	78.56
280.042	80.56
280.273	72.56
280.505	60.56
280.736	78.56
280.968	91.56
281.199	89.56
281.431	95.56
281.662	92.56
281.894	87.56
282.125	77.56
282.356	77.56
282.588	88.56
282.819	93.56
283.051	89.56
283.282	89.56
283.513	89.56
283.745	79.56
283.976	86.56
284.207	85.56
284.439	89.56
284.67	79.56
284.901	84.56
285.132	94.56
285.364	82.56
285.595	77.56
285.826	91.56
286.057	82.56
286.288	79.56
286.52	81.56
286.751	78.56
286.982	85.56
287.213	90.56
287.444	80.56
287.675	73.56
287.906	80.56
288.138	85.56
288.369	84.56
288.6	94.56
288.831	86.56
289.062	81.56
289.293	80.56
289.524	79.56
289.755	70.56
289.986	90.56
290.217	83.56
290.448	90.56
290.679	78.56
290.91	77.56
291.141	73.56
291.371	90.56
291.602	81.56
291.833	81.56
292.064	97.56
292.295	80.56
292.526	76.56
292.757	89.56
292.987	88.56
293.218	89.56
293.449	90.56
293.68	80.56
293.91	86.56
294.141	83.56
294.372	74.56
294.603	80.56
294.833	78.56
295.064	77.56
295.295	92.56
295.525	89.56
295.756	84.56
295.987	71.56
296.217	88.56
296.448	90.56
296.679	82.56
296.909	85.56
297.14	74.56
297.37	82.56
297.601	102.56
297.831	75.56
298.062	85.56
298.292	96.56
298.523	80.56
298.753	75.56
298.984	82.56
299.214	72.56
299.445	85.56
299.675	80.56
299.905	92.56
300.136	73.56
300.366	88.56
300.597	93.56
300.827	75.56
301.057	89.56
301.288	89.56
301.518	74.56
301.748	94.56
301.979	100.56
302.209	76.56
302.439	86.56
302.669	85.56
302.9	75.56
303.13	80.56
303.36	98.56
303.59	84.56
303.82	82.56
304.051	79.56
304.281	85.56
304.511	90.56
304.741	88.56
304.971	81.56
305.201	86.56
305.431	82.56
305.661	76.56
305.891	78.56
306.121	76.56
306.352	83.56
306.582	83.56
306.812	91.56
307.042	75.56
307.272	84.56
307.502	88.56
307.731	76.56
307.961	82.56
308.191	96.56
308.421	85.56
308.651	74.56
308.881	80.56
309.111	74.56
309.341	89.56
309.571	76.56
309.8	82.56
310.03	83.56
310.26	75.56
310.49	81.56
310.72	89.56
310.949	84.56
311.179	80.56
311.409	90.56
311.639	85.56
311.868	85.56
312.098	91.56
312.328	94.56
312.557	86.56
312.787	85.56
313.017	90.56
313.246	84.56
313.476	80.56
313.706	85.56
313.935	88.56
314.165	79.56
314.394	99.56
314.624	98.56
314.853	95.56
315.083	82.56
315.312	75.56
315.542	78.56
315.771	83.56
316.001	85.56
316.23	73.56
316.46	73.56
316.689	70.56
316.919	91.56
317.148	76.56
317.377	87.56
317.607	84.56
317.836	77.56
318.065	85.56
318.295	97.56
318.524	76.56
318.753	70.56
318.983	90.56
319.212	83.56
319.441	89.56
319.67	84.56
319.9	81.56
320.129	80.56
320.358	86.56
320.587	87.56
320.816	92.56
321.046	102.56
321.275	85.56
321.504	82.56
321.733	92.56
321.962	85.56
322.191	80.56
322.42	78.56
322.649	88.56
322.878	84.56
323.108	82.56
323.337	80.56
323.566	80.56
323.795	70.56
324.024	84.56
324.253	84.56
324.482	99.56
324.71	86.56
324.939	77.56
325.168	83.56
325.397	73.56
325.626	74.56
325.855	72.56
326.084	84.56
326.313	76.56
326.542	76.56
326.77	77.56
326.999	85.56
327.228	96.56
327.457	78.56
327.686	78.56
327.914	85.56
328.143	82.56
328.372	76.56
328.6	76.56
328.829	83.56
329.058	84.56
329.287	77.56
329.515	76.56
329.744	85.56
329.972	91.56
330.201	72.56
330.43	77.56
330.658	75.56
330.887	84.56
331.115	70.56
331.344	83.56
331.572	82.56
331.801	85.56
332.03	109.56
332.258	86.56
332.486	92.56
332.715	74.56
332.943	71.56
333.172	81.56
333.4	88.56
333.629	84.56
333.857	94.56
334.085	78.56
334.314	85.56
334.542	69.56
334.771	70.56
334.999	90.56
335.227	97.56
335.455	102.56
335.684	88.56
335.912	90.56
336.14	77.56
336.369	78.56
336.597	75.56
336.825	86.56
337.053	77.56
337.281	70.56
337.51	88.56
337.738	70.56
337.966	74.56
338.194	81.56
338.422	78.56
338.65	81.56
338.878	83.56
339.106	85.56
339.334	81.56
339.562	80.56
339.79	74.56
340.018	85.56
340.246	74.56
340.474	77.56
340.702	82.56
340.93	80.56
341.158	75.56
341.386	64.56
341.614	100.56
341.842	84.56
342.07	82.56
342.298	87.56
342.526	77.56
342.754	76.56
342.981	96.56
343.209	89.56
343.437	90.56
343.665	82.56
343.893	70.56
344.12	75.56
344.348	80.56
344.576	81.56
344.804	90.56
345.031	89.56
345.259	92.56
345.487	85.56
345.714	88.56
345.942	90.56
346.17	84.56
346.397	92.56
346.625	80.56
346.853	84.56
347.08	83.56
347.308	79.56
347.535	85.56
347.763	80.56
347.99	78.56
348.218	82.56
348.445	86.56
348.673	77.56
348.9	71.56
349.128	91.56
349.355	92.56
349.583	95.56
349.81	84.56
350.037	84.56
350.265	88.56
350.492	81.56
350.72	77.56
350.947	83.56
351.174	90.56
351.402	85.56
351.629	76.56
351.856	91.56
352.083	81.56
352.311	60.56
352.538	72.56
352.765	93.56
352.992	100.56
353.22	83.56
353.447	73.56
353.674	87.56
353.901	91.56
354.128	85.56
354.355	100.56
354.583	88.56
354.81	81.56
355.037	80.56
355.264	70.56
355.491	71.56
355.718	76.56
355.945	94.56
356.172	85.56
356.399	70.56
356.626	73.56
356.853	77.56
357.08	89.56
357.307	93.56
357.534	77.56
357.761	82.56
357.988	77.56
358.215	83.56
358.441	89.56
358.668	80.56
358.895	80.56
359.122	84.56
359.349	78.56
359.576	74.56
359.802	79.56
360.029	81.56
360.256	91.56
360.483	84.56
360.709	71.56
360.936	70.56
361.163	69.56
361.39	98.56
361.616	83.56
361.843	84.56
362.07	90.56
362.296	72.56
362.523	85.56
362.749	79.56
362.976	74.56
363.203	79.56
363.429	85.56
363.656	76.56
363.882	93.56
364.109	83.56
364.335	95.56
364.562	91.56
364.788	75.56
365.015	90.56
365.241	90.56
365.468	87.56
365.694	96.56
365.92	80.56
366.147	80.56
366.373	80.56
366.599	68.56
366.826	90.56
367.052	65.56
367.278	91.56
367.505	88.56
367.731	69.56
367.957	71.56
368.184	85.56
368.41	91.56
368.636	74.56
368.862	86.56
369.089	85.56
369.315	79.56
369.541	86.56
369.767	86.56
369.993	80.56
370.219	73.56
370.445	65.56
370.672	81.56
370.898	80.56
371.124	87.56
371.35	70.56
371.576	86.56
371.802	85.56
372.028	80.56
372.254	85.56
372.48	82.56
372.706	85.56
372.932	77.56
373.158	76.56
373.384	83.56
373.61	79.56
373.835	86.56
374.061	74.56
374.287	89.56
374.513	82.56
374.739	76.56
374.965	91.56
375.191	65.56
375.416	91.56
375.642	78.56
375.868	81.56
376.094	76.56
376.319	80.56
376.545	85.56
376.771	81.56
376.997	76.56
377.222	79.56
377.448	82.56
377.674	80.56
377.899	81.56
378.125	82.56
378.35	87.56
378.576	72.56
378.802	84.56
379.027	72.56
379.253	80.56
379.478	78.56
379.704	82.56
379.929	89.56
380.155	82.56
380.38	76.56
380.606	54.56
380.831	84.56
381.057	94.56
381.282	73.56
381.507	82.56
381.733	73.56
381.958	79.56
382.184	74.56
382.409	78.56
382.634	74.56
382.86	82.56
383.085	84.56
383.31	85.56
383.535	77.56
383.761	69.56
383.986	75.56
384.211	83.56
384.436	85.56
384.662	84.56
384.887	77.56
385.112	71.56
385.337	79.56
385.562	75.56
385.787	83.56
386.013	88.56
386.238	88.56
386.463	93.56
386.688	88.56
386.913	78.56
387.138	84.56
387.363	85.56
387.588	77.56
387.813	69.56
388.038	76.56
388.263	76.56
388.488	84.56
388.713	85.56
388.938	80.56
389.163	86.56
389.387	86.56
389.612	94.56
389.837	90.56
390.062	94.56
390.287	97.56
390.512	95.56
390.736	77.56
390.961	82.56
391.186	94.56
391.411	99.56
391.636	75.56
391.86	82.56
392.085	85.56
392.31	86.56
392.534	70.56
392.759	87.56
392.984	86.56
393.208	86.56
393.433	71.56
393.658	70.56
393.882	80.56
394.107	82.56
394.331	78.56
394.556	88.56
394.78	92.56
395.005	83.56
395.229	80.56
395.454	70.56
395.678	80.56
395.903	81.56
396.127	91.56
396.352	82.56
396.576	82.56
396.801	69.56
397.025	76.56
397.249	81.56
397.474	83.56
397.698	92.56
397.922	69.56
398.147	85.56
398.371	79.56
398.595	100.56
398.82	91.56
399.044	69.56
399.268	73.56
399.492	85.56
399.717	83.56
399.941	74.56
400.165	92.56
400.389	91.56
400.613	77.56
400.837	85.56
401.062	65.56
401.286	75.56
401.51	84.56
401.734	78.56
401.958	79.56
402.182	91.56
402.406	84.56
402.63	70.56
402.854	82.56
403.078	84.56
403.302	66.56
403.526	77.56
403.75	78.56
403.974	65.56
404.198	74.56
404.422	84.56
404.645	77.56
404.869	79.56
405.093	74.56
405.317	77.56
405.541	77.56
405.765	86.56
405.988	100.56
406.212	61.56
406.436	74.56
406.66	92.56
406.883	97.56
407.107	89.56
407.331	77.56
407.555	87.56
407.778	88.56
408.002	81.56
408.226	82.56
408.449	66.56
408.673	78.56
408.896	89.56
409.12	93.56
409.344	89.56
409.567	87.56
409.791	73.56
410.014	92.56
410.238	91.56
410.461	93.56
410.685	94.56
410.908	85.56
411.132	80.56
411.355	83.56
411.578	80.56
411.802	68.56
412.025	66.56
412.249	90.56
412.472	82.56
412.695	91.56
412.919	78.56
413.142	74.56
413.365	81.56
413.589	80.56
413.812	66.56
414.035	78.56
414.258	69.56
414.482	86.56
414.705	70.56
414.928	78.56
415.151	84.56
415.374	73.56
415.597	62.56
415.821	77.56
416.044	77.56
416.267	80.56
416.49	80.56
416.713	78.56
416.936	71.56
417.159	65.56
417.382	72.56
417.605	68.56
417.828	90.56
418.051	89.56
418.274	86.56
418.497	67.56
418.72	83.56
418.943	74.56
419.166	76.56
419.389	91.56
419.611	78.56
419.834	85.56
420.057	74.56
420.28	80.56
420.503	81.56
420.726	89.56
420.948	77.56
421.171	83.56
421.394	69.56
421.617	81.56
421.839	90.56
422.062	82.56
422.285	81.56
422.507	75.56
422.73	86.56
422.953	68.56
423.175	77.56
423.398	88.56
423.621	81.56
423.843	72.56
424.066	77.56
424.288	80.56
424.511	86.56
424.733	86.56
424.956	89.56
425.178	88.56
425.401	82.56
425.623	78.56
425.846	77.56
426.068	78.56
426.291	72.56
426.513	79.56
426.735	89.56
426.958	77.56
427.18	84.56
427.402	90.56
427.625	69.56
427.847	76.56
428.069	96.56
428.292	84.56
428.514	80.56
428.736	81.56
428.958	74.56
429.181	89.56
429.403	73.56
429.625	72.56
429.847	85.56
430.069	79.56
430.292	89.56
430.514	70.56
430.736	81.56
430.958	83.56
431.18	74.56
431.402	78.56
431.624	80.56
431.846	70.56
432.068	78.56
432.29	83.56
432.512	75.56
432.734	71.56
432.956	81.56
433.178	85.56
433.4	91.56
433.622	69.56
433.844	86.56
434.066	91.56
434.287	79.56
434.509	81.56
434.731	75.56
434.953	86.56
435.175	81.56
435.397	86.56
435.618	81.56
435.84	81.56
436.062	83.56
436.284	79.56
436.505	88.56
436.727	76.56
436.949	69.56
437.17	66.56
437.392	65.56
437.614	74.56
437.835	80.56
438.057	82.56
438.278	76.56
438.5	69.56
438.721	69.56
438.943	69.56
439.165	73.56
439.386	84.56
439.608	81.56
439.829	79.56
440.05	78.56
440.272	73.56
440.493	70.56
440.715	81.56
440.936	90.56
441.158	71.56
441.379	86.56
441.6	81.56
441.822	75.56
442.043	70.56
442.264	84.56
442.486	69.56
442.707	82.56
442.928	74.56
443.149	65.56
443.371	70.56
443.592	83.56
443.813	93.56
444.034	82.56
444.255	76.56
444.476	81.56
444.698	85.56
444.919	67.56
445.14	141.56
445.361	101.56
445.582	88.56
445.803	80.56
446.024	81.56
446.245	106.56
446.466	88.56
446.687	75.56
446.908	88.56
447.129	86.56
447.35	80.56
447.571	64.56
447.792	80.56
448.013	83.56
448.234	62.56
448.455	94.56
448.675	88.56
448.896	78.56
449.117	92.56
449.338	82.56
449.559	79.56
449.779	81.56
450	81.56
450.221	77.56
450.442	68.56
450.662	76.56
450.883	94.56
451.104	81.56
451.324	89.56
451.545	86.56
451.766	84.56
451.986	79.56
452.207	93.56
452.428	71.56
452.648	92.56
452.869	76.56
453.089	87.56
453.31	76.56
453.53	73.56
453.751	88.56
453.971	94.56
454.192	68.56
454.412	67.56
454.633	76.56
454.853	71.56
455.073	83.56
455.294	74.56
455.514	92.56
455.734	85.56
455.955	75.56
456.175	78.56
456.395	84.56
456.616	66.56
456.836	95.56
457.056	80.56
457.276	88.56
457.497	69.56
457.717	63.56
457.937	81.56
458.157	74.56
458.377	91.56
458.598	74.56
458.818	71.56
459.038	85.56
459.258	77.56
459.478	77.56
459.698	88.56
459.918	98.56
460.138	83.56
460.358	82.56
460.578	92.56
460.798	85.56
461.018	72.56
461.238	71.56
461.458	80.56
461.678	82.56
461.898	76.56
462.118	81.56
462.338	69.56
462.558	82.56
462.777	75.56
462.997	84.56
463.217	76.56
463.437	78.56
463.657	77.56
463.876	81.56
464.096	86.56
464.316	83.56
464.536	86.56
464.755	76.56
464.975	88.56
465.195	77.56
465.414	75.56
465.634	74.56
465.854	78.56
466.073	81.56
466.293	74.56
466.512	81.56
466.732	75.56
466.951	85.56
467.171	80.56
467.391	83.56
467.61	67.56
467.829	85.56
468.049	78.56
468.268	79.56
468.488	67.56
468.707	71.56
468.927	69.56
469.146	78.56
469.365	74.56
469.585	77.56
469.804	73.56
470.023	83.56
470.243	81.56
470.462	90.56
470.681	89.56
470.901	70.56
471.12	64.56
471.339	84.56
471.558	76.56
471.777	85.56
471.997	89.56
472.216	80.56
472.435	86.56
472.654	91.56
472.873	90.56
473.092	89.56
473.311	70.56
473.53	87.56
473.749	84.56
473.968	80.56
474.187	76.56
474.406	88.56
474.625	77.56
474.844	82.56
475.063	73.56
475.282	85.56
475.501	84.56
475.72	76.56
475.939	85.56
476.158	81.56
476.377	73.56
476.596	75.56
476.814	89.56
477.033	68.56
477.252	76.56
477.471	85.56
477.69	78.56
477.908	81.56
478.127	70.56
478.346	71.56
478.564	78.56
478.783	69.56
479.002	80.56
479.22	75.56
479.439	73.56
479.658	84.56
479.876	82.56
480.095	82.56
480.313	78.56
480.532	76.56
480.751	78.56
480.969	75.56
481.188	86.56
481.406	90.56
481.624	82.56
481.843	77.56
482.061	75.56
482.28	70.56
482.498	80.56
482.717	72.56
482.935	71.56
483.153	70.56
483.372	78.56
483.59	84.56
483.808	77.56
484.027	73.56
484.245	86.56
484.463	77.56
484.681	90.56
484.9	82.56
485.118	82.56
485.336	65.56
485.554	82.56
485.772	68.56
485.99	82.56
486.209	91.56
486.427	71.56
486.645	74.56
486.863	78.56
487.081	71.56
487.299	81.56
487.517	77.56
487.735	94.56
487.953	81.56
488.171	86.56
488.389	79.56
488.607	74.56
488.825	80.56
489.043	75.56
489.261	86.56
489.479	81.56
489.696	73.56
489.914	71.56
490.132	76.56
490.35	75.56
490.568	70.56
490.786	82.56
491.003	69.56
491.221	73.56
491.439	86.56
491.657	78.56
491.874	94.56
492.092	85.56
492.31	79.56
492.527	83.56
492.745	77.56
492.963	72.56
493.18	71.56
493.398	77.56
493.615	72.56
493.833	80.56
494.05	80.56
494.268	79.56
494.485	82.56
494.703	83.56
494.92	88.56
495.138	93.56
495.355	75.56
495.573	79.56
495.79	83.56
496.008	66.56
496.225	90.56
496.442	101.56
496.66	83.56
496.877	83.56
497.094	84.56
497.312	79.56
497.529	88.56
497.746	72.56
497.963	75.56
498.181	74.56
498.398	79.56
498.615	69.56
498.832	74.56
499.049	66.56
499.267	77.56
499.484	69.56
499.701	90.56
499.918	90.56
500.135	79.56
500.352	85.56
500.569	73.56
500.786	69.56
501.003	72.56
501.22	82.56
501.437	79.56
501.654	80.56
501.871	85.56
502.088	78.56
502.305	84.56
502.522	76.56
502.739	83.56
502.956	81.56
503.172	85.56
503.389	96.56
503.606	91.56
503.823	80.56
504.04	64.56
504.256	82.56
504.473	89.56
504.69	77.56
504.907	86.56
505.123	93.56
505.34	70.56
505.557	80.56
505.773	88.56
505.99	69.56
506.207	88.56
506.423	76.56
506.64	68.56
506.856	85.56
507.073	71.56
507.289	80.56
507.506	84.56
507.722	85.56
507.939	86.56
508.155	69.56
508.372	78.56
508.588	79.56
508.805	87.56
509.021	75.56
509.238	85.56
509.454	62.56
509.67	87.56
509.887	63.56
510.103	92.56
510.319	82.56
510.536	71.56
510.752	82.56
510.968	83.56
511.184	76.56
511.401	81.56
511.617	78.56
511.833	77.56
512.049	73.56
512.265	90.56
512.481	80.56
512.698	81.56
512.914	87.56
513.13	76.56
513.346	66.56
513.562	70.56
513.778	78.56
513.994	99.56
514.21	72.56
514.426	86.56
514.642	84.56
514.858	85.56
515.074	80.56
515.29	91.56
515.506	86.56
515.721	70.56
515.937	84.56
516.153	84.56
516.369	67.56
516.585	75.56
516.801	93.56
517.016	77.56
517.232	79.56
517.448	78.56
517.664	80.56
517.879	74.56
518.095	77.56
518.311	91.56
518.527	91.56
518.742	80.56
518.958	84.56
519.173	74.56
519.389	71.56
519.605	83.56
519.82	69.56
520.036	77.56
