Data from Background_2_HRD10591_00042.txt Node
Date: Wed Nov 05 14:47:18 EST 2025
User: Yrep
Spectrometer: HR+D1059
Trigger mode: 1
Integration Time (sec): 1.000000E-1
Scans to average: 1
Electric dark correction enabled: true
Nonlinearity correction enabled: false
Boxcar width: 0
XAxis mode: Wavelengths
Number of Pixels in Spectrum: 2048
>>>>>Begin Spectral Data<<<<<
223.165	-24.12
223.4	-24.12
223.635	-24.12
223.869	1.88
224.104	-8.12
224.338	-15.12
224.573	-14.12
224.808	-7.12
225.042	-15.12
225.277	-7.12
225.511	-11.12
225.746	-2.12
225.98	5.88
226.215	9.88
226.449	11.88
226.683	21.88
226.918	15.88
227.152	36.88
227.387	39.88
227.621	44.88
227.856	43.88
228.09	44.88
228.324	49.88
228.559	57.88
228.793	51.88
229.027	59.88
229.262	59.88
229.496	70.88
229.73	67.88
229.964	76.88
230.199	65.88
230.433	76.88
230.667	79.88
230.901	76.88
231.136	85.88
231.37	87.88
231.604	79.88
231.838	88.88
232.072	79.88
232.306	78.88
232.541	78.88
232.775	87.88
233.009	83.88
233.243	75.88
233.477	77.88
233.711	79.88
233.945	70.88
234.179	81.88
234.413	85.88
234.647	82.88
234.881	90.88
235.115	81.88
235.349	85.88
235.583	97.88
235.817	89.88
236.051	82.88
236.285	83.88
236.519	67.88
236.753	60.88
236.987	69.88
237.221	72.88
237.455	75.88
237.689	78.88
237.922	59.88
238.156	87.88
238.39	79.88
238.624	69.88
238.858	67.88
239.091	68.88
239.325	72.88
239.559	69.88
239.793	75.88
240.027	88.88
240.26	80.88
240.494	75.88
240.728	70.88
240.961	79.88
241.195	75.88
241.429	88.88
241.662	68.88
241.896	70.88
242.13	66.88
242.363	67.88
242.597	77.88
242.83	73.88
243.064	65.88
243.298	72.88
243.531	71.88
243.765	68.88
243.998	67.88
244.232	92.88
244.465	91.88
244.699	84.88
244.932	73.88
245.166	80.88
245.399	79.88
245.633	78.88
245.866	86.88
246.099	77.88
246.333	79.88
246.566	76.88
246.8	81.88
247.033	83.88
247.266	72.88
247.5	71.88
247.733	75.88
247.966	81.88
248.2	84.88
248.433	78.88
248.666	94.88
248.899	89.88
249.133	75.88
249.366	82.88
249.599	93.88
249.832	83.88
250.066	90.88
250.299	91.88
250.532	84.88
250.765	83.88
250.998	88.88
251.231	87.88
251.465	80.88
251.698	85.88
251.931	82.88
252.164	68.88
252.397	88.88
252.63	81.88
252.863	79.88
253.096	75.88
253.329	84.88
253.562	69.88
253.795	80.88
254.028	64.88
254.261	77.88
254.494	81.88
254.727	82.88
254.96	87.88
255.193	88.88
255.426	86.88
255.659	80.88
255.892	82.88
256.124	76.88
256.357	79.88
256.59	71.88
256.823	75.88
257.056	95.88
257.289	74.88
257.521	87.88
257.754	81.88
257.987	60.88
258.22	80.88
258.452	80.88
258.685	66.88
258.918	67.88
259.151	77.88
259.383	73.88
259.616	77.88
259.849	73.88
260.081	78.88
260.314	73.88
260.547	83.88
260.779	83.88
261.012	65.88
261.244	84.88
261.477	83.88
261.71	95.88
261.942	85.88
262.175	84.88
262.407	80.88
262.64	81.88
262.872	74.88
263.105	84.88
263.337	78.88
263.57	79.88
263.802	77.88
264.035	90.88
264.267	81.88
264.499	79.88
264.732	83.88
264.964	83.88
265.197	62.88
265.429	90.88
265.661	77.88
265.894	79.88
266.126	85.88
266.358	84.88
266.591	69.88
266.823	64.88
267.055	90.88
267.287	78.88
267.52	79.88
267.752	78.88
267.984	76.88
268.216	93.88
268.448	87.88
268.681	91.88
268.913	92.88
269.145	73.88
269.377	83.88
269.609	91.88
269.841	93.88
270.073	89.88
270.306	84.88
270.538	91.88
270.77	73.88
271.002	81.88
271.234	76.88
271.466	92.88
271.698	84.88
271.93	82.88
272.162	93.88
272.394	76.88
272.626	72.88
272.858	73.88
273.09	75.88
273.322	83.88
273.553	86.88
273.785	89.88
274.017	82.88
274.249	67.88
274.481	73.88
274.713	84.88
274.945	82.88
275.176	75.88
275.408	62.88
275.64	89.88
275.872	86.88
276.104	91.88
276.335	92.88
276.567	90.88
276.799	80.88
277.031	65.88
277.262	80.88
277.494	95.88
277.726	78.88
277.957	88.88
278.189	76.88
278.421	74.88
278.652	77.88
278.884	97.88
279.115	82.88
279.347	57.88
279.579	85.88
279.81	80.88
280.042	84.88
280.273	78.88
280.505	66.88
280.736	83.88
280.968	82.88
281.199	75.88
281.431	72.88
281.662	82.88
281.894	67.88
282.125	82.88
282.356	75.88
282.588	88.88
282.819	79.88
283.051	61.88
283.282	85.88
283.513	79.88
283.745	91.88
283.976	93.88
284.207	74.88
284.439	85.88
284.67	89.88
284.901	95.88
285.132	82.88
285.364	87.88
285.595	84.88
285.826	91.88
286.057	87.88
286.288	62.88
286.52	91.88
286.751	80.88
286.982	103.88
287.213	78.88
287.444	63.88
287.675	85.88
287.906	81.88
288.138	77.88
288.369	83.88
288.6	85.88
288.831	81.88
289.062	91.88
289.293	81.88
289.524	104.88
289.755	89.88
289.986	83.88
290.217	93.88
290.448	75.88
290.679	84.88
290.91	86.88
291.141	73.88
291.371	80.88
291.602	74.88
291.833	94.88
292.064	74.88
292.295	90.88
292.526	92.88
292.757	83.88
292.987	89.88
293.218	80.88
293.449	80.88
293.68	77.88
293.91	97.88
294.141	83.88
294.372	79.88
294.603	90.88
294.833	82.88
295.064	87.88
295.295	76.88
295.525	81.88
295.756	89.88
295.987	81.88
296.217	87.88
296.448	81.88
296.679	83.88
296.909	89.88
297.14	80.88
297.37	78.88
297.601	80.88
297.831	77.88
298.062	77.88
298.292	70.88
298.523	81.88
298.753	81.88
298.984	78.88
299.214	87.88
299.445	82.88
299.675	89.88
299.905	85.88
300.136	85.88
300.366	88.88
300.597	72.88
300.827	81.88
301.057	85.88
301.288	93.88
301.518	89.88
301.748	83.88
301.979	95.88
302.209	97.88
302.439	77.88
302.669	76.88
302.9	88.88
303.13	103.88
303.36	94.88
303.59	93.88
303.82	65.88
304.051	85.88
304.281	80.88
304.511	87.88
304.741	87.88
304.971	65.88
305.201	88.88
305.431	79.88
305.661	70.88
305.891	83.88
306.121	76.88
306.352	87.88
306.582	68.88
306.812	97.88
307.042	75.88
307.272	81.88
307.502	88.88
307.731	72.88
307.961	77.88
308.191	65.88
308.421	95.88
308.651	71.88
308.881	67.88
309.111	97.88
309.341	76.88
309.571	61.88
309.8	82.88
310.03	82.88
310.26	77.88
310.49	90.88
310.72	81.88
310.949	75.88
311.179	97.88
311.409	87.88
311.639	72.88
311.868	78.88
312.098	89.88
312.328	79.88
312.557	93.88
312.787	83.88
313.017	92.88
313.246	67.88
313.476	81.88
313.706	84.88
313.935	88.88
314.165	87.88
314.394	73.88
314.624	92.88
314.853	88.88
315.083	87.88
315.312	81.88
315.542	73.88
315.771	88.88
316.001	75.88
316.23	88.88
316.46	85.88
316.689	82.88
316.919	83.88
317.148	78.88
317.377	91.88
317.607	84.88
317.836	87.88
318.065	98.88
318.295	98.88
318.524	84.88
318.753	77.88
318.983	80.88
319.212	68.88
319.441	98.88
319.67	79.88
319.9	75.88
320.129	84.88
320.358	82.88
320.587	75.88
320.816	76.88
321.046	89.88
321.275	90.88
321.504	76.88
321.733	75.88
321.962	83.88
322.191	77.88
322.42	79.88
322.649	83.88
322.878	99.88
323.108	82.88
323.337	82.88
323.566	81.88
323.795	81.88
324.024	82.88
324.253	88.88
324.482	82.88
324.71	98.88
324.939	82.88
325.168	84.88
325.397	82.88
325.626	76.88
325.855	75.88
326.084	66.88
326.313	79.88
326.542	88.88
326.77	83.88
326.999	83.88
327.228	84.88
327.457	78.88
327.686	79.88
327.914	77.88
328.143	88.88
328.372	90.88
328.6	84.88
328.829	82.88
329.058	75.88
329.287	78.88
329.515	72.88
329.744	78.88
329.972	81.88
330.201	88.88
330.43	87.88
330.658	88.88
330.887	77.88
331.115	70.88
331.344	81.88
331.572	91.88
331.801	89.88
332.03	88.88
332.258	85.88
332.486	87.88
332.715	84.88
332.943	81.88
333.172	94.88
333.4	89.88
333.629	74.88
333.857	79.88
334.085	75.88
334.314	76.88
334.542	83.88
334.771	81.88
334.999	75.88
335.227	88.88
335.455	72.88
335.684	90.88
335.912	81.88
336.14	77.88
336.369	85.88
336.597	86.88
336.825	99.88
337.053	83.88
337.281	80.88
337.51	76.88
337.738	93.88
337.966	90.88
338.194	74.88
338.422	75.88
338.65	81.88
338.878	73.88
339.106	75.88
339.334	79.88
339.562	89.88
339.79	81.88
340.018	91.88
340.246	90.88
340.474	82.88
340.702	76.88
340.93	82.88
341.158	83.88
341.386	81.88
341.614	82.88
341.842	97.88
342.07	85.88
342.298	72.88
342.526	88.88
342.754	82.88
342.981	73.88
343.209	75.88
343.437	87.88
343.665	64.88
343.893	83.88
344.12	82.88
344.348	85.88
344.576	99.88
344.804	78.88
345.031	87.88
345.259	94.88
345.487	81.88
345.714	98.88
345.942	87.88
346.17	85.88
346.397	79.88
346.625	74.88
346.853	95.88
347.08	73.88
347.308	94.88
347.535	75.88
347.763	88.88
347.99	93.88
348.218	79.88
348.445	78.88
348.673	73.88
348.9	89.88
349.128	88.88
349.355	75.88
349.583	87.88
349.81	69.88
350.037	76.88
350.265	92.88
350.492	74.88
350.72	79.88
350.947	82.88
351.174	83.88
351.402	87.88
351.629	84.88
351.856	80.88
352.083	76.88
352.311	78.88
352.538	88.88
352.765	87.88
352.992	83.88
353.22	89.88
353.447	83.88
353.674	84.88
353.901	79.88
354.128	80.88
354.355	89.88
354.583	75.88
354.81	89.88
355.037	79.88
355.264	85.88
355.491	78.88
355.718	79.88
355.945	79.88
356.172	85.88
356.399	87.88
356.626	70.88
356.853	78.88
357.08	96.88
357.307	77.88
357.534	87.88
357.761	85.88
357.988	86.88
358.215	83.88
358.441	83.88
358.668	74.88
358.895	86.88
359.122	78.88
359.349	81.88
359.576	85.88
359.802	73.88
360.029	84.88
360.256	84.88
360.483	89.88
360.709	92.88
360.936	91.88
361.163	87.88
361.39	72.88
361.616	87.88
361.843	82.88
362.07	83.88
362.296	83.88
362.523	81.88
362.749	78.88
362.976	83.88
363.203	84.88
363.429	83.88
363.656	97.88
363.882	83.88
364.109	75.88
364.335	69.88
364.562	90.88
364.788	83.88
365.015	87.88
365.241	83.88
365.468	95.88
365.694	70.88
365.92	67.88
366.147	86.88
366.373	80.88
366.599	79.88
366.826	83.88
367.052	89.88
367.278	93.88
367.505	74.88
367.731	83.88
367.957	86.88
368.184	81.88
368.41	75.88
368.636	72.88
368.862	77.88
369.089	92.88
369.315	89.88
369.541	89.88
369.767	73.88
369.993	67.88
370.219	79.88
370.445	71.88
370.672	74.88
370.898	69.88
371.124	76.88
371.35	79.88
371.576	83.88
371.802	85.88
372.028	79.88
372.254	88.88
372.48	83.88
372.706	82.88
372.932	91.88
373.158	86.88
373.384	90.88
373.61	72.88
373.835	68.88
374.061	73.88
374.287	70.88
374.513	83.88
374.739	83.88
374.965	75.88
375.191	70.88
375.416	73.88
375.642	89.88
375.868	87.88
376.094	74.88
376.319	72.88
376.545	81.88
376.771	73.88
376.997	80.88
377.222	78.88
377.448	68.88
377.674	76.88
377.899	71.88
378.125	70.88
378.35	80.88
378.576	96.88
378.802	79.88
379.027	87.88
379.253	85.88
379.478	89.88
379.704	75.88
379.929	82.88
380.155	81.88
380.38	88.88
380.606	85.88
380.831	83.88
381.057	82.88
381.282	83.88
381.507	82.88
381.733	84.88
381.958	75.88
382.184	77.88
382.409	80.88
382.634	89.88
382.86	87.88
383.085	83.88
383.31	78.88
383.535	93.88
383.761	88.88
383.986	79.88
384.211	76.88
384.436	63.88
384.662	59.88
384.887	77.88
385.112	79.88
385.337	77.88
385.562	80.88
385.787	65.88
386.013	79.88
386.238	81.88
386.463	71.88
386.688	98.88
386.913	88.88
387.138	91.88
387.363	75.88
387.588	85.88
387.813	95.88
388.038	84.88
388.263	77.88
388.488	79.88
388.713	77.88
388.938	87.88
389.163	79.88
389.387	80.88
389.612	81.88
389.837	72.88
390.062	75.88
390.287	76.88
390.512	82.88
390.736	79.88
390.961	76.88
391.186	87.88
391.411	73.88
391.636	84.88
391.86	83.88
392.085	69.88
392.31	81.88
392.534	75.88
392.759	75.88
392.984	75.88
393.208	72.88
393.433	75.88
393.658	80.88
393.882	85.88
394.107	97.88
394.331	87.88
394.556	84.88
394.78	82.88
395.005	85.88
395.229	60.88
395.454	78.88
395.678	79.88
395.903	66.88
396.127	73.88
396.352	77.88
396.576	87.88
396.801	83.88
397.025	72.88
397.249	83.88
397.474	73.88
397.698	89.88
397.922	79.88
398.147	85.88
398.371	74.88
398.595	73.88
398.82	83.88
399.044	84.88
399.268	71.88
399.492	79.88
399.717	79.88
399.941	76.88
400.165	84.88
400.389	76.88
400.613	84.88
400.837	76.88
401.062	90.88
401.286	71.88
401.51	80.88
401.734	78.88
401.958	73.88
402.182	85.88
402.406	77.88
402.63	76.88
402.854	86.88
403.078	98.88
403.302	69.88
403.526	79.88
403.75	91.88
403.974	83.88
404.198	75.88
404.422	64.88
404.645	77.88
404.869	76.88
405.093	83.88
405.317	77.88
405.541	78.88
405.765	77.88
405.988	82.88
406.212	81.88
406.436	76.88
406.66	65.88
406.883	75.88
407.107	70.88
407.331	81.88
407.555	83.88
407.778	76.88
408.002	81.88
408.226	81.88
408.449	86.88
408.673	74.88
408.896	83.88
409.12	85.88
409.344	88.88
409.567	74.88
409.791	91.88
410.014	97.88
410.238	90.88
410.461	69.88
410.685	63.88
410.908	61.88
411.132	76.88
411.355	77.88
411.578	89.88
411.802	87.88
412.025	77.88
412.249	69.88
412.472	85.88
412.695	64.88
412.919	72.88
413.142	81.88
413.365	74.88
413.589	77.88
413.812	77.88
414.035	74.88
414.258	70.88
414.482	80.88
414.705	76.88
414.928	78.88
415.151	75.88
415.374	87.88
415.597	83.88
415.821	76.88
416.044	82.88
416.267	77.88
416.49	85.88
416.713	70.88
416.936	93.88
417.159	97.88
417.382	81.88
417.605	64.88
417.828	98.88
418.051	69.88
418.274	80.88
418.497	67.88
418.72	74.88
418.943	84.88
419.166	81.88
419.389	77.88
419.611	87.88
419.834	88.88
420.057	73.88
420.28	79.88
420.503	72.88
420.726	94.88
420.948	63.88
421.171	86.88
421.394	86.88
421.617	76.88
421.839	84.88
422.062	85.88
422.285	73.88
422.507	89.88
422.73	72.88
422.953	75.88
423.175	89.88
423.398	74.88
423.621	80.88
423.843	84.88
424.066	88.88
424.288	75.88
424.511	68.88
424.733	67.88
424.956	68.88
425.178	77.88
425.401	68.88
425.623	85.88
425.846	82.88
426.068	66.88
426.291	76.88
426.513	67.88
426.735	67.88
426.958	74.88
427.18	57.88
427.402	92.88
427.625	74.88
427.847	80.88
428.069	87.88
428.292	61.88
428.514	74.88
428.736	71.88
428.958	83.88
429.181	69.88
429.403	84.88
429.625	74.88
429.847	81.88
430.069	85.88
430.292	83.88
430.514	76.88
430.736	73.88
430.958	77.88
431.18	76.88
431.402	68.88
431.624	75.88
431.846	85.88
432.068	79.88
432.29	79.88
432.512	86.88
432.734	74.88
432.956	83.88
433.178	82.88
433.4	89.88
433.622	83.88
433.844	98.88
434.066	81.88
434.287	70.88
434.509	76.88
434.731	78.88
434.953	81.88
435.175	75.88
435.397	79.88
435.618	75.88
435.84	69.88
436.062	77.88
436.284	68.88
436.505	89.88
436.727	70.88
436.949	75.88
437.17	76.88
437.392	87.88
437.614	78.88
437.835	76.88
438.057	82.88
438.278	70.88
438.5	83.88
438.721	81.88
438.943	84.88
439.165	78.88
439.386	75.88
439.608	87.88
439.829	94.88
440.05	75.88
440.272	61.88
440.493	73.88
440.715	88.88
440.936	78.88
441.158	87.88
441.379	68.88
441.6	81.88
441.822	91.88
442.043	76.88
442.264	72.88
442.486	83.88
442.707	80.88
442.928	83.88
443.149	84.88
443.371	79.88
443.592	57.88
443.813	68.88
444.034	81.88
444.255	83.88
444.476	78.88
444.698	85.88
444.919	82.88
445.14	147.88
445.361	95.88
445.582	80.88
445.803	94.88
446.024	75.88
446.245	75.88
446.466	76.88
446.687	78.88
446.908	82.88
447.129	92.88
447.35	77.88
447.571	88.88
447.792	97.88
448.013	75.88
448.234	75.88
448.455	70.88
448.675	81.88
448.896	81.88
449.117	72.88
449.338	78.88
449.559	79.88
449.779	84.88
450	68.88
450.221	84.88
450.442	77.88
450.662	67.88
450.883	77.88
451.104	77.88
451.324	83.88
451.545	88.88
451.766	78.88
451.986	71.88
452.207	79.88
452.428	93.88
452.648	88.88
452.869	73.88
453.089	81.88
453.31	89.88
453.53	92.88
453.751	80.88
453.971	87.88
454.192	77.88
454.412	73.88
454.633	89.88
454.853	76.88
455.073	84.88
455.294	87.88
455.514	73.88
455.734	84.88
455.955	92.88
456.175	78.88
456.395	62.88
456.616	70.88
456.836	91.88
457.056	79.88
457.276	77.88
457.497	79.88
457.717	87.88
457.937	88.88
458.157	73.88
458.377	73.88
458.598	77.88
458.818	95.88
459.038	75.88
459.258	77.88
459.478	80.88
459.698	64.88
459.918	65.88
460.138	76.88
460.358	71.88
460.578	78.88
460.798	80.88
461.018	60.88
461.238	71.88
461.458	73.88
461.678	80.88
461.898	74.88
462.118	63.88
462.338	78.88
462.558	88.88
462.777	79.88
462.997	91.88
463.217	78.88
463.437	70.88
463.657	94.88
463.876	78.88
464.096	68.88
464.316	74.88
464.536	80.88
464.755	85.88
464.975	78.88
465.195	92.88
465.414	71.88
465.634	81.88
465.854	82.88
466.073	75.88
466.293	73.88
466.512	77.88
466.732	91.88
466.951	81.88
467.171	73.88
467.391	75.88
467.61	80.88
467.829	85.88
468.049	78.88
468.268	80.88
468.488	80.88
468.707	82.88
468.927	93.88
469.146	91.88
469.365	81.88
469.585	81.88
469.804	69.88
470.023	80.88
470.243	81.88
470.462	75.88
470.681	81.88
470.901	78.88
471.12	71.88
471.339	83.88
471.558	75.88
471.777	71.88
471.997	70.88
472.216	77.88
472.435	65.88
472.654	67.88
472.873	96.88
473.092	69.88
473.311	80.88
473.53	82.88
473.749	79.88
473.968	73.88
474.187	70.88
474.406	73.88
474.625	73.88
474.844	75.88
475.063	80.88
475.282	71.88
475.501	88.88
475.72	83.88
475.939	69.88
476.158	77.88
476.377	83.88
476.596	77.88
476.814	83.88
477.033	76.88
477.252	76.88
477.471	78.88
477.69	77.88
477.908	81.88
478.127	75.88
478.346	77.88
478.564	58.88
478.783	81.88
479.002	79.88
479.22	82.88
479.439	79.88
479.658	79.88
479.876	75.88
480.095	78.88
480.313	77.88
480.532	74.88
480.751	80.88
480.969	83.88
481.188	91.88
481.406	87.88
481.624	81.88
481.843	75.88
482.061	73.88
482.28	78.88
482.498	79.88
482.717	76.88
482.935	87.88
483.153	80.88
483.372	77.88
483.59	72.88
483.808	89.88
484.027	81.88
484.245	72.88
484.463	83.88
484.681	79.88
484.9	72.88
485.118	80.88
485.336	77.88
485.554	84.88
485.772	67.88
485.99	89.88
486.209	79.88
486.427	79.88
486.645	60.88
486.863	88.88
487.081	82.88
487.299	77.88
487.517	87.88
487.735	85.88
487.953	93.88
488.171	82.88
488.389	71.88
488.607	80.88
488.825	71.88
489.043	77.88
489.261	79.88
489.479	80.88
489.696	62.88
489.914	89.88
490.132	60.88
490.35	77.88
490.568	81.88
490.786	73.88
491.003	74.88
491.221	82.88
491.439	87.88
491.657	65.88
491.874	87.88
492.092	76.88
492.31	81.88
492.527	71.88
492.745	85.88
492.963	71.88
493.18	89.88
493.398	88.88
493.615	80.88
493.833	84.88
494.05	83.88
494.268	73.88
494.485	78.88
494.703	83.88
494.92	80.88
495.138	82.88
495.355	63.88
495.573	71.88
495.79	75.88
496.008	67.88
496.225	77.88
496.442	76.88
496.66	88.88
496.877	86.88
497.094	86.88
497.312	91.88
497.529	72.88
497.746	76.88
497.963	84.88
498.181	76.88
498.398	74.88
498.615	70.88
498.832	76.88
499.049	90.88
499.267	87.88
499.484	72.88
499.701	91.88
499.918	79.88
500.135	85.88
500.352	87.88
500.569	87.88
500.786	76.88
501.003	92.88
501.22	76.88
501.437	77.88
501.654	81.88
501.871	75.88
502.088	71.88
502.305	90.88
502.522	87.88
502.739	82.88
502.956	70.88
503.172	92.88
503.389	82.88
503.606	80.88
503.823	73.88
504.04	61.88
504.256	71.88
504.473	82.88
504.69	90.88
504.907	87.88
505.123	88.88
505.34	77.88
505.557	77.88
505.773	81.88
505.99	94.88
506.207	80.88
506.423	65.88
506.64	81.88
506.856	82.88
507.073	77.88
507.289	74.88
507.506	95.88
507.722	82.88
507.939	88.88
508.155	81.88
508.372	68.88
508.588	89.88
508.805	80.88
509.021	69.88
509.238	63.88
509.454	89.88
509.67	83.88
509.887	75.88
510.103	79.88
510.319	70.88
510.536	90.88
510.752	80.88
510.968	82.88
511.184	83.88
511.401	83.88
511.617	83.88
511.833	84.88
512.049	60.88
512.265	73.88
512.481	76.88
512.698	78.88
512.914	81.88
513.13	79.88
513.346	77.88
513.562	75.88
513.778	91.88
513.994	75.88
514.21	80.88
514.426	73.88
514.642	88.88
514.858	84.88
515.074	76.88
515.29	81.88
515.506	90.88
515.721	83.88
515.937	80.88
516.153	78.88
516.369	88.88
516.585	82.88
516.801	75.88
517.016	87.88
517.232	70.88
517.448	60.88
517.664	69.88
517.879	79.88
518.095	77.88
518.311	68.88
518.527	77.88
518.742	82.88
518.958	77.88
519.173	74.88
519.389	76.88
519.605	81.88
519.82	86.88
520.036	74.88
520.251	70.88
