Data from Background_2_HRD10591_00098.txt Node
Date: Wed Nov 05 14:47:45 EST 2025
User: Yrep
Spectrometer: HR+D1059
Trigger mode: 1
Integration Time (sec): 1.000000E-1
Scans to average: 1
Electric dark correction enabled: true
Nonlinearity correction enabled: false
Boxcar width: 0
XAxis mode: Wavelengths
Number of Pixels in Spectrum: 2048
>>>>>Begin Spectral Data<<<<<
223.165	-8
223.4	-8
223.635	-8
223.869	-27
224.104	-33
224.338	-20
224.573	-14
224.808	-7
225.042	-5
225.277	-6
225.511	-16
225.746	8
225.98	7
226.215	12
226.449	29
226.683	30
226.918	19
227.152	31
227.387	41
227.621	36
227.856	46
228.09	43
228.324	64
228.559	60
228.793	69
229.027	63
229.262	73
229.496	68
229.73	77
229.964	75
230.199	81
230.433	89
230.667	87
230.901	84
231.136	70
231.37	66
231.604	83
231.838	91
232.072	81
232.306	81
232.541	66
232.775	79
233.009	87
233.243	84
233.477	88
233.711	74
233.945	72
234.179	86
234.413	70
234.647	82
234.881	86
235.115	80
235.349	77
235.583	79
235.817	76
236.051	90
236.285	83
236.519	71
236.753	73
236.987	73
237.221	78
237.455	69
237.689	68
237.922	89
238.156	80
238.39	71
238.624	77
238.858	84
239.091	86
239.325	84
239.559	74
239.793	81
240.027	97
240.26	66
240.494	73
240.728	73
240.961	73
241.195	79
241.429	77
241.662	88
241.896	79
242.13	70
242.363	70
242.597	81
242.83	75
243.064	71
243.298	77
243.531	86
243.765	69
243.998	74
244.232	71
244.465	71
244.699	80
244.932	83
245.166	78
245.399	85
245.633	72
245.866	77
246.099	87
246.333	81
246.566	80
246.8	93
247.033	67
247.266	75
247.5	88
247.733	75
247.966	87
248.2	82
248.433	76
248.666	84
248.899	102
249.133	84
249.366	75
249.599	69
249.832	87
250.066	84
250.299	76
250.532	85
250.765	82
250.998	84
251.231	77
251.465	78
251.698	77
251.931	70
252.164	79
252.397	85
252.63	84
252.863	81
253.096	79
253.329	81
253.562	75
253.795	99
254.028	83
254.261	75
254.494	79
254.727	81
254.96	80
255.193	79
255.426	77
255.659	84
255.892	97
256.124	80
256.357	84
256.59	84
256.823	82
257.056	95
257.289	80
257.521	85
257.754	69
257.987	75
258.22	87
258.452	77
258.685	84
258.918	89
259.151	72
259.383	97
259.616	86
259.849	98
260.081	74
260.314	69
260.547	80
260.779	70
261.012	89
261.244	100
261.477	97
261.71	67
261.942	86
262.175	91
262.407	90
262.64	84
262.872	77
263.105	77
263.337	81
263.57	79
263.802	72
264.035	87
264.267	78
264.499	76
264.732	89
264.964	74
265.197	81
265.429	79
265.661	86
265.894	85
266.126	81
266.358	69
266.591	75
266.823	71
267.055	84
267.287	75
267.52	81
267.752	92
267.984	98
268.216	85
268.448	85
268.681	91
268.913	86
269.145	91
269.377	81
269.609	66
269.841	84
270.073	89
270.306	83
270.538	89
270.77	77
271.002	96
271.234	96
271.466	87
271.698	73
271.93	76
272.162	70
272.394	87
272.626	87
272.858	82
273.09	89
273.322	89
273.553	91
273.785	90
274.017	76
274.249	77
274.481	85
274.713	77
274.945	81
275.176	97
275.408	82
275.64	85
275.872	63
276.104	91
276.335	76
276.567	84
276.799	82
277.031	83
277.262	89
277.494	87
277.726	81
277.957	101
278.189	83
278.421	92
278.652	83
278.884	77
279.115	90
279.347	77
279.579	83
279.81	87
280.042	99
280.273	82
280.505	80
280.736	91
280.968	78
281.199	93
281.431	91
281.662	78
281.894	83
282.125	82
282.356	84
282.588	84
282.819	78
283.051	83
283.282	85
283.513	81
283.745	85
283.976	77
284.207	97
284.439	88
284.67	98
284.901	93
285.132	93
285.364	89
285.595	76
285.826	81
286.057	86
286.288	90
286.52	94
286.751	93
286.982	99
287.213	83
287.444	75
287.675	81
287.906	84
288.138	79
288.369	79
288.6	91
288.831	68
289.062	73
289.293	83
289.524	77
289.755	95
289.986	88
290.217	81
290.448	86
290.679	86
290.91	95
291.141	98
291.371	89
291.602	85
291.833	95
292.064	84
292.295	72
292.526	86
292.757	80
292.987	89
293.218	88
293.449	91
293.68	93
293.91	90
294.141	85
294.372	79
294.603	77
294.833	70
295.064	83
295.295	98
295.525	105
295.756	94
295.987	85
296.217	85
296.448	85
296.679	82
296.909	83
297.14	94
297.37	85
297.601	79
297.831	85
298.062	88
298.292	69
298.523	85
298.753	94
298.984	85
299.214	85
299.445	87
299.675	101
299.905	87
300.136	86
300.366	82
300.597	99
300.827	79
301.057	69
301.288	95
301.518	92
301.748	99
301.979	102
302.209	79
302.439	85
302.669	93
302.9	87
303.13	75
303.36	85
303.59	85
303.82	96
304.051	79
304.281	89
304.511	95
304.741	86
304.971	83
305.201	84
305.431	105
305.661	83
305.891	79
306.121	83
306.352	87
306.582	84
306.812	86
307.042	96
307.272	81
307.502	87
307.731	86
307.961	89
308.191	97
308.421	87
308.651	83
308.881	75
309.111	85
309.341	94
309.571	81
309.8	94
310.03	86
310.26	83
310.49	86
310.72	67
310.949	78
311.179	82
311.409	84
311.639	85
311.868	77
312.098	92
312.328	72
312.557	83
312.787	91
313.017	87
313.246	79
313.476	87
313.706	91
313.935	77
314.165	83
314.394	84
314.624	82
314.853	86
315.083	77
315.312	78
315.542	77
315.771	94
316.001	87
316.23	98
316.46	81
316.689	83
316.919	86
317.148	79
317.377	92
317.607	92
317.836	98
318.065	77
318.295	93
318.524	85
318.753	80
318.983	68
319.212	77
319.441	90
319.67	84
319.9	91
320.129	89
320.358	88
320.587	95
320.816	81
321.046	73
321.275	86
321.504	70
321.733	71
321.962	75
322.191	93
322.42	91
322.649	84
322.878	89
323.108	85
323.337	78
323.566	82
323.795	96
324.024	97
324.253	80
324.482	81
324.71	81
324.939	82
325.168	85
325.397	81
325.626	84
325.855	84
326.084	92
326.313	89
326.542	82
326.77	85
326.999	81
327.228	84
327.457	87
327.686	90
327.914	101
328.143	67
328.372	89
328.6	81
328.829	81
329.058	91
329.287	83
329.515	79
329.744	79
329.972	80
330.201	86
330.43	89
330.658	90
330.887	84
331.115	77
331.344	84
331.572	88
331.801	89
332.03	95
332.258	91
332.486	84
332.715	94
332.943	85
333.172	85
333.4	88
333.629	78
333.857	62
334.085	78
334.314	89
334.542	75
334.771	90
334.999	93
335.227	76
335.455	84
335.684	93
335.912	82
336.14	77
336.369	87
336.597	91
336.825	92
337.053	87
337.281	84
337.51	77
337.738	97
337.966	74
338.194	84
338.422	79
338.65	91
338.878	76
339.106	88
339.334	100
339.562	79
339.79	86
340.018	94
340.246	89
340.474	79
340.702	78
340.93	64
341.158	83
341.386	69
341.614	92
341.842	76
342.07	74
342.298	93
342.526	82
342.754	93
342.981	93
343.209	75
343.437	89
343.665	61
343.893	86
344.12	82
344.348	85
344.576	102
344.804	94
345.031	80
345.259	86
345.487	84
345.714	92
345.942	87
346.17	80
346.397	89
346.625	77
346.853	85
347.08	86
347.308	94
347.535	86
347.763	80
347.99	91
348.218	79
348.445	86
348.673	81
348.9	83
349.128	74
349.355	94
349.583	82
349.81	86
350.037	86
350.265	75
350.492	84
350.72	71
350.947	84
351.174	87
351.402	79
351.629	77
351.856	97
352.083	83
352.311	84
352.538	84
352.765	84
352.992	72
353.22	89
353.447	80
353.674	87
353.901	83
354.128	83
354.355	75
354.583	87
354.81	93
355.037	95
355.264	89
355.491	77
355.718	79
355.945	87
356.172	81
356.399	71
356.626	85
356.853	92
357.08	84
357.307	89
357.534	83
357.761	94
357.988	86
358.215	81
358.441	73
358.668	86
358.895	71
359.122	77
359.349	90
359.576	80
359.802	71
360.029	76
360.256	92
360.483	80
360.709	89
360.936	87
361.163	84
361.39	102
361.616	96
361.843	86
362.07	81
362.296	86
362.523	77
362.749	85
362.976	72
363.203	77
363.429	83
363.656	91
363.882	87
364.109	92
364.335	77
364.562	84
364.788	81
365.015	92
365.241	84
365.468	83
365.694	85
365.92	86
366.147	89
366.373	83
366.599	82
366.826	89
367.052	83
367.278	83
367.505	93
367.731	76
367.957	85
368.184	98
368.41	77
368.636	79
368.862	77
369.089	82
369.315	84
369.541	101
369.767	75
369.993	92
370.219	63
370.445	83
370.672	76
370.898	75
371.124	69
371.35	85
371.576	99
371.802	82
372.028	79
372.254	95
372.48	86
372.706	76
372.932	86
373.158	86
373.384	77
373.61	84
373.835	94
374.061	76
374.287	86
374.513	85
374.739	92
374.965	74
375.191	83
375.416	79
375.642	79
375.868	78
376.094	92
376.319	90
376.545	90
376.771	82
376.997	90
377.222	74
377.448	91
377.674	86
377.899	85
378.125	88
378.35	87
378.576	86
378.802	68
379.027	81
379.253	85
379.478	93
379.704	92
379.929	73
380.155	77
380.38	94
380.606	81
380.831	72
381.057	85
381.282	68
381.507	66
381.733	90
381.958	71
382.184	74
382.409	80
382.634	82
382.86	78
383.085	79
383.31	81
383.535	73
383.761	99
383.986	76
384.211	85
384.436	86
384.662	78
384.887	73
385.112	81
385.337	87
385.562	89
385.787	84
386.013	79
386.238	75
386.463	79
386.688	82
386.913	76
387.138	76
387.363	94
387.588	69
387.813	79
388.038	72
388.263	81
388.488	84
388.713	79
388.938	91
389.163	86
389.387	79
389.612	78
389.837	76
390.062	84
390.287	86
390.512	85
390.736	80
390.961	79
391.186	94
391.411	93
391.636	73
391.86	94
392.085	74
392.31	91
392.534	81
392.759	83
392.984	92
393.208	77
393.433	101
393.658	85
393.882	107
394.107	82
394.331	85
394.556	92
394.78	90
395.005	72
395.229	73
395.454	74
395.678	85
395.903	75
396.127	83
396.352	72
396.576	80
396.801	85
397.025	82
397.249	85
397.474	95
397.698	91
397.922	86
398.147	77
398.371	72
398.595	81
398.82	81
399.044	67
399.268	87
399.492	78
399.717	88
399.941	79
400.165	81
400.389	74
400.613	94
400.837	91
401.062	75
401.286	79
401.51	73
401.734	85
401.958	79
402.182	75
402.406	84
402.63	93
402.854	86
403.078	76
403.302	86
403.526	93
403.75	76
403.974	83
404.198	93
404.422	77
404.645	75
404.869	85
405.093	82
405.317	92
405.541	95
405.765	80
405.988	89
406.212	88
406.436	86
406.66	89
406.883	84
407.107	83
407.331	75
407.555	76
407.778	88
408.002	75
408.226	87
408.449	73
408.673	92
408.896	83
409.12	82
409.344	89
409.567	71
409.791	79
410.014	78
410.238	77
410.461	79
410.685	83
410.908	81
411.132	90
411.355	67
411.578	75
411.802	61
412.025	84
412.249	85
412.472	76
412.695	84
412.919	82
413.142	79
413.365	95
413.589	91
413.812	71
414.035	95
414.258	85
414.482	90
414.705	71
414.928	77
415.151	61
415.374	90
415.597	79
415.821	80
416.044	78
416.267	80
416.49	89
416.713	83
416.936	84
417.159	75
417.382	81
417.605	78
417.828	71
418.051	83
418.274	88
418.497	89
418.72	90
418.943	75
419.166	84
419.389	68
419.611	65
419.834	87
420.057	78
420.28	66
420.503	79
420.726	66
420.948	92
421.171	73
421.394	93
421.617	99
421.839	75
422.062	91
422.285	74
422.507	91
422.73	83
422.953	75
423.175	71
423.398	60
423.621	90
423.843	82
424.066	85
424.288	75
424.511	84
424.733	83
424.956	82
425.178	82
425.401	83
425.623	95
425.846	89
426.068	91
426.291	83
426.513	89
426.735	83
426.958	101
427.18	71
427.402	85
427.625	83
427.847	94
428.069	92
428.292	86
428.514	83
428.736	84
428.958	86
429.181	84
429.403	84
429.625	86
429.847	74
430.069	71
430.292	87
430.514	86
430.736	93
430.958	83
431.18	77
431.402	85
431.624	76
431.846	93
432.068	81
432.29	98
432.512	81
432.734	79
432.956	80
433.178	86
433.4	95
433.622	86
433.844	91
434.066	88
434.287	82
434.509	89
434.731	78
434.953	75
435.175	77
435.397	84
435.618	74
435.84	78
436.062	77
436.284	79
436.505	82
436.727	83
436.949	78
437.17	84
437.392	71
437.614	77
437.835	95
438.057	97
438.278	93
438.5	79
438.721	78
438.943	82
439.165	80
439.386	83
439.608	82
439.829	93
440.05	89
440.272	67
440.493	89
440.715	78
440.936	77
441.158	71
441.379	71
441.6	66
441.822	84
442.043	92
442.264	85
442.486	98
442.707	73
442.928	89
443.149	80
443.371	85
443.592	84
443.813	87
444.034	83
444.255	83
444.476	67
444.698	73
444.919	77
445.14	145
445.361	123
445.582	82
445.803	73
446.024	84
446.245	93
446.466	92
446.687	79
446.908	77
447.129	73
447.35	86
447.571	81
447.792	81
448.013	82
448.234	83
448.455	66
448.675	88
448.896	75
449.117	75
449.338	72
449.559	79
449.779	85
450	89
450.221	79
450.442	82
450.662	85
450.883	79
451.104	97
451.324	71
451.545	80
451.766	79
451.986	89
452.207	73
452.428	79
452.648	76
452.869	75
453.089	93
453.31	71
453.53	76
453.751	95
453.971	96
454.192	73
454.412	73
454.633	91
454.853	82
455.073	81
455.294	74
455.514	87
455.734	75
455.955	81
456.175	103
456.395	77
456.616	72
456.836	89
457.056	96
457.276	87
457.497	78
457.717	83
457.937	87
458.157	81
458.377	79
458.598	92
458.818	87
459.038	84
459.258	86
459.478	84
459.698	84
459.918	86
460.138	74
460.358	81
460.578	90
460.798	67
461.018	88
461.238	83
461.458	78
461.678	71
461.898	84
462.118	73
462.338	81
462.558	75
462.777	76
462.997	81
463.217	77
463.437	92
463.657	95
463.876	81
464.096	87
464.316	71
464.536	77
464.755	75
464.975	86
465.195	89
465.414	89
465.634	82
465.854	90
466.073	88
466.293	75
466.512	77
466.732	81
466.951	80
467.171	71
467.391	87
467.61	74
467.829	92
468.049	96
468.268	94
468.488	86
468.707	78
468.927	87
469.146	80
469.365	70
469.585	84
469.804	91
470.023	81
470.243	82
470.462	94
470.681	86
470.901	83
471.12	79
471.339	83
471.558	90
471.777	86
471.997	79
472.216	82
472.435	80
472.654	95
472.873	82
473.092	80
473.311	107
473.53	77
473.749	78
473.968	71
474.187	90
474.406	70
474.625	77
474.844	83
475.063	81
475.282	81
475.501	83
475.72	80
475.939	99
476.158	85
476.377	91
476.596	85
476.814	88
477.033	73
477.252	86
477.471	93
477.69	80
477.908	89
478.127	92
478.346	92
478.564	82
478.783	79
479.002	88
479.22	87
479.439	84
479.658	82
479.876	77
480.095	77
480.313	83
480.532	95
480.751	78
480.969	82
481.188	84
481.406	95
481.624	82
481.843	69
482.061	86
482.28	92
482.498	82
482.717	80
482.935	80
483.153	76
483.372	74
483.59	89
483.808	84
484.027	91
484.245	86
484.463	77
484.681	79
484.9	91
485.118	83
485.336	86
485.554	79
485.772	83
485.99	84
486.209	89
486.427	89
486.645	89
486.863	93
487.081	83
487.299	81
487.517	85
487.735	90
487.953	76
488.171	90
488.389	90
488.607	74
488.825	91
489.043	76
489.261	94
489.479	100
489.696	76
489.914	82
490.132	102
490.35	81
490.568	89
490.786	80
491.003	79
491.221	77
491.439	85
491.657	76
491.874	86
492.092	81
492.31	76
492.527	86
492.745	80
492.963	75
493.18	91
493.398	92
493.615	79
493.833	94
494.05	75
494.268	85
494.485	81
494.703	66
494.92	65
495.138	96
495.355	83
495.573	84
495.79	88
496.008	65
496.225	82
496.442	70
496.66	89
496.877	87
497.094	82
497.312	86
497.529	96
497.746	85
497.963	89
498.181	71
498.398	84
498.615	92
498.832	95
499.049	90
499.267	89
499.484	86
499.701	85
499.918	85
500.135	74
500.352	97
500.569	93
500.786	72
501.003	81
501.22	80
501.437	89
501.654	82
501.871	98
502.088	77
502.305	77
502.522	80
502.739	95
502.956	83
503.172	90
503.389	87
503.606	81
503.823	90
504.04	79
504.256	82
504.473	83
504.69	67
504.907	82
505.123	97
505.34	81
505.557	72
505.773	90
505.99	82
506.207	74
506.423	76
506.64	90
506.856	89
507.073	90
507.289	78
507.506	86
507.722	84
507.939	80
508.155	83
508.372	90
508.588	98
508.805	94
509.021	92
509.238	80
509.454	95
509.67	75
509.887	79
510.103	75
510.319	90
510.536	90
510.752	74
510.968	93
511.184	83
511.401	77
511.617	79
511.833	77
512.049	90
512.265	71
512.481	87
512.698	84
512.914	82
513.13	72
513.346	87
513.562	79
513.778	88
513.994	85
514.21	78
514.426	84
514.642	93
514.858	105
515.074	90
515.29	86
515.506	83
515.721	89
515.937	87
516.153	85
516.369	83
516.585	84
516.801	93
517.016	84
517.232	93
517.448	79
517.664	79
517.879	73
518.095	71
518.311	79
518.527	84
518.742	80
518.958	82
519.173	76
519.389	86
519.605	80
519.82	84
520.036	86
520.251	69
520.467	82
520.682	86
520.898	93
521.113	98
521.329	80
521.544	86
521.76	72
521.975	83
522.19	95
522.406	90
522.621	86
522.836	80
523.052	77
523.267	86
523.482	95
523.698	75
523.913	95
524.128	83
524.343	78
524.559	78
524.774	82
524.989	80
525.204	94
525.419	101
525.634	74
525.849	97
526.064	86
526.28	82
526.495	84
526.71	74
526.925	77
527.14	77
527.355	86
527.57	81
527.785	85
527.999	85
528.214	83
528.429	73
528.644	83
528.859	103
529.074	79
529.289	97
529.503	82
529.718	81
529.933	65
530.148	68
530.363	84
530.577	83
530.792	78
531.007	93
531.221	82
531.436	89
531.651	89
531.865	85
532.08	71
532.295	81
532.509	77
532.724	65
532.938	75
533.153	96
533.367	105
533.582	86
533.796	90
534.011	88
534.225	87
534.44	70
534.654	86
534.868	73
535.083	100
535.297	83
535.511	86
535.726	75
535.94	80
536.154	92
536.369	93
536.583	90
536.797	102
537.011	91
537.225	92
537.44	89
537.654	81
537.868	86
538.082	88
538.296	89
538.51	81
538.724	98
538.938	91
539.153	69
539.367	84
539.581	81
539.795	77
540.009	81
540.222	94
540.436	89
540.65	77
540.864	96
541.078	77
541.292	85
541.506	77
541.72	73
541.934	91
542.147	87
542.361	69
542.575	80
542.789	90
543.002	74
543.216	89
543.43	92
543.644	86
543.857	93
544.071	91
544.285	90
544.498	83
544.712	94
544.925	77
545.139	75
545.352	91
545.566	87
545.779	91
545.993	83
546.206	87
546.42	110
546.633	87
546.847	84
547.06	83
547.274	95
547.487	83
547.7	91
547.914	78
548.127	93
548.34	86
548.554	93
548.767	86
548.98	95
549.193	87
549.407	73
549.62	82
549.833	87
550.046	85
550.259	78
550.473	74
550.686	86
550.899	97
551.112	82
551.325	82
551.538	68
551.751	79
551.964	100
552.177	81
552.39	92
552.603	86
552.816	87
553.029	94
553.242	98
553.455	86
553.667	82
553.88	91
554.093	87
554.306	88
554.519	75
554.732	82
554.944	84
555.157	87
555.37	75
555.583	85
555.795	86
556.008	93
556.221	77
556.433	75
556.646	101
556.859	103
557.071	81
557.284	95
557.496	87
557.709	74
557.921	84
558.134	88
558.346	85
558.559	99
558.771	86
558.984	90
559.196	94
559.409	92
559.621	91
559.833	88
560.046	76
560.258	85
560.47	81
560.683	94
560.895	86
561.107	85
561.32	83
561.532	83
561.744	98
561.956	87
562.168	92
562.381	79
562.593	87
562.805	99
563.017	72
563.229	86
563.441	82
563.653	80
563.865	88
564.077	92
564.289	83
564.501	79
564.713	86
564.925	100
565.137	91
565.349	78
565.561	95
565.773	79
565.985	84
566.197	95
566.408	81
566.62	75
566.832	79
567.044	89
567.255	81
567.467	93
567.679	86
567.891	79
568.102	94
568.314	86
568.526	92
568.737	83
568.949	79
569.161	74
569.372	98
569.584	86
569.795	93
570.007	77
570.218	95
570.43	67
570.641	77
570.853	76
571.064	87
571.276	94
571.487	90
571.698	67
571.91	81
572.121	80
572.333	89
572.544	84
572.755	87
572.966	77
573.178	96
573.389	90
573.6	83
573.811	93
574.023	90
574.234	77
574.445	91
574.656	83
574.867	82
575.078	95
575.289	94
575.501	93
575.712	93
575.923	85
576.134	89
576.345	81
576.556	87
576.767	91
576.978	88
577.188	84
577.399	97
577.61	92
577.821	95
578.032	78
578.243	81
578.454	97
578.665	80
578.875	85
579.086	81
579.297	82
579.508	85
579.718	91
579.929	80
580.14	84
580.35	88
580.561	73
580.772	82
580.982	84
581.193	99
581.403	91
581.614	84
581.825	86
582.035	92
582.246	102
582.456	87
582.667	81
582.877	81
583.087	83
583.298	92
583.508	89
583.719	83
583.929	98
584.139	91
584.35	81
584.56	82
584.77	73
584.981	87
585.191	83
585.401	87
585.611	86
585.821	84
586.032	95
586.242	86
586.452	93
586.662	93
586.872	95
587.082	80
587.292	87
587.502	95
587.713	86
587.923	86
588.133	86
588.343	89
588.553	79
588.762	91
588.972	93
589.182	77
589.392	68
589.602	75
589.812	93
590.022	105
590.232	95
590.441	81
