Data from Background_2_HRD10591_00082.txt Node
Date: Wed Nov 05 14:47:37 EST 2025
User: Yrep
Spectrometer: HR+D1059
Trigger mode: 1
Integration Time (sec): 1.000000E-1
Scans to average: 1
Electric dark correction enabled: true
Nonlinearity correction enabled: false
Boxcar width: 0
XAxis mode: Wavelengths
Number of Pixels in Spectrum: 2048
>>>>>Begin Spectral Data<<<<<
223.165	-16.81
223.4	-16.81
223.635	-16.81
223.869	-15.81
224.104	-21.81
224.338	-9.81
224.573	-26.81
224.808	-13.81
225.042	-10.81
225.277	-8.81
225.511	-4.81
225.746	-1.81
225.98	13.19
226.215	20.19
226.449	12.19
226.683	21.19
226.918	28.19
227.152	36.19
227.387	36.19
227.621	28.19
227.856	39.19
228.09	41.19
228.324	43.19
228.559	67.19
228.793	51.19
229.027	63.19
229.262	66.19
229.496	60.19
229.73	59.19
229.964	55.19
230.199	76.19
230.433	86.19
230.667	68.19
230.901	76.19
231.136	66.19
231.37	71.19
231.604	75.19
231.838	76.19
232.072	74.19
232.306	77.19
232.541	81.19
232.775	89.19
233.009	67.19
233.243	76.19
233.477	73.19
233.711	81.19
233.945	70.19
234.179	73.19
234.413	61.19
234.647	86.19
234.881	91.19
235.115	77.19
235.349	66.19
235.583	69.19
235.817	79.19
236.051	67.19
236.285	85.19
236.519	71.19
236.753	83.19
236.987	73.19
237.221	62.19
237.455	80.19
237.689	73.19
237.922	65.19
238.156	74.19
238.39	69.19
238.624	74.19
238.858	62.19
239.091	74.19
239.325	66.19
239.559	71.19
239.793	79.19
240.027	63.19
240.26	71.19
240.494	71.19
240.728	72.19
240.961	83.19
241.195	71.19
241.429	73.19
241.662	79.19
241.896	66.19
242.13	68.19
242.363	70.19
242.597	61.19
242.83	81.19
243.064	79.19
243.298	73.19
243.531	80.19
243.765	71.19
243.998	78.19
244.232	73.19
244.465	69.19
244.699	72.19
244.932	78.19
245.166	72.19
245.399	67.19
245.633	84.19
245.866	78.19
246.099	65.19
246.333	72.19
246.566	71.19
246.8	89.19
247.033	75.19
247.266	76.19
247.5	71.19
247.733	63.19
247.966	75.19
248.2	64.19
248.433	92.19
248.666	83.19
248.899	62.19
249.133	65.19
249.366	82.19
249.599	85.19
249.832	78.19
250.066	85.19
250.299	65.19
250.532	78.19
250.765	79.19
250.998	69.19
251.231	75.19
251.465	74.19
251.698	78.19
251.931	79.19
252.164	72.19
252.397	67.19
252.63	77.19
252.863	73.19
253.096	83.19
253.329	64.19
253.562	92.19
253.795	71.19
254.028	75.19
254.261	71.19
254.494	72.19
254.727	75.19
254.96	56.19
255.193	72.19
255.426	76.19
255.659	77.19
255.892	88.19
256.124	83.19
256.357	79.19
256.59	74.19
256.823	67.19
257.056	88.19
257.289	75.19
257.521	69.19
257.754	67.19
257.987	78.19
258.22	73.19
258.452	62.19
258.685	69.19
258.918	71.19
259.151	82.19
259.383	71.19
259.616	69.19
259.849	81.19
260.081	81.19
260.314	75.19
260.547	79.19
260.779	69.19
261.012	79.19
261.244	68.19
261.477	90.19
261.71	77.19
261.942	76.19
262.175	78.19
262.407	89.19
262.64	75.19
262.872	85.19
263.105	84.19
263.337	74.19
263.57	94.19
263.802	63.19
264.035	69.19
264.267	75.19
264.499	65.19
264.732	75.19
264.964	70.19
265.197	85.19
265.429	82.19
265.661	76.19
265.894	83.19
266.126	99.19
266.358	84.19
266.591	67.19
266.823	66.19
267.055	83.19
267.287	80.19
267.52	71.19
267.752	75.19
267.984	85.19
268.216	75.19
268.448	77.19
268.681	83.19
268.913	77.19
269.145	68.19
269.377	65.19
269.609	76.19
269.841	101.19
270.073	85.19
270.306	91.19
270.538	80.19
270.77	71.19
271.002	73.19
271.234	65.19
271.466	71.19
271.698	71.19
271.93	78.19
272.162	63.19
272.394	78.19
272.626	89.19
272.858	83.19
273.09	73.19
273.322	86.19
273.553	86.19
273.785	73.19
274.017	94.19
274.249	63.19
274.481	86.19
274.713	86.19
274.945	80.19
275.176	78.19
275.408	79.19
275.64	66.19
275.872	103.19
276.104	79.19
276.335	77.19
276.567	78.19
276.799	72.19
277.031	76.19
277.262	83.19
277.494	85.19
277.726	86.19
277.957	80.19
278.189	70.19
278.421	79.19
278.652	93.19
278.884	87.19
279.115	70.19
279.347	91.19
279.579	75.19
279.81	79.19
280.042	67.19
280.273	85.19
280.505	73.19
280.736	75.19
280.968	75.19
281.199	78.19
281.431	75.19
281.662	85.19
281.894	77.19
282.125	83.19
282.356	65.19
282.588	69.19
282.819	82.19
283.051	72.19
283.282	88.19
283.513	78.19
283.745	74.19
283.976	87.19
284.207	72.19
284.439	87.19
284.67	87.19
284.901	80.19
285.132	77.19
285.364	81.19
285.595	82.19
285.826	77.19
286.057	73.19
286.288	87.19
286.52	89.19
286.751	79.19
286.982	79.19
287.213	72.19
287.444	72.19
287.675	91.19
287.906	93.19
288.138	78.19
288.369	82.19
288.6	88.19
288.831	71.19
289.062	84.19
289.293	70.19
289.524	75.19
289.755	89.19
289.986	76.19
290.217	72.19
290.448	85.19
290.679	80.19
290.91	85.19
291.141	79.19
291.371	89.19
291.602	73.19
291.833	82.19
292.064	81.19
292.295	87.19
292.526	70.19
292.757	76.19
292.987	75.19
293.218	82.19
293.449	83.19
293.68	80.19
293.91	65.19
294.141	82.19
294.372	78.19
294.603	87.19
294.833	89.19
295.064	65.19
295.295	75.19
295.525	74.19
295.756	76.19
295.987	89.19
296.217	67.19
296.448	85.19
296.679	86.19
296.909	83.19
297.14	84.19
297.37	78.19
297.601	83.19
297.831	78.19
298.062	73.19
298.292	71.19
298.523	79.19
298.753	75.19
298.984	85.19
299.214	77.19
299.445	86.19
299.675	89.19
299.905	86.19
300.136	78.19
300.366	82.19
300.597	86.19
300.827	70.19
301.057	92.19
301.288	85.19
301.518	75.19
301.748	77.19
301.979	81.19
302.209	86.19
302.439	77.19
302.669	77.19
302.9	79.19
303.13	74.19
303.36	83.19
303.59	78.19
303.82	77.19
304.051	65.19
304.281	69.19
304.511	94.19
304.741	72.19
304.971	89.19
305.201	87.19
305.431	69.19
305.661	82.19
305.891	87.19
306.121	81.19
306.352	85.19
306.582	90.19
306.812	81.19
307.042	75.19
307.272	67.19
307.502	79.19
307.731	79.19
307.961	85.19
308.191	70.19
308.421	81.19
308.651	75.19
308.881	79.19
309.111	78.19
309.341	88.19
309.571	88.19
309.8	76.19
310.03	66.19
310.26	87.19
310.49	72.19
310.72	75.19
310.949	72.19
311.179	66.19
311.409	78.19
311.639	66.19
311.868	74.19
312.098	70.19
312.328	85.19
312.557	79.19
312.787	74.19
313.017	87.19
313.246	93.19
313.476	80.19
313.706	76.19
313.935	86.19
314.165	80.19
314.394	83.19
314.624	73.19
314.853	86.19
315.083	67.19
315.312	71.19
315.542	78.19
315.771	79.19
316.001	82.19
316.23	75.19
316.46	72.19
316.689	82.19
316.919	78.19
317.148	70.19
317.377	80.19
317.607	85.19
317.836	74.19
318.065	68.19
318.295	60.19
318.524	76.19
318.753	70.19
318.983	75.19
319.212	61.19
319.441	84.19
319.67	64.19
319.9	89.19
320.129	73.19
320.358	80.19
320.587	81.19
320.816	71.19
321.046	83.19
321.275	81.19
321.504	79.19
321.733	89.19
321.962	75.19
322.191	90.19
322.42	75.19
322.649	73.19
322.878	78.19
323.108	72.19
323.337	89.19
323.566	80.19
323.795	77.19
324.024	82.19
324.253	82.19
324.482	82.19
324.71	77.19
324.939	76.19
325.168	65.19
325.397	81.19
325.626	83.19
325.855	75.19
326.084	75.19
326.313	79.19
326.542	80.19
326.77	71.19
326.999	84.19
327.228	85.19
327.457	88.19
327.686	74.19
327.914	86.19
328.143	96.19
328.372	91.19
328.6	89.19
328.829	77.19
329.058	83.19
329.287	69.19
329.515	69.19
329.744	81.19
329.972	76.19
330.201	79.19
330.43	86.19
330.658	83.19
330.887	83.19
331.115	94.19
331.344	79.19
331.572	77.19
331.801	80.19
332.03	72.19
332.258	88.19
332.486	84.19
332.715	77.19
332.943	60.19
333.172	64.19
333.4	81.19
333.629	70.19
333.857	87.19
334.085	77.19
334.314	89.19
334.542	77.19
334.771	84.19
334.999	80.19
335.227	76.19
335.455	76.19
335.684	77.19
335.912	81.19
336.14	72.19
336.369	78.19
336.597	80.19
336.825	86.19
337.053	84.19
337.281	66.19
337.51	79.19
337.738	80.19
337.966	75.19
338.194	64.19
338.422	79.19
338.65	75.19
338.878	88.19
339.106	76.19
339.334	86.19
339.562	73.19
339.79	66.19
340.018	77.19
340.246	70.19
340.474	77.19
340.702	82.19
340.93	72.19
341.158	77.19
341.386	89.19
341.614	79.19
341.842	74.19
342.07	74.19
342.298	76.19
342.526	76.19
342.754	80.19
342.981	71.19
343.209	74.19
343.437	103.19
343.665	76.19
343.893	69.19
344.12	83.19
344.348	77.19
344.576	82.19
344.804	79.19
345.031	69.19
345.259	80.19
345.487	81.19
345.714	72.19
345.942	61.19
346.17	66.19
346.397	80.19
346.625	79.19
346.853	75.19
347.08	71.19
347.308	85.19
347.535	80.19
347.763	84.19
347.99	80.19
348.218	81.19
348.445	87.19
348.673	99.19
348.9	67.19
349.128	93.19
349.355	81.19
349.583	76.19
349.81	83.19
350.037	75.19
350.265	75.19
350.492	71.19
350.72	66.19
350.947	77.19
351.174	94.19
351.402	80.19
351.629	80.19
351.856	71.19
352.083	77.19
352.311	82.19
352.538	77.19
352.765	85.19
352.992	88.19
353.22	85.19
353.447	74.19
353.674	71.19
353.901	83.19
354.128	80.19
354.355	79.19
354.583	66.19
354.81	82.19
355.037	71.19
355.264	75.19
355.491	84.19
355.718	70.19
355.945	73.19
356.172	84.19
356.399	74.19
356.626	76.19
356.853	88.19
357.08	89.19
357.307	76.19
357.534	77.19
357.761	84.19
357.988	77.19
358.215	81.19
358.441	76.19
358.668	60.19
358.895	67.19
359.122	83.19
359.349	73.19
359.576	88.19
359.802	86.19
360.029	76.19
360.256	78.19
360.483	77.19
360.709	91.19
360.936	84.19
361.163	81.19
361.39	81.19
361.616	65.19
361.843	79.19
362.07	92.19
362.296	77.19
362.523	79.19
362.749	70.19
362.976	72.19
363.203	80.19
363.429	72.19
363.656	91.19
363.882	70.19
364.109	83.19
364.335	87.19
364.562	73.19
364.788	64.19
365.015	89.19
365.241	85.19
365.468	78.19
365.694	90.19
365.92	81.19
366.147	78.19
366.373	76.19
366.599	77.19
366.826	84.19
367.052	78.19
367.278	73.19
367.505	89.19
367.731	91.19
367.957	64.19
368.184	85.19
368.41	70.19
368.636	78.19
368.862	78.19
369.089	59.19
369.315	67.19
369.541	81.19
369.767	80.19
369.993	79.19
370.219	89.19
370.445	72.19
370.672	77.19
370.898	91.19
371.124	71.19
371.35	75.19
371.576	83.19
371.802	63.19
372.028	72.19
372.254	79.19
372.48	91.19
372.706	75.19
372.932	73.19
373.158	86.19
373.384	89.19
373.61	91.19
373.835	80.19
374.061	56.19
374.287	85.19
374.513	73.19
374.739	81.19
374.965	80.19
375.191	83.19
375.416	71.19
375.642	74.19
375.868	67.19
376.094	86.19
376.319	82.19
376.545	75.19
376.771	79.19
376.997	78.19
377.222	72.19
377.448	82.19
377.674	78.19
377.899	63.19
378.125	79.19
378.35	88.19
378.576	74.19
378.802	63.19
379.027	72.19
379.253	89.19
379.478	66.19
379.704	85.19
379.929	88.19
380.155	81.19
380.38	77.19
380.606	74.19
380.831	70.19
381.057	79.19
381.282	76.19
381.507	81.19
381.733	65.19
381.958	87.19
382.184	83.19
382.409	74.19
382.634	75.19
382.86	72.19
383.085	73.19
383.31	72.19
383.535	82.19
383.761	79.19
383.986	87.19
384.211	85.19
384.436	80.19
384.662	83.19
384.887	65.19
385.112	79.19
385.337	86.19
385.562	80.19
385.787	66.19
386.013	83.19
386.238	73.19
386.463	88.19
386.688	77.19
386.913	73.19
387.138	77.19
387.363	83.19
387.588	72.19
387.813	73.19
388.038	67.19
388.263	67.19
388.488	72.19
388.713	63.19
388.938	68.19
389.163	77.19
389.387	71.19
389.612	77.19
389.837	75.19
390.062	79.19
390.287	74.19
390.512	84.19
390.736	71.19
390.961	78.19
391.186	83.19
391.411	81.19
391.636	71.19
391.86	77.19
392.085	75.19
392.31	77.19
392.534	67.19
392.759	61.19
392.984	67.19
393.208	66.19
393.433	65.19
393.658	88.19
393.882	74.19
394.107	87.19
394.331	71.19
394.556	77.19
394.78	82.19
395.005	79.19
395.229	77.19
395.454	69.19
395.678	65.19
395.903	80.19
396.127	83.19
396.352	67.19
396.576	74.19
396.801	60.19
397.025	74.19
397.249	87.19
397.474	83.19
397.698	71.19
397.922	74.19
398.147	94.19
398.371	84.19
398.595	79.19
398.82	63.19
399.044	68.19
399.268	76.19
399.492	72.19
399.717	73.19
399.941	72.19
400.165	79.19
400.389	79.19
400.613	80.19
400.837	64.19
401.062	85.19
401.286	84.19
401.51	77.19
401.734	81.19
401.958	69.19
402.182	76.19
402.406	84.19
402.63	77.19
402.854	72.19
403.078	75.19
403.302	89.19
403.526	65.19
403.75	72.19
403.974	83.19
404.198	70.19
404.422	67.19
404.645	77.19
404.869	79.19
405.093	72.19
405.317	73.19
405.541	79.19
405.765	71.19
405.988	71.19
406.212	75.19
406.436	87.19
406.66	70.19
406.883	75.19
407.107	73.19
407.331	56.19
407.555	85.19
407.778	83.19
408.002	64.19
408.226	75.19
408.449	75.19
408.673	77.19
408.896	73.19
409.12	75.19
409.344	80.19
409.567	77.19
409.791	87.19
410.014	63.19
410.238	84.19
410.461	73.19
410.685	71.19
410.908	74.19
411.132	72.19
411.355	61.19
411.578	75.19
411.802	83.19
412.025	85.19
412.249	74.19
412.472	71.19
412.695	83.19
412.919	68.19
413.142	86.19
413.365	65.19
413.589	85.19
413.812	78.19
414.035	76.19
414.258	64.19
414.482	69.19
414.705	80.19
414.928	75.19
415.151	75.19
415.374	79.19
415.597	79.19
415.821	66.19
416.044	73.19
416.267	80.19
416.49	70.19
416.713	69.19
416.936	72.19
417.159	70.19
417.382	81.19
417.605	76.19
417.828	63.19
418.051	75.19
418.274	83.19
418.497	80.19
418.72	69.19
418.943	81.19
419.166	89.19
419.389	80.19
419.611	72.19
419.834	71.19
420.057	65.19
420.28	81.19
420.503	72.19
420.726	84.19
420.948	56.19
421.171	90.19
421.394	86.19
421.617	82.19
421.839	90.19
422.062	81.19
422.285	76.19
422.507	69.19
422.73	88.19
422.953	75.19
423.175	74.19
423.398	73.19
423.621	73.19
423.843	72.19
424.066	78.19
424.288	67.19
424.511	81.19
424.733	65.19
424.956	72.19
425.178	76.19
425.401	79.19
425.623	79.19
425.846	84.19
426.068	75.19
426.291	75.19
426.513	77.19
426.735	80.19
426.958	91.19
427.18	80.19
427.402	79.19
427.625	84.19
427.847	71.19
428.069	67.19
428.292	81.19
428.514	73.19
428.736	79.19
428.958	66.19
429.181	81.19
429.403	73.19
429.625	75.19
429.847	90.19
430.069	76.19
430.292	67.19
430.514	75.19
430.736	72.19
430.958	74.19
431.18	71.19
431.402	69.19
431.624	77.19
431.846	76.19
432.068	82.19
432.29	83.19
432.512	96.19
432.734	81.19
432.956	72.19
433.178	75.19
433.4	80.19
433.622	68.19
433.844	79.19
434.066	69.19
434.287	78.19
434.509	72.19
434.731	76.19
434.953	71.19
435.175	85.19
435.397	102.19
435.618	91.19
435.84	71.19
436.062	84.19
436.284	80.19
436.505	89.19
436.727	73.19
436.949	60.19
437.17	63.19
437.392	69.19
437.614	61.19
437.835	74.19
438.057	71.19
438.278	77.19
438.5	78.19
438.721	80.19
438.943	71.19
439.165	83.19
439.386	71.19
439.608	73.19
439.829	81.19
440.05	83.19
440.272	76.19
440.493	78.19
440.715	88.19
440.936	70.19
441.158	85.19
441.379	68.19
441.6	69.19
441.822	77.19
442.043	58.19
442.264	76.19
442.486	86.19
442.707	83.19
442.928	70.19
443.149	69.19
443.371	81.19
443.592	67.19
443.813	89.19
444.034	85.19
444.255	78.19
444.476	66.19
444.698	78.19
444.919	63.19
445.14	143.19
445.361	112.19
445.582	85.19
445.803	79.19
446.024	81.19
446.245	86.19
446.466	73.19
446.687	83.19
446.908	77.19
447.129	89.19
447.35	79.19
447.571	74.19
447.792	79.19
448.013	72.19
448.234	68.19
448.455	60.19
448.675	67.19
448.896	56.19
449.117	75.19
449.338	77.19
449.559	84.19
449.779	73.19
450	73.19
450.221	76.19
450.442	72.19
450.662	77.19
450.883	94.19
451.104	85.19
451.324	73.19
451.545	75.19
451.766	71.19
451.986	84.19
452.207	76.19
452.428	71.19
452.648	77.19
452.869	54.19
453.089	79.19
453.31	79.19
453.53	83.19
453.751	72.19
453.971	66.19
454.192	81.19
454.412	72.19
454.633	79.19
454.853	59.19
455.073	89.19
455.294	71.19
455.514	75.19
455.734	92.19
455.955	69.19
456.175	77.19
456.395	79.19
456.616	83.19
456.836	57.19
457.056	75.19
457.276	86.19
457.497	71.19
457.717	79.19
457.937	91.19
458.157	77.19
458.377	79.19
458.598	74.19
458.818	75.19
459.038	87.19
459.258	78.19
459.478	83.19
459.698	70.19
459.918	74.19
460.138	74.19
460.358	77.19
460.578	74.19
460.798	63.19
461.018	75.19
461.238	87.19
461.458	80.19
461.678	74.19
461.898	76.19
462.118	80.19
462.338	79.19
462.558	72.19
462.777	77.19
462.997	81.19
463.217	75.19
463.437	68.19
463.657	88.19
463.876	78.19
464.096	70.19
464.316	74.19
464.536	72.19
464.755	62.19
464.975	95.19
465.195	87.19
465.414	59.19
465.634	61.19
465.854	76.19
466.073	83.19
466.293	75.19
466.512	81.19
466.732	80.19
466.951	78.19
467.171	71.19
467.391	81.19
467.61	76.19
467.829	70.19
468.049	84.19
468.268	78.19
468.488	72.19
468.707	65.19
468.927	83.19
469.146	79.19
469.365	90.19
469.585	62.19
469.804	83.19
470.023	85.19
470.243	85.19
470.462	83.19
470.681	89.19
470.901	83.19
471.12	82.19
471.339	86.19
471.558	86.19
471.777	77.19
471.997	72.19
472.216	83.19
472.435	70.19
472.654	79.19
472.873	70.19
473.092	76.19
473.311	72.19
473.53	84.19
473.749	75.19
473.968	78.19
474.187	82.19
474.406	74.19
474.625	65.19
474.844	77.19
475.063	89.19
475.282	81.19
475.501	75.19
475.72	82.19
475.939	75.19
476.158	85.19
476.377	91.19
476.596	62.19
476.814	72.19
477.033	62.19
477.252	91.19
477.471	81.19
477.69	78.19
477.908	87.19
478.127	85.19
478.346	61.19
478.564	69.19
478.783	72.19
479.002	59.19
479.22	81.19
479.439	75.19
479.658	77.19
479.876	74.19
480.095	69.19
480.313	59.19
480.532	74.19
480.751	89.19
480.969	76.19
481.188	67.19
481.406	75.19
481.624	82.19
481.843	79.19
482.061	81.19
482.28	77.19
482.498	92.19
482.717	83.19
482.935	66.19
483.153	66.19
483.372	71.19
483.59	70.19
483.808	72.19
484.027	82.19
484.245	91.19
484.463	67.19
484.681	72.19
484.9	75.19
485.118	72.19
485.336	64.19
485.554	73.19
485.772	72.19
485.99	80.19
486.209	75.19
486.427	67.19
486.645	84.19
486.863	78.19
487.081	75.19
487.299	85.19
487.517	70.19
487.735	87.19
487.953	90.19
488.171	77.19
488.389	78.19
488.607	79.19
488.825	81.19
489.043	78.19
489.261	77.19
489.479	80.19
489.696	77.19
489.914	92.19
490.132	84.19
490.35	87.19
490.568	77.19
490.786	90.19
491.003	73.19
491.221	73.19
491.439	82.19
491.657	81.19
491.874	76.19
492.092	68.19
492.31	79.19
492.527	69.19
492.745	69.19
492.963	66.19
493.18	53.19
493.398	77.19
493.615	70.19
493.833	80.19
494.05	83.19
494.268	73.19
494.485	78.19
494.703	74.19
494.92	78.19
495.138	71.19
495.355	80.19
495.573	84.19
495.79	81.19
496.008	81.19
496.225	68.19
496.442	68.19
496.66	64.19
496.877	82.19
497.094	83.19
497.312	68.19
497.529	77.19
497.746	68.19
497.963	85.19
498.181	73.19
498.398	73.19
498.615	87.19
498.832	67.19
499.049	65.19
499.267	81.19
499.484	68.19
499.701	87.19
499.918	87.19
500.135	70.19
500.352	82.19
500.569	87.19
500.786	88.19
501.003	78.19
501.22	66.19
501.437	80.19
501.654	80.19
501.871	92.19
502.088	68.19
502.305	81.19
502.522	78.19
502.739	70.19
502.956	90.19
503.172	79.19
503.389	83.19
503.606	80.19
503.823	75.19
504.04	70.19
504.256	74.19
504.473	73.19
504.69	72.19
504.907	87.19
505.123	83.19
505.34	71.19
505.557	69.19
505.773	85.19
505.99	70.19
506.207	72.19
506.423	86.19
506.64	79.19
506.856	74.19
507.073	77.19
507.289	69.19
507.506	83.19
507.722	82.19
507.939	64.19
508.155	83.19
508.372	67.19
508.588	79.19
508.805	89.19
509.021	83.19
509.238	78.19
509.454	83.19
509.67	89.19
509.887	81.19
510.103	75.19
510.319	84.19
510.536	64.19
510.752	83.19
510.968	71.19
511.184	79.19
511.401	79.19
511.617	74.19
511.833	76.19
512.049	85.19
512.265	81.19
512.481	81.19
512.698	82.19
512.914	64.19
513.13	76.19
513.346	85.19
513.562	71.19
513.778	88.19
513.994	68.19
514.21	79.19
514.426	79.19
514.642	89.19
514.858	85.19
515.074	85.19
515.29	71.19
515.506	85.19
515.721	71.19
515.937	81.19
516.153	73.19
516.369	86.19
516.585	86.19
516.801	64.19
517.016	75.19
517.232	77.19
517.448	67.19
517.664	87.19
517.879	74.19
518.095	95.19
518.311	81.19
518.527	75.19
518.742	85.19
518.958	66.19
519.173	82.19
519.389	89.19
519.605	65.19
519.82	63.19
520.036	82.19
