Data from Background_2_HRD10591_00071.txt Node
Date: Wed Nov 05 14:47:31 EST 2025
User: Yrep
Spectrometer: HR+D1059
Trigger mode: 1
Integration Time (sec): 1.000000E-1
Scans to average: 1
Electric dark correction enabled: true
Nonlinearity correction enabled: false
Boxcar width: 0
XAxis mode: Wavelengths
Number of Pixels in Spectrum: 2048
>>>>>Begin Spectral Data<<<<<
223.165	-10.44
223.4	-10.44
223.635	-10.44
223.869	-14.44
224.104	-6.44
224.338	-8.44
224.573	-10.44
224.808	-8.44
225.042	1.56
225.277	-6.44
225.511	-0.44
225.746	-4.44
225.98	-4.44
226.215	-4.44
226.449	5.56
226.683	12.56
226.918	28.56
227.152	30.56
227.387	36.56
227.621	37.56
227.856	42.56
228.09	48.56
228.324	44.56
228.559	55.56
228.793	63.56
229.027	65.56
229.262	68.56
229.496	59.56
229.73	64.56
229.964	83.56
230.199	73.56
230.433	68.56
230.667	70.56
230.901	80.56
231.136	72.56
231.37	89.56
231.604	86.56
231.838	86.56
232.072	86.56
232.306	81.56
232.541	78.56
232.775	71.56
233.009	84.56
233.243	78.56
233.477	81.56
233.711	84.56
233.945	71.56
234.179	77.56
234.413	69.56
234.647	74.56
234.881	64.56
235.115	79.56
235.349	71.56
235.583	64.56
235.817	69.56
236.051	59.56
236.285	72.56
236.519	71.56
236.753	93.56
236.987	65.56
237.221	94.56
237.455	91.56
237.689	82.56
237.922	74.56
238.156	76.56
238.39	82.56
238.624	75.56
238.858	67.56
239.091	76.56
239.325	84.56
239.559	74.56
239.793	82.56
240.027	88.56
240.26	83.56
240.494	87.56
240.728	79.56
240.961	86.56
241.195	86.56
241.429	76.56
241.662	76.56
241.896	82.56
242.13	82.56
242.363	71.56
242.597	76.56
242.83	81.56
243.064	77.56
243.298	86.56
243.531	73.56
243.765	73.56
243.998	81.56
244.232	77.56
244.465	76.56
244.699	80.56
244.932	77.56
245.166	80.56
245.399	66.56
245.633	75.56
245.866	81.56
246.099	84.56
246.333	82.56
246.566	83.56
246.8	70.56
247.033	75.56
247.266	72.56
247.5	75.56
247.733	82.56
247.966	66.56
248.2	72.56
248.433	82.56
248.666	92.56
248.899	85.56
249.133	86.56
249.366	87.56
249.599	83.56
249.832	77.56
250.066	81.56
250.299	66.56
250.532	90.56
250.765	74.56
250.998	74.56
251.231	84.56
251.465	81.56
251.698	82.56
251.931	86.56
252.164	75.56
252.397	80.56
252.63	79.56
252.863	88.56
253.096	92.56
253.329	84.56
253.562	74.56
253.795	80.56
254.028	83.56
254.261	67.56
254.494	78.56
254.727	92.56
254.96	90.56
255.193	81.56
255.426	74.56
255.659	79.56
255.892	95.56
256.124	92.56
256.357	67.56
256.59	77.56
256.823	82.56
257.056	95.56
257.289	96.56
257.521	94.56
257.754	82.56
257.987	86.56
258.22	80.56
258.452	86.56
258.685	76.56
258.918	81.56
259.151	82.56
259.383	84.56
259.616	72.56
259.849	67.56
260.081	70.56
260.314	81.56
260.547	78.56
260.779	88.56
261.012	82.56
261.244	81.56
261.477	79.56
261.71	74.56
261.942	78.56
262.175	86.56
262.407	81.56
262.64	86.56
262.872	98.56
263.105	79.56
263.337	86.56
263.57	69.56
263.802	85.56
264.035	85.56
264.267	88.56
264.499	66.56
264.732	90.56
264.964	76.56
265.197	99.56
265.429	71.56
265.661	82.56
265.894	81.56
266.126	74.56
266.358	88.56
266.591	86.56
266.823	64.56
267.055	75.56
267.287	65.56
267.52	81.56
267.752	81.56
267.984	80.56
268.216	82.56
268.448	77.56
268.681	78.56
268.913	84.56
269.145	91.56
269.377	78.56
269.609	81.56
269.841	76.56
270.073	88.56
270.306	83.56
270.538	80.56
270.77	89.56
271.002	85.56
271.234	80.56
271.466	81.56
271.698	84.56
271.93	73.56
272.162	84.56
272.394	83.56
272.626	76.56
272.858	88.56
273.09	83.56
273.322	77.56
273.553	79.56
273.785	79.56
274.017	78.56
274.249	93.56
274.481	77.56
274.713	68.56
274.945	80.56
275.176	82.56
275.408	87.56
275.64	89.56
275.872	88.56
276.104	76.56
276.335	100.56
276.567	94.56
276.799	78.56
277.031	96.56
277.262	84.56
277.494	91.56
277.726	75.56
277.957	82.56
278.189	83.56
278.421	78.56
278.652	84.56
278.884	72.56
279.115	79.56
279.347	77.56
279.579	79.56
279.81	83.56
280.042	92.56
280.273	84.56
280.505	82.56
280.736	83.56
280.968	95.56
281.199	100.56
281.431	79.56
281.662	94.56
281.894	85.56
282.125	80.56
282.356	84.56
282.588	88.56
282.819	95.56
283.051	81.56
283.282	78.56
283.513	80.56
283.745	92.56
283.976	88.56
284.207	80.56
284.439	75.56
284.67	87.56
284.901	74.56
285.132	77.56
285.364	95.56
285.595	82.56
285.826	91.56
286.057	84.56
286.288	81.56
286.52	76.56
286.751	92.56
286.982	77.56
287.213	70.56
287.444	94.56
287.675	77.56
287.906	97.56
288.138	81.56
288.369	96.56
288.6	84.56
288.831	83.56
289.062	88.56
289.293	85.56
289.524	70.56
289.755	84.56
289.986	89.56
290.217	82.56
290.448	90.56
290.679	91.56
290.91	78.56
291.141	78.56
291.371	83.56
291.602	86.56
291.833	83.56
292.064	79.56
292.295	79.56
292.526	86.56
292.757	84.56
292.987	97.56
293.218	81.56
293.449	88.56
293.68	90.56
293.91	77.56
294.141	72.56
294.372	94.56
294.603	99.56
294.833	98.56
295.064	79.56
295.295	80.56
295.525	75.56
295.756	78.56
295.987	77.56
296.217	83.56
296.448	89.56
296.679	76.56
296.909	82.56
297.14	77.56
297.37	86.56
297.601	98.56
297.831	76.56
298.062	73.56
298.292	89.56
298.523	79.56
298.753	80.56
298.984	98.56
299.214	88.56
299.445	83.56
299.675	85.56
299.905	84.56
300.136	84.56
300.366	89.56
300.597	89.56
300.827	97.56
301.057	84.56
301.288	91.56
301.518	85.56
301.748	80.56
301.979	94.56
302.209	76.56
302.439	94.56
302.669	94.56
302.9	83.56
303.13	85.56
303.36	95.56
303.59	84.56
303.82	86.56
304.051	81.56
304.281	89.56
304.511	85.56
304.741	82.56
304.971	85.56
305.201	88.56
305.431	88.56
305.661	92.56
305.891	90.56
306.121	85.56
306.352	87.56
306.582	79.56
306.812	86.56
307.042	88.56
307.272	74.56
307.502	85.56
307.731	86.56
307.961	76.56
308.191	100.56
308.421	74.56
308.651	84.56
308.881	85.56
309.111	89.56
309.341	101.56
309.571	86.56
309.8	87.56
310.03	84.56
310.26	78.56
310.49	88.56
310.72	82.56
310.949	87.56
311.179	74.56
311.409	92.56
311.639	79.56
311.868	82.56
312.098	77.56
312.328	92.56
312.557	103.56
312.787	88.56
313.017	91.56
313.246	74.56
313.476	83.56
313.706	90.56
313.935	88.56
314.165	88.56
314.394	109.56
314.624	78.56
314.853	95.56
315.083	86.56
315.312	83.56
315.542	87.56
315.771	74.56
316.001	79.56
316.23	85.56
316.46	83.56
316.689	84.56
316.919	76.56
317.148	79.56
317.377	96.56
317.607	80.56
317.836	96.56
318.065	74.56
318.295	81.56
318.524	81.56
318.753	88.56
318.983	85.56
319.212	82.56
319.441	70.56
319.67	87.56
319.9	84.56
320.129	90.56
320.358	93.56
320.587	94.56
320.816	92.56
321.046	92.56
321.275	92.56
321.504	85.56
321.733	88.56
321.962	114.56
322.191	86.56
322.42	76.56
322.649	85.56
322.878	81.56
323.108	84.56
323.337	82.56
323.566	92.56
323.795	96.56
324.024	79.56
324.253	95.56
324.482	80.56
324.71	86.56
324.939	89.56
325.168	83.56
325.397	92.56
325.626	81.56
325.855	86.56
326.084	88.56
326.313	76.56
326.542	80.56
326.77	90.56
326.999	71.56
327.228	91.56
327.457	81.56
327.686	75.56
327.914	97.56
328.143	92.56
328.372	80.56
328.6	93.56
328.829	80.56
329.058	80.56
329.287	89.56
329.515	96.56
329.744	79.56
329.972	80.56
330.201	71.56
330.43	92.56
330.658	85.56
330.887	79.56
331.115	78.56
331.344	81.56
331.572	91.56
331.801	88.56
332.03	84.56
332.258	80.56
332.486	68.56
332.715	76.56
332.943	93.56
333.172	79.56
333.4	80.56
333.629	94.56
333.857	98.56
334.085	73.56
334.314	73.56
334.542	86.56
334.771	74.56
334.999	89.56
335.227	80.56
335.455	86.56
335.684	79.56
335.912	89.56
336.14	106.56
336.369	97.56
336.597	78.56
336.825	87.56
337.053	87.56
337.281	78.56
337.51	76.56
337.738	83.56
337.966	80.56
338.194	82.56
338.422	87.56
338.65	81.56
338.878	76.56
339.106	72.56
339.334	83.56
339.562	93.56
339.79	89.56
340.018	93.56
340.246	100.56
340.474	93.56
340.702	74.56
340.93	69.56
341.158	92.56
341.386	81.56
341.614	97.56
341.842	79.56
342.07	82.56
342.298	74.56
342.526	85.56
342.754	93.56
342.981	92.56
343.209	82.56
343.437	81.56
343.665	77.56
343.893	80.56
344.12	93.56
344.348	99.56
344.576	85.56
344.804	82.56
345.031	70.56
345.259	80.56
345.487	73.56
345.714	82.56
345.942	79.56
346.17	85.56
346.397	90.56
346.625	82.56
346.853	73.56
347.08	93.56
347.308	72.56
347.535	78.56
347.763	85.56
347.99	86.56
348.218	100.56
348.445	88.56
348.673	91.56
348.9	87.56
349.128	84.56
349.355	82.56
349.583	82.56
349.81	75.56
350.037	81.56
350.265	88.56
350.492	84.56
350.72	98.56
350.947	99.56
351.174	84.56
351.402	84.56
351.629	90.56
351.856	92.56
352.083	85.56
352.311	95.56
352.538	89.56
352.765	85.56
352.992	84.56
353.22	88.56
353.447	76.56
353.674	85.56
353.901	86.56
354.128	90.56
354.355	72.56
354.583	77.56
354.81	110.56
355.037	78.56
355.264	87.56
355.491	85.56
355.718	86.56
355.945	82.56
356.172	85.56
356.399	79.56
356.626	85.56
356.853	102.56
357.08	79.56
357.307	84.56
357.534	80.56
357.761	75.56
357.988	92.56
358.215	85.56
358.441	74.56
358.668	88.56
358.895	67.56
359.122	86.56
359.349	79.56
359.576	77.56
359.802	79.56
360.029	77.56
360.256	77.56
360.483	83.56
360.709	91.56
360.936	92.56
361.163	87.56
361.39	94.56
361.616	80.56
361.843	90.56
362.07	89.56
362.296	93.56
362.523	70.56
362.749	95.56
362.976	86.56
363.203	76.56
363.429	77.56
363.656	100.56
363.882	66.56
364.109	78.56
364.335	76.56
364.562	74.56
364.788	84.56
365.015	81.56
365.241	87.56
365.468	94.56
365.694	88.56
365.92	71.56
366.147	74.56
366.373	84.56
366.599	74.56
366.826	76.56
367.052	74.56
367.278	82.56
367.505	90.56
367.731	88.56
367.957	84.56
368.184	85.56
368.41	92.56
368.636	79.56
368.862	78.56
369.089	86.56
369.315	84.56
369.541	84.56
369.767	89.56
369.993	91.56
370.219	82.56
370.445	94.56
370.672	90.56
370.898	65.56
371.124	88.56
371.35	85.56
371.576	85.56
371.802	101.56
372.028	81.56
372.254	75.56
372.48	89.56
372.706	90.56
372.932	74.56
373.158	87.56
373.384	86.56
373.61	88.56
373.835	82.56
374.061	77.56
374.287	86.56
374.513	77.56
374.739	77.56
374.965	77.56
375.191	85.56
375.416	78.56
375.642	90.56
375.868	88.56
376.094	74.56
376.319	75.56
376.545	89.56
376.771	62.56
376.997	78.56
377.222	91.56
377.448	88.56
377.674	68.56
377.899	81.56
378.125	95.56
378.35	75.56
378.576	66.56
378.802	86.56
379.027	76.56
379.253	81.56
379.478	84.56
379.704	68.56
379.929	85.56
380.155	81.56
380.38	68.56
380.606	71.56
380.831	94.56
381.057	93.56
381.282	95.56
381.507	80.56
381.733	79.56
381.958	89.56
382.184	83.56
382.409	97.56
382.634	79.56
382.86	81.56
383.085	85.56
383.31	98.56
383.535	93.56
383.761	75.56
383.986	85.56
384.211	78.56
384.436	96.56
384.662	68.56
384.887	87.56
385.112	80.56
385.337	85.56
385.562	67.56
385.787	81.56
386.013	80.56
386.238	75.56
386.463	82.56
386.688	98.56
386.913	84.56
387.138	83.56
387.363	79.56
387.588	81.56
387.813	86.56
388.038	76.56
388.263	86.56
388.488	93.56
388.713	79.56
388.938	80.56
389.163	76.56
389.387	81.56
389.612	93.56
389.837	97.56
390.062	91.56
390.287	87.56
390.512	76.56
390.736	90.56
390.961	87.56
391.186	68.56
391.411	80.56
391.636	90.56
391.86	74.56
392.085	96.56
392.31	70.56
392.534	78.56
392.759	88.56
392.984	88.56
393.208	83.56
393.433	83.56
393.658	72.56
393.882	82.56
394.107	86.56
394.331	78.56
394.556	83.56
394.78	82.56
395.005	77.56
395.229	69.56
395.454	84.56
395.678	66.56
395.903	83.56
396.127	84.56
396.352	78.56
396.576	81.56
396.801	84.56
397.025	82.56
397.249	91.56
397.474	82.56
397.698	85.56
397.922	73.56
398.147	73.56
398.371	81.56
398.595	73.56
398.82	84.56
399.044	85.56
399.268	80.56
399.492	90.56
399.717	89.56
399.941	83.56
400.165	86.56
400.389	76.56
400.613	85.56
400.837	65.56
401.062	61.56
401.286	84.56
401.51	101.56
401.734	62.56
401.958	81.56
402.182	61.56
402.406	95.56
402.63	79.56
402.854	77.56
403.078	72.56
403.302	77.56
403.526	97.56
403.75	67.56
403.974	87.56
404.198	69.56
404.422	85.56
404.645	78.56
404.869	88.56
405.093	75.56
405.317	78.56
405.541	78.56
405.765	67.56
405.988	92.56
406.212	75.56
406.436	79.56
406.66	80.56
406.883	87.56
407.107	80.56
407.331	86.56
407.555	93.56
407.778	84.56
408.002	81.56
408.226	94.56
408.449	78.56
408.673	76.56
408.896	82.56
409.12	80.56
409.344	92.56
409.567	83.56
409.791	72.56
410.014	76.56
410.238	86.56
410.461	72.56
410.685	81.56
410.908	89.56
411.132	84.56
411.355	86.56
411.578	87.56
411.802	71.56
412.025	80.56
412.249	80.56
412.472	69.56
412.695	71.56
412.919	70.56
413.142	71.56
413.365	82.56
413.589	78.56
413.812	81.56
414.035	85.56
414.258	70.56
414.482	78.56
414.705	73.56
414.928	82.56
415.151	71.56
415.374	82.56
415.597	74.56
415.821	80.56
416.044	72.56
416.267	77.56
416.49	72.56
416.713	65.56
416.936	75.56
417.159	89.56
417.382	74.56
417.605	76.56
417.828	71.56
418.051	88.56
418.274	95.56
418.497	64.56
418.72	59.56
418.943	84.56
419.166	80.56
419.389	75.56
419.611	86.56
419.834	82.56
420.057	87.56
420.28	85.56
420.503	79.56
420.726	80.56
420.948	85.56
421.171	82.56
421.394	81.56
421.617	69.56
421.839	74.56
422.062	64.56
422.285	82.56
422.507	92.56
422.73	65.56
422.953	78.56
423.175	70.56
423.398	80.56
423.621	80.56
423.843	80.56
424.066	62.56
424.288	72.56
424.511	78.56
424.733	73.56
424.956	85.56
425.178	73.56
425.401	87.56
425.623	85.56
425.846	88.56
426.068	98.56
426.291	68.56
426.513	82.56
426.735	85.56
426.958	80.56
427.18	83.56
427.402	74.56
427.625	62.56
427.847	81.56
428.069	90.56
428.292	85.56
428.514	70.56
428.736	76.56
428.958	76.56
429.181	85.56
429.403	84.56
429.625	72.56
429.847	56.56
430.069	85.56
430.292	97.56
430.514	69.56
430.736	76.56
430.958	104.56
431.18	75.56
431.402	82.56
431.624	85.56
431.846	90.56
432.068	78.56
432.29	84.56
432.512	76.56
432.734	76.56
432.956	69.56
433.178	95.56
433.4	98.56
433.622	94.56
433.844	82.56
434.066	85.56
434.287	93.56
434.509	93.56
434.731	70.56
434.953	83.56
435.175	75.56
435.397	72.56
435.618	99.56
435.84	82.56
436.062	75.56
436.284	73.56
436.505	75.56
436.727	70.56
436.949	83.56
437.17	79.56
437.392	81.56
437.614	92.56
437.835	65.56
438.057	77.56
438.278	82.56
438.5	74.56
438.721	91.56
438.943	89.56
439.165	77.56
439.386	76.56
439.608	78.56
439.829	88.56
440.05	76.56
440.272	76.56
440.493	67.56
440.715	67.56
440.936	81.56
441.158	83.56
441.379	90.56
441.6	82.56
441.822	80.56
442.043	71.56
442.264	82.56
442.486	88.56
442.707	76.56
442.928	80.56
443.149	86.56
443.371	84.56
443.592	79.56
443.813	95.56
444.034	89.56
444.255	77.56
444.476	75.56
444.698	84.56
444.919	78.56
445.14	162.56
445.361	124.56
445.582	89.56
445.803	68.56
446.024	68.56
446.245	80.56
446.466	72.56
446.687	64.56
446.908	84.56
447.129	71.56
447.35	70.56
447.571	91.56
447.792	82.56
448.013	85.56
448.234	75.56
448.455	61.56
448.675	80.56
448.896	83.56
449.117	73.56
449.338	85.56
449.559	89.56
449.779	78.56
450	89.56
450.221	77.56
450.442	74.56
450.662	89.56
450.883	71.56
451.104	78.56
451.324	86.56
451.545	88.56
451.766	78.56
451.986	72.56
452.207	82.56
452.428	61.56
452.648	71.56
452.869	76.56
453.089	85.56
453.31	75.56
453.53	82.56
453.751	89.56
453.971	88.56
454.192	78.56
454.412	76.56
454.633	73.56
454.853	82.56
455.073	88.56
455.294	111.56
455.514	78.56
455.734	78.56
455.955	78.56
456.175	88.56
456.395	62.56
456.616	85.56
456.836	96.56
457.056	93.56
457.276	76.56
457.497	84.56
457.717	67.56
457.937	67.56
458.157	77.56
458.377	62.56
458.598	90.56
458.818	87.56
459.038	75.56
459.258	88.56
459.478	66.56
459.698	74.56
459.918	80.56
460.138	80.56
460.358	65.56
460.578	96.56
460.798	92.56
461.018	82.56
461.238	86.56
461.458	96.56
461.678	71.56
461.898	87.56
462.118	83.56
462.338	74.56
462.558	92.56
462.777	76.56
462.997	90.56
463.217	86.56
463.437	81.56
463.657	90.56
463.876	80.56
464.096	77.56
464.316	84.56
464.536	82.56
464.755	71.56
464.975	60.56
465.195	90.56
465.414	79.56
465.634	74.56
465.854	83.56
466.073	79.56
466.293	79.56
466.512	84.56
466.732	76.56
466.951	84.56
467.171	84.56
467.391	89.56
467.61	83.56
467.829	83.56
468.049	79.56
468.268	67.56
468.488	70.56
468.707	65.56
468.927	75.56
469.146	85.56
469.365	91.56
469.585	84.56
469.804	79.56
470.023	80.56
470.243	82.56
470.462	90.56
470.681	85.56
470.901	85.56
471.12	84.56
471.339	94.56
471.558	91.56
471.777	88.56
471.997	86.56
472.216	67.56
472.435	84.56
472.654	87.56
472.873	83.56
473.092	76.56
473.311	79.56
473.53	74.56
473.749	81.56
473.968	80.56
474.187	80.56
474.406	68.56
474.625	84.56
474.844	86.56
475.063	74.56
475.282	77.56
475.501	79.56
475.72	83.56
475.939	99.56
476.158	71.56
476.377	74.56
476.596	75.56
476.814	83.56
477.033	85.56
477.252	88.56
477.471	86.56
477.69	88.56
477.908	83.56
478.127	82.56
478.346	89.56
478.564	67.56
478.783	83.56
479.002	88.56
479.22	79.56
479.439	84.56
479.658	75.56
479.876	80.56
480.095	54.56
480.313	93.56
480.532	84.56
480.751	91.56
480.969	80.56
481.188	82.56
481.406	81.56
481.624	81.56
481.843	88.56
482.061	76.56
482.28	81.56
482.498	61.56
482.717	73.56
482.935	72.56
483.153	88.56
483.372	77.56
483.59	84.56
483.808	80.56
484.027	86.56
484.245	78.56
484.463	91.56
484.681	90.56
484.9	76.56
485.118	76.56
485.336	85.56
485.554	80.56
485.772	91.56
485.99	82.56
486.209	82.56
486.427	79.56
486.645	71.56
486.863	69.56
487.081	88.56
487.299	82.56
487.517	65.56
487.735	82.56
487.953	69.56
488.171	82.56
488.389	83.56
488.607	88.56
488.825	81.56
489.043	78.56
489.261	80.56
489.479	77.56
489.696	88.56
489.914	71.56
490.132	78.56
490.35	86.56
490.568	76.56
490.786	89.56
491.003	80.56
491.221	74.56
491.439	87.56
491.657	80.56
491.874	85.56
492.092	84.56
492.31	72.56
492.527	84.56
492.745	75.56
492.963	87.56
493.18	72.56
493.398	81.56
493.615	75.56
493.833	74.56
494.05	88.56
494.268	78.56
494.485	89.56
494.703	78.56
494.92	83.56
495.138	78.56
495.355	83.56
495.573	86.56
495.79	75.56
496.008	91.56
496.225	68.56
496.442	84.56
496.66	86.56
496.877	80.56
497.094	78.56
497.312	74.56
497.529	75.56
497.746	75.56
497.963	68.56
498.181	88.56
498.398	82.56
498.615	64.56
498.832	78.56
499.049	76.56
499.267	91.56
499.484	96.56
499.701	63.56
499.918	78.56
500.135	92.56
500.352	83.56
500.569	80.56
500.786	90.56
501.003	79.56
501.22	74.56
501.437	81.56
501.654	77.56
501.871	92.56
502.088	78.56
502.305	73.56
502.522	78.56
502.739	76.56
502.956	92.56
503.172	84.56
503.389	78.56
503.606	66.56
503.823	80.56
504.04	86.56
504.256	84.56
504.473	90.56
504.69	91.56
504.907	97.56
505.123	83.56
505.34	81.56
505.557	73.56
505.773	69.56
505.99	81.56
506.207	74.56
506.423	78.56
506.64	78.56
506.856	80.56
507.073	69.56
507.289	77.56
507.506	81.56
507.722	68.56
507.939	84.56
508.155	87.56
508.372	93.56
508.588	70.56
508.805	74.56
509.021	77.56
509.238	78.56
509.454	74.56
509.67	77.56
509.887	88.56
510.103	92.56
510.319	74.56
510.536	88.56
510.752	78.56
510.968	75.56
511.184	69.56
511.401	70.56
511.617	88.56
511.833	84.56
512.049	83.56
512.265	78.56
512.481	88.56
512.698	81.56
512.914	81.56
513.13	84.56
513.346	75.56
513.562	82.56
513.778	90.56
513.994	90.56
514.21	84.56
514.426	92.56
514.642	89.56
514.858	88.56
515.074	92.56
515.29	85.56
515.506	86.56
515.721	75.56
515.937	75.56
516.153	79.56
516.369	88.56
516.585	80.56
516.801	87.56
517.016	82.56
517.232	80.56
517.448	80.56
517.664	80.56
517.879	85.56
518.095	80.56
518.311	110.56
518.527	79.56
518.742	85.56
518.958	89.56
519.173	80.56
519.389	80.56
519.605	75.56
519.82	92.56
520.036	91.56
