Data from Background_2_HRD10591_00088.txt Node
Date: Wed Nov 05 14:47:40 EST 2025
User: Yrep
Spectrometer: HR+D1059
Trigger mode: 1
Integration Time (sec): 1.000000E-1
Scans to average: 1
Electric dark correction enabled: true
Nonlinearity correction enabled: false
Boxcar width: 0
XAxis mode: Wavelengths
Number of Pixels in Spectrum: 2048
>>>>>Begin Spectral Data<<<<<
223.165	-23.12
223.4	-23.12
223.635	-23.12
223.869	-16.12
224.104	-13.12
224.338	-18.12
224.573	-2.12
224.808	-9.12
225.042	1.88
225.277	-3.12
225.511	4.88
225.746	1.88
225.98	8.88
226.215	19.88
226.449	12.88
226.683	16.88
226.918	1.88
227.152	15.88
227.387	26.88
227.621	46.88
227.856	50.88
228.09	51.88
228.324	50.88
228.559	60.88
228.793	60.88
229.027	61.88
229.262	77.88
229.496	74.88
229.73	83.88
229.964	94.88
230.199	87.88
230.433	81.88
230.667	82.88
230.901	80.88
231.136	63.88
231.37	82.88
231.604	91.88
231.838	84.88
232.072	74.88
232.306	79.88
232.541	80.88
232.775	95.88
233.009	72.88
233.243	87.88
233.477	77.88
233.711	86.88
233.945	91.88
234.179	88.88
234.413	92.88
234.647	70.88
234.881	86.88
235.115	78.88
235.349	80.88
235.583	85.88
235.817	90.88
236.051	78.88
236.285	78.88
236.519	82.88
236.753	70.88
236.987	88.88
237.221	86.88
237.455	76.88
237.689	97.88
237.922	89.88
238.156	98.88
238.39	88.88
238.624	82.88
238.858	75.88
239.091	75.88
239.325	71.88
239.559	64.88
239.793	75.88
240.027	72.88
240.26	64.88
240.494	82.88
240.728	68.88
240.961	77.88
241.195	76.88
241.429	83.88
241.662	78.88
241.896	84.88
242.13	73.88
242.363	69.88
242.597	94.88
242.83	78.88
243.064	72.88
243.298	78.88
243.531	84.88
243.765	67.88
243.998	58.88
244.232	82.88
244.465	85.88
244.699	73.88
244.932	84.88
245.166	85.88
245.399	93.88
245.633	63.88
245.866	93.88
246.099	84.88
246.333	82.88
246.566	86.88
246.8	82.88
247.033	84.88
247.266	78.88
247.5	76.88
247.733	87.88
247.966	81.88
248.2	94.88
248.433	88.88
248.666	82.88
248.899	86.88
249.133	73.88
249.366	82.88
249.599	82.88
249.832	94.88
250.066	91.88
250.299	86.88
250.532	84.88
250.765	89.88
250.998	70.88
251.231	69.88
251.465	86.88
251.698	84.88
251.931	88.88
252.164	80.88
252.397	100.88
252.63	77.88
252.863	84.88
253.096	78.88
253.329	81.88
253.562	78.88
253.795	94.88
254.028	76.88
254.261	85.88
254.494	87.88
254.727	100.88
254.96	90.88
255.193	69.88
255.426	76.88
255.659	74.88
255.892	89.88
256.124	82.88
256.357	60.88
256.59	82.88
256.823	87.88
257.056	82.88
257.289	82.88
257.521	96.88
257.754	79.88
257.987	88.88
258.22	90.88
258.452	83.88
258.685	84.88
258.918	86.88
259.151	88.88
259.383	88.88
259.616	104.88
259.849	73.88
260.081	74.88
260.314	89.88
260.547	73.88
260.779	75.88
261.012	80.88
261.244	77.88
261.477	87.88
261.71	94.88
261.942	79.88
262.175	86.88
262.407	87.88
262.64	91.88
262.872	97.88
263.105	95.88
263.337	96.88
263.57	77.88
263.802	81.88
264.035	89.88
264.267	93.88
264.499	97.88
264.732	81.88
264.964	89.88
265.197	86.88
265.429	72.88
265.661	100.88
265.894	82.88
266.126	88.88
266.358	79.88
266.591	99.88
266.823	89.88
267.055	82.88
267.287	88.88
267.52	81.88
267.752	96.88
267.984	109.88
268.216	87.88
268.448	92.88
268.681	87.88
268.913	83.88
269.145	89.88
269.377	83.88
269.609	76.88
269.841	81.88
270.073	93.88
270.306	85.88
270.538	88.88
270.77	95.88
271.002	74.88
271.234	88.88
271.466	92.88
271.698	80.88
271.93	84.88
272.162	93.88
272.394	86.88
272.626	93.88
272.858	84.88
273.09	79.88
273.322	77.88
273.553	85.88
273.785	92.88
274.017	87.88
274.249	95.88
274.481	80.88
274.713	88.88
274.945	87.88
275.176	96.88
275.408	86.88
275.64	93.88
275.872	92.88
276.104	93.88
276.335	86.88
276.567	84.88
276.799	88.88
277.031	88.88
277.262	78.88
277.494	91.88
277.726	90.88
277.957	83.88
278.189	78.88
278.421	85.88
278.652	88.88
278.884	81.88
279.115	84.88
279.347	88.88
279.579	86.88
279.81	79.88
280.042	72.88
280.273	75.88
280.505	93.88
280.736	82.88
280.968	84.88
281.199	81.88
281.431	99.88
281.662	89.88
281.894	100.88
282.125	87.88
282.356	88.88
282.588	79.88
282.819	85.88
283.051	98.88
283.282	86.88
283.513	88.88
283.745	89.88
283.976	80.88
284.207	80.88
284.439	91.88
284.67	79.88
284.901	95.88
285.132	90.88
285.364	80.88
285.595	83.88
285.826	90.88
286.057	85.88
286.288	82.88
286.52	84.88
286.751	77.88
286.982	86.88
287.213	78.88
287.444	82.88
287.675	89.88
287.906	76.88
288.138	80.88
288.369	94.88
288.6	90.88
288.831	95.88
289.062	83.88
289.293	90.88
289.524	92.88
289.755	83.88
289.986	88.88
290.217	77.88
290.448	90.88
290.679	94.88
290.91	82.88
291.141	83.88
291.371	86.88
291.602	86.88
291.833	75.88
292.064	88.88
292.295	90.88
292.526	81.88
292.757	94.88
292.987	90.88
293.218	77.88
293.449	90.88
293.68	95.88
293.91	89.88
294.141	82.88
294.372	91.88
294.603	88.88
294.833	71.88
295.064	80.88
295.295	94.88
295.525	86.88
295.756	85.88
295.987	86.88
296.217	75.88
296.448	106.88
296.679	93.88
296.909	86.88
297.14	84.88
297.37	95.88
297.601	90.88
297.831	81.88
298.062	89.88
298.292	89.88
298.523	95.88
298.753	88.88
298.984	89.88
299.214	103.88
299.445	82.88
299.675	84.88
299.905	89.88
300.136	86.88
300.366	89.88
300.597	89.88
300.827	84.88
301.057	72.88
301.288	88.88
301.518	79.88
301.748	96.88
301.979	93.88
302.209	82.88
302.439	81.88
302.669	83.88
302.9	92.88
303.13	81.88
303.36	92.88
303.59	79.88
303.82	82.88
304.051	85.88
304.281	85.88
304.511	97.88
304.741	81.88
304.971	73.88
305.201	84.88
305.431	84.88
305.661	94.88
305.891	87.88
306.121	85.88
306.352	93.88
306.582	82.88
306.812	83.88
307.042	93.88
307.272	104.88
307.502	86.88
307.731	88.88
307.961	75.88
308.191	96.88
308.421	94.88
308.651	82.88
308.881	93.88
309.111	82.88
309.341	101.88
309.571	84.88
309.8	82.88
310.03	84.88
310.26	80.88
310.49	90.88
310.72	88.88
310.949	81.88
311.179	95.88
311.409	88.88
311.639	84.88
311.868	90.88
312.098	104.88
312.328	75.88
312.557	86.88
312.787	93.88
313.017	84.88
313.246	88.88
313.476	85.88
313.706	84.88
313.935	101.88
314.165	94.88
314.394	80.88
314.624	80.88
314.853	74.88
315.083	93.88
315.312	95.88
315.542	85.88
315.771	89.88
316.001	91.88
316.23	90.88
316.46	94.88
316.689	76.88
316.919	82.88
317.148	81.88
317.377	95.88
317.607	78.88
317.836	84.88
318.065	81.88
318.295	90.88
318.524	71.88
318.753	74.88
318.983	80.88
319.212	75.88
319.441	97.88
319.67	98.88
319.9	96.88
320.129	70.88
320.358	79.88
320.587	67.88
320.816	86.88
321.046	86.88
321.275	85.88
321.504	70.88
321.733	82.88
321.962	78.88
322.191	95.88
322.42	95.88
322.649	92.88
322.878	84.88
323.108	93.88
323.337	93.88
323.566	79.88
323.795	99.88
324.024	78.88
324.253	97.88
324.482	88.88
324.71	96.88
324.939	86.88
325.168	100.88
325.397	98.88
325.626	85.88
325.855	82.88
326.084	83.88
326.313	89.88
326.542	89.88
326.77	93.88
326.999	74.88
327.228	92.88
327.457	95.88
327.686	75.88
327.914	86.88
328.143	108.88
328.372	89.88
328.6	81.88
328.829	104.88
329.058	85.88
329.287	85.88
329.515	92.88
329.744	82.88
329.972	97.88
330.201	81.88
330.43	87.88
330.658	89.88
330.887	81.88
331.115	75.88
331.344	91.88
331.572	79.88
331.801	97.88
332.03	98.88
332.258	100.88
332.486	82.88
332.715	90.88
332.943	89.88
333.172	73.88
333.4	80.88
333.629	80.88
333.857	70.88
334.085	74.88
334.314	97.88
334.542	91.88
334.771	87.88
334.999	80.88
335.227	81.88
335.455	90.88
335.684	85.88
335.912	100.88
336.14	85.88
336.369	98.88
336.597	96.88
336.825	85.88
337.053	93.88
337.281	87.88
337.51	78.88
337.738	94.88
337.966	70.88
338.194	81.88
338.422	78.88
338.65	103.88
338.878	92.88
339.106	88.88
339.334	90.88
339.562	71.88
339.79	86.88
340.018	100.88
340.246	86.88
340.474	83.88
340.702	79.88
340.93	86.88
341.158	75.88
341.386	88.88
341.614	84.88
341.842	91.88
342.07	100.88
342.298	97.88
342.526	93.88
342.754	81.88
342.981	87.88
343.209	69.88
343.437	81.88
343.665	84.88
343.893	88.88
344.12	84.88
344.348	85.88
344.576	86.88
344.804	74.88
345.031	88.88
345.259	100.88
345.487	79.88
345.714	86.88
345.942	82.88
346.17	90.88
346.397	89.88
346.625	97.88
346.853	101.88
347.08	86.88
347.308	79.88
347.535	80.88
347.763	77.88
347.99	80.88
348.218	103.88
348.445	83.88
348.673	83.88
348.9	83.88
349.128	80.88
349.355	98.88
349.583	89.88
349.81	97.88
350.037	74.88
350.265	97.88
350.492	90.88
350.72	79.88
350.947	82.88
351.174	87.88
351.402	110.88
351.629	75.88
351.856	93.88
352.083	86.88
352.311	114.88
352.538	96.88
352.765	94.88
352.992	97.88
353.22	80.88
353.447	75.88
353.674	96.88
353.901	85.88
354.128	90.88
354.355	76.88
354.583	97.88
354.81	77.88
355.037	75.88
355.264	85.88
355.491	81.88
355.718	79.88
355.945	81.88
356.172	84.88
356.399	69.88
356.626	75.88
356.853	80.88
357.08	92.88
357.307	70.88
357.534	77.88
357.761	77.88
357.988	88.88
358.215	96.88
358.441	80.88
358.668	100.88
358.895	96.88
359.122	87.88
359.349	77.88
359.576	82.88
359.802	83.88
360.029	92.88
360.256	81.88
360.483	91.88
360.709	75.88
360.936	94.88
361.163	75.88
361.39	91.88
361.616	82.88
361.843	95.88
362.07	84.88
362.296	90.88
362.523	75.88
362.749	88.88
362.976	86.88
363.203	92.88
363.429	82.88
363.656	87.88
363.882	98.88
364.109	89.88
364.335	94.88
364.562	84.88
364.788	84.88
365.015	82.88
365.241	95.88
365.468	90.88
365.694	82.88
365.92	80.88
366.147	102.88
366.373	76.88
366.599	86.88
366.826	92.88
367.052	71.88
367.278	84.88
367.505	79.88
367.731	82.88
367.957	79.88
368.184	96.88
368.41	88.88
368.636	85.88
368.862	83.88
369.089	91.88
369.315	89.88
369.541	90.88
369.767	85.88
369.993	79.88
370.219	86.88
370.445	93.88
370.672	91.88
370.898	89.88
371.124	84.88
371.35	84.88
371.576	78.88
371.802	93.88
372.028	96.88
372.254	88.88
372.48	72.88
372.706	88.88
372.932	77.88
373.158	72.88
373.384	80.88
373.61	86.88
373.835	78.88
374.061	90.88
374.287	82.88
374.513	91.88
374.739	91.88
374.965	95.88
375.191	77.88
375.416	88.88
375.642	93.88
375.868	79.88
376.094	70.88
376.319	83.88
376.545	80.88
376.771	86.88
376.997	102.88
377.222	72.88
377.448	55.88
377.674	73.88
377.899	91.88
378.125	84.88
378.35	84.88
378.576	88.88
378.802	76.88
379.027	92.88
379.253	86.88
379.478	83.88
379.704	85.88
379.929	83.88
380.155	77.88
380.38	87.88
380.606	87.88
380.831	77.88
381.057	102.88
381.282	89.88
381.507	83.88
381.733	87.88
381.958	89.88
382.184	83.88
382.409	88.88
382.634	76.88
382.86	87.88
383.085	97.88
383.31	84.88
383.535	75.88
383.761	74.88
383.986	86.88
384.211	84.88
384.436	90.88
384.662	92.88
384.887	89.88
385.112	97.88
385.337	77.88
385.562	78.88
385.787	89.88
386.013	77.88
386.238	84.88
386.463	92.88
386.688	90.88
386.913	82.88
387.138	96.88
387.363	89.88
387.588	89.88
387.813	71.88
388.038	92.88
388.263	94.88
388.488	78.88
388.713	84.88
388.938	87.88
389.163	93.88
389.387	90.88
389.612	76.88
389.837	89.88
390.062	80.88
390.287	73.88
390.512	90.88
390.736	85.88
390.961	78.88
391.186	87.88
391.411	89.88
391.636	95.88
391.86	89.88
392.085	79.88
392.31	82.88
392.534	77.88
392.759	75.88
392.984	86.88
393.208	84.88
393.433	74.88
393.658	80.88
393.882	87.88
394.107	90.88
394.331	85.88
394.556	75.88
394.78	88.88
395.005	84.88
395.229	99.88
395.454	85.88
395.678	80.88
395.903	92.88
396.127	90.88
396.352	96.88
396.576	89.88
396.801	84.88
397.025	87.88
397.249	78.88
397.474	85.88
397.698	95.88
397.922	94.88
398.147	80.88
398.371	87.88
398.595	82.88
398.82	74.88
399.044	85.88
399.268	88.88
399.492	72.88
399.717	71.88
399.941	96.88
400.165	80.88
400.389	86.88
400.613	74.88
400.837	81.88
401.062	90.88
401.286	86.88
401.51	81.88
401.734	74.88
401.958	82.88
402.182	98.88
402.406	78.88
402.63	84.88
402.854	94.88
403.078	88.88
403.302	84.88
403.526	74.88
403.75	80.88
403.974	101.88
404.198	85.88
404.422	89.88
404.645	81.88
404.869	73.88
405.093	84.88
405.317	74.88
405.541	79.88
405.765	81.88
405.988	102.88
406.212	93.88
406.436	84.88
406.66	83.88
406.883	96.88
407.107	78.88
407.331	81.88
407.555	85.88
407.778	74.88
408.002	82.88
408.226	74.88
408.449	86.88
408.673	89.88
408.896	87.88
409.12	77.88
409.344	92.88
409.567	77.88
409.791	69.88
410.014	78.88
410.238	97.88
410.461	84.88
410.685	99.88
410.908	96.88
411.132	91.88
411.355	94.88
411.578	80.88
411.802	83.88
412.025	82.88
412.249	68.88
412.472	80.88
412.695	96.88
412.919	86.88
413.142	76.88
413.365	84.88
413.589	85.88
413.812	77.88
414.035	84.88
414.258	77.88
414.482	73.88
414.705	81.88
414.928	97.88
415.151	80.88
415.374	71.88
415.597	88.88
415.821	81.88
416.044	89.88
416.267	95.88
416.49	84.88
416.713	84.88
416.936	91.88
417.159	99.88
417.382	90.88
417.605	90.88
417.828	83.88
418.051	82.88
418.274	84.88
418.497	89.88
418.72	72.88
418.943	91.88
419.166	83.88
419.389	93.88
419.611	87.88
419.834	80.88
420.057	84.88
420.28	79.88
420.503	80.88
420.726	89.88
420.948	88.88
421.171	86.88
421.394	74.88
421.617	70.88
421.839	89.88
422.062	84.88
422.285	88.88
422.507	83.88
422.73	72.88
422.953	82.88
423.175	75.88
423.398	81.88
423.621	84.88
423.843	92.88
424.066	81.88
424.288	95.88
424.511	93.88
424.733	90.88
424.956	76.88
425.178	77.88
425.401	84.88
425.623	97.88
425.846	75.88
426.068	79.88
426.291	77.88
426.513	71.88
426.735	75.88
426.958	92.88
427.18	74.88
427.402	102.88
427.625	83.88
427.847	81.88
428.069	80.88
428.292	73.88
428.514	77.88
428.736	76.88
428.958	89.88
429.181	92.88
429.403	98.88
429.625	89.88
429.847	88.88
430.069	90.88
430.292	76.88
430.514	73.88
430.736	82.88
430.958	85.88
431.18	70.88
431.402	103.88
431.624	92.88
431.846	80.88
432.068	84.88
432.29	74.88
432.512	84.88
432.734	81.88
432.956	62.88
433.178	77.88
433.4	85.88
433.622	75.88
433.844	78.88
434.066	80.88
434.287	88.88
434.509	81.88
434.731	90.88
434.953	65.88
435.175	79.88
435.397	82.88
435.618	91.88
435.84	76.88
436.062	63.88
436.284	85.88
436.505	79.88
436.727	74.88
436.949	82.88
437.17	97.88
437.392	78.88
437.614	81.88
437.835	81.88
438.057	87.88
438.278	95.88
438.5	93.88
438.721	73.88
438.943	80.88
439.165	92.88
439.386	88.88
439.608	82.88
439.829	87.88
440.05	82.88
440.272	82.88
440.493	81.88
440.715	87.88
440.936	99.88
441.158	112.88
441.379	113.88
441.6	80.88
441.822	88.88
442.043	87.88
442.264	77.88
442.486	76.88
442.707	85.88
442.928	84.88
443.149	85.88
443.371	81.88
443.592	79.88
443.813	82.88
444.034	84.88
444.255	90.88
444.476	77.88
444.698	92.88
444.919	77.88
445.14	162.88
445.361	95.88
445.582	69.88
445.803	80.88
446.024	80.88
446.245	86.88
446.466	83.88
446.687	82.88
446.908	77.88
447.129	69.88
447.35	97.88
447.571	69.88
447.792	75.88
448.013	85.88
448.234	93.88
448.455	84.88
448.675	70.88
448.896	79.88
449.117	93.88
449.338	80.88
449.559	97.88
449.779	80.88
450	94.88
450.221	78.88
450.442	82.88
450.662	78.88
450.883	67.88
451.104	82.88
451.324	76.88
451.545	85.88
451.766	82.88
451.986	78.88
452.207	66.88
452.428	78.88
452.648	90.88
452.869	84.88
453.089	88.88
453.31	70.88
453.53	88.88
453.751	74.88
453.971	82.88
454.192	78.88
454.412	64.88
454.633	78.88
454.853	85.88
455.073	92.88
455.294	102.88
455.514	84.88
455.734	90.88
455.955	83.88
456.175	71.88
456.395	78.88
456.616	96.88
456.836	85.88
457.056	81.88
457.276	78.88
457.497	98.88
457.717	82.88
457.937	87.88
458.157	90.88
458.377	88.88
458.598	90.88
458.818	83.88
459.038	88.88
459.258	79.88
459.478	87.88
459.698	85.88
459.918	95.88
460.138	85.88
460.358	80.88
460.578	92.88
460.798	88.88
461.018	72.88
461.238	64.88
461.458	82.88
461.678	80.88
461.898	82.88
462.118	88.88
462.338	88.88
462.558	81.88
462.777	85.88
462.997	89.88
463.217	93.88
463.437	82.88
463.657	75.88
463.876	94.88
464.096	90.88
464.316	84.88
464.536	75.88
464.755	75.88
464.975	88.88
465.195	96.88
465.414	93.88
465.634	84.88
465.854	92.88
466.073	85.88
466.293	95.88
466.512	92.88
466.732	86.88
466.951	88.88
467.171	89.88
467.391	85.88
467.61	92.88
467.829	77.88
468.049	92.88
468.268	83.88
468.488	97.88
468.707	71.88
468.927	72.88
469.146	83.88
469.365	90.88
469.585	88.88
469.804	88.88
470.023	74.88
470.243	100.88
470.462	83.88
470.681	89.88
470.901	75.88
471.12	88.88
471.339	86.88
471.558	84.88
471.777	83.88
471.997	79.88
472.216	82.88
472.435	78.88
472.654	78.88
472.873	73.88
473.092	90.88
473.311	89.88
473.53	62.88
473.749	80.88
473.968	82.88
474.187	80.88
474.406	85.88
474.625	80.88
474.844	93.88
475.063	81.88
475.282	79.88
475.501	95.88
475.72	83.88
475.939	85.88
476.158	85.88
476.377	88.88
476.596	86.88
476.814	94.88
477.033	87.88
477.252	83.88
477.471	94.88
477.69	84.88
477.908	78.88
478.127	99.88
478.346	84.88
478.564	99.88
478.783	72.88
479.002	87.88
479.22	83.88
479.439	74.88
479.658	75.88
479.876	89.88
480.095	78.88
480.313	97.88
480.532	91.88
480.751	88.88
480.969	84.88
481.188	76.88
481.406	79.88
481.624	81.88
481.843	94.88
482.061	82.88
482.28	88.88
482.498	84.88
482.717	81.88
482.935	98.88
483.153	77.88
483.372	80.88
483.59	87.88
483.808	92.88
484.027	75.88
484.245	94.88
484.463	96.88
484.681	81.88
484.9	70.88
485.118	77.88
485.336	90.88
485.554	93.88
485.772	77.88
485.99	86.88
486.209	89.88
486.427	86.88
486.645	81.88
486.863	84.88
487.081	80.88
487.299	83.88
487.517	88.88
487.735	94.88
487.953	88.88
488.171	88.88
488.389	92.88
488.607	79.88
488.825	88.88
489.043	73.88
489.261	81.88
489.479	101.88
489.696	83.88
489.914	78.88
490.132	91.88
490.35	97.88
490.568	74.88
490.786	83.88
491.003	91.88
491.221	87.88
491.439	74.88
491.657	88.88
491.874	81.88
492.092	88.88
492.31	105.88
492.527	104.88
492.745	87.88
492.963	95.88
493.18	80.88
493.398	87.88
493.615	93.88
493.833	79.88
494.05	94.88
494.268	79.88
494.485	84.88
494.703	89.88
494.92	90.88
495.138	73.88
495.355	94.88
495.573	73.88
495.79	85.88
496.008	100.88
496.225	97.88
496.442	88.88
496.66	86.88
496.877	78.88
497.094	85.88
497.312	85.88
497.529	91.88
497.746	77.88
497.963	72.88
498.181	86.88
498.398	81.88
498.615	91.88
498.832	92.88
499.049	97.88
499.267	88.88
499.484	70.88
499.701	79.88
499.918	94.88
500.135	97.88
500.352	101.88
500.569	87.88
500.786	76.88
501.003	79.88
501.22	99.88
501.437	90.88
501.654	96.88
501.871	82.88
502.088	86.88
502.305	80.88
502.522	96.88
502.739	81.88
502.956	81.88
503.172	88.88
503.389	77.88
503.606	87.88
503.823	88.88
504.04	79.88
504.256	83.88
504.473	92.88
504.69	81.88
504.907	89.88
505.123	86.88
505.34	85.88
505.557	88.88
505.773	87.88
505.99	73.88
506.207	75.88
506.423	81.88
506.64	89.88
506.856	89.88
507.073	98.88
507.289	93.88
507.506	62.88
507.722	88.88
507.939	82.88
508.155	91.88
508.372	83.88
508.588	91.88
508.805	86.88
509.021	91.88
509.238	81.88
509.454	95.88
509.67	91.88
509.887	99.88
510.103	99.88
510.319	98.88
510.536	88.88
510.752	81.88
510.968	85.88
511.184	86.88
511.401	79.88
511.617	96.88
511.833	89.88
512.049	89.88
512.265	89.88
512.481	84.88
512.698	79.88
512.914	84.88
513.13	89.88
513.346	89.88
513.562	82.88
513.778	96.88
513.994	83.88
514.21	76.88
514.426	82.88
514.642	83.88
514.858	96.88
515.074	91.88
515.29	103.88
515.506	90.88
515.721	79.88
515.937	80.88
516.153	81.88
516.369	100.88
516.585	86.88
516.801	86.88
517.016	105.88
517.232	89.88
517.448	87.88
517.664	88.88
517.879	87.88
518.095	93.88
518.311	76.88
518.527	86.88
518.742	84.88
518.958	94.88
519.173	77.88
519.389	74.88
519.605	81.88
