Data from Background_2_HRD10591_00009.txt Node
Date: Wed Nov 05 14:47:01 EST 2025
User: Yrep
Spectrometer: HR+D1059
Trigger mode: 1
Integration Time (sec): 1.000000E-1
Scans to average: 1
Electric dark correction enabled: true
Nonlinearity correction enabled: false
Boxcar width: 0
XAxis mode: Wavelengths
Number of Pixels in Spectrum: 2048
>>>>>Begin Spectral Data<<<<<
223.165	-12.12
223.4	-12.12
223.635	-12.12
223.869	-21.12
224.104	-14.12
224.338	-25.12
224.573	-6.12
224.808	-8.12
225.042	-18.12
225.277	-1.12
225.511	-3.12
225.746	-1.12
225.98	11.88
226.215	12.88
226.449	12.88
226.683	18.88
226.918	20.88
227.152	32.88
227.387	29.88
227.621	43.88
227.856	39.88
228.09	45.88
228.324	51.88
228.559	66.88
228.793	58.88
229.027	67.88
229.262	61.88
229.496	54.88
229.73	74.88
229.964	72.88
230.199	71.88
230.433	74.88
230.667	83.88
230.901	82.88
231.136	87.88
231.37	70.88
231.604	77.88
231.838	92.88
232.072	75.88
232.306	72.88
232.541	68.88
232.775	81.88
233.009	85.88
233.243	83.88
233.477	80.88
233.711	81.88
233.945	76.88
234.179	78.88
234.413	77.88
234.647	81.88
234.881	73.88
235.115	83.88
235.349	80.88
235.583	68.88
235.817	68.88
236.051	67.88
236.285	72.88
236.519	87.88
236.753	79.88
236.987	78.88
237.221	86.88
237.455	81.88
237.689	78.88
237.922	60.88
238.156	78.88
238.39	77.88
238.624	72.88
238.858	69.88
239.091	86.88
239.325	79.88
239.559	78.88
239.793	80.88
240.027	85.88
240.26	89.88
240.494	65.88
240.728	74.88
240.961	73.88
241.195	75.88
241.429	74.88
241.662	82.88
241.896	78.88
242.13	91.88
242.363	75.88
242.597	66.88
242.83	76.88
243.064	85.88
243.298	85.88
243.531	68.88
243.765	62.88
243.998	74.88
244.232	91.88
244.465	69.88
244.699	85.88
244.932	71.88
245.166	76.88
245.399	64.88
245.633	70.88
245.866	75.88
246.099	61.88
246.333	78.88
246.566	60.88
246.8	66.88
247.033	77.88
247.266	69.88
247.5	77.88
247.733	74.88
247.966	60.88
248.2	81.88
248.433	92.88
248.666	77.88
248.899	89.88
249.133	95.88
249.366	80.88
249.599	65.88
249.832	78.88
250.066	89.88
250.299	84.88
250.532	86.88
250.765	84.88
250.998	77.88
251.231	89.88
251.465	91.88
251.698	75.88
251.931	79.88
252.164	72.88
252.397	76.88
252.63	66.88
252.863	74.88
253.096	74.88
253.329	66.88
253.562	79.88
253.795	72.88
254.028	76.88
254.261	74.88
254.494	90.88
254.727	76.88
254.96	83.88
255.193	86.88
255.426	64.88
255.659	82.88
255.892	84.88
256.124	61.88
256.357	77.88
256.59	75.88
256.823	78.88
257.056	96.88
257.289	85.88
257.521	85.88
257.754	88.88
257.987	85.88
258.22	77.88
258.452	81.88
258.685	85.88
258.918	85.88
259.151	78.88
259.383	75.88
259.616	86.88
259.849	66.88
260.081	74.88
260.314	79.88
260.547	73.88
260.779	94.88
261.012	88.88
261.244	76.88
261.477	77.88
261.71	73.88
261.942	73.88
262.175	80.88
262.407	71.88
262.64	73.88
262.872	79.88
263.105	85.88
263.337	77.88
263.57	76.88
263.802	82.88
264.035	82.88
264.267	82.88
264.499	69.88
264.732	80.88
264.964	82.88
265.197	74.88
265.429	67.88
265.661	72.88
265.894	91.88
266.126	97.88
266.358	89.88
266.591	79.88
266.823	76.88
267.055	85.88
267.287	102.88
267.52	71.88
267.752	77.88
267.984	82.88
268.216	79.88
268.448	78.88
268.681	66.88
268.913	85.88
269.145	89.88
269.377	93.88
269.609	88.88
269.841	87.88
270.073	87.88
270.306	84.88
270.538	82.88
270.77	89.88
271.002	83.88
271.234	87.88
271.466	106.88
271.698	82.88
271.93	81.88
272.162	84.88
272.394	77.88
272.626	86.88
272.858	83.88
273.09	84.88
273.322	85.88
273.553	77.88
273.785	85.88
274.017	78.88
274.249	74.88
274.481	76.88
274.713	84.88
274.945	86.88
275.176	76.88
275.408	98.88
275.64	82.88
275.872	90.88
276.104	92.88
276.335	81.88
276.567	89.88
276.799	88.88
277.031	84.88
277.262	76.88
277.494	91.88
277.726	83.88
277.957	81.88
278.189	88.88
278.421	55.88
278.652	78.88
278.884	81.88
279.115	98.88
279.347	93.88
279.579	81.88
279.81	90.88
280.042	82.88
280.273	87.88
280.505	91.88
280.736	81.88
280.968	86.88
281.199	83.88
281.431	75.88
281.662	64.88
281.894	84.88
282.125	85.88
282.356	81.88
282.588	82.88
282.819	70.88
283.051	95.88
283.282	98.88
283.513	93.88
283.745	91.88
283.976	92.88
284.207	66.88
284.439	77.88
284.67	95.88
284.901	94.88
285.132	89.88
285.364	79.88
285.595	81.88
285.826	86.88
286.057	75.88
286.288	81.88
286.52	89.88
286.751	73.88
286.982	74.88
287.213	71.88
287.444	79.88
287.675	91.88
287.906	85.88
288.138	68.88
288.369	74.88
288.6	84.88
288.831	82.88
289.062	84.88
289.293	84.88
289.524	83.88
289.755	81.88
289.986	78.88
290.217	77.88
290.448	72.88
290.679	90.88
290.91	100.88
291.141	87.88
291.371	91.88
291.602	88.88
291.833	92.88
292.064	88.88
292.295	91.88
292.526	81.88
292.757	76.88
292.987	93.88
293.218	87.88
293.449	73.88
293.68	82.88
293.91	69.88
294.141	85.88
294.372	85.88
294.603	76.88
294.833	75.88
295.064	82.88
295.295	80.88
295.525	82.88
295.756	100.88
295.987	94.88
296.217	80.88
296.448	82.88
296.679	62.88
296.909	78.88
297.14	86.88
297.37	85.88
297.601	91.88
297.831	75.88
298.062	91.88
298.292	74.88
298.523	85.88
298.753	81.88
298.984	86.88
299.214	86.88
299.445	82.88
299.675	85.88
299.905	85.88
300.136	94.88
300.366	89.88
300.597	87.88
300.827	86.88
301.057	96.88
301.288	82.88
301.518	99.88
301.748	101.88
301.979	115.88
302.209	97.88
302.439	85.88
302.669	84.88
302.9	82.88
303.13	95.88
303.36	84.88
303.59	72.88
303.82	77.88
304.051	75.88
304.281	94.88
304.511	89.88
304.741	78.88
304.971	102.88
305.201	91.88
305.431	91.88
305.661	75.88
305.891	78.88
306.121	89.88
306.352	98.88
306.582	77.88
306.812	110.88
307.042	87.88
307.272	85.88
307.502	87.88
307.731	81.88
307.961	81.88
308.191	66.88
308.421	76.88
308.651	85.88
308.881	77.88
309.111	80.88
309.341	77.88
309.571	93.88
309.8	105.88
310.03	103.88
310.26	89.88
310.49	69.88
310.72	88.88
310.949	82.88
311.179	73.88
311.409	94.88
311.639	93.88
311.868	83.88
312.098	77.88
312.328	97.88
312.557	88.88
312.787	75.88
313.017	93.88
313.246	87.88
313.476	83.88
313.706	93.88
313.935	88.88
314.165	87.88
314.394	90.88
314.624	97.88
314.853	91.88
315.083	78.88
315.312	82.88
315.542	92.88
315.771	87.88
316.001	83.88
316.23	91.88
316.46	92.88
316.689	86.88
316.919	79.88
317.148	82.88
317.377	83.88
317.607	101.88
317.836	83.88
318.065	89.88
318.295	81.88
318.524	81.88
318.753	70.88
318.983	78.88
319.212	68.88
319.441	81.88
319.67	90.88
319.9	95.88
320.129	85.88
320.358	86.88
320.587	82.88
320.816	77.88
321.046	67.88
321.275	80.88
321.504	79.88
321.733	84.88
321.962	87.88
322.191	79.88
322.42	86.88
322.649	94.88
322.878	97.88
323.108	85.88
323.337	74.88
323.566	76.88
323.795	84.88
324.024	82.88
324.253	85.88
324.482	93.88
324.71	91.88
324.939	83.88
325.168	92.88
325.397	81.88
325.626	77.88
325.855	86.88
326.084	98.88
326.313	92.88
326.542	101.88
326.77	94.88
326.999	79.88
327.228	89.88
327.457	80.88
327.686	85.88
327.914	89.88
328.143	85.88
328.372	85.88
328.6	80.88
328.829	76.88
329.058	79.88
329.287	93.88
329.515	85.88
329.744	77.88
329.972	77.88
330.201	79.88
330.43	91.88
330.658	86.88
330.887	84.88
331.115	91.88
331.344	89.88
331.572	95.88
331.801	78.88
332.03	73.88
332.258	77.88
332.486	71.88
332.715	85.88
332.943	83.88
333.172	99.88
333.4	82.88
333.629	75.88
333.857	86.88
334.085	81.88
334.314	79.88
334.542	77.88
334.771	99.88
334.999	80.88
335.227	76.88
335.455	79.88
335.684	94.88
335.912	87.88
336.14	72.88
336.369	71.88
336.597	77.88
336.825	79.88
337.053	79.88
337.281	83.88
337.51	77.88
337.738	93.88
337.966	83.88
338.194	66.88
338.422	87.88
338.65	77.88
338.878	69.88
339.106	85.88
339.334	91.88
339.562	67.88
339.79	77.88
340.018	83.88
340.246	80.88
340.474	80.88
340.702	88.88
340.93	78.88
341.158	92.88
341.386	86.88
341.614	79.88
341.842	71.88
342.07	72.88
342.298	81.88
342.526	89.88
342.754	93.88
342.981	91.88
343.209	82.88
343.437	80.88
343.665	85.88
343.893	87.88
344.12	85.88
344.348	91.88
344.576	87.88
344.804	85.88
345.031	84.88
345.259	88.88
345.487	81.88
345.714	87.88
345.942	84.88
346.17	91.88
346.397	79.88
346.625	62.88
346.853	87.88
347.08	85.88
347.308	80.88
347.535	79.88
347.763	86.88
347.99	67.88
348.218	77.88
348.445	81.88
348.673	94.88
348.9	73.88
349.128	78.88
349.355	86.88
349.583	74.88
349.81	83.88
350.037	81.88
350.265	71.88
350.492	79.88
350.72	92.88
350.947	89.88
351.174	97.88
351.402	78.88
351.629	83.88
351.856	85.88
352.083	70.88
352.311	90.88
352.538	80.88
352.765	65.88
352.992	92.88
353.22	84.88
353.447	85.88
353.674	93.88
353.901	94.88
354.128	86.88
354.355	84.88
354.583	84.88
354.81	79.88
355.037	83.88
355.264	86.88
355.491	92.88
355.718	70.88
355.945	72.88
356.172	77.88
356.399	87.88
356.626	83.88
356.853	83.88
357.08	92.88
357.307	83.88
357.534	85.88
357.761	80.88
357.988	81.88
358.215	87.88
358.441	90.88
358.668	86.88
358.895	86.88
359.122	91.88
359.349	92.88
359.576	79.88
359.802	85.88
360.029	73.88
360.256	77.88
360.483	80.88
360.709	85.88
360.936	84.88
361.163	77.88
361.39	78.88
361.616	82.88
361.843	70.88
362.07	82.88
362.296	84.88
362.523	81.88
362.749	80.88
362.976	79.88
363.203	85.88
363.429	82.88
363.656	85.88
363.882	78.88
364.109	87.88
364.335	73.88
364.562	71.88
364.788	78.88
365.015	86.88
365.241	90.88
365.468	82.88
365.694	71.88
365.92	82.88
366.147	75.88
366.373	78.88
366.599	80.88
366.826	84.88
367.052	86.88
367.278	78.88
367.505	80.88
367.731	79.88
367.957	86.88
368.184	82.88
368.41	76.88
368.636	74.88
368.862	78.88
369.089	91.88
369.315	77.88
369.541	86.88
369.767	86.88
369.993	74.88
370.219	83.88
370.445	81.88
370.672	79.88
370.898	93.88
371.124	89.88
371.35	84.88
371.576	82.88
371.802	82.88
372.028	85.88
372.254	88.88
372.48	93.88
372.706	73.88
372.932	80.88
373.158	86.88
373.384	84.88
373.61	73.88
373.835	80.88
374.061	63.88
374.287	79.88
374.513	69.88
374.739	81.88
374.965	79.88
375.191	85.88
375.416	86.88
375.642	87.88
375.868	89.88
376.094	69.88
376.319	74.88
376.545	83.88
376.771	84.88
376.997	103.88
377.222	87.88
377.448	92.88
377.674	95.88
377.899	85.88
378.125	87.88
378.35	85.88
378.576	60.88
378.802	87.88
379.027	89.88
379.253	85.88
379.478	83.88
379.704	92.88
379.929	93.88
380.155	91.88
380.38	80.88
380.606	84.88
380.831	81.88
381.057	73.88
381.282	78.88
381.507	74.88
381.733	89.88
381.958	81.88
382.184	94.88
382.409	77.88
382.634	75.88
382.86	103.88
383.085	79.88
383.31	85.88
383.535	98.88
383.761	86.88
383.986	84.88
384.211	77.88
384.436	89.88
384.662	74.88
384.887	93.88
385.112	86.88
385.337	87.88
385.562	82.88
385.787	76.88
386.013	87.88
386.238	79.88
386.463	79.88
386.688	91.88
386.913	78.88
387.138	88.88
387.363	72.88
387.588	85.88
387.813	83.88
388.038	81.88
388.263	80.88
388.488	87.88
388.713	77.88
388.938	63.88
389.163	66.88
389.387	91.88
389.612	81.88
389.837	96.88
390.062	95.88
390.287	71.88
390.512	77.88
390.736	93.88
390.961	79.88
391.186	85.88
391.411	95.88
391.636	79.88
391.86	84.88
392.085	81.88
392.31	80.88
392.534	86.88
392.759	89.88
392.984	85.88
393.208	85.88
393.433	86.88
393.658	82.88
393.882	80.88
394.107	82.88
394.331	86.88
394.556	81.88
394.78	78.88
395.005	71.88
395.229	67.88
395.454	95.88
395.678	84.88
395.903	85.88
396.127	80.88
396.352	65.88
396.576	77.88
396.801	73.88
397.025	83.88
397.249	87.88
397.474	91.88
397.698	64.88
397.922	78.88
398.147	67.88
398.371	62.88
398.595	80.88
398.82	82.88
399.044	82.88
399.268	73.88
399.492	70.88
399.717	86.88
399.941	71.88
400.165	85.88
400.389	75.88
400.613	80.88
400.837	69.88
401.062	71.88
401.286	69.88
401.51	81.88
401.734	80.88
401.958	87.88
402.182	81.88
402.406	85.88
402.63	86.88
402.854	90.88
403.078	100.88
403.302	79.88
403.526	77.88
403.75	81.88
403.974	84.88
404.198	87.88
404.422	87.88
404.645	92.88
404.869	92.88
405.093	79.88
405.317	78.88
405.541	80.88
405.765	81.88
405.988	87.88
406.212	87.88
406.436	68.88
406.66	72.88
406.883	76.88
407.107	78.88
407.331	83.88
407.555	70.88
407.778	84.88
408.002	90.88
408.226	78.88
408.449	79.88
408.673	88.88
408.896	81.88
409.12	70.88
409.344	78.88
409.567	73.88
409.791	75.88
410.014	78.88
410.238	81.88
410.461	83.88
410.685	76.88
410.908	74.88
411.132	92.88
411.355	85.88
411.578	78.88
411.802	85.88
412.025	83.88
412.249	70.88
412.472	70.88
412.695	89.88
412.919	82.88
413.142	85.88
413.365	66.88
413.589	70.88
413.812	91.88
414.035	86.88
414.258	68.88
414.482	87.88
414.705	81.88
414.928	70.88
415.151	81.88
415.374	81.88
415.597	85.88
415.821	99.88
416.044	67.88
416.267	75.88
416.49	84.88
416.713	87.88
416.936	85.88
417.159	76.88
417.382	79.88
417.605	70.88
417.828	85.88
418.051	64.88
418.274	62.88
418.497	74.88
418.72	85.88
418.943	66.88
419.166	79.88
419.389	72.88
419.611	83.88
419.834	79.88
420.057	85.88
420.28	70.88
420.503	74.88
420.726	83.88
420.948	81.88
421.171	85.88
421.394	75.88
421.617	77.88
421.839	59.88
422.062	83.88
422.285	67.88
422.507	83.88
422.73	85.88
422.953	75.88
423.175	72.88
423.398	87.88
423.621	79.88
423.843	75.88
424.066	78.88
424.288	84.88
424.511	63.88
424.733	86.88
424.956	61.88
425.178	81.88
425.401	75.88
425.623	69.88
425.846	82.88
426.068	86.88
426.291	77.88
426.513	85.88
426.735	93.88
426.958	90.88
427.18	77.88
427.402	77.88
427.625	78.88
427.847	82.88
428.069	81.88
428.292	84.88
428.514	84.88
428.736	89.88
428.958	86.88
429.181	77.88
429.403	78.88
429.625	91.88
429.847	80.88
430.069	87.88
430.292	91.88
430.514	78.88
430.736	76.88
430.958	69.88
431.18	86.88
431.402	66.88
431.624	76.88
431.846	77.88
432.068	78.88
432.29	90.88
432.512	75.88
432.734	77.88
432.956	82.88
433.178	71.88
433.4	77.88
433.622	81.88
433.844	90.88
434.066	80.88
434.287	71.88
434.509	73.88
434.731	72.88
434.953	65.88
435.175	75.88
435.397	80.88
435.618	86.88
435.84	74.88
436.062	93.88
436.284	71.88
436.505	74.88
436.727	86.88
436.949	84.88
437.17	80.88
437.392	82.88
437.614	70.88
437.835	69.88
438.057	91.88
438.278	82.88
438.5	79.88
438.721	67.88
438.943	77.88
439.165	73.88
439.386	93.88
439.608	67.88
439.829	75.88
440.05	90.88
440.272	75.88
440.493	83.88
440.715	72.88
440.936	75.88
441.158	69.88
441.379	81.88
441.6	61.88
441.822	80.88
442.043	77.88
442.264	91.88
442.486	79.88
442.707	82.88
442.928	81.88
443.149	78.88
443.371	81.88
443.592	81.88
443.813	70.88
444.034	78.88
444.255	79.88
444.476	69.88
444.698	82.88
444.919	90.88
445.14	153.88
445.361	95.88
445.582	72.88
445.803	75.88
446.024	85.88
446.245	81.88
446.466	83.88
446.687	82.88
446.908	73.88
447.129	78.88
447.35	87.88
447.571	85.88
447.792	80.88
448.013	63.88
448.234	83.88
448.455	87.88
448.675	92.88
448.896	76.88
449.117	93.88
449.338	76.88
449.559	94.88
449.779	63.88
450	78.88
450.221	66.88
450.442	83.88
450.662	73.88
450.883	61.88
451.104	70.88
451.324	76.88
451.545	76.88
451.766	81.88
451.986	79.88
452.207	71.88
452.428	77.88
452.648	87.88
452.869	80.88
453.089	77.88
453.31	63.88
453.53	78.88
453.751	83.88
453.971	75.88
454.192	77.88
454.412	69.88
454.633	72.88
454.853	71.88
455.073	63.88
455.294	74.88
455.514	82.88
455.734	79.88
455.955	81.88
456.175	76.88
456.395	79.88
456.616	79.88
456.836	86.88
457.056	87.88
457.276	91.88
457.497	81.88
457.717	82.88
457.937	82.88
458.157	80.88
458.377	82.88
458.598	70.88
458.818	77.88
459.038	83.88
459.258	81.88
459.478	73.88
459.698	78.88
459.918	84.88
460.138	85.88
460.358	70.88
460.578	75.88
460.798	77.88
461.018	81.88
461.238	93.88
461.458	79.88
461.678	76.88
461.898	81.88
462.118	72.88
462.338	81.88
462.558	71.88
462.777	72.88
462.997	80.88
463.217	79.88
463.437	84.88
463.657	75.88
463.876	91.88
464.096	81.88
464.316	74.88
464.536	74.88
464.755	84.88
464.975	83.88
465.195	86.88
465.414	71.88
465.634	80.88
465.854	71.88
466.073	78.88
466.293	74.88
466.512	75.88
466.732	61.88
466.951	71.88
467.171	87.88
467.391	75.88
467.61	88.88
467.829	77.88
468.049	57.88
468.268	72.88
468.488	81.88
468.707	63.88
468.927	84.88
469.146	73.88
469.365	93.88
469.585	89.88
469.804	81.88
470.023	71.88
470.243	77.88
470.462	76.88
470.681	86.88
470.901	88.88
471.12	89.88
471.339	81.88
471.558	90.88
471.777	64.88
471.997	74.88
472.216	79.88
472.435	78.88
472.654	89.88
472.873	76.88
473.092	92.88
473.311	77.88
473.53	76.88
473.749	56.88
473.968	89.88
474.187	67.88
474.406	83.88
474.625	75.88
474.844	83.88
475.063	86.88
475.282	69.88
475.501	81.88
475.72	89.88
475.939	74.88
476.158	87.88
476.377	85.88
476.596	77.88
476.814	87.88
477.033	80.88
477.252	68.88
477.471	84.88
477.69	91.88
477.908	79.88
478.127	89.88
478.346	76.88
478.564	54.88
478.783	94.88
479.002	77.88
479.22	77.88
479.439	87.88
479.658	81.88
479.876	73.88
480.095	83.88
480.313	75.88
480.532	68.88
480.751	81.88
480.969	87.88
481.188	77.88
481.406	85.88
481.624	88.88
481.843	83.88
482.061	89.88
482.28	76.88
482.498	61.88
482.717	79.88
482.935	77.88
483.153	79.88
483.372	87.88
483.59	91.88
483.808	87.88
484.027	86.88
484.245	80.88
484.463	81.88
484.681	87.88
484.9	93.88
485.118	84.88
485.336	93.88
485.554	84.88
485.772	84.88
485.99	81.88
486.209	80.88
486.427	76.88
486.645	82.88
486.863	90.88
487.081	79.88
487.299	93.88
487.517	88.88
487.735	82.88
487.953	72.88
488.171	84.88
488.389	80.88
488.607	83.88
488.825	93.88
489.043	72.88
489.261	74.88
489.479	82.88
489.696	80.88
489.914	91.88
490.132	75.88
490.35	73.88
490.568	77.88
490.786	72.88
491.003	80.88
491.221	78.88
491.439	70.88
491.657	81.88
491.874	76.88
492.092	89.88
492.31	95.88
492.527	68.88
492.745	73.88
492.963	92.88
493.18	98.88
493.398	93.88
493.615	81.88
493.833	85.88
494.05	77.88
494.268	87.88
494.485	85.88
494.703	71.88
494.92	76.88
495.138	80.88
495.355	90.88
495.573	82.88
495.79	80.88
496.008	81.88
496.225	90.88
496.442	79.88
496.66	85.88
496.877	79.88
497.094	78.88
497.312	97.88
497.529	92.88
497.746	71.88
497.963	72.88
498.181	80.88
498.398	90.88
498.615	85.88
498.832	71.88
499.049	86.88
499.267	88.88
499.484	82.88
499.701	76.88
499.918	94.88
500.135	69.88
500.352	80.88
500.569	75.88
500.786	92.88
501.003	89.88
501.22	81.88
501.437	85.88
501.654	71.88
501.871	79.88
502.088	63.88
502.305	78.88
502.522	80.88
502.739	70.88
502.956	83.88
503.172	83.88
503.389	73.88
503.606	70.88
503.823	98.88
504.04	89.88
504.256	77.88
504.473	88.88
504.69	91.88
504.907	87.88
505.123	79.88
505.34	91.88
505.557	95.88
505.773	80.88
505.99	73.88
506.207	98.88
506.423	75.88
506.64	74.88
506.856	70.88
507.073	81.88
507.289	78.88
507.506	81.88
507.722	77.88
507.939	84.88
508.155	80.88
508.372	76.88
508.588	79.88
508.805	86.88
509.021	88.88
509.238	75.88
509.454	90.88
509.67	83.88
509.887	84.88
510.103	71.88
510.319	64.88
510.536	103.88
510.752	81.88
510.968	80.88
511.184	85.88
511.401	85.88
511.617	77.88
511.833	85.88
512.049	91.88
512.265	80.88
512.481	74.88
512.698	82.88
512.914	82.88
513.13	74.88
513.346	87.88
513.562	83.88
513.778	84.88
513.994	84.88
514.21	80.88
514.426	78.88
514.642	81.88
514.858	73.88
515.074	70.88
515.29	90.88
515.506	89.88
515.721	77.88
515.937	91.88
516.153	85.88
516.369	87.88
516.585	82.88
516.801	72.88
517.016	89.88
517.232	85.88
517.448	89.88
517.664	79.88
517.879	85.88
518.095	92.88
518.311	71.88
518.527	77.88
518.742	107.88
518.958	93.88
519.173	98.88
519.389	81.88
519.605	69.88
519.82	78.88
520.036	65.88
