Data from Background_2_HRD10591_00004.txt Node
Date: Wed Nov 05 14:46:59 EST 2025
User: Yrep
Spectrometer: HR+D1059
Trigger mode: 1
Integration Time (sec): 1.000000E-1
Scans to average: 1
Electric dark correction enabled: true
Nonlinearity correction enabled: false
Boxcar width: 0
XAxis mode: Wavelengths
Number of Pixels in Spectrum: 2048
>>>>>Begin Spectral Data<<<<<
223.165	-13.62
223.4	-13.62
223.635	-13.62
223.869	-26.62
224.104	-11.62
224.338	-16.62
224.573	-12.62
224.808	-5.62
225.042	-2.62
225.277	-5.62
225.511	5.38
225.746	-12.62
225.98	2.38
226.215	4.38
226.449	23.38
226.683	27.38
226.918	30.38
227.152	14.38
227.387	30.38
227.621	45.38
227.856	35.38
228.09	37.38
228.324	35.38
228.559	55.38
228.793	70.38
229.027	72.38
229.262	66.38
229.496	66.38
229.73	69.38
229.964	78.38
230.199	73.38
230.433	65.38
230.667	76.38
230.901	74.38
231.136	71.38
231.37	85.38
231.604	80.38
231.838	87.38
232.072	75.38
232.306	79.38
232.541	92.38
232.775	81.38
233.009	78.38
233.243	74.38
233.477	72.38
233.711	90.38
233.945	80.38
234.179	85.38
234.413	80.38
234.647	79.38
234.881	83.38
235.115	71.38
235.349	79.38
235.583	65.38
235.817	68.38
236.051	70.38
236.285	90.38
236.519	61.38
236.753	75.38
236.987	62.38
237.221	78.38
237.455	86.38
237.689	80.38
237.922	71.38
238.156	80.38
238.39	80.38
238.624	77.38
238.858	63.38
239.091	82.38
239.325	58.38
239.559	80.38
239.793	92.38
240.027	77.38
240.26	87.38
240.494	78.38
240.728	75.38
240.961	79.38
241.195	74.38
241.429	87.38
241.662	67.38
241.896	75.38
242.13	90.38
242.363	77.38
242.597	77.38
242.83	72.38
243.064	86.38
243.298	76.38
243.531	78.38
243.765	81.38
243.998	74.38
244.232	80.38
244.465	79.38
244.699	84.38
244.932	76.38
245.166	63.38
245.399	78.38
245.633	60.38
245.866	71.38
246.099	78.38
246.333	76.38
246.566	72.38
246.8	78.38
247.033	66.38
247.266	92.38
247.5	70.38
247.733	72.38
247.966	63.38
248.2	83.38
248.433	86.38
248.666	78.38
248.899	79.38
249.133	82.38
249.366	80.38
249.599	80.38
249.832	83.38
250.066	71.38
250.299	78.38
250.532	74.38
250.765	77.38
250.998	88.38
251.231	97.38
251.465	77.38
251.698	83.38
251.931	78.38
252.164	78.38
252.397	78.38
252.63	94.38
252.863	81.38
253.096	60.38
253.329	64.38
253.562	82.38
253.795	91.38
254.028	84.38
254.261	82.38
254.494	78.38
254.727	78.38
254.96	85.38
255.193	81.38
255.426	70.38
255.659	83.38
255.892	77.38
256.124	80.38
256.357	87.38
256.59	88.38
256.823	80.38
257.056	83.38
257.289	80.38
257.521	70.38
257.754	76.38
257.987	75.38
258.22	82.38
258.452	90.38
258.685	93.38
258.918	84.38
259.151	97.38
259.383	79.38
259.616	71.38
259.849	94.38
260.081	77.38
260.314	82.38
260.547	84.38
260.779	72.38
261.012	75.38
261.244	82.38
261.477	94.38
261.71	82.38
261.942	73.38
262.175	75.38
262.407	81.38
262.64	83.38
262.872	84.38
263.105	81.38
263.337	76.38
263.57	78.38
263.802	65.38
264.035	95.38
264.267	76.38
264.499	71.38
264.732	101.38
264.964	87.38
265.197	72.38
265.429	87.38
265.661	87.38
265.894	80.38
266.126	83.38
266.358	89.38
266.591	92.38
266.823	90.38
267.055	85.38
267.287	78.38
267.52	64.38
267.752	84.38
267.984	78.38
268.216	83.38
268.448	80.38
268.681	87.38
268.913	93.38
269.145	90.38
269.377	87.38
269.609	93.38
269.841	94.38
270.073	77.38
270.306	79.38
270.538	88.38
270.77	82.38
271.002	84.38
271.234	96.38
271.466	80.38
271.698	83.38
271.93	76.38
272.162	83.38
272.394	91.38
272.626	84.38
272.858	90.38
273.09	77.38
273.322	87.38
273.553	89.38
273.785	79.38
274.017	63.38
274.249	84.38
274.481	90.38
274.713	85.38
274.945	93.38
275.176	72.38
275.408	84.38
275.64	85.38
275.872	83.38
276.104	98.38
276.335	89.38
276.567	82.38
276.799	88.38
277.031	72.38
277.262	107.38
277.494	96.38
277.726	85.38
277.957	91.38
278.189	70.38
278.421	82.38
278.652	68.38
278.884	77.38
279.115	94.38
279.347	93.38
279.579	88.38
279.81	80.38
280.042	81.38
280.273	96.38
280.505	79.38
280.736	93.38
280.968	99.38
281.199	91.38
281.431	102.38
281.662	92.38
281.894	95.38
282.125	98.38
282.356	88.38
282.588	88.38
282.819	90.38
283.051	68.38
283.282	84.38
283.513	91.38
283.745	81.38
283.976	68.38
284.207	93.38
284.439	88.38
284.67	92.38
284.901	77.38
285.132	90.38
285.364	89.38
285.595	100.38
285.826	85.38
286.057	100.38
286.288	80.38
286.52	85.38
286.751	76.38
286.982	91.38
287.213	68.38
287.444	84.38
287.675	95.38
287.906	93.38
288.138	85.38
288.369	90.38
288.6	80.38
288.831	97.38
289.062	86.38
289.293	103.38
289.524	74.38
289.755	93.38
289.986	95.38
290.217	87.38
290.448	94.38
290.679	85.38
290.91	66.38
291.141	85.38
291.371	80.38
291.602	85.38
291.833	77.38
292.064	86.38
292.295	84.38
292.526	87.38
292.757	91.38
292.987	73.38
293.218	72.38
293.449	86.38
293.68	74.38
293.91	81.38
294.141	91.38
294.372	90.38
294.603	80.38
294.833	80.38
295.064	86.38
295.295	87.38
295.525	73.38
295.756	72.38
295.987	97.38
296.217	90.38
296.448	85.38
296.679	75.38
296.909	79.38
297.14	92.38
297.37	77.38
297.601	88.38
297.831	84.38
298.062	104.38
298.292	73.38
298.523	95.38
298.753	81.38
298.984	92.38
299.214	64.38
299.445	81.38
299.675	81.38
299.905	85.38
300.136	83.38
300.366	93.38
300.597	83.38
300.827	79.38
301.057	75.38
301.288	82.38
301.518	84.38
301.748	95.38
301.979	95.38
302.209	93.38
302.439	85.38
302.669	82.38
302.9	92.38
303.13	92.38
303.36	88.38
303.59	66.38
303.82	84.38
304.051	83.38
304.281	90.38
304.511	82.38
304.741	87.38
304.971	84.38
305.201	91.38
305.431	81.38
305.661	87.38
305.891	91.38
306.121	79.38
306.352	90.38
306.582	90.38
306.812	106.38
307.042	82.38
307.272	100.38
307.502	77.38
307.731	89.38
307.961	82.38
308.191	86.38
308.421	92.38
308.651	79.38
308.881	68.38
309.111	92.38
309.341	96.38
309.571	78.38
309.8	83.38
310.03	89.38
310.26	87.38
310.49	90.38
310.72	88.38
310.949	78.38
311.179	93.38
311.409	69.38
311.639	90.38
311.868	84.38
312.098	88.38
312.328	90.38
312.557	64.38
312.787	101.38
313.017	85.38
313.246	93.38
313.476	98.38
313.706	82.38
313.935	82.38
314.165	94.38
314.394	95.38
314.624	87.38
314.853	94.38
315.083	82.38
315.312	106.38
315.542	82.38
315.771	102.38
316.001	78.38
316.23	90.38
316.46	95.38
316.689	80.38
316.919	101.38
317.148	92.38
317.377	95.38
317.607	83.38
317.836	80.38
318.065	95.38
318.295	85.38
318.524	86.38
318.753	82.38
318.983	87.38
319.212	96.38
319.441	82.38
319.67	73.38
319.9	56.38
320.129	82.38
320.358	66.38
320.587	76.38
320.816	74.38
321.046	76.38
321.275	86.38
321.504	95.38
321.733	75.38
321.962	79.38
322.191	78.38
322.42	94.38
322.649	93.38
322.878	79.38
323.108	99.38
323.337	79.38
323.566	96.38
323.795	77.38
324.024	82.38
324.253	78.38
324.482	76.38
324.71	80.38
324.939	90.38
325.168	97.38
325.397	86.38
325.626	90.38
325.855	79.38
326.084	69.38
326.313	84.38
326.542	70.38
326.77	83.38
326.999	88.38
327.228	90.38
327.457	78.38
327.686	81.38
327.914	76.38
328.143	80.38
328.372	78.38
328.6	95.38
328.829	92.38
329.058	97.38
329.287	91.38
329.515	86.38
329.744	94.38
329.972	83.38
330.201	75.38
330.43	84.38
330.658	85.38
330.887	85.38
331.115	75.38
331.344	77.38
331.572	94.38
331.801	85.38
332.03	86.38
332.258	61.38
332.486	102.38
332.715	65.38
332.943	79.38
333.172	89.38
333.4	90.38
333.629	73.38
333.857	76.38
334.085	87.38
334.314	87.38
334.542	86.38
334.771	77.38
334.999	79.38
335.227	95.38
335.455	88.38
335.684	95.38
335.912	85.38
336.14	83.38
336.369	84.38
336.597	85.38
336.825	70.38
337.053	91.38
337.281	89.38
337.51	79.38
337.738	81.38
337.966	84.38
338.194	75.38
338.422	89.38
338.65	88.38
338.878	85.38
339.106	80.38
339.334	84.38
339.562	107.38
339.79	92.38
340.018	84.38
340.246	76.38
340.474	90.38
340.702	82.38
340.93	84.38
341.158	75.38
341.386	73.38
341.614	84.38
341.842	88.38
342.07	75.38
342.298	70.38
342.526	95.38
342.754	93.38
342.981	76.38
343.209	69.38
343.437	94.38
343.665	90.38
343.893	79.38
344.12	86.38
344.348	90.38
344.576	76.38
344.804	88.38
345.031	78.38
345.259	94.38
345.487	79.38
345.714	84.38
345.942	74.38
346.17	92.38
346.397	72.38
346.625	75.38
346.853	88.38
347.08	86.38
347.308	81.38
347.535	99.38
347.763	78.38
347.99	86.38
348.218	95.38
348.445	88.38
348.673	78.38
348.9	83.38
349.128	76.38
349.355	87.38
349.583	91.38
349.81	87.38
350.037	88.38
350.265	96.38
350.492	76.38
350.72	89.38
350.947	87.38
351.174	89.38
351.402	80.38
351.629	95.38
351.856	84.38
352.083	87.38
352.311	87.38
352.538	83.38
352.765	75.38
352.992	92.38
353.22	76.38
353.447	86.38
353.674	85.38
353.901	78.38
354.128	79.38
354.355	93.38
354.583	74.38
354.81	78.38
355.037	90.38
355.264	94.38
355.491	83.38
355.718	87.38
355.945	96.38
356.172	80.38
356.399	88.38
356.626	83.38
356.853	76.38
357.08	86.38
357.307	87.38
357.534	90.38
357.761	92.38
357.988	83.38
358.215	94.38
358.441	92.38
358.668	90.38
358.895	78.38
359.122	81.38
359.349	88.38
359.576	84.38
359.802	95.38
360.029	83.38
360.256	80.38
360.483	76.38
360.709	82.38
360.936	94.38
361.163	84.38
361.39	88.38
361.616	75.38
361.843	87.38
362.07	92.38
362.296	80.38
362.523	84.38
362.749	86.38
362.976	79.38
363.203	86.38
363.429	80.38
363.656	63.38
363.882	81.38
364.109	95.38
364.335	78.38
364.562	87.38
364.788	97.38
365.015	73.38
365.241	88.38
365.468	93.38
365.694	71.38
365.92	87.38
366.147	82.38
366.373	72.38
366.599	96.38
366.826	79.38
367.052	88.38
367.278	86.38
367.505	83.38
367.731	92.38
367.957	102.38
368.184	71.38
368.41	94.38
368.636	88.38
368.862	66.38
369.089	81.38
369.315	93.38
369.541	86.38
369.767	84.38
369.993	88.38
370.219	88.38
370.445	84.38
370.672	77.38
370.898	90.38
371.124	77.38
371.35	90.38
371.576	88.38
371.802	75.38
372.028	88.38
372.254	85.38
372.48	83.38
372.706	74.38
372.932	92.38
373.158	72.38
373.384	84.38
373.61	72.38
373.835	79.38
374.061	83.38
374.287	78.38
374.513	86.38
374.739	106.38
374.965	81.38
375.191	83.38
375.416	80.38
375.642	82.38
375.868	80.38
376.094	85.38
376.319	84.38
376.545	79.38
376.771	75.38
376.997	76.38
377.222	77.38
377.448	79.38
377.674	81.38
377.899	77.38
378.125	75.38
378.35	84.38
378.576	75.38
378.802	75.38
379.027	97.38
379.253	94.38
379.478	84.38
379.704	71.38
379.929	84.38
380.155	97.38
380.38	79.38
380.606	87.38
380.831	79.38
381.057	85.38
381.282	91.38
381.507	95.38
381.733	72.38
381.958	95.38
382.184	83.38
382.409	90.38
382.634	86.38
382.86	90.38
383.085	87.38
383.31	74.38
383.535	94.38
383.761	71.38
383.986	85.38
384.211	77.38
384.436	76.38
384.662	81.38
384.887	90.38
385.112	73.38
385.337	77.38
385.562	75.38
385.787	68.38
386.013	83.38
386.238	79.38
386.463	84.38
386.688	71.38
386.913	79.38
387.138	88.38
387.363	85.38
387.588	100.38
387.813	91.38
388.038	90.38
388.263	82.38
388.488	72.38
388.713	79.38
388.938	77.38
389.163	86.38
389.387	79.38
389.612	83.38
389.837	83.38
390.062	82.38
390.287	84.38
390.512	86.38
390.736	79.38
390.961	87.38
391.186	80.38
391.411	82.38
391.636	92.38
391.86	92.38
392.085	84.38
392.31	81.38
392.534	86.38
392.759	73.38
392.984	77.38
393.208	72.38
393.433	90.38
393.658	86.38
393.882	71.38
394.107	76.38
394.331	80.38
394.556	88.38
394.78	82.38
395.005	78.38
395.229	92.38
395.454	86.38
395.678	81.38
395.903	77.38
396.127	87.38
396.352	70.38
396.576	78.38
396.801	86.38
397.025	85.38
397.249	80.38
397.474	92.38
397.698	81.38
397.922	94.38
398.147	91.38
398.371	90.38
398.595	98.38
398.82	75.38
399.044	82.38
399.268	78.38
399.492	80.38
399.717	84.38
399.941	67.38
400.165	98.38
400.389	89.38
400.613	85.38
400.837	83.38
401.062	78.38
401.286	78.38
401.51	88.38
401.734	83.38
401.958	72.38
402.182	82.38
402.406	71.38
402.63	71.38
402.854	63.38
403.078	81.38
403.302	78.38
403.526	77.38
403.75	70.38
403.974	84.38
404.198	85.38
404.422	90.38
404.645	86.38
404.869	85.38
405.093	91.38
405.317	82.38
405.541	93.38
405.765	87.38
405.988	85.38
406.212	86.38
406.436	78.38
406.66	88.38
406.883	94.38
407.107	86.38
407.331	81.38
407.555	79.38
407.778	73.38
408.002	90.38
408.226	89.38
408.449	81.38
408.673	83.38
408.896	79.38
409.12	91.38
409.344	87.38
409.567	82.38
409.791	80.38
410.014	77.38
410.238	76.38
410.461	78.38
410.685	84.38
410.908	77.38
411.132	94.38
411.355	91.38
411.578	87.38
411.802	81.38
412.025	87.38
412.249	80.38
412.472	93.38
412.695	83.38
412.919	78.38
413.142	88.38
413.365	83.38
413.589	87.38
413.812	70.38
414.035	84.38
414.258	81.38
414.482	80.38
414.705	82.38
414.928	92.38
415.151	86.38
415.374	86.38
415.597	82.38
415.821	80.38
416.044	87.38
416.267	82.38
416.49	96.38
416.713	87.38
416.936	95.38
417.159	85.38
417.382	80.38
417.605	68.38
417.828	80.38
418.051	75.38
418.274	89.38
418.497	80.38
418.72	95.38
418.943	78.38
419.166	83.38
419.389	78.38
419.611	68.38
419.834	86.38
420.057	91.38
420.28	91.38
420.503	71.38
420.726	76.38
420.948	86.38
421.171	80.38
421.394	77.38
421.617	74.38
421.839	103.38
422.062	96.38
422.285	73.38
422.507	93.38
422.73	83.38
422.953	103.38
423.175	95.38
423.398	78.38
423.621	80.38
423.843	82.38
424.066	106.38
424.288	83.38
424.511	95.38
424.733	94.38
424.956	94.38
425.178	78.38
425.401	93.38
425.623	54.38
425.846	84.38
426.068	90.38
426.291	83.38
426.513	62.38
426.735	94.38
426.958	83.38
427.18	68.38
427.402	75.38
427.625	76.38
427.847	71.38
428.069	87.38
428.292	77.38
428.514	93.38
428.736	78.38
428.958	72.38
429.181	90.38
429.403	80.38
429.625	77.38
429.847	85.38
430.069	95.38
430.292	78.38
430.514	86.38
430.736	84.38
430.958	86.38
431.18	85.38
431.402	67.38
431.624	66.38
431.846	83.38
432.068	98.38
432.29	86.38
432.512	100.38
432.734	81.38
432.956	84.38
433.178	81.38
433.4	79.38
433.622	87.38
433.844	84.38
434.066	82.38
434.287	86.38
434.509	83.38
434.731	80.38
434.953	82.38
435.175	65.38
435.397	68.38
435.618	87.38
435.84	88.38
436.062	81.38
436.284	78.38
436.505	87.38
436.727	76.38
436.949	93.38
437.17	83.38
437.392	74.38
437.614	70.38
437.835	62.38
438.057	79.38
438.278	81.38
438.5	87.38
438.721	77.38
438.943	76.38
439.165	83.38
439.386	84.38
439.608	93.38
439.829	80.38
440.05	85.38
440.272	65.38
440.493	88.38
440.715	84.38
440.936	74.38
441.158	90.38
441.379	85.38
441.6	75.38
441.822	87.38
442.043	84.38
442.264	92.38
442.486	78.38
442.707	88.38
442.928	68.38
443.149	86.38
443.371	83.38
443.592	78.38
443.813	81.38
444.034	95.38
444.255	90.38
444.476	86.38
444.698	95.38
444.919	97.38
445.14	158.38
445.361	126.38
445.582	83.38
445.803	77.38
446.024	77.38
446.245	87.38
446.466	87.38
446.687	75.38
446.908	78.38
447.129	97.38
447.35	88.38
447.571	88.38
447.792	98.38
448.013	81.38
448.234	69.38
448.455	78.38
448.675	78.38
448.896	74.38
449.117	88.38
449.338	80.38
449.559	70.38
449.779	83.38
450	88.38
450.221	72.38
450.442	83.38
450.662	78.38
450.883	82.38
451.104	94.38
451.324	88.38
451.545	73.38
451.766	76.38
451.986	84.38
452.207	78.38
452.428	101.38
452.648	78.38
452.869	81.38
453.089	86.38
453.31	83.38
453.53	83.38
453.751	91.38
453.971	97.38
454.192	78.38
454.412	90.38
454.633	80.38
454.853	73.38
455.073	91.38
455.294	82.38
455.514	78.38
455.734	81.38
455.955	91.38
456.175	88.38
456.395	90.38
456.616	86.38
456.836	91.38
457.056	90.38
457.276	88.38
457.497	78.38
457.717	87.38
457.937	79.38
458.157	102.38
458.377	80.38
458.598	89.38
458.818	90.38
459.038	71.38
459.258	72.38
459.478	89.38
459.698	83.38
459.918	82.38
460.138	74.38
460.358	83.38
460.578	87.38
460.798	92.38
461.018	83.38
461.238	86.38
461.458	75.38
461.678	86.38
461.898	78.38
462.118	96.38
462.338	55.38
462.558	78.38
462.777	78.38
462.997	77.38
463.217	70.38
463.437	78.38
463.657	86.38
463.876	84.38
464.096	91.38
464.316	87.38
464.536	93.38
464.755	82.38
464.975	87.38
465.195	86.38
465.414	84.38
465.634	73.38
465.854	79.38
466.073	60.38
466.293	86.38
466.512	74.38
466.732	78.38
466.951	90.38
467.171	69.38
467.391	78.38
467.61	79.38
467.829	89.38
468.049	79.38
468.268	96.38
468.488	70.38
468.707	79.38
468.927	87.38
469.146	80.38
469.365	86.38
469.585	90.38
469.804	64.38
470.023	91.38
470.243	78.38
470.462	68.38
470.681	76.38
470.901	79.38
471.12	81.38
471.339	90.38
471.558	92.38
471.777	85.38
471.997	83.38
472.216	92.38
472.435	91.38
472.654	87.38
472.873	76.38
473.092	83.38
473.311	81.38
473.53	67.38
473.749	87.38
473.968	96.38
474.187	80.38
474.406	94.38
474.625	96.38
474.844	81.38
475.063	90.38
475.282	79.38
475.501	87.38
475.72	83.38
475.939	72.38
476.158	90.38
476.377	92.38
476.596	84.38
476.814	83.38
477.033	79.38
477.252	70.38
477.471	83.38
477.69	92.38
477.908	72.38
478.127	80.38
478.346	80.38
478.564	69.38
478.783	96.38
479.002	76.38
479.22	88.38
479.439	93.38
479.658	86.38
479.876	101.38
480.095	81.38
480.313	106.38
480.532	90.38
480.751	87.38
480.969	77.38
481.188	72.38
481.406	81.38
481.624	83.38
481.843	85.38
482.061	75.38
482.28	86.38
482.498	78.38
482.717	79.38
482.935	85.38
483.153	81.38
483.372	81.38
483.59	79.38
483.808	74.38
484.027	94.38
484.245	82.38
484.463	95.38
484.681	90.38
484.9	72.38
485.118	69.38
485.336	72.38
485.554	67.38
485.772	91.38
485.99	92.38
486.209	79.38
486.427	84.38
486.645	74.38
486.863	88.38
487.081	99.38
487.299	81.38
487.517	87.38
487.735	84.38
487.953	91.38
488.171	94.38
488.389	88.38
488.607	76.38
488.825	87.38
489.043	87.38
489.261	70.38
489.479	78.38
489.696	78.38
489.914	107.38
490.132	87.38
490.35	64.38
490.568	79.38
490.786	95.38
491.003	78.38
491.221	76.38
491.439	83.38
491.657	82.38
491.874	95.38
492.092	95.38
492.31	86.38
492.527	77.38
492.745	86.38
492.963	66.38
493.18	79.38
493.398	73.38
493.615	88.38
493.833	90.38
494.05	76.38
494.268	78.38
494.485	79.38
494.703	83.38
494.92	87.38
495.138	98.38
495.355	92.38
495.573	82.38
495.79	90.38
496.008	78.38
496.225	75.38
496.442	74.38
496.66	78.38
496.877	80.38
497.094	92.38
497.312	92.38
497.529	79.38
497.746	77.38
497.963	83.38
498.181	80.38
498.398	84.38
498.615	80.38
498.832	77.38
499.049	85.38
499.267	79.38
499.484	87.38
499.701	94.38
499.918	90.38
500.135	99.38
500.352	90.38
500.569	76.38
500.786	87.38
501.003	73.38
501.22	76.38
501.437	71.38
501.654	77.38
501.871	80.38
502.088	82.38
502.305	75.38
502.522	88.38
502.739	79.38
502.956	78.38
503.172	95.38
503.389	80.38
503.606	88.38
503.823	86.38
504.04	83.38
504.256	84.38
504.473	83.38
504.69	73.38
504.907	92.38
505.123	70.38
505.34	103.38
505.557	78.38
505.773	92.38
505.99	94.38
506.207	96.38
506.423	79.38
506.64	85.38
506.856	90.38
507.073	95.38
507.289	80.38
507.506	86.38
507.722	85.38
507.939	87.38
508.155	85.38
508.372	84.38
508.588	80.38
508.805	76.38
509.021	89.38
509.238	70.38
509.454	94.38
509.67	54.38
509.887	90.38
510.103	64.38
510.319	84.38
510.536	86.38
510.752	77.38
510.968	88.38
511.184	76.38
511.401	88.38
511.617	83.38
511.833	89.38
512.049	86.38
512.265	78.38
512.481	85.38
512.698	79.38
512.914	92.38
513.13	83.38
513.346	67.38
513.562	76.38
513.778	79.38
513.994	88.38
514.21	83.38
514.426	93.38
514.642	94.38
514.858	110.38
515.074	97.38
515.29	92.38
515.506	80.38
515.721	79.38
515.937	90.38
516.153	76.38
516.369	82.38
516.585	88.38
516.801	90.38
517.016	73.38
517.232	87.38
517.448	88.38
517.664	82.38
517.879	76.38
518.095	81.38
518.311	71.38
518.527	78.38
518.742	72.38
518.958	81.38
519.173	82.38
519.389	81.38
519.605	82.38
519.82	97.38
