Data from Background_2_HRD10591_00011.txt Node
Date: Wed Nov 05 14:47:02 EST 2025
User: Yrep
Spectrometer: HR+D1059
Trigger mode: 1
Integration Time (sec): 1.000000E-1
Scans to average: 1
Electric dark correction enabled: true
Nonlinearity correction enabled: false
Boxcar width: 0
XAxis mode: Wavelengths
Number of Pixels in Spectrum: 2048
>>>>>Begin Spectral Data<<<<<
223.165	-15.62
223.4	-15.62
223.635	-15.62
223.869	-23.62
224.104	-17.62
224.338	-16.62
224.573	-18.62
224.808	-12.62
225.042	1.38
225.277	0.38
225.511	-1.62
225.746	8.38
225.98	2.38
226.215	14.38
226.449	14.38
226.683	14.38
226.918	23.38
227.152	27.38
227.387	28.38
227.621	33.38
227.856	42.38
228.09	41.38
228.324	49.38
228.559	57.38
228.793	68.38
229.027	63.38
229.262	60.38
229.496	58.38
229.73	70.38
229.964	62.38
230.199	61.38
230.433	73.38
230.667	70.38
230.901	78.38
231.136	69.38
231.37	67.38
231.604	77.38
231.838	69.38
232.072	76.38
232.306	80.38
232.541	83.38
232.775	66.38
233.009	74.38
233.243	81.38
233.477	73.38
233.711	79.38
233.945	66.38
234.179	83.38
234.413	72.38
234.647	74.38
234.881	95.38
235.115	80.38
235.349	64.38
235.583	74.38
235.817	69.38
236.051	74.38
236.285	62.38
236.519	78.38
236.753	87.38
236.987	79.38
237.221	55.38
237.455	63.38
237.689	90.38
237.922	71.38
238.156	70.38
238.39	79.38
238.624	76.38
238.858	60.38
239.091	78.38
239.325	76.38
239.559	68.38
239.793	74.38
240.027	74.38
240.26	63.38
240.494	83.38
240.728	79.38
240.961	70.38
241.195	72.38
241.429	72.38
241.662	80.38
241.896	73.38
242.13	72.38
242.363	69.38
242.597	84.38
242.83	78.38
243.064	66.38
243.298	71.38
243.531	71.38
243.765	77.38
243.998	75.38
244.232	104.38
244.465	62.38
244.699	90.38
244.932	56.38
245.166	78.38
245.399	81.38
245.633	77.38
245.866	82.38
246.099	67.38
246.333	75.38
246.566	67.38
246.8	91.38
247.033	86.38
247.266	82.38
247.5	71.38
247.733	58.38
247.966	59.38
248.2	74.38
248.433	73.38
248.666	81.38
248.899	71.38
249.133	82.38
249.366	84.38
249.599	62.38
249.832	68.38
250.066	69.38
250.299	88.38
250.532	81.38
250.765	82.38
250.998	89.38
251.231	73.38
251.465	84.38
251.698	76.38
251.931	77.38
252.164	75.38
252.397	72.38
252.63	79.38
252.863	80.38
253.096	80.38
253.329	81.38
253.562	72.38
253.795	76.38
254.028	82.38
254.261	87.38
254.494	86.38
254.727	65.38
254.96	68.38
255.193	81.38
255.426	88.38
255.659	80.38
255.892	81.38
256.124	85.38
256.357	77.38
256.59	74.38
256.823	78.38
257.056	73.38
257.289	74.38
257.521	83.38
257.754	72.38
257.987	73.38
258.22	69.38
258.452	62.38
258.685	88.38
258.918	67.38
259.151	85.38
259.383	77.38
259.616	81.38
259.849	79.38
260.081	86.38
260.314	85.38
260.547	76.38
260.779	69.38
261.012	70.38
261.244	72.38
261.477	104.38
261.71	78.38
261.942	66.38
262.175	78.38
262.407	77.38
262.64	71.38
262.872	77.38
263.105	70.38
263.337	82.38
263.57	76.38
263.802	62.38
264.035	67.38
264.267	75.38
264.499	78.38
264.732	75.38
264.964	79.38
265.197	77.38
265.429	75.38
265.661	88.38
265.894	87.38
266.126	85.38
266.358	81.38
266.591	77.38
266.823	64.38
267.055	71.38
267.287	75.38
267.52	71.38
267.752	69.38
267.984	77.38
268.216	63.38
268.448	87.38
268.681	89.38
268.913	91.38
269.145	78.38
269.377	77.38
269.609	73.38
269.841	61.38
270.073	80.38
270.306	74.38
270.538	86.38
270.77	86.38
271.002	74.38
271.234	96.38
271.466	81.38
271.698	78.38
271.93	87.38
272.162	74.38
272.394	78.38
272.626	69.38
272.858	70.38
273.09	82.38
273.322	90.38
273.553	78.38
273.785	82.38
274.017	70.38
274.249	88.38
274.481	74.38
274.713	78.38
274.945	79.38
275.176	79.38
275.408	94.38
275.64	77.38
275.872	79.38
276.104	77.38
276.335	83.38
276.567	70.38
276.799	72.38
277.031	86.38
277.262	77.38
277.494	76.38
277.726	78.38
277.957	83.38
278.189	94.38
278.421	87.38
278.652	77.38
278.884	67.38
279.115	71.38
279.347	64.38
279.579	81.38
279.81	86.38
280.042	88.38
280.273	76.38
280.505	81.38
280.736	94.38
280.968	80.38
281.199	80.38
281.431	81.38
281.662	81.38
281.894	89.38
282.125	70.38
282.356	71.38
282.588	64.38
282.819	78.38
283.051	76.38
283.282	91.38
283.513	84.38
283.745	75.38
283.976	93.38
284.207	83.38
284.439	87.38
284.67	84.38
284.901	86.38
285.132	78.38
285.364	86.38
285.595	80.38
285.826	87.38
286.057	85.38
286.288	78.38
286.52	79.38
286.751	78.38
286.982	78.38
287.213	84.38
287.444	65.38
287.675	88.38
287.906	78.38
288.138	79.38
288.369	78.38
288.6	78.38
288.831	79.38
289.062	86.38
289.293	85.38
289.524	96.38
289.755	84.38
289.986	75.38
290.217	80.38
290.448	80.38
290.679	82.38
290.91	78.38
291.141	67.38
291.371	80.38
291.602	79.38
291.833	75.38
292.064	75.38
292.295	78.38
292.526	73.38
292.757	74.38
292.987	83.38
293.218	94.38
293.449	71.38
293.68	81.38
293.91	82.38
294.141	74.38
294.372	75.38
294.603	82.38
294.833	72.38
295.064	80.38
295.295	71.38
295.525	80.38
295.756	82.38
295.987	73.38
296.217	89.38
296.448	74.38
296.679	74.38
296.909	74.38
297.14	73.38
297.37	82.38
297.601	88.38
297.831	75.38
298.062	86.38
298.292	75.38
298.523	73.38
298.753	76.38
298.984	64.38
299.214	65.38
299.445	76.38
299.675	84.38
299.905	90.38
300.136	75.38
300.366	70.38
300.597	84.38
300.827	81.38
301.057	81.38
301.288	86.38
301.518	77.38
301.748	75.38
301.979	82.38
302.209	78.38
302.439	85.38
302.669	79.38
302.9	103.38
303.13	87.38
303.36	71.38
303.59	88.38
303.82	83.38
304.051	64.38
304.281	88.38
304.511	79.38
304.741	87.38
304.971	96.38
305.201	88.38
305.431	72.38
305.661	83.38
305.891	78.38
306.121	88.38
306.352	79.38
306.582	80.38
306.812	93.38
307.042	84.38
307.272	90.38
307.502	72.38
307.731	79.38
307.961	76.38
308.191	61.38
308.421	66.38
308.651	88.38
308.881	85.38
309.111	73.38
309.341	82.38
309.571	74.38
309.8	90.38
310.03	85.38
310.26	86.38
310.49	95.38
310.72	63.38
310.949	82.38
311.179	73.38
311.409	87.38
311.639	87.38
311.868	84.38
312.098	85.38
312.328	75.38
312.557	73.38
312.787	66.38
313.017	84.38
313.246	87.38
313.476	104.38
313.706	75.38
313.935	76.38
314.165	83.38
314.394	74.38
314.624	75.38
314.853	84.38
315.083	81.38
315.312	88.38
315.542	84.38
315.771	91.38
316.001	78.38
316.23	86.38
316.46	94.38
316.689	81.38
316.919	82.38
317.148	69.38
317.377	91.38
317.607	73.38
317.836	80.38
318.065	79.38
318.295	72.38
318.524	66.38
318.753	78.38
318.983	89.38
319.212	90.38
319.441	74.38
319.67	82.38
319.9	85.38
320.129	79.38
320.358	84.38
320.587	76.38
320.816	93.38
321.046	81.38
321.275	73.38
321.504	79.38
321.733	80.38
321.962	77.38
322.191	79.38
322.42	81.38
322.649	97.38
322.878	78.38
323.108	71.38
323.337	86.38
323.566	90.38
323.795	73.38
324.024	88.38
324.253	78.38
324.482	90.38
324.71	77.38
324.939	83.38
325.168	89.38
325.397	80.38
325.626	102.38
325.855	80.38
326.084	73.38
326.313	76.38
326.542	88.38
326.77	67.38
326.999	80.38
327.228	68.38
327.457	82.38
327.686	89.38
327.914	82.38
328.143	78.38
328.372	86.38
328.6	65.38
328.829	71.38
329.058	72.38
329.287	77.38
329.515	87.38
329.744	79.38
329.972	94.38
330.201	89.38
330.43	81.38
330.658	70.38
330.887	82.38
331.115	86.38
331.344	79.38
331.572	81.38
331.801	81.38
332.03	82.38
332.258	86.38
332.486	94.38
332.715	74.38
332.943	80.38
333.172	79.38
333.4	73.38
333.629	91.38
333.857	95.38
334.085	82.38
334.314	80.38
334.542	78.38
334.771	92.38
334.999	87.38
335.227	67.38
335.455	82.38
335.684	82.38
335.912	89.38
336.14	79.38
336.369	84.38
336.597	63.38
336.825	78.38
337.053	87.38
337.281	80.38
337.51	80.38
337.738	77.38
337.966	78.38
338.194	80.38
338.422	88.38
338.65	76.38
338.878	83.38
339.106	64.38
339.334	66.38
339.562	81.38
339.79	90.38
340.018	72.38
340.246	82.38
340.474	82.38
340.702	71.38
340.93	70.38
341.158	74.38
341.386	67.38
341.614	75.38
341.842	83.38
342.07	79.38
342.298	82.38
342.526	89.38
342.754	82.38
342.981	94.38
343.209	83.38
343.437	83.38
343.665	78.38
343.893	82.38
344.12	92.38
344.348	82.38
344.576	76.38
344.804	66.38
345.031	78.38
345.259	80.38
345.487	66.38
345.714	82.38
345.942	63.38
346.17	75.38
346.397	88.38
346.625	84.38
346.853	86.38
347.08	80.38
347.308	75.38
347.535	79.38
347.763	74.38
347.99	94.38
348.218	70.38
348.445	79.38
348.673	72.38
348.9	92.38
349.128	77.38
349.355	78.38
349.583	75.38
349.81	82.38
350.037	81.38
350.265	73.38
350.492	84.38
350.72	72.38
350.947	86.38
351.174	85.38
351.402	88.38
351.629	81.38
351.856	74.38
352.083	92.38
352.311	63.38
352.538	72.38
352.765	97.38
352.992	86.38
353.22	84.38
353.447	87.38
353.674	95.38
353.901	77.38
354.128	76.38
354.355	70.38
354.583	79.38
354.81	74.38
355.037	67.38
355.264	81.38
355.491	81.38
355.718	76.38
355.945	72.38
356.172	82.38
356.399	80.38
356.626	73.38
356.853	88.38
357.08	78.38
357.307	74.38
357.534	82.38
357.761	78.38
357.988	83.38
358.215	71.38
358.441	84.38
358.668	91.38
358.895	75.38
359.122	72.38
359.349	80.38
359.576	84.38
359.802	78.38
360.029	74.38
360.256	68.38
360.483	77.38
360.709	73.38
360.936	79.38
361.163	77.38
361.39	78.38
361.616	82.38
361.843	71.38
362.07	75.38
362.296	67.38
362.523	77.38
362.749	86.38
362.976	86.38
363.203	96.38
363.429	73.38
363.656	84.38
363.882	72.38
364.109	89.38
364.335	86.38
364.562	84.38
364.788	79.38
365.015	91.38
365.241	69.38
365.468	91.38
365.694	73.38
365.92	71.38
366.147	73.38
366.373	88.38
366.599	78.38
366.826	82.38
367.052	74.38
367.278	80.38
367.505	72.38
367.731	66.38
367.957	71.38
368.184	78.38
368.41	88.38
368.636	68.38
368.862	78.38
369.089	93.38
369.315	77.38
369.541	79.38
369.767	76.38
369.993	91.38
370.219	62.38
370.445	68.38
370.672	81.38
370.898	74.38
371.124	82.38
371.35	71.38
371.576	66.38
371.802	83.38
372.028	83.38
372.254	81.38
372.48	77.38
372.706	79.38
372.932	64.38
373.158	69.38
373.384	84.38
373.61	86.38
373.835	76.38
374.061	78.38
374.287	81.38
374.513	84.38
374.739	70.38
374.965	83.38
375.191	73.38
375.416	79.38
375.642	90.38
375.868	75.38
376.094	76.38
376.319	88.38
376.545	70.38
376.771	73.38
376.997	70.38
377.222	76.38
377.448	83.38
377.674	72.38
377.899	83.38
378.125	67.38
378.35	82.38
378.576	72.38
378.802	64.38
379.027	90.38
379.253	90.38
379.478	72.38
379.704	78.38
379.929	85.38
380.155	69.38
380.38	83.38
380.606	72.38
380.831	86.38
381.057	87.38
381.282	94.38
381.507	70.38
381.733	74.38
381.958	91.38
382.184	66.38
382.409	75.38
382.634	67.38
382.86	83.38
383.085	86.38
383.31	83.38
383.535	97.38
383.761	68.38
383.986	88.38
384.211	79.38
384.436	71.38
384.662	71.38
384.887	79.38
385.112	63.38
385.337	70.38
385.562	80.38
385.787	79.38
386.013	86.38
386.238	65.38
386.463	63.38
386.688	75.38
386.913	75.38
387.138	71.38
387.363	71.38
387.588	75.38
387.813	73.38
388.038	77.38
388.263	74.38
388.488	75.38
388.713	73.38
388.938	77.38
389.163	71.38
389.387	78.38
389.612	78.38
389.837	75.38
390.062	81.38
390.287	60.38
390.512	66.38
390.736	91.38
390.961	74.38
391.186	77.38
391.411	84.38
391.636	76.38
391.86	76.38
392.085	76.38
392.31	82.38
392.534	75.38
392.759	73.38
392.984	72.38
393.208	67.38
393.433	82.38
393.658	81.38
393.882	73.38
394.107	80.38
394.331	80.38
394.556	79.38
394.78	74.38
395.005	73.38
395.229	80.38
395.454	78.38
395.678	73.38
395.903	78.38
396.127	76.38
396.352	75.38
396.576	75.38
396.801	82.38
397.025	67.38
397.249	81.38
397.474	86.38
397.698	68.38
397.922	78.38
398.147	88.38
398.371	58.38
398.595	70.38
398.82	78.38
399.044	76.38
399.268	75.38
399.492	87.38
399.717	72.38
399.941	69.38
400.165	72.38
400.389	99.38
400.613	81.38
400.837	85.38
401.062	78.38
401.286	77.38
401.51	88.38
401.734	91.38
401.958	80.38
402.182	82.38
402.406	68.38
402.63	66.38
402.854	88.38
403.078	87.38
403.302	85.38
403.526	80.38
403.75	80.38
403.974	83.38
404.198	65.38
404.422	75.38
404.645	65.38
404.869	84.38
405.093	76.38
405.317	67.38
405.541	73.38
405.765	78.38
405.988	78.38
406.212	83.38
406.436	75.38
406.66	77.38
406.883	77.38
407.107	69.38
407.331	79.38
407.555	83.38
407.778	76.38
408.002	79.38
408.226	79.38
408.449	68.38
408.673	82.38
408.896	63.38
409.12	78.38
409.344	75.38
409.567	72.38
409.791	61.38
410.014	94.38
410.238	69.38
410.461	55.38
410.685	83.38
410.908	76.38
411.132	77.38
411.355	77.38
411.578	79.38
411.802	68.38
412.025	80.38
412.249	66.38
412.472	75.38
412.695	78.38
412.919	74.38
413.142	82.38
413.365	82.38
413.589	72.38
413.812	83.38
414.035	79.38
414.258	69.38
414.482	56.38
414.705	54.38
414.928	80.38
415.151	81.38
415.374	78.38
415.597	86.38
415.821	73.38
416.044	68.38
416.267	79.38
416.49	69.38
416.713	74.38
416.936	87.38
417.159	69.38
417.382	71.38
417.605	77.38
417.828	77.38
418.051	72.38
418.274	79.38
418.497	69.38
418.72	68.38
418.943	78.38
419.166	69.38
419.389	74.38
419.611	71.38
419.834	66.38
420.057	79.38
420.28	66.38
420.503	71.38
420.726	74.38
420.948	78.38
421.171	87.38
421.394	84.38
421.617	74.38
421.839	64.38
422.062	80.38
422.285	73.38
422.507	63.38
422.73	86.38
422.953	74.38
423.175	75.38
423.398	60.38
423.621	86.38
423.843	74.38
424.066	86.38
424.288	79.38
424.511	76.38
424.733	76.38
424.956	79.38
425.178	72.38
425.401	78.38
425.623	73.38
425.846	79.38
426.068	93.38
426.291	72.38
426.513	76.38
426.735	76.38
426.958	95.38
427.18	68.38
427.402	81.38
427.625	80.38
427.847	69.38
428.069	87.38
428.292	77.38
428.514	82.38
428.736	80.38
428.958	69.38
429.181	70.38
429.403	69.38
429.625	75.38
429.847	74.38
430.069	93.38
430.292	80.38
430.514	63.38
430.736	67.38
430.958	82.38
431.18	65.38
431.402	66.38
431.624	86.38
431.846	70.38
432.068	81.38
432.29	75.38
432.512	79.38
432.734	81.38
432.956	79.38
433.178	69.38
433.4	76.38
433.622	77.38
433.844	72.38
434.066	69.38
434.287	78.38
434.509	71.38
434.731	65.38
434.953	78.38
435.175	70.38
435.397	81.38
435.618	62.38
435.84	75.38
436.062	80.38
436.284	86.38
436.505	78.38
436.727	82.38
436.949	85.38
437.17	76.38
437.392	70.38
437.614	74.38
437.835	81.38
438.057	87.38
438.278	74.38
438.5	81.38
438.721	78.38
438.943	79.38
439.165	82.38
439.386	69.38
439.608	87.38
439.829	68.38
440.05	80.38
440.272	77.38
440.493	67.38
440.715	76.38
440.936	82.38
441.158	82.38
441.379	89.38
441.6	81.38
441.822	66.38
442.043	60.38
442.264	72.38
442.486	67.38
442.707	81.38
442.928	81.38
443.149	73.38
443.371	76.38
443.592	57.38
443.813	87.38
444.034	71.38
444.255	68.38
444.476	80.38
444.698	88.38
444.919	77.38
445.14	141.38
445.361	124.38
445.582	76.38
445.803	73.38
446.024	71.38
446.245	69.38
446.466	59.38
446.687	63.38
446.908	75.38
447.129	87.38
447.35	90.38
447.571	93.38
447.792	78.38
448.013	75.38
448.234	81.38
448.455	73.38
448.675	84.38
448.896	71.38
449.117	69.38
449.338	84.38
449.559	76.38
449.779	79.38
450	76.38
450.221	74.38
450.442	71.38
450.662	70.38
450.883	69.38
451.104	84.38
451.324	75.38
451.545	86.38
451.766	81.38
451.986	80.38
452.207	78.38
452.428	80.38
452.648	78.38
452.869	68.38
453.089	67.38
453.31	73.38
453.53	86.38
453.751	72.38
453.971	84.38
454.192	63.38
454.412	70.38
454.633	72.38
454.853	68.38
455.073	78.38
455.294	78.38
455.514	67.38
455.734	69.38
455.955	73.38
456.175	79.38
456.395	85.38
456.616	88.38
456.836	98.38
457.056	62.38
457.276	77.38
457.497	90.38
457.717	77.38
457.937	86.38
458.157	93.38
458.377	78.38
458.598	80.38
458.818	74.38
459.038	74.38
459.258	71.38
459.478	80.38
459.698	80.38
459.918	78.38
460.138	86.38
460.358	93.38
460.578	91.38
460.798	69.38
461.018	98.38
461.238	82.38
461.458	72.38
461.678	84.38
461.898	77.38
462.118	82.38
462.338	68.38
462.558	69.38
462.777	76.38
462.997	79.38
463.217	76.38
463.437	78.38
463.657	74.38
463.876	78.38
464.096	72.38
464.316	76.38
464.536	79.38
464.755	84.38
464.975	80.38
465.195	85.38
465.414	74.38
465.634	68.38
465.854	76.38
466.073	82.38
466.293	72.38
466.512	69.38
466.732	81.38
466.951	94.38
467.171	92.38
467.391	60.38
467.61	74.38
467.829	69.38
468.049	83.38
468.268	92.38
468.488	75.38
468.707	78.38
468.927	94.38
469.146	80.38
469.365	80.38
469.585	81.38
469.804	66.38
470.023	72.38
470.243	69.38
470.462	86.38
470.681	88.38
470.901	74.38
471.12	76.38
471.339	78.38
471.558	82.38
471.777	79.38
471.997	85.38
472.216	86.38
472.435	80.38
472.654	64.38
472.873	78.38
473.092	87.38
473.311	67.38
473.53	71.38
473.749	78.38
473.968	76.38
474.187	68.38
474.406	76.38
474.625	76.38
474.844	82.38
475.063	87.38
475.282	76.38
475.501	72.38
475.72	82.38
475.939	74.38
476.158	75.38
476.377	93.38
476.596	87.38
476.814	73.38
477.033	65.38
477.252	78.38
477.471	77.38
477.69	78.38
477.908	79.38
478.127	87.38
478.346	87.38
478.564	84.38
478.783	92.38
479.002	70.38
479.22	84.38
479.439	77.38
479.658	80.38
479.876	78.38
480.095	81.38
480.313	78.38
480.532	85.38
480.751	72.38
480.969	78.38
481.188	80.38
481.406	87.38
481.624	70.38
481.843	87.38
482.061	70.38
482.28	66.38
482.498	68.38
482.717	79.38
482.935	80.38
483.153	77.38
483.372	67.38
483.59	77.38
483.808	78.38
484.027	60.38
484.245	79.38
484.463	83.38
484.681	98.38
484.9	76.38
485.118	87.38
485.336	76.38
485.554	86.38
485.772	84.38
485.99	74.38
486.209	75.38
486.427	82.38
486.645	84.38
486.863	76.38
487.081	60.38
487.299	76.38
487.517	78.38
487.735	80.38
487.953	68.38
488.171	80.38
488.389	71.38
488.607	96.38
488.825	74.38
489.043	74.38
489.261	80.38
489.479	80.38
489.696	81.38
489.914	86.38
490.132	80.38
490.35	78.38
490.568	83.38
490.786	75.38
491.003	88.38
491.221	79.38
491.439	79.38
491.657	76.38
491.874	81.38
492.092	81.38
492.31	72.38
492.527	78.38
492.745	71.38
492.963	72.38
493.18	75.38
493.398	58.38
493.615	87.38
493.833	74.38
494.05	78.38
494.268	78.38
494.485	83.38
494.703	67.38
494.92	77.38
495.138	76.38
495.355	99.38
495.573	77.38
495.79	75.38
496.008	95.38
496.225	78.38
496.442	81.38
496.66	90.38
496.877	91.38
497.094	94.38
497.312	87.38
497.529	72.38
497.746	78.38
497.963	79.38
498.181	73.38
498.398	77.38
498.615	91.38
498.832	87.38
499.049	62.38
499.267	80.38
499.484	86.38
499.701	74.38
499.918	71.38
500.135	93.38
500.352	90.38
500.569	89.38
500.786	86.38
501.003	93.38
501.22	80.38
501.437	84.38
501.654	59.38
501.871	82.38
502.088	70.38
502.305	84.38
502.522	76.38
502.739	73.38
502.956	78.38
503.172	78.38
503.389	89.38
503.606	72.38
503.823	75.38
504.04	90.38
504.256	81.38
504.473	80.38
504.69	83.38
504.907	93.38
505.123	87.38
505.34	73.38
505.557	83.38
505.773	84.38
505.99	77.38
506.207	76.38
506.423	84.38
506.64	74.38
506.856	79.38
507.073	77.38
507.289	83.38
507.506	89.38
507.722	84.38
507.939	83.38
508.155	93.38
508.372	76.38
508.588	78.38
508.805	76.38
509.021	93.38
509.238	77.38
509.454	75.38
509.67	81.38
509.887	60.38
510.103	82.38
510.319	70.38
510.536	81.38
510.752	77.38
510.968	91.38
511.184	72.38
511.401	84.38
511.617	73.38
511.833	60.38
512.049	75.38
512.265	93.38
512.481	82.38
512.698	93.38
512.914	97.38
513.13	84.38
513.346	67.38
513.562	91.38
513.778	93.38
513.994	87.38
514.21	97.38
514.426	87.38
514.642	77.38
514.858	85.38
515.074	87.38
515.29	84.38
515.506	76.38
515.721	85.38
515.937	69.38
516.153	73.38
516.369	90.38
516.585	82.38
516.801	79.38
517.016	92.38
517.232	76.38
517.448	79.38
517.664	82.38
517.879	70.38
518.095	92.38
518.311	86.38
518.527	72.38
518.742	88.38
518.958	78.38
519.173	78.38
519.389	86.38
519.605	82.38
519.82	80.38
520.036	72.38
520.251	79.38
