Data from Background_2_HRD10591_00065.txt Node
Date: Wed Nov 05 14:47:28 EST 2025
User: Yrep
Spectrometer: HR+D1059
Trigger mode: 1
Integration Time (sec): 1.000000E-1
Scans to average: 1
Electric dark correction enabled: true
Nonlinearity correction enabled: false
Boxcar width: 0
XAxis mode: Wavelengths
Number of Pixels in Spectrum: 2048
>>>>>Begin Spectral Data<<<<<
223.165	-12.94
223.4	-12.94
223.635	-12.94
223.869	-21.94
224.104	-19.94
224.338	-15.94
224.573	-8.94
224.808	-13.94
225.042	-7.94
225.277	-1.94
225.511	-12.94
225.746	-5.94
225.98	1.06
226.215	21.06
226.449	16.06
226.683	20.06
226.918	27.06
227.152	37.06
227.387	37.06
227.621	57.06
227.856	41.06
228.09	43.06
228.324	41.06
228.559	57.06
228.793	58.06
229.027	65.06
229.262	60.06
229.496	84.06
229.73	58.06
229.964	82.06
230.199	69.06
230.433	71.06
230.667	75.06
230.901	67.06
231.136	66.06
231.37	69.06
231.604	86.06
231.838	75.06
232.072	75.06
232.306	78.06
232.541	75.06
232.775	96.06
233.009	84.06
233.243	81.06
233.477	71.06
233.711	81.06
233.945	64.06
234.179	58.06
234.413	90.06
234.647	68.06
234.881	77.06
235.115	70.06
235.349	67.06
235.583	76.06
235.817	83.06
236.051	82.06
236.285	90.06
236.519	74.06
236.753	73.06
236.987	73.06
237.221	98.06
237.455	78.06
237.689	69.06
237.922	81.06
238.156	81.06
238.39	66.06
238.624	75.06
238.858	70.06
239.091	69.06
239.325	73.06
239.559	61.06
239.793	72.06
240.027	74.06
240.26	76.06
240.494	76.06
240.728	77.06
240.961	80.06
241.195	83.06
241.429	80.06
241.662	84.06
241.896	62.06
242.13	69.06
242.363	71.06
242.597	75.06
242.83	68.06
243.064	76.06
243.298	78.06
243.531	85.06
243.765	67.06
243.998	80.06
244.232	91.06
244.465	87.06
244.699	87.06
244.932	73.06
245.166	79.06
245.399	80.06
245.633	80.06
245.866	91.06
246.099	68.06
246.333	81.06
246.566	75.06
246.8	85.06
247.033	81.06
247.266	73.06
247.5	66.06
247.733	69.06
247.966	67.06
248.2	69.06
248.433	61.06
248.666	63.06
248.899	85.06
249.133	77.06
249.366	76.06
249.599	73.06
249.832	72.06
250.066	79.06
250.299	61.06
250.532	72.06
250.765	89.06
250.998	70.06
251.231	76.06
251.465	78.06
251.698	80.06
251.931	79.06
252.164	79.06
252.397	84.06
252.63	90.06
252.863	80.06
253.096	77.06
253.329	77.06
253.562	78.06
253.795	83.06
254.028	85.06
254.261	69.06
254.494	72.06
254.727	81.06
254.96	78.06
255.193	65.06
255.426	63.06
255.659	84.06
255.892	82.06
256.124	84.06
256.357	83.06
256.59	75.06
256.823	74.06
257.056	86.06
257.289	84.06
257.521	83.06
257.754	79.06
257.987	75.06
258.22	87.06
258.452	70.06
258.685	78.06
258.918	76.06
259.151	75.06
259.383	71.06
259.616	71.06
259.849	88.06
260.081	86.06
260.314	68.06
260.547	84.06
260.779	81.06
261.012	70.06
261.244	82.06
261.477	77.06
261.71	72.06
261.942	87.06
262.175	69.06
262.407	79.06
262.64	85.06
262.872	64.06
263.105	83.06
263.337	90.06
263.57	89.06
263.802	84.06
264.035	98.06
264.267	76.06
264.499	75.06
264.732	81.06
264.964	76.06
265.197	81.06
265.429	92.06
265.661	81.06
265.894	87.06
266.126	82.06
266.358	84.06
266.591	91.06
266.823	92.06
267.055	80.06
267.287	78.06
267.52	87.06
267.752	80.06
267.984	74.06
268.216	76.06
268.448	82.06
268.681	66.06
268.913	75.06
269.145	86.06
269.377	82.06
269.609	70.06
269.841	80.06
270.073	82.06
270.306	77.06
270.538	75.06
270.77	80.06
271.002	77.06
271.234	86.06
271.466	79.06
271.698	82.06
271.93	80.06
272.162	88.06
272.394	85.06
272.626	78.06
272.858	89.06
273.09	76.06
273.322	86.06
273.553	81.06
273.785	78.06
274.017	85.06
274.249	81.06
274.481	98.06
274.713	93.06
274.945	83.06
275.176	95.06
275.408	79.06
275.64	83.06
275.872	77.06
276.104	76.06
276.335	74.06
276.567	88.06
276.799	75.06
277.031	88.06
277.262	80.06
277.494	90.06
277.726	90.06
277.957	77.06
278.189	66.06
278.421	86.06
278.652	88.06
278.884	83.06
279.115	81.06
279.347	82.06
279.579	78.06
279.81	70.06
280.042	90.06
280.273	88.06
280.505	82.06
280.736	103.06
280.968	91.06
281.199	87.06
281.431	78.06
281.662	84.06
281.894	79.06
282.125	88.06
282.356	89.06
282.588	81.06
282.819	81.06
283.051	79.06
283.282	84.06
283.513	73.06
283.745	79.06
283.976	68.06
284.207	96.06
284.439	79.06
284.67	87.06
284.901	96.06
285.132	92.06
285.364	87.06
285.595	70.06
285.826	76.06
286.057	82.06
286.288	85.06
286.52	94.06
286.751	86.06
286.982	76.06
287.213	83.06
287.444	89.06
287.675	76.06
287.906	79.06
288.138	83.06
288.369	75.06
288.6	69.06
288.831	78.06
289.062	83.06
289.293	85.06
289.524	87.06
289.755	81.06
289.986	75.06
290.217	77.06
290.448	85.06
290.679	80.06
290.91	80.06
291.141	67.06
291.371	75.06
291.602	77.06
291.833	84.06
292.064	81.06
292.295	76.06
292.526	76.06
292.757	70.06
292.987	70.06
293.218	79.06
293.449	77.06
293.68	83.06
293.91	84.06
294.141	76.06
294.372	81.06
294.603	83.06
294.833	83.06
295.064	63.06
295.295	83.06
295.525	90.06
295.756	89.06
295.987	85.06
296.217	86.06
296.448	84.06
296.679	91.06
296.909	80.06
297.14	79.06
297.37	84.06
297.601	76.06
297.831	84.06
298.062	78.06
298.292	87.06
298.523	101.06
298.753	80.06
298.984	91.06
299.214	83.06
299.445	72.06
299.675	81.06
299.905	85.06
300.136	100.06
300.366	87.06
300.597	97.06
300.827	93.06
301.057	81.06
301.288	93.06
301.518	89.06
301.748	84.06
301.979	89.06
302.209	85.06
302.439	88.06
302.669	78.06
302.9	80.06
303.13	83.06
303.36	81.06
303.59	91.06
303.82	79.06
304.051	77.06
304.281	82.06
304.511	83.06
304.741	77.06
304.971	87.06
305.201	83.06
305.431	66.06
305.661	75.06
305.891	80.06
306.121	86.06
306.352	79.06
306.582	90.06
306.812	89.06
307.042	89.06
307.272	82.06
307.502	86.06
307.731	73.06
307.961	80.06
308.191	99.06
308.421	76.06
308.651	79.06
308.881	78.06
309.111	83.06
309.341	79.06
309.571	72.06
309.8	83.06
310.03	88.06
310.26	73.06
310.49	69.06
310.72	87.06
310.949	79.06
311.179	85.06
311.409	84.06
311.639	80.06
311.868	87.06
312.098	85.06
312.328	86.06
312.557	95.06
312.787	82.06
313.017	74.06
313.246	74.06
313.476	87.06
313.706	79.06
313.935	82.06
314.165	77.06
314.394	83.06
314.624	75.06
314.853	86.06
315.083	81.06
315.312	87.06
315.542	66.06
315.771	75.06
316.001	87.06
316.23	91.06
316.46	88.06
316.689	78.06
316.919	82.06
317.148	86.06
317.377	87.06
317.607	68.06
317.836	74.06
318.065	73.06
318.295	76.06
318.524	88.06
318.753	58.06
318.983	93.06
319.212	90.06
319.441	88.06
319.67	90.06
319.9	86.06
320.129	88.06
320.358	79.06
320.587	93.06
320.816	81.06
321.046	90.06
321.275	81.06
321.504	68.06
321.733	80.06
321.962	80.06
322.191	92.06
322.42	90.06
322.649	87.06
322.878	89.06
323.108	77.06
323.337	78.06
323.566	79.06
323.795	88.06
324.024	93.06
324.253	93.06
324.482	89.06
324.71	92.06
324.939	85.06
325.168	80.06
325.397	81.06
325.626	88.06
325.855	83.06
326.084	82.06
326.313	75.06
326.542	87.06
326.77	80.06
326.999	72.06
327.228	69.06
327.457	81.06
327.686	91.06
327.914	80.06
328.143	68.06
328.372	84.06
328.6	74.06
328.829	88.06
329.058	74.06
329.287	91.06
329.515	87.06
329.744	81.06
329.972	79.06
330.201	94.06
330.43	84.06
330.658	75.06
330.887	80.06
331.115	81.06
331.344	89.06
331.572	85.06
331.801	83.06
332.03	82.06
332.258	75.06
332.486	84.06
332.715	84.06
332.943	97.06
333.172	84.06
333.4	85.06
333.629	82.06
333.857	82.06
334.085	83.06
334.314	66.06
334.542	76.06
334.771	84.06
334.999	95.06
335.227	76.06
335.455	73.06
335.684	101.06
335.912	87.06
336.14	88.06
336.369	94.06
336.597	69.06
336.825	84.06
337.053	83.06
337.281	80.06
337.51	89.06
337.738	104.06
337.966	89.06
338.194	73.06
338.422	77.06
338.65	93.06
338.878	96.06
339.106	92.06
339.334	80.06
339.562	70.06
339.79	89.06
340.018	92.06
340.246	78.06
340.474	82.06
340.702	86.06
340.93	84.06
341.158	84.06
341.386	69.06
341.614	79.06
341.842	85.06
342.07	77.06
342.298	80.06
342.526	80.06
342.754	81.06
342.981	70.06
343.209	88.06
343.437	91.06
343.665	71.06
343.893	82.06
344.12	74.06
344.348	92.06
344.576	86.06
344.804	80.06
345.031	83.06
345.259	82.06
345.487	79.06
345.714	79.06
345.942	93.06
346.17	76.06
346.397	75.06
346.625	73.06
346.853	82.06
347.08	70.06
347.308	93.06
347.535	82.06
347.763	77.06
347.99	82.06
348.218	84.06
348.445	83.06
348.673	87.06
348.9	74.06
349.128	87.06
349.355	87.06
349.583	84.06
349.81	75.06
350.037	85.06
350.265	85.06
350.492	77.06
350.72	69.06
350.947	75.06
351.174	74.06
351.402	75.06
351.629	75.06
351.856	82.06
352.083	75.06
352.311	84.06
352.538	88.06
352.765	73.06
352.992	83.06
353.22	61.06
353.447	73.06
353.674	79.06
353.901	67.06
354.128	92.06
354.355	67.06
354.583	70.06
354.81	69.06
355.037	87.06
355.264	96.06
355.491	87.06
355.718	86.06
355.945	68.06
356.172	90.06
356.399	83.06
356.626	65.06
356.853	81.06
357.08	95.06
357.307	83.06
357.534	88.06
357.761	92.06
357.988	83.06
358.215	79.06
358.441	75.06
358.668	83.06
358.895	76.06
359.122	70.06
359.349	78.06
359.576	80.06
359.802	72.06
360.029	89.06
360.256	86.06
360.483	62.06
360.709	93.06
360.936	89.06
361.163	78.06
361.39	78.06
361.616	90.06
361.843	95.06
362.07	96.06
362.296	86.06
362.523	76.06
362.749	74.06
362.976	77.06
363.203	85.06
363.429	70.06
363.656	91.06
363.882	79.06
364.109	76.06
364.335	89.06
364.562	74.06
364.788	88.06
365.015	76.06
365.241	84.06
365.468	78.06
365.694	89.06
365.92	87.06
366.147	85.06
366.373	90.06
366.599	79.06
366.826	74.06
367.052	80.06
367.278	86.06
367.505	75.06
367.731	85.06
367.957	88.06
368.184	82.06
368.41	81.06
368.636	80.06
368.862	80.06
369.089	76.06
369.315	83.06
369.541	79.06
369.767	85.06
369.993	84.06
370.219	95.06
370.445	93.06
370.672	85.06
370.898	72.06
371.124	77.06
371.35	84.06
371.576	92.06
371.802	82.06
372.028	74.06
372.254	80.06
372.48	69.06
372.706	79.06
372.932	65.06
373.158	73.06
373.384	80.06
373.61	92.06
373.835	86.06
374.061	78.06
374.287	71.06
374.513	77.06
374.739	78.06
374.965	68.06
375.191	85.06
375.416	76.06
375.642	80.06
375.868	82.06
376.094	73.06
376.319	80.06
376.545	76.06
376.771	71.06
376.997	84.06
377.222	84.06
377.448	92.06
377.674	87.06
377.899	74.06
378.125	79.06
378.35	95.06
378.576	81.06
378.802	68.06
379.027	91.06
379.253	77.06
379.478	78.06
379.704	74.06
379.929	90.06
380.155	84.06
380.38	72.06
380.606	81.06
380.831	73.06
381.057	77.06
381.282	82.06
381.507	79.06
381.733	69.06
381.958	86.06
382.184	81.06
382.409	91.06
382.634	86.06
382.86	97.06
383.085	75.06
383.31	78.06
383.535	77.06
383.761	84.06
383.986	96.06
384.211	89.06
384.436	83.06
384.662	87.06
384.887	66.06
385.112	85.06
385.337	78.06
385.562	74.06
385.787	86.06
386.013	99.06
386.238	88.06
386.463	86.06
386.688	83.06
386.913	69.06
387.138	78.06
387.363	83.06
387.588	79.06
387.813	84.06
388.038	86.06
388.263	87.06
388.488	81.06
388.713	70.06
388.938	80.06
389.163	80.06
389.387	71.06
389.612	78.06
389.837	72.06
390.062	89.06
390.287	83.06
390.512	91.06
390.736	83.06
390.961	64.06
391.186	85.06
391.411	75.06
391.636	78.06
391.86	80.06
392.085	84.06
392.31	93.06
392.534	78.06
392.759	87.06
392.984	78.06
393.208	77.06
393.433	81.06
393.658	80.06
393.882	77.06
394.107	94.06
394.331	67.06
394.556	72.06
394.78	79.06
395.005	82.06
395.229	86.06
395.454	92.06
395.678	78.06
395.903	83.06
396.127	84.06
396.352	74.06
396.576	76.06
396.801	83.06
397.025	81.06
397.249	61.06
397.474	84.06
397.698	79.06
397.922	71.06
398.147	80.06
398.371	79.06
398.595	89.06
398.82	89.06
399.044	91.06
399.268	76.06
399.492	81.06
399.717	60.06
399.941	81.06
400.165	93.06
400.389	88.06
400.613	72.06
400.837	92.06
401.062	87.06
401.286	84.06
401.51	85.06
401.734	75.06
401.958	70.06
402.182	68.06
402.406	74.06
402.63	97.06
402.854	87.06
403.078	74.06
403.302	71.06
403.526	70.06
403.75	73.06
403.974	75.06
404.198	77.06
404.422	82.06
404.645	74.06
404.869	81.06
405.093	84.06
405.317	70.06
405.541	75.06
405.765	73.06
405.988	63.06
406.212	73.06
406.436	85.06
406.66	79.06
406.883	90.06
407.107	82.06
407.331	71.06
407.555	77.06
407.778	71.06
408.002	75.06
408.226	88.06
408.449	82.06
408.673	73.06
408.896	70.06
409.12	91.06
409.344	87.06
409.567	81.06
409.791	63.06
410.014	75.06
410.238	90.06
410.461	85.06
410.685	91.06
410.908	84.06
411.132	67.06
411.355	71.06
411.578	79.06
411.802	72.06
412.025	84.06
412.249	86.06
412.472	80.06
412.695	70.06
412.919	88.06
413.142	89.06
413.365	77.06
413.589	84.06
413.812	78.06
414.035	72.06
414.258	89.06
414.482	87.06
414.705	90.06
414.928	75.06
415.151	82.06
415.374	81.06
415.597	72.06
415.821	64.06
416.044	89.06
416.267	80.06
416.49	78.06
416.713	60.06
416.936	89.06
417.159	75.06
417.382	85.06
417.605	84.06
417.828	97.06
418.051	88.06
418.274	79.06
418.497	86.06
418.72	77.06
418.943	81.06
419.166	65.06
419.389	80.06
419.611	83.06
419.834	78.06
420.057	77.06
420.28	68.06
420.503	73.06
420.726	71.06
420.948	71.06
421.171	80.06
421.394	78.06
421.617	78.06
421.839	78.06
422.062	74.06
422.285	81.06
422.507	82.06
422.73	81.06
422.953	87.06
423.175	83.06
423.398	81.06
423.621	83.06
423.843	75.06
424.066	84.06
424.288	64.06
424.511	77.06
424.733	71.06
424.956	78.06
425.178	69.06
425.401	79.06
425.623	76.06
425.846	89.06
426.068	67.06
426.291	78.06
426.513	66.06
426.735	84.06
426.958	90.06
427.18	76.06
427.402	90.06
427.625	66.06
427.847	68.06
428.069	81.06
428.292	80.06
428.514	87.06
428.736	66.06
428.958	75.06
429.181	71.06
429.403	80.06
429.625	65.06
429.847	65.06
430.069	84.06
430.292	80.06
430.514	76.06
430.736	83.06
430.958	73.06
431.18	82.06
431.402	72.06
431.624	70.06
431.846	66.06
432.068	81.06
432.29	91.06
432.512	65.06
432.734	88.06
432.956	73.06
433.178	79.06
433.4	85.06
433.622	75.06
433.844	65.06
434.066	89.06
434.287	85.06
434.509	79.06
434.731	82.06
434.953	74.06
435.175	69.06
435.397	87.06
435.618	66.06
435.84	67.06
436.062	69.06
436.284	80.06
436.505	77.06
436.727	75.06
436.949	88.06
437.17	77.06
437.392	74.06
437.614	84.06
437.835	78.06
438.057	66.06
438.278	83.06
438.5	78.06
438.721	83.06
438.943	83.06
439.165	68.06
439.386	86.06
439.608	69.06
439.829	77.06
440.05	97.06
440.272	88.06
440.493	59.06
440.715	65.06
440.936	93.06
441.158	89.06
441.379	77.06
441.6	69.06
441.822	80.06
442.043	90.06
442.264	86.06
442.486	68.06
442.707	79.06
442.928	75.06
443.149	74.06
443.371	74.06
443.592	69.06
443.813	77.06
444.034	74.06
444.255	76.06
444.476	72.06
444.698	66.06
444.919	79.06
445.14	142.06
445.361	123.06
445.582	78.06
445.803	84.06
446.024	71.06
446.245	89.06
446.466	80.06
446.687	73.06
446.908	70.06
447.129	73.06
447.35	85.06
447.571	89.06
447.792	72.06
448.013	67.06
448.234	79.06
448.455	90.06
448.675	73.06
448.896	87.06
449.117	76.06
449.338	82.06
449.559	68.06
449.779	81.06
450	96.06
450.221	68.06
450.442	86.06
450.662	71.06
450.883	79.06
451.104	70.06
451.324	74.06
451.545	88.06
451.766	84.06
451.986	77.06
452.207	73.06
452.428	73.06
452.648	66.06
452.869	87.06
453.089	81.06
453.31	82.06
453.53	82.06
453.751	66.06
453.971	83.06
454.192	82.06
454.412	74.06
454.633	72.06
454.853	92.06
455.073	81.06
455.294	77.06
455.514	85.06
455.734	76.06
455.955	67.06
456.175	81.06
456.395	77.06
456.616	67.06
456.836	88.06
457.056	69.06
457.276	78.06
457.497	68.06
457.717	68.06
457.937	83.06
458.157	80.06
458.377	83.06
458.598	71.06
458.818	81.06
459.038	80.06
459.258	91.06
459.478	76.06
459.698	76.06
459.918	84.06
460.138	84.06
460.358	79.06
460.578	81.06
460.798	69.06
461.018	82.06
461.238	84.06
461.458	76.06
461.678	85.06
461.898	65.06
462.118	66.06
462.338	93.06
462.558	96.06
462.777	68.06
462.997	79.06
463.217	80.06
463.437	72.06
463.657	79.06
463.876	78.06
464.096	86.06
464.316	74.06
464.536	75.06
464.755	82.06
464.975	79.06
465.195	78.06
465.414	87.06
465.634	92.06
465.854	76.06
466.073	87.06
466.293	73.06
466.512	71.06
466.732	84.06
466.951	78.06
467.171	84.06
467.391	80.06
467.61	69.06
467.829	75.06
468.049	77.06
468.268	91.06
468.488	67.06
468.707	80.06
468.927	91.06
469.146	77.06
469.365	80.06
469.585	81.06
469.804	80.06
470.023	80.06
470.243	84.06
470.462	91.06
470.681	82.06
470.901	88.06
471.12	66.06
471.339	91.06
471.558	84.06
471.777	75.06
471.997	67.06
472.216	73.06
472.435	75.06
472.654	69.06
472.873	78.06
473.092	81.06
473.311	81.06
473.53	57.06
473.749	67.06
473.968	79.06
474.187	86.06
474.406	82.06
474.625	87.06
474.844	77.06
475.063	68.06
475.282	85.06
475.501	82.06
475.72	83.06
475.939	84.06
476.158	66.06
476.377	71.06
476.596	77.06
476.814	78.06
477.033	80.06
477.252	63.06
477.471	70.06
477.69	72.06
477.908	77.06
478.127	72.06
478.346	67.06
478.564	88.06
478.783	67.06
479.002	87.06
479.22	93.06
479.439	61.06
479.658	74.06
479.876	77.06
480.095	87.06
480.313	89.06
480.532	75.06
480.751	79.06
480.969	89.06
481.188	91.06
481.406	83.06
481.624	69.06
481.843	91.06
482.061	77.06
482.28	73.06
482.498	77.06
482.717	73.06
482.935	67.06
483.153	89.06
483.372	77.06
483.59	91.06
483.808	81.06
484.027	81.06
484.245	80.06
484.463	79.06
484.681	89.06
484.9	81.06
485.118	89.06
485.336	87.06
485.554	92.06
485.772	79.06
485.99	87.06
486.209	93.06
486.427	71.06
486.645	75.06
486.863	84.06
487.081	85.06
487.299	71.06
487.517	91.06
487.735	72.06
487.953	80.06
488.171	67.06
488.389	80.06
488.607	71.06
488.825	92.06
489.043	71.06
489.261	77.06
489.479	66.06
489.696	72.06
489.914	84.06
490.132	77.06
490.35	87.06
490.568	89.06
490.786	79.06
491.003	74.06
491.221	74.06
491.439	83.06
491.657	84.06
491.874	95.06
492.092	76.06
492.31	87.06
492.527	78.06
492.745	91.06
492.963	73.06
493.18	70.06
493.398	85.06
493.615	85.06
493.833	88.06
494.05	79.06
494.268	75.06
494.485	88.06
494.703	75.06
494.92	92.06
495.138	73.06
495.355	76.06
495.573	82.06
495.79	85.06
496.008	81.06
496.225	91.06
496.442	81.06
496.66	82.06
496.877	81.06
497.094	73.06
497.312	80.06
497.529	76.06
497.746	75.06
497.963	78.06
498.181	87.06
498.398	82.06
498.615	78.06
498.832	81.06
499.049	83.06
499.267	78.06
499.484	81.06
499.701	68.06
499.918	85.06
500.135	70.06
500.352	86.06
500.569	85.06
500.786	75.06
501.003	84.06
501.22	81.06
501.437	65.06
501.654	83.06
501.871	69.06
502.088	80.06
502.305	73.06
502.522	89.06
502.739	75.06
502.956	63.06
503.172	75.06
503.389	80.06
503.606	79.06
503.823	82.06
504.04	76.06
504.256	79.06
504.473	72.06
504.69	81.06
504.907	74.06
505.123	79.06
505.34	78.06
505.557	84.06
505.773	74.06
505.99	70.06
506.207	87.06
506.423	81.06
506.64	80.06
506.856	72.06
507.073	86.06
507.289	89.06
507.506	80.06
507.722	79.06
507.939	60.06
508.155	87.06
508.372	69.06
508.588	74.06
508.805	83.06
509.021	87.06
509.238	81.06
509.454	68.06
509.67	74.06
509.887	85.06
510.103	72.06
510.319	81.06
510.536	91.06
510.752	83.06
510.968	82.06
511.184	87.06
511.401	78.06
511.617	83.06
511.833	80.06
512.049	77.06
512.265	72.06
512.481	78.06
512.698	83.06
512.914	73.06
513.13	79.06
513.346	83.06
513.562	75.06
513.778	79.06
513.994	87.06
514.21	75.06
514.426	82.06
514.642	78.06
514.858	76.06
515.074	69.06
515.29	79.06
515.506	79.06
515.721	85.06
515.937	89.06
516.153	77.06
516.369	85.06
516.585	85.06
516.801	67.06
517.016	78.06
517.232	83.06
517.448	97.06
517.664	84.06
517.879	94.06
518.095	77.06
518.311	86.06
518.527	69.06
518.742	63.06
518.958	73.06
519.173	82.06
519.389	89.06
519.605	77.06
519.82	79.06
520.036	69.06
