Data from Background_2_HRD10591_00066.txt Node
Date: Wed Nov 05 14:47:29 EST 2025
User: Yrep
Spectrometer: HR+D1059
Trigger mode: 1
Integration Time (sec): 1.000000E-1
Scans to average: 1
Electric dark correction enabled: true
Nonlinearity correction enabled: false
Boxcar width: 0
XAxis mode: Wavelengths
Number of Pixels in Spectrum: 2048
>>>>>Begin Spectral Data<<<<<
223.165	-20.56
223.4	-20.56
223.635	-20.56
223.869	-18.56
224.104	-7.56
224.338	-16.56
224.573	-28.56
224.808	-12.56
225.042	-34.56
225.277	-1.56
225.511	-9.56
225.746	2.44
225.98	19.44
226.215	13.44
226.449	24.44
226.683	26.44
226.918	29.44
227.152	34.44
227.387	35.44
227.621	38.44
227.856	44.44
228.09	33.44
228.324	51.44
228.559	60.44
228.793	44.44
229.027	64.44
229.262	72.44
229.496	63.44
229.73	70.44
229.964	74.44
230.199	69.44
230.433	74.44
230.667	60.44
230.901	75.44
231.136	71.44
231.37	74.44
231.604	75.44
231.838	75.44
232.072	84.44
232.306	78.44
232.541	73.44
232.775	79.44
233.009	84.44
233.243	80.44
233.477	84.44
233.711	69.44
233.945	72.44
234.179	86.44
234.413	89.44
234.647	68.44
234.881	65.44
235.115	68.44
235.349	77.44
235.583	75.44
235.817	76.44
236.051	75.44
236.285	64.44
236.519	68.44
236.753	67.44
236.987	77.44
237.221	66.44
237.455	86.44
237.689	85.44
237.922	83.44
238.156	76.44
238.39	63.44
238.624	57.44
238.858	62.44
239.091	87.44
239.325	80.44
239.559	71.44
239.793	68.44
240.027	83.44
240.26	70.44
240.494	72.44
240.728	72.44
240.961	56.44
241.195	92.44
241.429	70.44
241.662	64.44
241.896	84.44
242.13	74.44
242.363	72.44
242.597	72.44
242.83	75.44
243.064	79.44
243.298	70.44
243.531	72.44
243.765	78.44
243.998	80.44
244.232	76.44
244.465	78.44
244.699	72.44
244.932	78.44
245.166	75.44
245.399	64.44
245.633	56.44
245.866	68.44
246.099	71.44
246.333	68.44
246.566	76.44
246.8	76.44
247.033	93.44
247.266	73.44
247.5	74.44
247.733	77.44
247.966	77.44
248.2	72.44
248.433	74.44
248.666	73.44
248.899	90.44
249.133	74.44
249.366	75.44
249.599	78.44
249.832	70.44
250.066	71.44
250.299	75.44
250.532	69.44
250.765	76.44
250.998	84.44
251.231	80.44
251.465	75.44
251.698	72.44
251.931	83.44
252.164	72.44
252.397	74.44
252.63	81.44
252.863	70.44
253.096	76.44
253.329	82.44
253.562	75.44
253.795	68.44
254.028	68.44
254.261	77.44
254.494	86.44
254.727	81.44
254.96	75.44
255.193	68.44
255.426	73.44
255.659	68.44
255.892	82.44
256.124	65.44
256.357	76.44
256.59	82.44
256.823	75.44
257.056	69.44
257.289	63.44
257.521	76.44
257.754	90.44
257.987	72.44
258.22	82.44
258.452	79.44
258.685	69.44
258.918	72.44
259.151	72.44
259.383	80.44
259.616	77.44
259.849	77.44
260.081	82.44
260.314	90.44
260.547	83.44
260.779	80.44
261.012	84.44
261.244	74.44
261.477	88.44
261.71	76.44
261.942	84.44
262.175	84.44
262.407	67.44
262.64	72.44
262.872	83.44
263.105	76.44
263.337	75.44
263.57	74.44
263.802	87.44
264.035	82.44
264.267	81.44
264.499	94.44
264.732	79.44
264.964	89.44
265.197	81.44
265.429	68.44
265.661	68.44
265.894	82.44
266.126	84.44
266.358	89.44
266.591	60.44
266.823	78.44
267.055	64.44
267.287	71.44
267.52	83.44
267.752	82.44
267.984	90.44
268.216	87.44
268.448	88.44
268.681	77.44
268.913	80.44
269.145	84.44
269.377	84.44
269.609	74.44
269.841	89.44
270.073	76.44
270.306	88.44
270.538	86.44
270.77	69.44
271.002	74.44
271.234	80.44
271.466	83.44
271.698	91.44
271.93	71.44
272.162	78.44
272.394	74.44
272.626	75.44
272.858	72.44
273.09	93.44
273.322	83.44
273.553	80.44
273.785	79.44
274.017	83.44
274.249	78.44
274.481	82.44
274.713	74.44
274.945	74.44
275.176	75.44
275.408	88.44
275.64	75.44
275.872	82.44
276.104	76.44
276.335	88.44
276.567	81.44
276.799	77.44
277.031	76.44
277.262	79.44
277.494	83.44
277.726	81.44
277.957	79.44
278.189	82.44
278.421	84.44
278.652	89.44
278.884	80.44
279.115	72.44
279.347	81.44
279.579	82.44
279.81	77.44
280.042	77.44
280.273	79.44
280.505	79.44
280.736	91.44
280.968	81.44
281.199	80.44
281.431	90.44
281.662	101.44
281.894	71.44
282.125	88.44
282.356	75.44
282.588	82.44
282.819	90.44
283.051	76.44
283.282	72.44
283.513	75.44
283.745	78.44
283.976	69.44
284.207	79.44
284.439	82.44
284.67	79.44
284.901	82.44
285.132	79.44
285.364	85.44
285.595	87.44
285.826	70.44
286.057	78.44
286.288	80.44
286.52	83.44
286.751	88.44
286.982	89.44
287.213	82.44
287.444	76.44
287.675	79.44
287.906	83.44
288.138	82.44
288.369	87.44
288.6	80.44
288.831	86.44
289.062	91.44
289.293	72.44
289.524	82.44
289.755	69.44
289.986	81.44
290.217	80.44
290.448	77.44
290.679	76.44
290.91	69.44
291.141	83.44
291.371	74.44
291.602	81.44
291.833	82.44
292.064	74.44
292.295	74.44
292.526	80.44
292.757	89.44
292.987	82.44
293.218	73.44
293.449	82.44
293.68	81.44
293.91	75.44
294.141	88.44
294.372	80.44
294.603	84.44
294.833	70.44
295.064	78.44
295.295	79.44
295.525	90.44
295.756	84.44
295.987	70.44
296.217	84.44
296.448	76.44
296.679	88.44
296.909	88.44
297.14	76.44
297.37	74.44
297.601	91.44
297.831	86.44
298.062	64.44
298.292	89.44
298.523	81.44
298.753	89.44
298.984	83.44
299.214	67.44
299.445	76.44
299.675	73.44
299.905	87.44
300.136	78.44
300.366	87.44
300.597	82.44
300.827	78.44
301.057	80.44
301.288	90.44
301.518	81.44
301.748	80.44
301.979	91.44
302.209	83.44
302.439	90.44
302.669	76.44
302.9	84.44
303.13	83.44
303.36	82.44
303.59	82.44
303.82	79.44
304.051	68.44
304.281	79.44
304.511	71.44
304.741	75.44
304.971	80.44
305.201	71.44
305.431	82.44
305.661	82.44
305.891	73.44
306.121	80.44
306.352	77.44
306.582	65.44
306.812	82.44
307.042	77.44
307.272	83.44
307.502	94.44
307.731	81.44
307.961	89.44
308.191	78.44
308.421	89.44
308.651	82.44
308.881	78.44
309.111	81.44
309.341	84.44
309.571	70.44
309.8	80.44
310.03	76.44
310.26	80.44
310.49	82.44
310.72	60.44
310.949	81.44
311.179	86.44
311.409	91.44
311.639	83.44
311.868	75.44
312.098	82.44
312.328	72.44
312.557	85.44
312.787	84.44
313.017	83.44
313.246	93.44
313.476	84.44
313.706	73.44
313.935	82.44
314.165	83.44
314.394	71.44
314.624	75.44
314.853	88.44
315.083	72.44
315.312	83.44
315.542	87.44
315.771	91.44
316.001	75.44
316.23	79.44
316.46	80.44
316.689	86.44
316.919	84.44
317.148	85.44
317.377	81.44
317.607	78.44
317.836	83.44
318.065	82.44
318.295	78.44
318.524	72.44
318.753	71.44
318.983	75.44
319.212	77.44
319.441	83.44
319.67	80.44
319.9	64.44
320.129	79.44
320.358	83.44
320.587	76.44
320.816	92.44
321.046	68.44
321.275	77.44
321.504	97.44
321.733	91.44
321.962	70.44
322.191	88.44
322.42	76.44
322.649	85.44
322.878	68.44
323.108	94.44
323.337	72.44
323.566	81.44
323.795	83.44
324.024	84.44
324.253	73.44
324.482	88.44
324.71	75.44
324.939	82.44
325.168	96.44
325.397	98.44
325.626	90.44
325.855	78.44
326.084	91.44
326.313	84.44
326.542	83.44
326.77	77.44
326.999	91.44
327.228	88.44
327.457	77.44
327.686	95.44
327.914	81.44
328.143	88.44
328.372	84.44
328.6	81.44
328.829	81.44
329.058	68.44
329.287	89.44
329.515	78.44
329.744	81.44
329.972	86.44
330.201	80.44
330.43	76.44
330.658	82.44
330.887	78.44
331.115	82.44
331.344	81.44
331.572	86.44
331.801	89.44
332.03	85.44
332.258	92.44
332.486	78.44
332.715	74.44
332.943	64.44
333.172	74.44
333.4	92.44
333.629	68.44
333.857	78.44
334.085	77.44
334.314	71.44
334.542	78.44
334.771	68.44
334.999	83.44
335.227	85.44
335.455	76.44
335.684	72.44
335.912	80.44
336.14	83.44
336.369	75.44
336.597	64.44
336.825	86.44
337.053	76.44
337.281	78.44
337.51	76.44
337.738	78.44
337.966	74.44
338.194	84.44
338.422	83.44
338.65	97.44
338.878	92.44
339.106	82.44
339.334	83.44
339.562	95.44
339.79	77.44
340.018	79.44
340.246	78.44
340.474	82.44
340.702	83.44
340.93	71.44
341.158	69.44
341.386	79.44
341.614	70.44
341.842	79.44
342.07	91.44
342.298	93.44
342.526	79.44
342.754	84.44
342.981	84.44
343.209	85.44
343.437	96.44
343.665	93.44
343.893	76.44
344.12	98.44
344.348	62.44
344.576	71.44
344.804	90.44
345.031	89.44
345.259	88.44
345.487	76.44
345.714	76.44
345.942	88.44
346.17	78.44
346.397	67.44
346.625	68.44
346.853	68.44
347.08	82.44
347.308	79.44
347.535	76.44
347.763	79.44
347.99	80.44
348.218	84.44
348.445	92.44
348.673	78.44
348.9	71.44
349.128	72.44
349.355	70.44
349.583	82.44
349.81	87.44
350.037	90.44
350.265	88.44
350.492	84.44
350.72	70.44
350.947	81.44
351.174	90.44
351.402	79.44
351.629	82.44
351.856	90.44
352.083	65.44
352.311	88.44
352.538	72.44
352.765	66.44
352.992	94.44
353.22	90.44
353.447	86.44
353.674	78.44
353.901	87.44
354.128	84.44
354.355	90.44
354.583	67.44
354.81	82.44
355.037	89.44
355.264	78.44
355.491	74.44
355.718	82.44
355.945	88.44
356.172	89.44
356.399	87.44
356.626	90.44
356.853	83.44
357.08	81.44
357.307	66.44
357.534	81.44
357.761	83.44
357.988	84.44
358.215	87.44
358.441	83.44
358.668	78.44
358.895	74.44
359.122	75.44
359.349	76.44
359.576	94.44
359.802	98.44
360.029	90.44
360.256	72.44
360.483	70.44
360.709	72.44
360.936	92.44
361.163	78.44
361.39	74.44
361.616	75.44
361.843	72.44
362.07	64.44
362.296	82.44
362.523	74.44
362.749	80.44
362.976	61.44
363.203	97.44
363.429	72.44
363.656	66.44
363.882	80.44
364.109	71.44
364.335	80.44
364.562	82.44
364.788	86.44
365.015	80.44
365.241	76.44
365.468	69.44
365.694	65.44
365.92	76.44
366.147	75.44
366.373	73.44
366.599	82.44
366.826	93.44
367.052	63.44
367.278	74.44
367.505	75.44
367.731	76.44
367.957	74.44
368.184	76.44
368.41	64.44
368.636	79.44
368.862	70.44
369.089	74.44
369.315	80.44
369.541	83.44
369.767	71.44
369.993	69.44
370.219	83.44
370.445	72.44
370.672	79.44
370.898	73.44
371.124	82.44
371.35	70.44
371.576	82.44
371.802	73.44
372.028	80.44
372.254	80.44
372.48	84.44
372.706	91.44
372.932	79.44
373.158	72.44
373.384	79.44
373.61	74.44
373.835	90.44
374.061	87.44
374.287	65.44
374.513	70.44
374.739	76.44
374.965	72.44
375.191	72.44
375.416	82.44
375.642	73.44
375.868	86.44
376.094	87.44
376.319	87.44
376.545	82.44
376.771	78.44
376.997	87.44
377.222	83.44
377.448	83.44
377.674	85.44
377.899	77.44
378.125	80.44
378.35	63.44
378.576	66.44
378.802	86.44
379.027	76.44
379.253	80.44
379.478	82.44
379.704	83.44
379.929	75.44
380.155	74.44
380.38	72.44
380.606	76.44
380.831	78.44
381.057	90.44
381.282	86.44
381.507	72.44
381.733	75.44
381.958	64.44
382.184	68.44
382.409	62.44
382.634	91.44
382.86	86.44
383.085	92.44
383.31	79.44
383.535	71.44
383.761	82.44
383.986	88.44
384.211	88.44
384.436	65.44
384.662	68.44
384.887	83.44
385.112	63.44
385.337	87.44
385.562	74.44
385.787	72.44
386.013	75.44
386.238	88.44
386.463	76.44
386.688	98.44
386.913	72.44
387.138	72.44
387.363	70.44
387.588	75.44
387.813	70.44
388.038	78.44
388.263	72.44
388.488	85.44
388.713	76.44
388.938	80.44
389.163	59.44
389.387	74.44
389.612	81.44
389.837	77.44
390.062	66.44
390.287	67.44
390.512	74.44
390.736	70.44
390.961	68.44
391.186	79.44
391.411	86.44
391.636	83.44
391.86	82.44
392.085	86.44
392.31	74.44
392.534	74.44
392.759	79.44
392.984	86.44
393.208	88.44
393.433	72.44
393.658	81.44
393.882	78.44
394.107	75.44
394.331	87.44
394.556	63.44
394.78	70.44
395.005	76.44
395.229	78.44
395.454	75.44
395.678	76.44
395.903	83.44
396.127	90.44
396.352	76.44
396.576	69.44
396.801	67.44
397.025	72.44
397.249	72.44
397.474	91.44
397.698	69.44
397.922	86.44
398.147	77.44
398.371	77.44
398.595	83.44
398.82	79.44
399.044	76.44
399.268	73.44
399.492	72.44
399.717	81.44
399.941	90.44
400.165	77.44
400.389	73.44
400.613	79.44
400.837	77.44
401.062	81.44
401.286	82.44
401.51	74.44
401.734	76.44
401.958	75.44
402.182	78.44
402.406	74.44
402.63	74.44
402.854	68.44
403.078	80.44
403.302	70.44
403.526	87.44
403.75	79.44
403.974	71.44
404.198	79.44
404.422	77.44
404.645	69.44
404.869	79.44
405.093	88.44
405.317	80.44
405.541	87.44
405.765	81.44
405.988	71.44
406.212	92.44
406.436	87.44
406.66	83.44
406.883	76.44
407.107	72.44
407.331	81.44
407.555	82.44
407.778	65.44
408.002	71.44
408.226	86.44
408.449	82.44
408.673	86.44
408.896	78.44
409.12	89.44
409.344	78.44
409.567	83.44
409.791	79.44
410.014	66.44
410.238	78.44
410.461	72.44
410.685	79.44
410.908	86.44
411.132	75.44
411.355	89.44
411.578	87.44
411.802	67.44
412.025	63.44
412.249	73.44
412.472	84.44
412.695	80.44
412.919	78.44
413.142	70.44
413.365	77.44
413.589	74.44
413.812	78.44
414.035	81.44
414.258	60.44
414.482	96.44
414.705	78.44
414.928	78.44
415.151	84.44
415.374	81.44
415.597	76.44
415.821	75.44
416.044	97.44
416.267	100.44
416.49	80.44
416.713	80.44
416.936	74.44
417.159	93.44
417.382	78.44
417.605	80.44
417.828	99.44
418.051	72.44
418.274	62.44
418.497	84.44
418.72	82.44
418.943	77.44
419.166	82.44
419.389	83.44
419.611	75.44
419.834	86.44
420.057	79.44
420.28	62.44
420.503	87.44
420.726	78.44
420.948	60.44
421.171	80.44
421.394	68.44
421.617	80.44
421.839	74.44
422.062	68.44
422.285	78.44
422.507	80.44
422.73	76.44
422.953	96.44
423.175	93.44
423.398	78.44
423.621	76.44
423.843	73.44
424.066	83.44
424.288	64.44
424.511	81.44
424.733	54.44
424.956	80.44
425.178	92.44
425.401	79.44
425.623	83.44
425.846	86.44
426.068	65.44
426.291	78.44
426.513	80.44
426.735	83.44
426.958	87.44
427.18	86.44
427.402	79.44
427.625	74.44
427.847	68.44
428.069	78.44
428.292	70.44
428.514	78.44
428.736	92.44
428.958	72.44
429.181	81.44
429.403	84.44
429.625	84.44
429.847	81.44
430.069	77.44
430.292	74.44
430.514	75.44
430.736	83.44
430.958	85.44
431.18	86.44
431.402	87.44
431.624	79.44
431.846	68.44
432.068	79.44
432.29	78.44
432.512	73.44
432.734	80.44
432.956	77.44
433.178	88.44
433.4	80.44
433.622	80.44
433.844	75.44
434.066	64.44
434.287	72.44
434.509	75.44
434.731	81.44
434.953	65.44
435.175	75.44
435.397	88.44
435.618	92.44
435.84	86.44
436.062	74.44
436.284	68.44
436.505	73.44
436.727	71.44
436.949	58.44
437.17	79.44
437.392	72.44
437.614	85.44
437.835	65.44
438.057	82.44
438.278	79.44
438.5	78.44
438.721	66.44
438.943	92.44
439.165	68.44
439.386	85.44
439.608	78.44
439.829	89.44
440.05	74.44
440.272	71.44
440.493	87.44
440.715	66.44
440.936	67.44
441.158	58.44
441.379	72.44
441.6	80.44
441.822	89.44
442.043	86.44
442.264	92.44
442.486	74.44
442.707	86.44
442.928	80.44
443.149	72.44
443.371	72.44
443.592	64.44
443.813	80.44
444.034	81.44
444.255	85.44
444.476	69.44
444.698	75.44
444.919	86.44
445.14	162.44
445.361	109.44
445.582	79.44
445.803	92.44
446.024	64.44
446.245	78.44
446.466	71.44
446.687	87.44
446.908	66.44
447.129	86.44
447.35	72.44
447.571	67.44
447.792	78.44
448.013	71.44
448.234	82.44
448.455	76.44
448.675	74.44
448.896	83.44
449.117	76.44
449.338	77.44
449.559	86.44
449.779	69.44
450	78.44
450.221	80.44
450.442	78.44
450.662	67.44
450.883	84.44
451.104	82.44
451.324	78.44
451.545	72.44
451.766	83.44
451.986	68.44
452.207	83.44
452.428	83.44
452.648	71.44
452.869	92.44
453.089	83.44
453.31	80.44
453.53	89.44
453.751	81.44
453.971	77.44
454.192	82.44
454.412	86.44
454.633	81.44
454.853	86.44
455.073	76.44
455.294	64.44
455.514	78.44
455.734	68.44
455.955	75.44
456.175	72.44
456.395	79.44
456.616	77.44
456.836	70.44
457.056	85.44
457.276	70.44
457.497	76.44
457.717	85.44
457.937	97.44
458.157	75.44
458.377	72.44
458.598	66.44
458.818	74.44
459.038	83.44
459.258	88.44
459.478	77.44
459.698	79.44
459.918	78.44
460.138	83.44
460.358	80.44
460.578	78.44
460.798	87.44
461.018	87.44
461.238	74.44
461.458	66.44
461.678	67.44
461.898	86.44
462.118	82.44
462.338	70.44
462.558	83.44
462.777	79.44
462.997	75.44
463.217	78.44
463.437	91.44
463.657	70.44
463.876	91.44
464.096	67.44
464.316	74.44
464.536	74.44
464.755	76.44
464.975	86.44
465.195	77.44
465.414	84.44
465.634	80.44
465.854	83.44
466.073	66.44
466.293	82.44
466.512	74.44
466.732	88.44
466.951	80.44
467.171	83.44
467.391	77.44
467.61	76.44
467.829	75.44
468.049	78.44
468.268	80.44
468.488	75.44
468.707	87.44
468.927	70.44
469.146	80.44
469.365	79.44
469.585	94.44
469.804	83.44
470.023	69.44
470.243	78.44
470.462	73.44
470.681	81.44
470.901	81.44
471.12	71.44
471.339	85.44
471.558	78.44
471.777	88.44
471.997	76.44
472.216	82.44
472.435	75.44
472.654	76.44
472.873	87.44
473.092	82.44
473.311	81.44
473.53	75.44
473.749	75.44
473.968	72.44
474.187	63.44
474.406	74.44
474.625	78.44
474.844	89.44
475.063	88.44
475.282	74.44
475.501	89.44
475.72	91.44
475.939	79.44
476.158	83.44
476.377	74.44
476.596	82.44
476.814	83.44
477.033	91.44
477.252	76.44
477.471	78.44
477.69	89.44
477.908	86.44
478.127	62.44
478.346	83.44
478.564	67.44
478.783	80.44
479.002	72.44
479.22	72.44
479.439	82.44
479.658	63.44
479.876	77.44
480.095	65.44
480.313	91.44
480.532	76.44
480.751	70.44
480.969	78.44
481.188	87.44
481.406	80.44
481.624	92.44
481.843	84.44
482.061	77.44
482.28	74.44
482.498	83.44
482.717	74.44
482.935	78.44
483.153	75.44
483.372	79.44
483.59	75.44
483.808	76.44
484.027	85.44
484.245	65.44
484.463	72.44
484.681	74.44
484.9	94.44
485.118	91.44
485.336	84.44
485.554	82.44
485.772	79.44
485.99	75.44
486.209	89.44
486.427	77.44
486.645	84.44
486.863	75.44
487.081	75.44
487.299	90.44
487.517	87.44
487.735	74.44
487.953	84.44
488.171	91.44
488.389	80.44
488.607	75.44
488.825	77.44
489.043	77.44
489.261	78.44
489.479	69.44
489.696	80.44
489.914	82.44
490.132	73.44
490.35	90.44
490.568	85.44
490.786	75.44
491.003	85.44
491.221	64.44
491.439	78.44
491.657	68.44
491.874	93.44
492.092	86.44
492.31	80.44
492.527	66.44
492.745	84.44
492.963	64.44
493.18	78.44
493.398	69.44
493.615	60.44
493.833	72.44
494.05	90.44
494.268	84.44
494.485	72.44
494.703	92.44
494.92	65.44
495.138	81.44
495.355	88.44
495.573	93.44
495.79	78.44
496.008	72.44
496.225	81.44
496.442	77.44
496.66	87.44
496.877	89.44
497.094	79.44
497.312	70.44
497.529	79.44
497.746	89.44
497.963	79.44
498.181	83.44
498.398	75.44
498.615	74.44
498.832	82.44
499.049	79.44
499.267	84.44
499.484	75.44
499.701	74.44
499.918	84.44
500.135	90.44
500.352	86.44
500.569	104.44
500.786	89.44
501.003	74.44
501.22	83.44
501.437	83.44
501.654	80.44
501.871	89.44
502.088	74.44
502.305	71.44
502.522	74.44
502.739	81.44
502.956	80.44
503.172	84.44
503.389	79.44
503.606	74.44
503.823	86.44
504.04	78.44
504.256	72.44
504.473	81.44
504.69	72.44
504.907	95.44
505.123	83.44
505.34	55.44
505.557	79.44
505.773	72.44
505.99	68.44
506.207	90.44
506.423	77.44
506.64	88.44
506.856	84.44
507.073	75.44
507.289	66.44
507.506	93.44
507.722	68.44
507.939	86.44
508.155	89.44
508.372	91.44
508.588	91.44
508.805	91.44
509.021	74.44
509.238	82.44
509.454	74.44
509.67	75.44
509.887	78.44
510.103	83.44
510.319	75.44
510.536	92.44
510.752	79.44
510.968	82.44
511.184	81.44
511.401	95.44
511.617	83.44
511.833	91.44
512.049	66.44
512.265	72.44
512.481	87.44
512.698	74.44
512.914	78.44
513.13	71.44
513.346	68.44
513.562	70.44
513.778	69.44
513.994	84.44
514.21	82.44
514.426	74.44
514.642	69.44
514.858	74.44
515.074	83.44
515.29	83.44
515.506	76.44
515.721	73.44
515.937	75.44
516.153	85.44
516.369	71.44
516.585	84.44
516.801	75.44
517.016	66.44
517.232	69.44
517.448	76.44
517.664	78.44
517.879	83.44
518.095	79.44
518.311	71.44
518.527	74.44
518.742	91.44
518.958	87.44
519.173	81.44
519.389	83.44
519.605	71.44
519.82	67.44
520.036	89.44
520.251	89.44
