Data from Background_2_HRD10591_00039.txt Node
Date: Wed Nov 05 14:47:16 EST 2025
User: Yrep
Spectrometer: HR+D1059
Trigger mode: 1
Integration Time (sec): 1.000000E-1
Scans to average: 1
Electric dark correction enabled: true
Nonlinearity correction enabled: false
Boxcar width: 0
XAxis mode: Wavelengths
Number of Pixels in Spectrum: 2048
>>>>>Begin Spectral Data<<<<<
223.165	-18.5
223.4	-18.5
223.635	-18.5
223.869	-17.5
224.104	-16.5
224.338	-14.5
224.573	-4.5
224.808	-8.5
225.042	-16.5
225.277	-10.5
225.511	5.5
225.746	2.5
225.98	19.5
226.215	6.5
226.449	12.5
226.683	21.5
226.918	20.5
227.152	18.5
227.387	31.5
227.621	43.5
227.856	40.5
228.09	47.5
228.324	57.5
228.559	58.5
228.793	57.5
229.027	44.5
229.262	50.5
229.496	65.5
229.73	59.5
229.964	74.5
230.199	67.5
230.433	80.5
230.667	72.5
230.901	78.5
231.136	74.5
231.37	88.5
231.604	82.5
231.838	71.5
232.072	67.5
232.306	72.5
232.541	96.5
232.775	86.5
233.009	76.5
233.243	84.5
233.477	84.5
233.711	73.5
233.945	85.5
234.179	81.5
234.413	71.5
234.647	74.5
234.881	64.5
235.115	90.5
235.349	66.5
235.583	86.5
235.817	92.5
236.051	75.5
236.285	68.5
236.519	76.5
236.753	64.5
236.987	66.5
237.221	82.5
237.455	88.5
237.689	79.5
237.922	73.5
238.156	61.5
238.39	86.5
238.624	68.5
238.858	69.5
239.091	78.5
239.325	78.5
239.559	76.5
239.793	82.5
240.027	68.5
240.26	72.5
240.494	72.5
240.728	74.5
240.961	72.5
241.195	82.5
241.429	76.5
241.662	68.5
241.896	73.5
242.13	77.5
242.363	69.5
242.597	64.5
242.83	66.5
243.064	67.5
243.298	73.5
243.531	68.5
243.765	76.5
243.998	76.5
244.232	96.5
244.465	60.5
244.699	78.5
244.932	88.5
245.166	81.5
245.399	84.5
245.633	76.5
245.866	74.5
246.099	80.5
246.333	89.5
246.566	76.5
246.8	80.5
247.033	78.5
247.266	77.5
247.5	78.5
247.733	71.5
247.966	81.5
248.2	80.5
248.433	67.5
248.666	51.5
248.899	67.5
249.133	78.5
249.366	76.5
249.599	79.5
249.832	84.5
250.066	81.5
250.299	97.5
250.532	75.5
250.765	75.5
250.998	78.5
251.231	70.5
251.465	71.5
251.698	75.5
251.931	78.5
252.164	84.5
252.397	77.5
252.63	71.5
252.863	84.5
253.096	81.5
253.329	70.5
253.562	68.5
253.795	76.5
254.028	67.5
254.261	71.5
254.494	72.5
254.727	61.5
254.96	92.5
255.193	83.5
255.426	81.5
255.659	65.5
255.892	84.5
256.124	83.5
256.357	83.5
256.59	74.5
256.823	75.5
257.056	64.5
257.289	79.5
257.521	75.5
257.754	68.5
257.987	79.5
258.22	77.5
258.452	76.5
258.685	83.5
258.918	76.5
259.151	70.5
259.383	82.5
259.616	75.5
259.849	65.5
260.081	85.5
260.314	74.5
260.547	82.5
260.779	91.5
261.012	81.5
261.244	77.5
261.477	81.5
261.71	74.5
261.942	77.5
262.175	90.5
262.407	83.5
262.64	82.5
262.872	92.5
263.105	80.5
263.337	75.5
263.57	84.5
263.802	60.5
264.035	81.5
264.267	67.5
264.499	89.5
264.732	81.5
264.964	78.5
265.197	81.5
265.429	63.5
265.661	66.5
265.894	84.5
266.126	72.5
266.358	80.5
266.591	78.5
266.823	83.5
267.055	80.5
267.287	77.5
267.52	75.5
267.752	66.5
267.984	76.5
268.216	80.5
268.448	80.5
268.681	87.5
268.913	84.5
269.145	74.5
269.377	79.5
269.609	80.5
269.841	77.5
270.073	78.5
270.306	86.5
270.538	69.5
270.77	67.5
271.002	78.5
271.234	69.5
271.466	80.5
271.698	83.5
271.93	77.5
272.162	84.5
272.394	80.5
272.626	77.5
272.858	71.5
273.09	74.5
273.322	79.5
273.553	72.5
273.785	79.5
274.017	94.5
274.249	86.5
274.481	68.5
274.713	80.5
274.945	82.5
275.176	86.5
275.408	89.5
275.64	78.5
275.872	82.5
276.104	75.5
276.335	77.5
276.567	78.5
276.799	91.5
277.031	83.5
277.262	86.5
277.494	80.5
277.726	72.5
277.957	69.5
278.189	85.5
278.421	90.5
278.652	74.5
278.884	85.5
279.115	81.5
279.347	84.5
279.579	77.5
279.81	79.5
280.042	74.5
280.273	73.5
280.505	89.5
280.736	79.5
280.968	83.5
281.199	75.5
281.431	86.5
281.662	81.5
281.894	87.5
282.125	76.5
282.356	85.5
282.588	84.5
282.819	76.5
283.051	72.5
283.282	91.5
283.513	82.5
283.745	71.5
283.976	87.5
284.207	81.5
284.439	87.5
284.67	82.5
284.901	77.5
285.132	83.5
285.364	79.5
285.595	69.5
285.826	71.5
286.057	67.5
286.288	89.5
286.52	85.5
286.751	88.5
286.982	81.5
287.213	88.5
287.444	92.5
287.675	89.5
287.906	94.5
288.138	77.5
288.369	86.5
288.6	87.5
288.831	94.5
289.062	78.5
289.293	90.5
289.524	85.5
289.755	97.5
289.986	86.5
290.217	76.5
290.448	78.5
290.679	79.5
290.91	88.5
291.141	82.5
291.371	88.5
291.602	76.5
291.833	72.5
292.064	79.5
292.295	74.5
292.526	60.5
292.757	87.5
292.987	86.5
293.218	80.5
293.449	83.5
293.68	88.5
293.91	84.5
294.141	93.5
294.372	83.5
294.603	76.5
294.833	87.5
295.064	81.5
295.295	82.5
295.525	78.5
295.756	74.5
295.987	81.5
296.217	70.5
296.448	78.5
296.679	76.5
296.909	87.5
297.14	78.5
297.37	66.5
297.601	67.5
297.831	77.5
298.062	80.5
298.292	75.5
298.523	77.5
298.753	87.5
298.984	76.5
299.214	66.5
299.445	86.5
299.675	86.5
299.905	83.5
300.136	78.5
300.366	91.5
300.597	82.5
300.827	88.5
301.057	95.5
301.288	79.5
301.518	92.5
301.748	78.5
301.979	92.5
302.209	72.5
302.439	71.5
302.669	88.5
302.9	68.5
303.13	77.5
303.36	83.5
303.59	72.5
303.82	81.5
304.051	75.5
304.281	88.5
304.511	82.5
304.741	82.5
304.971	83.5
305.201	84.5
305.431	83.5
305.661	82.5
305.891	88.5
306.121	80.5
306.352	94.5
306.582	84.5
306.812	89.5
307.042	76.5
307.272	81.5
307.502	87.5
307.731	78.5
307.961	93.5
308.191	80.5
308.421	85.5
308.651	73.5
308.881	87.5
309.111	82.5
309.341	74.5
309.571	80.5
309.8	92.5
310.03	84.5
310.26	70.5
310.49	72.5
310.72	87.5
310.949	80.5
311.179	88.5
311.409	83.5
311.639	76.5
311.868	81.5
312.098	94.5
312.328	98.5
312.557	92.5
312.787	88.5
313.017	89.5
313.246	80.5
313.476	75.5
313.706	79.5
313.935	65.5
314.165	82.5
314.394	83.5
314.624	74.5
314.853	79.5
315.083	75.5
315.312	67.5
315.542	67.5
315.771	79.5
316.001	82.5
316.23	64.5
316.46	78.5
316.689	74.5
316.919	71.5
317.148	87.5
317.377	91.5
317.607	85.5
317.836	83.5
318.065	87.5
318.295	86.5
318.524	83.5
318.753	88.5
318.983	58.5
319.212	86.5
319.441	80.5
319.67	88.5
319.9	80.5
320.129	86.5
320.358	91.5
320.587	78.5
320.816	83.5
321.046	75.5
321.275	82.5
321.504	84.5
321.733	84.5
321.962	88.5
322.191	82.5
322.42	64.5
322.649	79.5
322.878	81.5
323.108	90.5
323.337	78.5
323.566	76.5
323.795	75.5
324.024	68.5
324.253	74.5
324.482	76.5
324.71	89.5
324.939	82.5
325.168	81.5
325.397	65.5
325.626	80.5
325.855	90.5
326.084	86.5
326.313	74.5
326.542	82.5
326.77	72.5
326.999	86.5
327.228	78.5
327.457	96.5
327.686	72.5
327.914	88.5
328.143	84.5
328.372	83.5
328.6	97.5
328.829	88.5
329.058	69.5
329.287	78.5
329.515	91.5
329.744	79.5
329.972	79.5
330.201	78.5
330.43	78.5
330.658	83.5
330.887	89.5
331.115	90.5
331.344	80.5
331.572	86.5
331.801	76.5
332.03	86.5
332.258	74.5
332.486	84.5
332.715	75.5
332.943	80.5
333.172	82.5
333.4	71.5
333.629	82.5
333.857	70.5
334.085	91.5
334.314	72.5
334.542	88.5
334.771	88.5
334.999	78.5
335.227	88.5
335.455	79.5
335.684	103.5
335.912	90.5
336.14	80.5
336.369	77.5
336.597	85.5
336.825	78.5
337.053	75.5
337.281	88.5
337.51	75.5
337.738	94.5
337.966	86.5
338.194	93.5
338.422	74.5
338.65	85.5
338.878	91.5
339.106	81.5
339.334	89.5
339.562	74.5
339.79	75.5
340.018	72.5
340.246	67.5
340.474	83.5
340.702	76.5
340.93	85.5
341.158	84.5
341.386	80.5
341.614	74.5
341.842	80.5
342.07	77.5
342.298	76.5
342.526	76.5
342.754	72.5
342.981	85.5
343.209	81.5
343.437	87.5
343.665	72.5
343.893	75.5
344.12	94.5
344.348	75.5
344.576	106.5
344.804	83.5
345.031	80.5
345.259	88.5
345.487	76.5
345.714	84.5
345.942	87.5
346.17	88.5
346.397	76.5
346.625	80.5
346.853	87.5
347.08	77.5
347.308	86.5
347.535	89.5
347.763	89.5
347.99	75.5
348.218	79.5
348.445	79.5
348.673	84.5
348.9	94.5
349.128	84.5
349.355	86.5
349.583	76.5
349.81	86.5
350.037	79.5
350.265	79.5
350.492	84.5
350.72	77.5
350.947	94.5
351.174	89.5
351.402	79.5
351.629	67.5
351.856	66.5
352.083	70.5
352.311	83.5
352.538	81.5
352.765	76.5
352.992	80.5
353.22	95.5
353.447	74.5
353.674	84.5
353.901	90.5
354.128	72.5
354.355	83.5
354.583	84.5
354.81	83.5
355.037	76.5
355.264	83.5
355.491	80.5
355.718	72.5
355.945	84.5
356.172	79.5
356.399	67.5
356.626	73.5
356.853	94.5
357.08	86.5
357.307	86.5
357.534	80.5
357.761	79.5
357.988	79.5
358.215	93.5
358.441	83.5
358.668	75.5
358.895	79.5
359.122	82.5
359.349	95.5
359.576	84.5
359.802	76.5
360.029	92.5
360.256	73.5
360.483	78.5
360.709	71.5
360.936	79.5
361.163	78.5
361.39	77.5
361.616	71.5
361.843	63.5
362.07	82.5
362.296	86.5
362.523	77.5
362.749	80.5
362.976	75.5
363.203	81.5
363.429	72.5
363.656	70.5
363.882	75.5
364.109	92.5
364.335	64.5
364.562	67.5
364.788	72.5
365.015	83.5
365.241	84.5
365.468	80.5
365.694	76.5
365.92	74.5
366.147	74.5
366.373	89.5
366.599	84.5
366.826	87.5
367.052	84.5
367.278	98.5
367.505	69.5
367.731	89.5
367.957	93.5
368.184	78.5
368.41	77.5
368.636	74.5
368.862	69.5
369.089	65.5
369.315	82.5
369.541	83.5
369.767	76.5
369.993	79.5
370.219	75.5
370.445	90.5
370.672	75.5
370.898	97.5
371.124	74.5
371.35	74.5
371.576	78.5
371.802	79.5
372.028	87.5
372.254	79.5
372.48	79.5
372.706	84.5
372.932	81.5
373.158	80.5
373.384	82.5
373.61	78.5
373.835	80.5
374.061	68.5
374.287	76.5
374.513	76.5
374.739	80.5
374.965	90.5
375.191	78.5
375.416	81.5
375.642	91.5
375.868	88.5
376.094	87.5
376.319	80.5
376.545	84.5
376.771	94.5
376.997	85.5
377.222	92.5
377.448	60.5
377.674	75.5
377.899	91.5
378.125	87.5
378.35	74.5
378.576	79.5
378.802	89.5
379.027	94.5
379.253	84.5
379.478	61.5
379.704	79.5
379.929	87.5
380.155	90.5
380.38	75.5
380.606	71.5
380.831	64.5
381.057	62.5
381.282	87.5
381.507	84.5
381.733	77.5
381.958	73.5
382.184	78.5
382.409	76.5
382.634	83.5
382.86	81.5
383.085	89.5
383.31	76.5
383.535	76.5
383.761	75.5
383.986	86.5
384.211	71.5
384.436	93.5
384.662	78.5
384.887	88.5
385.112	84.5
385.337	69.5
385.562	75.5
385.787	77.5
386.013	84.5
386.238	77.5
386.463	80.5
386.688	87.5
386.913	80.5
387.138	79.5
387.363	72.5
387.588	80.5
387.813	72.5
388.038	98.5
388.263	80.5
388.488	90.5
388.713	82.5
388.938	77.5
389.163	80.5
389.387	92.5
389.612	73.5
389.837	73.5
390.062	84.5
390.287	80.5
390.512	72.5
390.736	67.5
390.961	75.5
391.186	82.5
391.411	67.5
391.636	70.5
391.86	91.5
392.085	95.5
392.31	86.5
392.534	76.5
392.759	74.5
392.984	87.5
393.208	80.5
393.433	75.5
393.658	87.5
393.882	84.5
394.107	72.5
394.331	91.5
394.556	86.5
394.78	78.5
395.005	71.5
395.229	83.5
395.454	80.5
395.678	78.5
395.903	75.5
396.127	80.5
396.352	74.5
396.576	78.5
396.801	78.5
397.025	90.5
397.249	88.5
397.474	84.5
397.698	79.5
397.922	72.5
398.147	72.5
398.371	72.5
398.595	61.5
398.82	63.5
399.044	82.5
399.268	72.5
399.492	83.5
399.717	79.5
399.941	72.5
400.165	77.5
400.389	83.5
400.613	85.5
400.837	72.5
401.062	61.5
401.286	73.5
401.51	84.5
401.734	76.5
401.958	78.5
402.182	93.5
402.406	94.5
402.63	78.5
402.854	64.5
403.078	71.5
403.302	78.5
403.526	72.5
403.75	91.5
403.974	76.5
404.198	81.5
404.422	76.5
404.645	87.5
404.869	73.5
405.093	106.5
405.317	78.5
405.541	70.5
405.765	81.5
405.988	89.5
406.212	74.5
406.436	79.5
406.66	73.5
406.883	77.5
407.107	79.5
407.331	81.5
407.555	81.5
407.778	91.5
408.002	85.5
408.226	69.5
408.449	84.5
408.673	94.5
408.896	88.5
409.12	69.5
409.344	95.5
409.567	70.5
409.791	85.5
410.014	76.5
410.238	74.5
410.461	71.5
410.685	83.5
410.908	63.5
411.132	73.5
411.355	79.5
411.578	83.5
411.802	78.5
412.025	77.5
412.249	80.5
412.472	73.5
412.695	97.5
412.919	76.5
413.142	71.5
413.365	84.5
413.589	89.5
413.812	83.5
414.035	93.5
414.258	79.5
414.482	83.5
414.705	67.5
414.928	75.5
415.151	76.5
415.374	63.5
415.597	75.5
415.821	74.5
416.044	78.5
416.267	80.5
416.49	86.5
416.713	77.5
416.936	74.5
417.159	74.5
417.382	81.5
417.605	69.5
417.828	79.5
418.051	81.5
418.274	75.5
418.497	79.5
418.72	77.5
418.943	72.5
419.166	60.5
419.389	76.5
419.611	75.5
419.834	72.5
420.057	87.5
420.28	77.5
420.503	68.5
420.726	78.5
420.948	74.5
421.171	69.5
421.394	79.5
421.617	86.5
421.839	97.5
422.062	79.5
422.285	77.5
422.507	60.5
422.73	86.5
422.953	83.5
423.175	73.5
423.398	80.5
423.621	82.5
423.843	71.5
424.066	82.5
424.288	79.5
424.511	62.5
424.733	75.5
424.956	78.5
425.178	68.5
425.401	74.5
425.623	73.5
425.846	86.5
426.068	83.5
426.291	83.5
426.513	72.5
426.735	83.5
426.958	68.5
427.18	72.5
427.402	68.5
427.625	65.5
427.847	82.5
428.069	87.5
428.292	76.5
428.514	76.5
428.736	76.5
428.958	79.5
429.181	83.5
429.403	84.5
429.625	73.5
429.847	78.5
430.069	78.5
430.292	72.5
430.514	69.5
430.736	78.5
430.958	73.5
431.18	71.5
431.402	90.5
431.624	80.5
431.846	82.5
432.068	87.5
432.29	74.5
432.512	86.5
432.734	83.5
432.956	84.5
433.178	79.5
433.4	84.5
433.622	94.5
433.844	90.5
434.066	95.5
434.287	64.5
434.509	75.5
434.731	62.5
434.953	75.5
435.175	88.5
435.397	94.5
435.618	76.5
435.84	81.5
436.062	72.5
436.284	69.5
436.505	79.5
436.727	83.5
436.949	68.5
437.17	81.5
437.392	79.5
437.614	80.5
437.835	84.5
438.057	75.5
438.278	78.5
438.5	91.5
438.721	79.5
438.943	76.5
439.165	69.5
439.386	76.5
439.608	72.5
439.829	72.5
440.05	76.5
440.272	57.5
440.493	72.5
440.715	80.5
440.936	84.5
441.158	77.5
441.379	71.5
441.6	69.5
441.822	86.5
442.043	87.5
442.264	79.5
442.486	67.5
442.707	86.5
442.928	81.5
443.149	79.5
443.371	81.5
443.592	79.5
443.813	66.5
444.034	65.5
444.255	79.5
444.476	58.5
444.698	72.5
444.919	82.5
445.14	156.5
445.361	97.5
445.582	74.5
445.803	78.5
446.024	66.5
446.245	74.5
446.466	77.5
446.687	85.5
446.908	78.5
447.129	69.5
447.35	69.5
447.571	74.5
447.792	77.5
448.013	64.5
448.234	79.5
448.455	93.5
448.675	74.5
448.896	68.5
449.117	79.5
449.338	64.5
449.559	72.5
449.779	89.5
450	66.5
450.221	75.5
450.442	74.5
450.662	72.5
450.883	81.5
451.104	78.5
451.324	77.5
451.545	74.5
451.766	72.5
451.986	82.5
452.207	77.5
452.428	64.5
452.648	82.5
452.869	81.5
453.089	83.5
453.31	78.5
453.53	84.5
453.751	90.5
453.971	76.5
454.192	75.5
454.412	67.5
454.633	77.5
454.853	80.5
455.073	71.5
455.294	70.5
455.514	88.5
455.734	67.5
455.955	76.5
456.175	80.5
456.395	68.5
456.616	90.5
456.836	87.5
457.056	79.5
457.276	80.5
457.497	67.5
457.717	70.5
457.937	78.5
458.157	84.5
458.377	74.5
458.598	66.5
458.818	86.5
459.038	69.5
459.258	83.5
459.478	66.5
459.698	78.5
459.918	89.5
460.138	78.5
460.358	77.5
460.578	90.5
460.798	74.5
461.018	79.5
461.238	65.5
461.458	78.5
461.678	83.5
461.898	83.5
462.118	97.5
462.338	75.5
462.558	86.5
462.777	82.5
462.997	68.5
463.217	84.5
463.437	62.5
463.657	74.5
463.876	70.5
464.096	72.5
464.316	83.5
464.536	75.5
464.755	73.5
464.975	69.5
465.195	92.5
465.414	78.5
465.634	74.5
465.854	75.5
466.073	81.5
466.293	79.5
466.512	78.5
466.732	62.5
466.951	80.5
467.171	71.5
467.391	83.5
467.61	64.5
467.829	73.5
468.049	76.5
468.268	64.5
468.488	62.5
468.707	83.5
468.927	84.5
469.146	73.5
469.365	73.5
469.585	75.5
469.804	75.5
470.023	72.5
470.243	66.5
470.462	88.5
470.681	78.5
470.901	74.5
471.12	79.5
471.339	72.5
471.558	73.5
471.777	64.5
471.997	78.5
472.216	76.5
472.435	92.5
472.654	79.5
472.873	72.5
473.092	86.5
473.311	85.5
473.53	74.5
473.749	84.5
473.968	81.5
474.187	80.5
474.406	84.5
474.625	89.5
474.844	84.5
475.063	79.5
475.282	86.5
475.501	82.5
475.72	86.5
475.939	84.5
476.158	86.5
476.377	86.5
476.596	81.5
476.814	80.5
477.033	68.5
477.252	82.5
477.471	76.5
477.69	75.5
477.908	83.5
478.127	85.5
478.346	74.5
478.564	82.5
478.783	76.5
479.002	83.5
479.22	79.5
479.439	74.5
479.658	72.5
479.876	79.5
480.095	66.5
480.313	86.5
480.532	82.5
480.751	75.5
480.969	76.5
481.188	74.5
481.406	80.5
481.624	85.5
481.843	82.5
482.061	82.5
482.28	76.5
482.498	74.5
482.717	77.5
482.935	76.5
483.153	72.5
483.372	75.5
483.59	79.5
483.808	84.5
484.027	70.5
484.245	64.5
484.463	64.5
484.681	84.5
484.9	86.5
485.118	70.5
485.336	71.5
485.554	66.5
485.772	72.5
485.99	80.5
486.209	74.5
486.427	69.5
486.645	80.5
486.863	65.5
487.081	76.5
487.299	88.5
487.517	86.5
487.735	84.5
487.953	83.5
488.171	88.5
488.389	84.5
488.607	88.5
488.825	69.5
489.043	76.5
489.261	85.5
489.479	80.5
489.696	84.5
489.914	82.5
490.132	83.5
490.35	90.5
490.568	84.5
490.786	75.5
491.003	86.5
491.221	74.5
491.439	80.5
491.657	82.5
491.874	90.5
492.092	77.5
492.31	79.5
492.527	83.5
492.745	67.5
492.963	73.5
493.18	78.5
493.398	84.5
493.615	86.5
493.833	68.5
494.05	76.5
494.268	81.5
494.485	81.5
494.703	79.5
494.92	67.5
495.138	84.5
495.355	71.5
495.573	72.5
495.79	88.5
496.008	78.5
496.225	86.5
496.442	78.5
496.66	66.5
496.877	79.5
497.094	88.5
497.312	85.5
497.529	91.5
497.746	85.5
497.963	81.5
498.181	72.5
498.398	75.5
498.615	88.5
498.832	78.5
499.049	84.5
499.267	84.5
499.484	79.5
499.701	71.5
499.918	84.5
500.135	86.5
500.352	67.5
500.569	67.5
500.786	77.5
501.003	83.5
501.22	83.5
501.437	87.5
501.654	76.5
501.871	69.5
502.088	86.5
502.305	95.5
502.522	78.5
502.739	81.5
502.956	89.5
503.172	88.5
503.389	93.5
503.606	74.5
503.823	76.5
504.04	60.5
504.256	78.5
504.473	74.5
504.69	80.5
504.907	84.5
505.123	87.5
505.34	89.5
505.557	71.5
505.773	75.5
505.99	68.5
506.207	84.5
506.423	80.5
506.64	79.5
506.856	78.5
507.073	81.5
507.289	83.5
507.506	85.5
507.722	77.5
507.939	78.5
508.155	85.5
508.372	78.5
508.588	87.5
508.805	78.5
509.021	78.5
509.238	74.5
509.454	74.5
509.67	77.5
509.887	83.5
510.103	68.5
510.319	80.5
510.536	76.5
510.752	82.5
510.968	73.5
511.184	74.5
511.401	80.5
511.617	64.5
511.833	79.5
512.049	94.5
512.265	88.5
512.481	87.5
512.698	76.5
512.914	82.5
513.13	79.5
513.346	79.5
513.562	83.5
513.778	90.5
513.994	86.5
514.21	80.5
514.426	71.5
514.642	81.5
514.858	81.5
515.074	89.5
515.29	83.5
515.506	80.5
515.721	88.5
515.937	84.5
516.153	86.5
516.369	70.5
516.585	75.5
516.801	82.5
517.016	77.5
517.232	85.5
517.448	79.5
517.664	74.5
517.879	74.5
518.095	79.5
518.311	82.5
518.527	74.5
518.742	72.5
518.958	65.5
519.173	78.5
519.389	77.5
519.605	82.5
519.82	79.5
520.036	88.5
520.251	75.5
520.467	84.5
520.682	82.5
520.898	75.5
521.113	77.5
521.329	87.5
521.544	76.5
521.76	68.5
521.975	91.5
522.19	76.5
522.406	89.5
522.621	76.5
522.836	79.5
523.052	75.5
523.267	90.5
523.482	79.5
523.698	74.5
523.913	82.5
524.128	76.5
524.343	90.5
524.559	89.5
524.774	76.5
524.989	81.5
525.204	84.5
525.419	78.5
525.634	88.5
525.849	85.5
526.064	66.5
526.28	76.5
526.495	78.5
526.71	82.5
526.925	77.5
527.14	80.5
527.355	80.5
527.57	83.5
527.785	80.5
527.999	79.5
528.214	77.5
528.429	72.5
528.644	85.5
528.859	89.5
529.074	77.5
529.289	76.5
529.503	76.5
529.718	85.5
529.933	65.5
530.148	75.5
530.363	80.5
530.577	67.5
530.792	86.5
531.007	83.5
531.221	78.5
531.436	76.5
531.651	92.5
531.865	87.5
532.08	80.5
532.295	86.5
532.509	76.5
532.724	82.5
532.938	80.5
533.153	86.5
533.367	62.5
533.582	64.5
533.796	78.5
534.011	71.5
534.225	71.5
534.44	86.5
534.654	92.5
534.868	82.5
535.083	78.5
535.297	90.5
535.511	87.5
535.726	75.5
535.94	90.5
536.154	81.5
536.369	68.5
536.583	83.5
536.797	74.5
537.011	81.5
537.225	79.5
537.44	84.5
537.654	77.5
537.868	76.5
538.082	77.5
538.296	86.5
538.51	87.5
538.724	80.5
538.938	72.5
539.153	78.5
539.367	94.5
539.581	73.5
539.795	72.5
540.009	83.5
540.222	88.5
540.436	89.5
540.65	80.5
