Data from Background_2_HRD10591_00089.txt Node
Date: Wed Nov 05 14:47:40 EST 2025
User: Yrep
Spectrometer: HR+D1059
Trigger mode: 1
Integration Time (sec): 1.000000E-1
Scans to average: 1
Electric dark correction enabled: true
Nonlinearity correction enabled: false
Boxcar width: 0
XAxis mode: Wavelengths
Number of Pixels in Spectrum: 2048
>>>>>Begin Spectral Data<<<<<
223.165	-19.19
223.4	-19.19
223.635	-19.19
223.869	-15.19
224.104	-28.19
224.338	-20.19
224.573	-16.19
224.808	-13.19
225.042	-0.19
225.277	-6.19
225.511	5.81
225.746	-0.19
225.98	11.81
226.215	3.81
226.449	13.81
226.683	18.81
226.918	21.81
227.152	42.81
227.387	54.81
227.621	25.81
227.856	43.81
228.09	48.81
228.324	34.81
228.559	52.81
228.793	48.81
229.027	58.81
229.262	55.81
229.496	68.81
229.73	85.81
229.964	75.81
230.199	57.81
230.433	68.81
230.667	66.81
230.901	56.81
231.136	74.81
231.37	83.81
231.604	68.81
231.838	85.81
232.072	83.81
232.306	82.81
232.541	74.81
232.775	75.81
233.009	74.81
233.243	79.81
233.477	75.81
233.711	80.81
233.945	77.81
234.179	65.81
234.413	63.81
234.647	60.81
234.881	85.81
235.115	80.81
235.349	73.81
235.583	76.81
235.817	73.81
236.051	82.81
236.285	73.81
236.519	81.81
236.753	78.81
236.987	70.81
237.221	59.81
237.455	72.81
237.689	89.81
237.922	76.81
238.156	73.81
238.39	73.81
238.624	78.81
238.858	70.81
239.091	77.81
239.325	69.81
239.559	73.81
239.793	70.81
240.027	93.81
240.26	62.81
240.494	86.81
240.728	96.81
240.961	64.81
241.195	83.81
241.429	70.81
241.662	81.81
241.896	73.81
242.13	66.81
242.363	66.81
242.597	76.81
242.83	68.81
243.064	87.81
243.298	87.81
243.531	77.81
243.765	66.81
243.998	80.81
244.232	73.81
244.465	82.81
244.699	70.81
244.932	82.81
245.166	67.81
245.399	68.81
245.633	80.81
245.866	90.81
246.099	82.81
246.333	86.81
246.566	77.81
246.8	75.81
247.033	75.81
247.266	64.81
247.5	73.81
247.733	87.81
247.966	68.81
248.2	69.81
248.433	92.81
248.666	62.81
248.899	79.81
249.133	83.81
249.366	69.81
249.599	81.81
249.832	77.81
250.066	69.81
250.299	74.81
250.532	93.81
250.765	87.81
250.998	67.81
251.231	75.81
251.465	64.81
251.698	80.81
251.931	80.81
252.164	80.81
252.397	89.81
252.63	90.81
252.863	79.81
253.096	80.81
253.329	70.81
253.562	77.81
253.795	76.81
254.028	84.81
254.261	83.81
254.494	78.81
254.727	87.81
254.96	72.81
255.193	67.81
255.426	74.81
255.659	61.81
255.892	71.81
256.124	95.81
256.357	81.81
256.59	86.81
256.823	86.81
257.056	70.81
257.289	60.81
257.521	82.81
257.754	84.81
257.987	88.81
258.22	86.81
258.452	81.81
258.685	80.81
258.918	83.81
259.151	77.81
259.383	72.81
259.616	67.81
259.849	75.81
260.081	68.81
260.314	84.81
260.547	77.81
260.779	69.81
261.012	90.81
261.244	89.81
261.477	82.81
261.71	71.81
261.942	70.81
262.175	91.81
262.407	62.81
262.64	82.81
262.872	90.81
263.105	89.81
263.337	88.81
263.57	89.81
263.802	78.81
264.035	88.81
264.267	78.81
264.499	75.81
264.732	77.81
264.964	88.81
265.197	90.81
265.429	69.81
265.661	75.81
265.894	88.81
266.126	83.81
266.358	87.81
266.591	83.81
266.823	68.81
267.055	71.81
267.287	79.81
267.52	68.81
267.752	94.81
267.984	78.81
268.216	77.81
268.448	79.81
268.681	86.81
268.913	78.81
269.145	75.81
269.377	83.81
269.609	68.81
269.841	83.81
270.073	87.81
270.306	82.81
270.538	77.81
270.77	89.81
271.002	77.81
271.234	83.81
271.466	83.81
271.698	84.81
271.93	74.81
272.162	89.81
272.394	76.81
272.626	80.81
272.858	73.81
273.09	82.81
273.322	81.81
273.553	91.81
273.785	92.81
274.017	67.81
274.249	85.81
274.481	80.81
274.713	75.81
274.945	91.81
275.176	85.81
275.408	83.81
275.64	83.81
275.872	83.81
276.104	80.81
276.335	91.81
276.567	61.81
276.799	82.81
277.031	62.81
277.262	81.81
277.494	80.81
277.726	69.81
277.957	77.81
278.189	81.81
278.421	90.81
278.652	73.81
278.884	85.81
279.115	73.81
279.347	75.81
279.579	69.81
279.81	83.81
280.042	93.81
280.273	77.81
280.505	82.81
280.736	76.81
280.968	76.81
281.199	88.81
281.431	96.81
281.662	84.81
281.894	87.81
282.125	77.81
282.356	74.81
282.588	72.81
282.819	87.81
283.051	82.81
283.282	88.81
283.513	85.81
283.745	91.81
283.976	98.81
284.207	89.81
284.439	79.81
284.67	91.81
284.901	81.81
285.132	84.81
285.364	85.81
285.595	72.81
285.826	88.81
286.057	91.81
286.288	79.81
286.52	87.81
286.751	74.81
286.982	76.81
287.213	79.81
287.444	76.81
287.675	73.81
287.906	81.81
288.138	87.81
288.369	82.81
288.6	76.81
288.831	91.81
289.062	81.81
289.293	82.81
289.524	86.81
289.755	81.81
289.986	83.81
290.217	73.81
290.448	83.81
290.679	87.81
290.91	97.81
291.141	95.81
291.371	84.81
291.602	78.81
291.833	75.81
292.064	80.81
292.295	85.81
292.526	84.81
292.757	92.81
292.987	91.81
293.218	74.81
293.449	67.81
293.68	66.81
293.91	91.81
294.141	82.81
294.372	88.81
294.603	79.81
294.833	70.81
295.064	76.81
295.295	76.81
295.525	75.81
295.756	84.81
295.987	83.81
296.217	83.81
296.448	80.81
296.679	71.81
296.909	87.81
297.14	81.81
297.37	78.81
297.601	75.81
297.831	86.81
298.062	77.81
298.292	78.81
298.523	83.81
298.753	83.81
298.984	80.81
299.214	85.81
299.445	87.81
299.675	63.81
299.905	73.81
300.136	82.81
300.366	82.81
300.597	94.81
300.827	76.81
301.057	79.81
301.288	77.81
301.518	81.81
301.748	91.81
301.979	90.81
302.209	87.81
302.439	78.81
302.669	77.81
302.9	77.81
303.13	78.81
303.36	100.81
303.59	65.81
303.82	82.81
304.051	75.81
304.281	85.81
304.511	82.81
304.741	92.81
304.971	87.81
305.201	100.81
305.431	83.81
305.661	72.81
305.891	93.81
306.121	83.81
306.352	92.81
306.582	89.81
306.812	77.81
307.042	81.81
307.272	83.81
307.502	70.81
307.731	71.81
307.961	71.81
308.191	80.81
308.421	73.81
308.651	83.81
308.881	83.81
309.111	82.81
309.341	75.81
309.571	91.81
309.8	71.81
310.03	87.81
310.26	100.81
310.49	80.81
310.72	87.81
310.949	90.81
311.179	84.81
311.409	88.81
311.639	85.81
311.868	92.81
312.098	81.81
312.328	90.81
312.557	87.81
312.787	89.81
313.017	73.81
313.246	72.81
313.476	79.81
313.706	82.81
313.935	87.81
314.165	79.81
314.394	77.81
314.624	76.81
314.853	91.81
315.083	96.81
315.312	67.81
315.542	85.81
315.771	82.81
316.001	88.81
316.23	79.81
316.46	93.81
316.689	77.81
316.919	75.81
317.148	82.81
317.377	76.81
317.607	82.81
317.836	86.81
318.065	79.81
318.295	83.81
318.524	79.81
318.753	76.81
318.983	85.81
319.212	80.81
319.441	81.81
319.67	68.81
319.9	79.81
320.129	89.81
320.358	83.81
320.587	87.81
320.816	78.81
321.046	75.81
321.275	87.81
321.504	85.81
321.733	86.81
321.962	88.81
322.191	80.81
322.42	82.81
322.649	65.81
322.878	81.81
323.108	84.81
323.337	75.81
323.566	78.81
323.795	97.81
324.024	80.81
324.253	81.81
324.482	80.81
324.71	79.81
324.939	77.81
325.168	80.81
325.397	95.81
325.626	88.81
325.855	70.81
326.084	95.81
326.313	72.81
326.542	75.81
326.77	92.81
326.999	97.81
327.228	74.81
327.457	73.81
327.686	68.81
327.914	90.81
328.143	91.81
328.372	67.81
328.6	70.81
328.829	81.81
329.058	91.81
329.287	74.81
329.515	81.81
329.744	85.81
329.972	80.81
330.201	79.81
330.43	63.81
330.658	85.81
330.887	93.81
331.115	74.81
331.344	78.81
331.572	83.81
331.801	84.81
332.03	87.81
332.258	89.81
332.486	80.81
332.715	81.81
332.943	82.81
333.172	92.81
333.4	88.81
333.629	85.81
333.857	73.81
334.085	88.81
334.314	77.81
334.542	64.81
334.771	96.81
334.999	77.81
335.227	98.81
335.455	83.81
335.684	89.81
335.912	83.81
336.14	81.81
336.369	89.81
336.597	75.81
336.825	91.81
337.053	91.81
337.281	77.81
337.51	75.81
337.738	93.81
337.966	93.81
338.194	72.81
338.422	78.81
338.65	94.81
338.878	84.81
339.106	83.81
339.334	85.81
339.562	90.81
339.79	87.81
340.018	77.81
340.246	80.81
340.474	76.81
340.702	70.81
340.93	69.81
341.158	82.81
341.386	84.81
341.614	112.81
341.842	91.81
342.07	78.81
342.298	82.81
342.526	68.81
342.754	68.81
342.981	73.81
343.209	77.81
343.437	85.81
343.665	88.81
343.893	77.81
344.12	85.81
344.348	82.81
344.576	67.81
344.804	75.81
345.031	75.81
345.259	87.81
345.487	87.81
345.714	70.81
345.942	90.81
346.17	78.81
346.397	92.81
346.625	92.81
346.853	79.81
347.08	92.81
347.308	73.81
347.535	69.81
347.763	68.81
347.99	81.81
348.218	92.81
348.445	85.81
348.673	87.81
348.9	90.81
349.128	84.81
349.355	79.81
349.583	82.81
349.81	80.81
350.037	96.81
350.265	85.81
350.492	91.81
350.72	87.81
350.947	73.81
351.174	98.81
351.402	79.81
351.629	95.81
351.856	89.81
352.083	90.81
352.311	84.81
352.538	77.81
352.765	85.81
352.992	83.81
353.22	96.81
353.447	89.81
353.674	80.81
353.901	75.81
354.128	88.81
354.355	81.81
354.583	80.81
354.81	80.81
355.037	88.81
355.264	78.81
355.491	81.81
355.718	77.81
355.945	80.81
356.172	71.81
356.399	94.81
356.626	73.81
356.853	93.81
357.08	66.81
357.307	76.81
357.534	84.81
357.761	88.81
357.988	64.81
358.215	84.81
358.441	81.81
358.668	83.81
358.895	88.81
359.122	77.81
359.349	83.81
359.576	87.81
359.802	79.81
360.029	83.81
360.256	79.81
360.483	80.81
360.709	78.81
360.936	79.81
361.163	79.81
361.39	88.81
361.616	87.81
361.843	67.81
362.07	77.81
362.296	74.81
362.523	85.81
362.749	99.81
362.976	83.81
363.203	67.81
363.429	72.81
363.656	72.81
363.882	89.81
364.109	84.81
364.335	63.81
364.562	81.81
364.788	86.81
365.015	83.81
365.241	79.81
365.468	90.81
365.694	83.81
365.92	80.81
366.147	80.81
366.373	83.81
366.599	91.81
366.826	93.81
367.052	95.81
367.278	80.81
367.505	76.81
367.731	91.81
367.957	76.81
368.184	75.81
368.41	74.81
368.636	77.81
368.862	79.81
369.089	85.81
369.315	81.81
369.541	92.81
369.767	83.81
369.993	83.81
370.219	80.81
370.445	86.81
370.672	86.81
370.898	73.81
371.124	73.81
371.35	66.81
371.576	84.81
371.802	71.81
372.028	78.81
372.254	76.81
372.48	88.81
372.706	65.81
372.932	92.81
373.158	78.81
373.384	88.81
373.61	91.81
373.835	76.81
374.061	80.81
374.287	73.81
374.513	82.81
374.739	75.81
374.965	95.81
375.191	77.81
375.416	91.81
375.642	78.81
375.868	84.81
376.094	91.81
376.319	79.81
376.545	88.81
376.771	84.81
376.997	93.81
377.222	79.81
377.448	60.81
377.674	83.81
377.899	86.81
378.125	76.81
378.35	90.81
378.576	92.81
378.802	83.81
379.027	83.81
379.253	86.81
379.478	69.81
379.704	88.81
379.929	75.81
380.155	66.81
380.38	80.81
380.606	74.81
380.831	82.81
381.057	83.81
381.282	82.81
381.507	74.81
381.733	90.81
381.958	61.81
382.184	74.81
382.409	80.81
382.634	73.81
382.86	73.81
383.085	89.81
383.31	75.81
383.535	79.81
383.761	69.81
383.986	88.81
384.211	74.81
384.436	81.81
384.662	74.81
384.887	77.81
385.112	72.81
385.337	64.81
385.562	86.81
385.787	82.81
386.013	88.81
386.238	75.81
386.463	82.81
386.688	82.81
386.913	80.81
387.138	63.81
387.363	70.81
387.588	64.81
387.813	87.81
388.038	77.81
388.263	94.81
388.488	83.81
388.713	81.81
388.938	91.81
389.163	67.81
389.387	80.81
389.612	79.81
389.837	79.81
390.062	97.81
390.287	70.81
390.512	82.81
390.736	77.81
390.961	76.81
391.186	88.81
391.411	84.81
391.636	77.81
391.86	76.81
392.085	86.81
392.31	79.81
392.534	84.81
392.759	82.81
392.984	65.81
393.208	91.81
393.433	80.81
393.658	65.81
393.882	90.81
394.107	82.81
394.331	80.81
394.556	91.81
394.78	87.81
395.005	82.81
395.229	82.81
395.454	104.81
395.678	75.81
395.903	84.81
396.127	89.81
396.352	76.81
396.576	77.81
396.801	80.81
397.025	63.81
397.249	81.81
397.474	83.81
397.698	68.81
397.922	78.81
398.147	82.81
398.371	75.81
398.595	76.81
398.82	86.81
399.044	94.81
399.268	79.81
399.492	75.81
399.717	65.81
399.941	77.81
400.165	87.81
400.389	71.81
400.613	94.81
400.837	84.81
401.062	72.81
401.286	75.81
401.51	71.81
401.734	89.81
401.958	82.81
402.182	92.81
402.406	75.81
402.63	84.81
402.854	87.81
403.078	70.81
403.302	82.81
403.526	105.81
403.75	69.81
403.974	75.81
404.198	77.81
404.422	72.81
404.645	76.81
404.869	83.81
405.093	85.81
405.317	74.81
405.541	67.81
405.765	71.81
405.988	79.81
406.212	74.81
406.436	71.81
406.66	76.81
406.883	87.81
407.107	92.81
407.331	80.81
407.555	81.81
407.778	73.81
408.002	86.81
408.226	67.81
408.449	82.81
408.673	65.81
408.896	81.81
409.12	75.81
409.344	85.81
409.567	79.81
409.791	81.81
410.014	86.81
410.238	87.81
410.461	68.81
410.685	80.81
410.908	67.81
411.132	91.81
411.355	68.81
411.578	69.81
411.802	84.81
412.025	73.81
412.249	76.81
412.472	69.81
412.695	80.81
412.919	80.81
413.142	84.81
413.365	73.81
413.589	68.81
413.812	61.81
414.035	65.81
414.258	82.81
414.482	83.81
414.705	82.81
414.928	77.81
415.151	78.81
415.374	80.81
415.597	74.81
415.821	82.81
416.044	79.81
416.267	80.81
416.49	73.81
416.713	80.81
416.936	89.81
417.159	78.81
417.382	77.81
417.605	81.81
417.828	86.81
418.051	84.81
418.274	101.81
418.497	83.81
418.72	78.81
418.943	64.81
419.166	79.81
419.389	89.81
419.611	85.81
419.834	78.81
420.057	69.81
420.28	69.81
420.503	87.81
420.726	81.81
420.948	78.81
421.171	72.81
421.394	84.81
421.617	73.81
421.839	84.81
422.062	78.81
422.285	74.81
422.507	83.81
422.73	73.81
422.953	81.81
423.175	72.81
423.398	77.81
423.621	87.81
423.843	63.81
424.066	75.81
424.288	77.81
424.511	66.81
424.733	72.81
424.956	72.81
425.178	68.81
425.401	70.81
425.623	70.81
425.846	68.81
426.068	73.81
426.291	68.81
426.513	69.81
426.735	79.81
426.958	82.81
427.18	87.81
427.402	73.81
427.625	64.81
427.847	88.81
428.069	91.81
428.292	80.81
428.514	83.81
428.736	77.81
428.958	82.81
429.181	72.81
429.403	87.81
429.625	77.81
429.847	54.81
430.069	75.81
430.292	82.81
430.514	71.81
430.736	89.81
430.958	85.81
431.18	72.81
431.402	89.81
431.624	78.81
431.846	59.81
432.068	81.81
432.29	74.81
432.512	69.81
432.734	73.81
432.956	83.81
433.178	75.81
433.4	82.81
433.622	98.81
433.844	64.81
434.066	93.81
434.287	73.81
434.509	71.81
434.731	98.81
434.953	87.81
435.175	73.81
435.397	71.81
435.618	82.81
435.84	87.81
436.062	82.81
436.284	89.81
436.505	80.81
436.727	85.81
436.949	75.81
437.17	76.81
437.392	82.81
437.614	77.81
437.835	71.81
438.057	80.81
438.278	75.81
438.5	72.81
438.721	92.81
438.943	96.81
439.165	85.81
439.386	82.81
439.608	83.81
439.829	68.81
440.05	86.81
440.272	74.81
440.493	74.81
440.715	79.81
440.936	84.81
441.158	85.81
441.379	75.81
441.6	75.81
441.822	86.81
442.043	87.81
442.264	80.81
442.486	77.81
442.707	73.81
442.928	77.81
443.149	73.81
443.371	88.81
443.592	77.81
443.813	74.81
444.034	82.81
444.255	74.81
444.476	90.81
444.698	83.81
444.919	77.81
445.14	151.81
445.361	99.81
445.582	85.81
445.803	77.81
446.024	83.81
446.245	81.81
446.466	80.81
446.687	87.81
446.908	93.81
447.129	89.81
447.35	75.81
447.571	81.81
447.792	78.81
448.013	77.81
448.234	86.81
448.455	65.81
448.675	85.81
448.896	67.81
449.117	81.81
449.338	90.81
449.559	76.81
449.779	68.81
450	76.81
450.221	85.81
450.442	75.81
450.662	81.81
450.883	79.81
451.104	85.81
451.324	65.81
451.545	70.81
451.766	67.81
451.986	80.81
452.207	81.81
452.428	80.81
452.648	88.81
452.869	89.81
453.089	68.81
453.31	79.81
453.53	83.81
453.751	69.81
453.971	73.81
454.192	77.81
454.412	83.81
454.633	66.81
454.853	85.81
455.073	95.81
455.294	89.81
455.514	79.81
455.734	76.81
455.955	83.81
456.175	77.81
456.395	81.81
456.616	85.81
456.836	84.81
457.056	80.81
457.276	72.81
457.497	59.81
457.717	73.81
457.937	86.81
458.157	79.81
458.377	90.81
458.598	76.81
458.818	76.81
459.038	78.81
459.258	73.81
459.478	74.81
459.698	82.81
459.918	78.81
460.138	73.81
460.358	81.81
460.578	84.81
460.798	78.81
461.018	83.81
461.238	91.81
461.458	86.81
461.678	89.81
461.898	87.81
462.118	82.81
462.338	80.81
462.558	95.81
462.777	74.81
462.997	91.81
463.217	85.81
463.437	74.81
463.657	71.81
463.876	82.81
464.096	78.81
464.316	79.81
464.536	69.81
464.755	85.81
464.975	76.81
465.195	75.81
465.414	67.81
465.634	85.81
465.854	75.81
466.073	69.81
466.293	78.81
466.512	79.81
466.732	74.81
466.951	70.81
467.171	67.81
467.391	76.81
467.61	75.81
467.829	89.81
468.049	70.81
468.268	93.81
468.488	78.81
468.707	91.81
468.927	62.81
469.146	69.81
469.365	79.81
469.585	85.81
469.804	72.81
470.023	92.81
470.243	83.81
470.462	89.81
470.681	87.81
470.901	76.81
471.12	86.81
471.339	85.81
471.558	65.81
471.777	81.81
471.997	80.81
472.216	85.81
472.435	80.81
472.654	77.81
472.873	80.81
473.092	78.81
473.311	72.81
473.53	62.81
473.749	79.81
473.968	89.81
474.187	89.81
474.406	63.81
474.625	84.81
474.844	76.81
475.063	75.81
475.282	94.81
475.501	60.81
475.72	81.81
475.939	73.81
476.158	90.81
476.377	71.81
476.596	70.81
476.814	84.81
477.033	74.81
477.252	85.81
477.471	84.81
477.69	91.81
477.908	71.81
478.127	79.81
478.346	86.81
478.564	66.81
478.783	79.81
479.002	88.81
479.22	84.81
479.439	73.81
479.658	85.81
479.876	81.81
480.095	84.81
480.313	79.81
480.532	73.81
480.751	67.81
480.969	77.81
481.188	88.81
481.406	77.81
481.624	65.81
481.843	74.81
482.061	77.81
482.28	78.81
482.498	79.81
482.717	72.81
482.935	88.81
483.153	70.81
483.372	60.81
483.59	80.81
483.808	86.81
484.027	88.81
484.245	82.81
484.463	79.81
484.681	81.81
484.9	67.81
485.118	82.81
485.336	59.81
485.554	72.81
485.772	98.81
485.99	71.81
486.209	74.81
486.427	76.81
486.645	81.81
486.863	85.81
487.081	80.81
487.299	77.81
487.517	82.81
487.735	74.81
487.953	80.81
488.171	104.81
488.389	84.81
488.607	83.81
488.825	91.81
489.043	81.81
489.261	81.81
489.479	70.81
489.696	75.81
489.914	74.81
490.132	87.81
490.35	63.81
490.568	73.81
490.786	83.81
491.003	70.81
491.221	87.81
491.439	90.81
491.657	78.81
491.874	74.81
492.092	63.81
492.31	79.81
492.527	80.81
492.745	92.81
492.963	65.81
493.18	72.81
493.398	70.81
493.615	75.81
493.833	82.81
494.05	69.81
494.268	82.81
494.485	99.81
494.703	82.81
494.92	82.81
495.138	79.81
495.355	75.81
495.573	76.81
495.79	73.81
496.008	77.81
496.225	92.81
496.442	83.81
496.66	93.81
496.877	89.81
497.094	98.81
497.312	90.81
497.529	84.81
497.746	96.81
497.963	71.81
498.181	81.81
498.398	85.81
498.615	79.81
498.832	80.81
499.049	65.81
499.267	80.81
499.484	83.81
499.701	85.81
499.918	91.81
500.135	85.81
500.352	69.81
500.569	75.81
500.786	79.81
501.003	76.81
501.22	75.81
501.437	73.81
501.654	68.81
501.871	83.81
502.088	75.81
502.305	76.81
502.522	83.81
502.739	77.81
502.956	65.81
503.172	84.81
503.389	79.81
503.606	92.81
503.823	95.81
504.04	83.81
504.256	71.81
504.473	80.81
504.69	79.81
504.907	77.81
505.123	79.81
505.34	80.81
505.557	85.81
505.773	87.81
505.99	82.81
506.207	85.81
506.423	84.81
506.64	75.81
506.856	75.81
507.073	82.81
507.289	68.81
507.506	80.81
507.722	81.81
507.939	81.81
508.155	80.81
508.372	64.81
508.588	85.81
508.805	89.81
509.021	73.81
509.238	80.81
509.454	75.81
509.67	95.81
509.887	91.81
510.103	62.81
510.319	94.81
510.536	84.81
510.752	70.81
510.968	83.81
511.184	88.81
511.401	70.81
511.617	97.81
511.833	87.81
512.049	83.81
512.265	103.81
512.481	90.81
512.698	84.81
512.914	81.81
513.13	72.81
513.346	84.81
513.562	82.81
513.778	71.81
513.994	76.81
514.21	81.81
514.426	85.81
514.642	76.81
514.858	85.81
515.074	72.81
515.29	80.81
515.506	87.81
515.721	75.81
515.937	80.81
516.153	97.81
516.369	88.81
516.585	94.81
516.801	91.81
517.016	85.81
517.232	79.81
517.448	81.81
517.664	91.81
517.879	84.81
518.095	80.81
518.311	77.81
518.527	88.81
518.742	83.81
518.958	84.81
519.173	78.81
519.389	74.81
519.605	78.81
519.82	77.81
520.036	75.81
