Data from Background_2_HRD10591_00070.txt Node
Date: Wed Nov 05 14:47:31 EST 2025
User: Yrep
Spectrometer: HR+D1059
Trigger mode: 1
Integration Time (sec): 1.000000E-1
Scans to average: 1
Electric dark correction enabled: true
Nonlinearity correction enabled: false
Boxcar width: 0
XAxis mode: Wavelengths
Number of Pixels in Spectrum: 2048
>>>>>Begin Spectral Data<<<<<
223.165	-14.38
223.4	-14.38
223.635	-14.38
223.869	-17.38
224.104	-17.38
224.338	-13.38
224.573	-16.38
224.808	-12.38
225.042	-7.38
225.277	3.62
225.511	-5.38
225.746	-1.38
225.98	14.62
226.215	1.62
226.449	-0.38
226.683	25.62
226.918	25.62
227.152	34.62
227.387	22.62
227.621	47.62
227.856	50.62
228.09	46.62
228.324	51.62
228.559	65.62
228.793	61.62
229.027	66.62
229.262	73.62
229.496	75.62
229.73	68.62
229.964	81.62
230.199	73.62
230.433	59.62
230.667	83.62
230.901	72.62
231.136	60.62
231.37	75.62
231.604	76.62
231.838	74.62
232.072	81.62
232.306	85.62
232.541	84.62
232.775	87.62
233.009	79.62
233.243	80.62
233.477	96.62
233.711	86.62
233.945	74.62
234.179	94.62
234.413	91.62
234.647	80.62
234.881	78.62
235.115	90.62
235.349	77.62
235.583	77.62
235.817	89.62
236.051	80.62
236.285	78.62
236.519	81.62
236.753	71.62
236.987	66.62
237.221	85.62
237.455	73.62
237.689	79.62
237.922	67.62
238.156	72.62
238.39	71.62
238.624	70.62
238.858	73.62
239.091	68.62
239.325	79.62
239.559	80.62
239.793	74.62
240.027	73.62
240.26	70.62
240.494	87.62
240.728	80.62
240.961	72.62
241.195	64.62
241.429	83.62
241.662	71.62
241.896	65.62
242.13	68.62
242.363	85.62
242.597	76.62
242.83	67.62
243.064	65.62
243.298	71.62
243.531	78.62
243.765	79.62
243.998	79.62
244.232	65.62
244.465	62.62
244.699	73.62
244.932	82.62
245.166	74.62
245.399	67.62
245.633	79.62
245.866	82.62
246.099	74.62
246.333	83.62
246.566	62.62
246.8	60.62
247.033	87.62
247.266	83.62
247.5	61.62
247.733	76.62
247.966	78.62
248.2	73.62
248.433	82.62
248.666	86.62
248.899	72.62
249.133	80.62
249.366	67.62
249.599	82.62
249.832	62.62
250.066	69.62
250.299	87.62
250.532	67.62
250.765	80.62
250.998	81.62
251.231	83.62
251.465	87.62
251.698	65.62
251.931	84.62
252.164	77.62
252.397	67.62
252.63	59.62
252.863	81.62
253.096	76.62
253.329	79.62
253.562	88.62
253.795	85.62
254.028	84.62
254.261	67.62
254.494	63.62
254.727	74.62
254.96	91.62
255.193	83.62
255.426	79.62
255.659	73.62
255.892	76.62
256.124	81.62
256.357	68.62
256.59	72.62
256.823	65.62
257.056	69.62
257.289	82.62
257.521	74.62
257.754	86.62
257.987	87.62
258.22	87.62
258.452	76.62
258.685	73.62
258.918	83.62
259.151	77.62
259.383	72.62
259.616	82.62
259.849	79.62
260.081	86.62
260.314	86.62
260.547	78.62
260.779	82.62
261.012	74.62
261.244	71.62
261.477	78.62
261.71	78.62
261.942	82.62
262.175	90.62
262.407	68.62
262.64	67.62
262.872	100.62
263.105	76.62
263.337	94.62
263.57	83.62
263.802	71.62
264.035	75.62
264.267	75.62
264.499	71.62
264.732	84.62
264.964	75.62
265.197	89.62
265.429	71.62
265.661	77.62
265.894	74.62
266.126	87.62
266.358	101.62
266.591	77.62
266.823	80.62
267.055	66.62
267.287	82.62
267.52	64.62
267.752	87.62
267.984	88.62
268.216	91.62
268.448	82.62
268.681	88.62
268.913	93.62
269.145	79.62
269.377	85.62
269.609	72.62
269.841	77.62
270.073	76.62
270.306	83.62
270.538	86.62
270.77	81.62
271.002	81.62
271.234	67.62
271.466	82.62
271.698	92.62
271.93	86.62
272.162	75.62
272.394	75.62
272.626	60.62
272.858	74.62
273.09	77.62
273.322	78.62
273.553	73.62
273.785	87.62
274.017	65.62
274.249	80.62
274.481	82.62
274.713	71.62
274.945	89.62
275.176	73.62
275.408	91.62
275.64	80.62
275.872	79.62
276.104	89.62
276.335	84.62
276.567	67.62
276.799	87.62
277.031	90.62
277.262	61.62
277.494	79.62
277.726	85.62
277.957	79.62
278.189	86.62
278.421	77.62
278.652	73.62
278.884	78.62
279.115	79.62
279.347	76.62
279.579	78.62
279.81	77.62
280.042	70.62
280.273	65.62
280.505	83.62
280.736	73.62
280.968	71.62
281.199	75.62
281.431	69.62
281.662	72.62
281.894	79.62
282.125	72.62
282.356	73.62
282.588	79.62
282.819	85.62
283.051	94.62
283.282	68.62
283.513	77.62
283.745	68.62
283.976	87.62
284.207	78.62
284.439	79.62
284.67	86.62
284.901	100.62
285.132	81.62
285.364	79.62
285.595	72.62
285.826	87.62
286.057	83.62
286.288	67.62
286.52	74.62
286.751	73.62
286.982	68.62
287.213	82.62
287.444	75.62
287.675	81.62
287.906	78.62
288.138	82.62
288.369	80.62
288.6	91.62
288.831	70.62
289.062	77.62
289.293	80.62
289.524	81.62
289.755	83.62
289.986	80.62
290.217	83.62
290.448	82.62
290.679	81.62
290.91	91.62
291.141	77.62
291.371	73.62
291.602	76.62
291.833	80.62
292.064	76.62
292.295	77.62
292.526	84.62
292.757	83.62
292.987	88.62
293.218	71.62
293.449	73.62
293.68	82.62
293.91	72.62
294.141	73.62
294.372	81.62
294.603	71.62
294.833	78.62
295.064	73.62
295.295	82.62
295.525	88.62
295.756	83.62
295.987	88.62
296.217	71.62
296.448	89.62
296.679	77.62
296.909	88.62
297.14	82.62
297.37	93.62
297.601	78.62
297.831	97.62
298.062	74.62
298.292	85.62
298.523	79.62
298.753	82.62
298.984	83.62
299.214	86.62
299.445	88.62
299.675	89.62
299.905	74.62
300.136	79.62
300.366	77.62
300.597	75.62
300.827	76.62
301.057	85.62
301.288	84.62
301.518	82.62
301.748	70.62
301.979	85.62
302.209	83.62
302.439	65.62
302.669	93.62
302.9	70.62
303.13	90.62
303.36	77.62
303.59	82.62
303.82	93.62
304.051	90.62
304.281	86.62
304.511	89.62
304.741	85.62
304.971	80.62
305.201	72.62
305.431	75.62
305.661	85.62
305.891	75.62
306.121	95.62
306.352	83.62
306.582	75.62
306.812	67.62
307.042	79.62
307.272	65.62
307.502	77.62
307.731	88.62
307.961	90.62
308.191	77.62
308.421	79.62
308.651	65.62
308.881	63.62
309.111	79.62
309.341	85.62
309.571	83.62
309.8	78.62
310.03	81.62
310.26	67.62
310.49	81.62
310.72	81.62
310.949	79.62
311.179	90.62
311.409	77.62
311.639	73.62
311.868	86.62
312.098	86.62
312.328	86.62
312.557	79.62
312.787	91.62
313.017	90.62
313.246	87.62
313.476	92.62
313.706	75.62
313.935	79.62
314.165	78.62
314.394	90.62
314.624	67.62
314.853	84.62
315.083	75.62
315.312	87.62
315.542	78.62
315.771	89.62
316.001	85.62
316.23	77.62
316.46	77.62
316.689	71.62
316.919	92.62
317.148	73.62
317.377	81.62
317.607	102.62
317.836	73.62
318.065	81.62
318.295	82.62
318.524	71.62
318.753	89.62
318.983	70.62
319.212	72.62
319.441	81.62
319.67	88.62
319.9	85.62
320.129	73.62
320.358	85.62
320.587	81.62
320.816	82.62
321.046	87.62
321.275	98.62
321.504	75.62
321.733	82.62
321.962	74.62
322.191	82.62
322.42	92.62
322.649	90.62
322.878	91.62
323.108	79.62
323.337	78.62
323.566	76.62
323.795	85.62
324.024	74.62
324.253	86.62
324.482	89.62
324.71	73.62
324.939	84.62
325.168	72.62
325.397	79.62
325.626	78.62
325.855	88.62
326.084	83.62
326.313	88.62
326.542	69.62
326.77	94.62
326.999	89.62
327.228	90.62
327.457	86.62
327.686	73.62
327.914	87.62
328.143	77.62
328.372	95.62
328.6	77.62
328.829	75.62
329.058	86.62
329.287	75.62
329.515	81.62
329.744	83.62
329.972	92.62
330.201	95.62
330.43	86.62
330.658	86.62
330.887	90.62
331.115	82.62
331.344	86.62
331.572	85.62
331.801	70.62
332.03	90.62
332.258	77.62
332.486	86.62
332.715	90.62
332.943	82.62
333.172	73.62
333.4	87.62
333.629	83.62
333.857	83.62
334.085	73.62
334.314	79.62
334.542	89.62
334.771	78.62
334.999	89.62
335.227	77.62
335.455	76.62
335.684	81.62
335.912	84.62
336.14	85.62
336.369	79.62
336.597	95.62
336.825	86.62
337.053	80.62
337.281	88.62
337.51	75.62
337.738	79.62
337.966	89.62
338.194	75.62
338.422	83.62
338.65	67.62
338.878	96.62
339.106	84.62
339.334	83.62
339.562	76.62
339.79	84.62
340.018	81.62
340.246	87.62
340.474	79.62
340.702	76.62
340.93	87.62
341.158	85.62
341.386	86.62
341.614	92.62
341.842	72.62
342.07	76.62
342.298	89.62
342.526	77.62
342.754	78.62
342.981	77.62
343.209	79.62
343.437	88.62
343.665	88.62
343.893	80.62
344.12	92.62
344.348	85.62
344.576	77.62
344.804	89.62
345.031	95.62
345.259	90.62
345.487	74.62
345.714	75.62
345.942	79.62
346.17	82.62
346.397	105.62
346.625	89.62
346.853	90.62
347.08	74.62
347.308	89.62
347.535	83.62
347.763	65.62
347.99	94.62
348.218	74.62
348.445	74.62
348.673	81.62
348.9	81.62
349.128	81.62
349.355	67.62
349.583	75.62
349.81	76.62
350.037	82.62
350.265	81.62
350.492	92.62
350.72	73.62
350.947	82.62
351.174	85.62
351.402	83.62
351.629	89.62
351.856	84.62
352.083	69.62
352.311	69.62
352.538	83.62
352.765	84.62
352.992	88.62
353.22	106.62
353.447	78.62
353.674	77.62
353.901	75.62
354.128	81.62
354.355	89.62
354.583	76.62
354.81	87.62
355.037	84.62
355.264	71.62
355.491	77.62
355.718	78.62
355.945	87.62
356.172	75.62
356.399	68.62
356.626	86.62
356.853	79.62
357.08	80.62
357.307	82.62
357.534	81.62
357.761	94.62
357.988	87.62
358.215	85.62
358.441	90.62
358.668	81.62
358.895	84.62
359.122	83.62
359.349	89.62
359.576	84.62
359.802	87.62
360.029	80.62
360.256	83.62
360.483	71.62
360.709	72.62
360.936	88.62
361.163	78.62
361.39	71.62
361.616	90.62
361.843	72.62
362.07	74.62
362.296	76.62
362.523	85.62
362.749	60.62
362.976	86.62
363.203	81.62
363.429	87.62
363.656	81.62
363.882	87.62
364.109	78.62
364.335	77.62
364.562	80.62
364.788	73.62
365.015	75.62
365.241	86.62
365.468	79.62
365.694	92.62
365.92	78.62
366.147	79.62
366.373	91.62
366.599	83.62
366.826	69.62
367.052	75.62
367.278	83.62
367.505	75.62
367.731	81.62
367.957	77.62
368.184	65.62
368.41	73.62
368.636	71.62
368.862	78.62
369.089	81.62
369.315	84.62
369.541	79.62
369.767	73.62
369.993	75.62
370.219	70.62
370.445	79.62
370.672	88.62
370.898	76.62
371.124	76.62
371.35	88.62
371.576	86.62
371.802	75.62
372.028	75.62
372.254	74.62
372.48	66.62
372.706	87.62
372.932	85.62
373.158	70.62
373.384	72.62
373.61	82.62
373.835	86.62
374.061	78.62
374.287	80.62
374.513	77.62
374.739	73.62
374.965	81.62
375.191	74.62
375.416	65.62
375.642	82.62
375.868	86.62
376.094	79.62
376.319	79.62
376.545	90.62
376.771	75.62
376.997	77.62
377.222	78.62
377.448	84.62
377.674	87.62
377.899	81.62
378.125	80.62
378.35	77.62
378.576	74.62
378.802	67.62
379.027	69.62
379.253	86.62
379.478	85.62
379.704	79.62
379.929	88.62
380.155	93.62
380.38	85.62
380.606	77.62
380.831	78.62
381.057	83.62
381.282	90.62
381.507	69.62
381.733	93.62
381.958	91.62
382.184	81.62
382.409	80.62
382.634	85.62
382.86	82.62
383.085	71.62
383.31	90.62
383.535	71.62
383.761	78.62
383.986	90.62
384.211	79.62
384.436	91.62
384.662	82.62
384.887	77.62
385.112	72.62
385.337	77.62
385.562	66.62
385.787	65.62
386.013	74.62
386.238	73.62
386.463	71.62
386.688	92.62
386.913	74.62
387.138	70.62
387.363	84.62
387.588	87.62
387.813	75.62
388.038	85.62
388.263	71.62
388.488	80.62
388.713	78.62
388.938	65.62
389.163	85.62
389.387	68.62
389.612	72.62
389.837	82.62
390.062	82.62
390.287	74.62
390.512	75.62
390.736	75.62
390.961	71.62
391.186	65.62
391.411	83.62
391.636	83.62
391.86	72.62
392.085	83.62
392.31	67.62
392.534	89.62
392.759	66.62
392.984	65.62
393.208	71.62
393.433	73.62
393.658	85.62
393.882	79.62
394.107	84.62
394.331	79.62
394.556	73.62
394.78	85.62
395.005	81.62
395.229	91.62
395.454	75.62
395.678	66.62
395.903	78.62
396.127	84.62
396.352	80.62
396.576	84.62
396.801	85.62
397.025	62.62
397.249	89.62
397.474	81.62
397.698	77.62
397.922	89.62
398.147	69.62
398.371	81.62
398.595	81.62
398.82	76.62
399.044	87.62
399.268	82.62
399.492	71.62
399.717	81.62
399.941	71.62
400.165	91.62
400.389	76.62
400.613	69.62
400.837	66.62
401.062	67.62
401.286	82.62
401.51	83.62
401.734	66.62
401.958	85.62
402.182	77.62
402.406	77.62
402.63	88.62
402.854	74.62
403.078	75.62
403.302	81.62
403.526	87.62
403.75	69.62
403.974	85.62
404.198	66.62
404.422	83.62
404.645	67.62
404.869	65.62
405.093	73.62
405.317	75.62
405.541	65.62
405.765	80.62
405.988	67.62
406.212	91.62
406.436	78.62
406.66	81.62
406.883	65.62
407.107	77.62
407.331	87.62
407.555	99.62
407.778	76.62
408.002	77.62
408.226	82.62
408.449	78.62
408.673	66.62
408.896	83.62
409.12	81.62
409.344	74.62
409.567	81.62
409.791	69.62
410.014	76.62
410.238	77.62
410.461	67.62
410.685	77.62
410.908	77.62
411.132	82.62
411.355	85.62
411.578	72.62
411.802	86.62
412.025	82.62
412.249	79.62
412.472	75.62
412.695	71.62
412.919	81.62
413.142	79.62
413.365	85.62
413.589	86.62
413.812	90.62
414.035	78.62
414.258	85.62
414.482	74.62
414.705	82.62
414.928	75.62
415.151	81.62
415.374	77.62
415.597	75.62
415.821	82.62
416.044	61.62
416.267	63.62
416.49	77.62
416.713	85.62
416.936	79.62
417.159	64.62
417.382	76.62
417.605	77.62
417.828	83.62
418.051	62.62
418.274	67.62
418.497	73.62
418.72	87.62
418.943	80.62
419.166	68.62
419.389	83.62
419.611	79.62
419.834	67.62
420.057	73.62
420.28	88.62
420.503	75.62
420.726	83.62
420.948	73.62
421.171	66.62
421.394	73.62
421.617	89.62
421.839	70.62
422.062	75.62
422.285	90.62
422.507	88.62
422.73	85.62
422.953	77.62
423.175	82.62
423.398	85.62
423.621	79.62
423.843	61.62
424.066	61.62
424.288	78.62
424.511	74.62
424.733	79.62
424.956	67.62
425.178	83.62
425.401	89.62
425.623	75.62
425.846	93.62
426.068	68.62
426.291	87.62
426.513	76.62
426.735	87.62
426.958	68.62
427.18	83.62
427.402	65.62
427.625	77.62
427.847	58.62
428.069	84.62
428.292	76.62
428.514	85.62
428.736	92.62
428.958	82.62
429.181	82.62
429.403	75.62
429.625	78.62
429.847	69.62
430.069	85.62
430.292	81.62
430.514	97.62
430.736	74.62
430.958	74.62
431.18	87.62
431.402	98.62
431.624	83.62
431.846	92.62
432.068	88.62
432.29	76.62
432.512	96.62
432.734	74.62
432.956	90.62
433.178	73.62
433.4	73.62
433.622	76.62
433.844	78.62
434.066	72.62
434.287	76.62
434.509	65.62
434.731	85.62
434.953	83.62
435.175	85.62
435.397	78.62
435.618	77.62
435.84	73.62
436.062	83.62
436.284	80.62
436.505	73.62
436.727	71.62
436.949	78.62
437.17	80.62
437.392	78.62
437.614	74.62
437.835	79.62
438.057	84.62
438.278	62.62
438.5	83.62
438.721	77.62
438.943	91.62
439.165	91.62
439.386	89.62
439.608	72.62
439.829	84.62
440.05	77.62
440.272	81.62
440.493	88.62
440.715	78.62
440.936	74.62
441.158	77.62
441.379	81.62
441.6	82.62
441.822	85.62
442.043	86.62
442.264	65.62
442.486	89.62
442.707	73.62
442.928	86.62
443.149	84.62
443.371	82.62
443.592	86.62
443.813	74.62
444.034	90.62
444.255	87.62
444.476	77.62
444.698	85.62
444.919	81.62
445.14	156.62
445.361	113.62
445.582	72.62
445.803	89.62
446.024	73.62
446.245	78.62
446.466	87.62
446.687	79.62
446.908	78.62
447.129	87.62
447.35	87.62
447.571	95.62
447.792	78.62
448.013	68.62
448.234	85.62
448.455	84.62
448.675	75.62
448.896	82.62
449.117	81.62
449.338	92.62
449.559	81.62
449.779	83.62
450	75.62
450.221	76.62
450.442	89.62
450.662	76.62
450.883	66.62
451.104	71.62
451.324	79.62
451.545	83.62
451.766	82.62
451.986	95.62
452.207	88.62
452.428	79.62
452.648	79.62
452.869	77.62
453.089	74.62
453.31	74.62
453.53	66.62
453.751	91.62
453.971	67.62
454.192	79.62
454.412	77.62
454.633	75.62
454.853	84.62
455.073	72.62
455.294	70.62
455.514	76.62
455.734	74.62
455.955	83.62
456.175	74.62
456.395	84.62
456.616	75.62
456.836	83.62
457.056	71.62
457.276	79.62
457.497	81.62
457.717	72.62
457.937	82.62
458.157	82.62
458.377	91.62
458.598	94.62
458.818	82.62
459.038	56.62
459.258	81.62
459.478	81.62
459.698	82.62
459.918	82.62
460.138	86.62
460.358	65.62
460.578	76.62
460.798	85.62
461.018	88.62
461.238	87.62
461.458	77.62
461.678	94.62
461.898	82.62
462.118	77.62
462.338	89.62
462.558	79.62
462.777	85.62
462.997	63.62
463.217	90.62
463.437	59.62
463.657	60.62
463.876	90.62
464.096	77.62
464.316	52.62
464.536	82.62
464.755	81.62
464.975	71.62
465.195	74.62
465.414	75.62
465.634	82.62
465.854	88.62
466.073	85.62
466.293	78.62
466.512	78.62
466.732	83.62
466.951	81.62
467.171	70.62
467.391	82.62
467.61	88.62
467.829	89.62
468.049	81.62
468.268	73.62
468.488	85.62
468.707	74.62
468.927	79.62
469.146	80.62
469.365	80.62
469.585	79.62
469.804	80.62
470.023	77.62
470.243	68.62
470.462	74.62
470.681	77.62
470.901	79.62
471.12	83.62
471.339	73.62
471.558	80.62
471.777	78.62
471.997	74.62
472.216	83.62
472.435	72.62
472.654	72.62
472.873	73.62
473.092	85.62
473.311	75.62
473.53	75.62
473.749	78.62
473.968	84.62
474.187	90.62
474.406	78.62
474.625	78.62
474.844	67.62
475.063	59.62
475.282	72.62
475.501	69.62
475.72	95.62
475.939	81.62
476.158	71.62
476.377	85.62
476.596	88.62
476.814	87.62
477.033	88.62
477.252	83.62
477.471	66.62
477.69	81.62
477.908	75.62
478.127	74.62
478.346	93.62
478.564	80.62
478.783	63.62
479.002	88.62
479.22	72.62
479.439	87.62
479.658	103.62
479.876	93.62
480.095	83.62
480.313	85.62
480.532	75.62
480.751	74.62
480.969	93.62
481.188	80.62
481.406	81.62
481.624	80.62
481.843	82.62
482.061	75.62
482.28	73.62
482.498	72.62
482.717	67.62
482.935	81.62
483.153	81.62
483.372	67.62
483.59	75.62
483.808	79.62
484.027	80.62
484.245	85.62
484.463	86.62
484.681	75.62
484.9	75.62
485.118	78.62
485.336	78.62
485.554	89.62
485.772	64.62
485.99	81.62
486.209	80.62
486.427	75.62
486.645	77.62
486.863	89.62
487.081	90.62
487.299	64.62
487.517	77.62
487.735	75.62
487.953	79.62
488.171	88.62
488.389	79.62
488.607	69.62
488.825	78.62
489.043	75.62
489.261	83.62
489.479	83.62
489.696	80.62
489.914	75.62
490.132	65.62
490.35	68.62
490.568	78.62
490.786	78.62
491.003	82.62
491.221	70.62
491.439	72.62
491.657	74.62
491.874	72.62
492.092	79.62
492.31	79.62
492.527	74.62
492.745	74.62
492.963	79.62
493.18	81.62
493.398	81.62
493.615	71.62
493.833	75.62
494.05	75.62
494.268	74.62
494.485	75.62
494.703	89.62
494.92	72.62
495.138	79.62
495.355	83.62
495.573	80.62
495.79	71.62
496.008	90.62
496.225	88.62
496.442	63.62
496.66	82.62
496.877	73.62
497.094	87.62
497.312	79.62
497.529	84.62
497.746	75.62
497.963	83.62
498.181	71.62
498.398	82.62
498.615	72.62
498.832	68.62
499.049	71.62
499.267	74.62
499.484	76.62
499.701	81.62
499.918	80.62
500.135	74.62
500.352	93.62
500.569	79.62
500.786	77.62
501.003	72.62
501.22	78.62
501.437	76.62
501.654	71.62
501.871	74.62
502.088	81.62
502.305	84.62
502.522	80.62
502.739	69.62
502.956	73.62
503.172	78.62
503.389	74.62
503.606	91.62
503.823	72.62
504.04	79.62
504.256	73.62
504.473	82.62
504.69	71.62
504.907	75.62
505.123	68.62
505.34	74.62
505.557	69.62
505.773	75.62
505.99	81.62
506.207	75.62
506.423	83.62
506.64	87.62
506.856	69.62
507.073	85.62
507.289	76.62
507.506	79.62
507.722	82.62
507.939	77.62
508.155	87.62
508.372	68.62
508.588	77.62
508.805	87.62
509.021	78.62
509.238	63.62
509.454	89.62
509.67	79.62
509.887	79.62
510.103	76.62
510.319	91.62
510.536	89.62
510.752	80.62
510.968	78.62
511.184	87.62
511.401	74.62
511.617	74.62
511.833	76.62
512.049	76.62
512.265	82.62
512.481	76.62
512.698	84.62
512.914	72.62
513.13	62.62
513.346	75.62
513.562	77.62
513.778	82.62
513.994	90.62
514.21	81.62
514.426	81.62
514.642	76.62
514.858	76.62
515.074	66.62
515.29	88.62
515.506	87.62
515.721	87.62
515.937	68.62
516.153	65.62
516.369	67.62
516.585	83.62
516.801	77.62
517.016	85.62
517.232	77.62
517.448	89.62
517.664	101.62
517.879	85.62
518.095	81.62
518.311	85.62
518.527	73.62
518.742	83.62
518.958	77.62
519.173	96.62
519.389	88.62
519.605	73.62
519.82	80.62
520.036	87.62
