Data from Background_2_HRD10591_00014.txt Node
Date: Wed Nov 05 14:47:04 EST 2025
User: Yrep
Spectrometer: HR+D1059
Trigger mode: 1
Integration Time (sec): 1.000000E-1
Scans to average: 1
Electric dark correction enabled: true
Nonlinearity correction enabled: false
Boxcar width: 0
XAxis mode: Wavelengths
Number of Pixels in Spectrum: 2048
>>>>>Begin Spectral Data<<<<<
223.165	-16.94
223.4	-16.94
223.635	-16.94
223.869	-15.94
224.104	-18.94
224.338	-13.94
224.573	-20.94
224.808	-29.94
225.042	-8.94
225.277	-2.94
225.511	-0.94
225.746	18.06
225.98	11.06
226.215	6.06
226.449	18.06
226.683	20.06
226.918	22.06
227.152	34.06
227.387	44.06
227.621	33.06
227.856	54.06
228.09	43.06
228.324	55.06
228.559	53.06
228.793	66.06
229.027	54.06
229.262	70.06
229.496	55.06
229.73	65.06
229.964	80.06
230.199	68.06
230.433	81.06
230.667	69.06
230.901	84.06
231.136	78.06
231.37	83.06
231.604	77.06
231.838	78.06
232.072	83.06
232.306	82.06
232.541	97.06
232.775	89.06
233.009	96.06
233.243	91.06
233.477	72.06
233.711	71.06
233.945	79.06
234.179	82.06
234.413	93.06
234.647	82.06
234.881	81.06
235.115	85.06
235.349	81.06
235.583	79.06
235.817	70.06
236.051	71.06
236.285	85.06
236.519	69.06
236.753	79.06
236.987	71.06
237.221	88.06
237.455	77.06
237.689	77.06
237.922	86.06
238.156	75.06
238.39	75.06
238.624	81.06
238.858	79.06
239.091	78.06
239.325	70.06
239.559	64.06
239.793	76.06
240.027	79.06
240.26	87.06
240.494	85.06
240.728	84.06
240.961	74.06
241.195	72.06
241.429	86.06
241.662	81.06
241.896	85.06
242.13	68.06
242.363	70.06
242.597	81.06
242.83	81.06
243.064	79.06
243.298	73.06
243.531	75.06
243.765	83.06
243.998	79.06
244.232	79.06
244.465	79.06
244.699	82.06
244.932	79.06
245.166	84.06
245.399	80.06
245.633	94.06
245.866	73.06
246.099	82.06
246.333	67.06
246.566	74.06
246.8	91.06
247.033	70.06
247.266	71.06
247.5	91.06
247.733	74.06
247.966	74.06
248.2	80.06
248.433	72.06
248.666	92.06
248.899	72.06
249.133	74.06
249.366	88.06
249.599	78.06
249.832	78.06
250.066	84.06
250.299	77.06
250.532	81.06
250.765	88.06
250.998	79.06
251.231	85.06
251.465	91.06
251.698	83.06
251.931	89.06
252.164	66.06
252.397	86.06
252.63	83.06
252.863	77.06
253.096	81.06
253.329	101.06
253.562	94.06
253.795	92.06
254.028	77.06
254.261	68.06
254.494	84.06
254.727	86.06
254.96	81.06
255.193	79.06
255.426	73.06
255.659	87.06
255.892	82.06
256.124	80.06
256.357	95.06
256.59	83.06
256.823	73.06
257.056	83.06
257.289	85.06
257.521	78.06
257.754	83.06
257.987	81.06
258.22	88.06
258.452	90.06
258.685	89.06
258.918	100.06
259.151	89.06
259.383	79.06
259.616	84.06
259.849	87.06
260.081	81.06
260.314	81.06
260.547	69.06
260.779	97.06
261.012	93.06
261.244	88.06
261.477	86.06
261.71	83.06
261.942	91.06
262.175	95.06
262.407	85.06
262.64	95.06
262.872	87.06
263.105	90.06
263.337	92.06
263.57	68.06
263.802	92.06
264.035	87.06
264.267	88.06
264.499	82.06
264.732	85.06
264.964	85.06
265.197	83.06
265.429	79.06
265.661	102.06
265.894	77.06
266.126	60.06
266.358	94.06
266.591	82.06
266.823	88.06
267.055	73.06
267.287	70.06
267.52	81.06
267.752	101.06
267.984	98.06
268.216	79.06
268.448	94.06
268.681	86.06
268.913	93.06
269.145	83.06
269.377	82.06
269.609	79.06
269.841	81.06
270.073	85.06
270.306	83.06
270.538	81.06
270.77	75.06
271.002	84.06
271.234	89.06
271.466	92.06
271.698	98.06
271.93	70.06
272.162	78.06
272.394	92.06
272.626	87.06
272.858	93.06
273.09	77.06
273.322	84.06
273.553	79.06
273.785	88.06
274.017	81.06
274.249	91.06
274.481	81.06
274.713	91.06
274.945	76.06
275.176	85.06
275.408	85.06
275.64	74.06
275.872	98.06
276.104	77.06
276.335	80.06
276.567	81.06
276.799	82.06
277.031	72.06
277.262	76.06
277.494	97.06
277.726	88.06
277.957	85.06
278.189	91.06
278.421	91.06
278.652	83.06
278.884	79.06
279.115	85.06
279.347	93.06
279.579	93.06
279.81	80.06
280.042	84.06
280.273	85.06
280.505	84.06
280.736	85.06
280.968	88.06
281.199	91.06
281.431	95.06
281.662	82.06
281.894	90.06
282.125	89.06
282.356	99.06
282.588	89.06
282.819	87.06
283.051	92.06
283.282	97.06
283.513	84.06
283.745	88.06
283.976	74.06
284.207	83.06
284.439	71.06
284.67	83.06
284.901	82.06
285.132	83.06
285.364	83.06
285.595	80.06
285.826	96.06
286.057	85.06
286.288	79.06
286.52	95.06
286.751	81.06
286.982	87.06
287.213	88.06
287.444	86.06
287.675	88.06
287.906	106.06
288.138	87.06
288.369	90.06
288.6	82.06
288.831	69.06
289.062	92.06
289.293	78.06
289.524	83.06
289.755	97.06
289.986	94.06
290.217	96.06
290.448	88.06
290.679	76.06
290.91	94.06
291.141	63.06
291.371	86.06
291.602	94.06
291.833	84.06
292.064	86.06
292.295	95.06
292.526	83.06
292.757	83.06
292.987	84.06
293.218	85.06
293.449	87.06
293.68	71.06
293.91	96.06
294.141	81.06
294.372	88.06
294.603	77.06
294.833	85.06
295.064	94.06
295.295	87.06
295.525	92.06
295.756	106.06
295.987	94.06
296.217	90.06
296.448	78.06
296.679	83.06
296.909	82.06
297.14	84.06
297.37	75.06
297.601	87.06
297.831	88.06
298.062	91.06
298.292	99.06
298.523	96.06
298.753	94.06
298.984	89.06
299.214	88.06
299.445	87.06
299.675	86.06
299.905	80.06
300.136	87.06
300.366	86.06
300.597	94.06
300.827	87.06
301.057	93.06
301.288	100.06
301.518	87.06
301.748	88.06
301.979	95.06
302.209	89.06
302.439	86.06
302.669	79.06
302.9	87.06
303.13	79.06
303.36	94.06
303.59	76.06
303.82	77.06
304.051	96.06
304.281	84.06
304.511	91.06
304.741	80.06
304.971	89.06
305.201	83.06
305.431	84.06
305.661	91.06
305.891	83.06
306.121	89.06
306.352	87.06
306.582	86.06
306.812	79.06
307.042	72.06
307.272	83.06
307.502	92.06
307.731	77.06
307.961	80.06
308.191	77.06
308.421	77.06
308.651	92.06
308.881	79.06
309.111	75.06
309.341	87.06
309.571	87.06
309.8	94.06
310.03	85.06
310.26	88.06
310.49	96.06
310.72	82.06
310.949	90.06
311.179	89.06
311.409	91.06
311.639	87.06
311.868	93.06
312.098	88.06
312.328	82.06
312.557	88.06
312.787	74.06
313.017	55.06
313.246	83.06
313.476	87.06
313.706	80.06
313.935	93.06
314.165	81.06
314.394	84.06
314.624	95.06
314.853	83.06
315.083	91.06
315.312	111.06
315.542	87.06
315.771	81.06
316.001	80.06
316.23	93.06
316.46	94.06
316.689	85.06
316.919	91.06
317.148	75.06
317.377	94.06
317.607	80.06
317.836	94.06
318.065	78.06
318.295	96.06
318.524	93.06
318.753	68.06
318.983	85.06
319.212	77.06
319.441	83.06
319.67	92.06
319.9	75.06
320.129	77.06
320.358	89.06
320.587	93.06
320.816	96.06
321.046	88.06
321.275	96.06
321.504	79.06
321.733	83.06
321.962	88.06
322.191	84.06
322.42	80.06
322.649	80.06
322.878	102.06
323.108	85.06
323.337	80.06
323.566	83.06
323.795	84.06
324.024	80.06
324.253	90.06
324.482	91.06
324.71	97.06
324.939	90.06
325.168	91.06
325.397	98.06
325.626	70.06
325.855	92.06
326.084	81.06
326.313	87.06
326.542	77.06
326.77	98.06
326.999	87.06
327.228	73.06
327.457	84.06
327.686	75.06
327.914	80.06
328.143	73.06
328.372	87.06
328.6	77.06
328.829	84.06
329.058	82.06
329.287	107.06
329.515	81.06
329.744	81.06
329.972	77.06
330.201	90.06
330.43	103.06
330.658	113.06
330.887	77.06
331.115	92.06
331.344	85.06
331.572	98.06
331.801	84.06
332.03	97.06
332.258	93.06
332.486	92.06
332.715	93.06
332.943	88.06
333.172	82.06
333.4	81.06
333.629	91.06
333.857	99.06
334.085	95.06
334.314	89.06
334.542	94.06
334.771	85.06
334.999	82.06
335.227	87.06
335.455	81.06
335.684	96.06
335.912	91.06
336.14	84.06
336.369	92.06
336.597	79.06
336.825	72.06
337.053	95.06
337.281	88.06
337.51	87.06
337.738	86.06
337.966	85.06
338.194	88.06
338.422	83.06
338.65	96.06
338.878	84.06
339.106	73.06
339.334	101.06
339.562	95.06
339.79	84.06
340.018	81.06
340.246	87.06
340.474	76.06
340.702	84.06
340.93	97.06
341.158	78.06
341.386	79.06
341.614	81.06
341.842	72.06
342.07	79.06
342.298	85.06
342.526	98.06
342.754	81.06
342.981	83.06
343.209	82.06
343.437	104.06
343.665	91.06
343.893	72.06
344.12	91.06
344.348	93.06
344.576	77.06
344.804	79.06
345.031	94.06
345.259	86.06
345.487	87.06
345.714	89.06
345.942	74.06
346.17	79.06
346.397	80.06
346.625	81.06
346.853	91.06
347.08	92.06
347.308	77.06
347.535	85.06
347.763	78.06
347.99	91.06
348.218	86.06
348.445	79.06
348.673	83.06
348.9	83.06
349.128	83.06
349.355	86.06
349.583	87.06
349.81	85.06
350.037	74.06
350.265	78.06
350.492	81.06
350.72	86.06
350.947	95.06
351.174	92.06
351.402	81.06
351.629	92.06
351.856	87.06
352.083	86.06
352.311	98.06
352.538	87.06
352.765	86.06
352.992	88.06
353.22	78.06
353.447	96.06
353.674	88.06
353.901	88.06
354.128	85.06
354.355	82.06
354.583	78.06
354.81	95.06
355.037	73.06
355.264	95.06
355.491	74.06
355.718	83.06
355.945	96.06
356.172	89.06
356.399	80.06
356.626	81.06
356.853	65.06
357.08	93.06
357.307	100.06
357.534	79.06
357.761	83.06
357.988	80.06
358.215	61.06
358.441	87.06
358.668	79.06
358.895	98.06
359.122	94.06
359.349	91.06
359.576	89.06
359.802	95.06
360.029	81.06
360.256	84.06
360.483	74.06
360.709	101.06
360.936	99.06
361.163	92.06
361.39	89.06
361.616	89.06
361.843	81.06
362.07	78.06
362.296	73.06
362.523	73.06
362.749	83.06
362.976	78.06
363.203	81.06
363.429	68.06
363.656	94.06
363.882	87.06
364.109	85.06
364.335	83.06
364.562	88.06
364.788	92.06
365.015	87.06
365.241	84.06
365.468	86.06
365.694	81.06
365.92	76.06
366.147	58.06
366.373	68.06
366.599	87.06
366.826	87.06
367.052	88.06
367.278	95.06
367.505	87.06
367.731	94.06
367.957	79.06
368.184	74.06
368.41	88.06
368.636	86.06
368.862	76.06
369.089	72.06
369.315	79.06
369.541	88.06
369.767	87.06
369.993	94.06
370.219	97.06
370.445	77.06
370.672	82.06
370.898	88.06
371.124	71.06
371.35	85.06
371.576	85.06
371.802	85.06
372.028	87.06
372.254	84.06
372.48	93.06
372.706	82.06
372.932	80.06
373.158	81.06
373.384	79.06
373.61	94.06
373.835	96.06
374.061	91.06
374.287	83.06
374.513	83.06
374.739	76.06
374.965	81.06
375.191	81.06
375.416	71.06
375.642	89.06
375.868	92.06
376.094	90.06
376.319	95.06
376.545	75.06
376.771	95.06
376.997	95.06
377.222	94.06
377.448	91.06
377.674	92.06
377.899	79.06
378.125	89.06
378.35	82.06
378.576	59.06
378.802	83.06
379.027	83.06
379.253	72.06
379.478	75.06
379.704	93.06
379.929	74.06
380.155	96.06
380.38	102.06
380.606	82.06
380.831	77.06
381.057	79.06
381.282	94.06
381.507	86.06
381.733	80.06
381.958	92.06
382.184	77.06
382.409	79.06
382.634	67.06
382.86	91.06
383.085	78.06
383.31	87.06
383.535	92.06
383.761	90.06
383.986	89.06
384.211	84.06
384.436	86.06
384.662	90.06
384.887	88.06
385.112	88.06
385.337	88.06
385.562	72.06
385.787	82.06
386.013	87.06
386.238	81.06
386.463	101.06
386.688	79.06
386.913	79.06
387.138	71.06
387.363	78.06
387.588	80.06
387.813	75.06
388.038	75.06
388.263	88.06
388.488	72.06
388.713	84.06
388.938	83.06
389.163	87.06
389.387	79.06
389.612	92.06
389.837	89.06
390.062	79.06
390.287	88.06
390.512	87.06
390.736	71.06
390.961	82.06
391.186	88.06
391.411	88.06
391.636	88.06
391.86	89.06
392.085	86.06
392.31	87.06
392.534	85.06
392.759	74.06
392.984	94.06
393.208	85.06
393.433	90.06
393.658	79.06
393.882	85.06
394.107	93.06
394.331	82.06
394.556	73.06
394.78	68.06
395.005	68.06
395.229	84.06
395.454	83.06
395.678	85.06
395.903	79.06
396.127	95.06
396.352	87.06
396.576	91.06
396.801	88.06
397.025	75.06
397.249	83.06
397.474	85.06
397.698	87.06
397.922	68.06
398.147	85.06
398.371	89.06
398.595	95.06
398.82	79.06
399.044	79.06
399.268	89.06
399.492	76.06
399.717	83.06
399.941	81.06
400.165	93.06
400.389	72.06
400.613	74.06
400.837	93.06
401.062	87.06
401.286	87.06
401.51	84.06
401.734	85.06
401.958	91.06
402.182	81.06
402.406	95.06
402.63	95.06
402.854	66.06
403.078	79.06
403.302	92.06
403.526	81.06
403.75	92.06
403.974	72.06
404.198	80.06
404.422	79.06
404.645	71.06
404.869	96.06
405.093	94.06
405.317	81.06
405.541	100.06
405.765	95.06
405.988	75.06
406.212	67.06
406.436	74.06
406.66	91.06
406.883	64.06
407.107	78.06
407.331	76.06
407.555	94.06
407.778	80.06
408.002	86.06
408.226	87.06
408.449	83.06
408.673	81.06
408.896	84.06
409.12	80.06
409.344	86.06
409.567	81.06
409.791	92.06
410.014	77.06
410.238	88.06
410.461	81.06
410.685	89.06
410.908	92.06
411.132	76.06
411.355	96.06
411.578	85.06
411.802	88.06
412.025	85.06
412.249	79.06
412.472	83.06
412.695	81.06
412.919	80.06
413.142	80.06
413.365	73.06
413.589	81.06
413.812	69.06
414.035	83.06
414.258	75.06
414.482	80.06
414.705	86.06
414.928	81.06
415.151	92.06
415.374	84.06
415.597	95.06
415.821	86.06
416.044	87.06
416.267	77.06
416.49	77.06
416.713	73.06
416.936	87.06
417.159	73.06
417.382	68.06
417.605	79.06
417.828	71.06
418.051	90.06
418.274	78.06
418.497	70.06
418.72	68.06
418.943	78.06
419.166	94.06
419.389	85.06
419.611	97.06
419.834	79.06
420.057	68.06
420.28	92.06
420.503	88.06
420.726	87.06
420.948	78.06
421.171	79.06
421.394	92.06
421.617	76.06
421.839	84.06
422.062	84.06
422.285	85.06
422.507	86.06
422.73	72.06
422.953	63.06
423.175	76.06
423.398	67.06
423.621	74.06
423.843	83.06
424.066	71.06
424.288	80.06
424.511	89.06
424.733	89.06
424.956	80.06
425.178	92.06
425.401	89.06
425.623	101.06
425.846	89.06
426.068	81.06
426.291	91.06
426.513	82.06
426.735	77.06
426.958	69.06
427.18	83.06
427.402	77.06
427.625	81.06
427.847	83.06
428.069	80.06
428.292	77.06
428.514	77.06
428.736	84.06
428.958	81.06
429.181	91.06
429.403	74.06
429.625	98.06
429.847	74.06
430.069	83.06
430.292	77.06
430.514	85.06
430.736	87.06
430.958	65.06
431.18	91.06
431.402	95.06
431.624	94.06
431.846	68.06
432.068	76.06
432.29	85.06
432.512	97.06
432.734	81.06
432.956	93.06
433.178	100.06
433.4	81.06
433.622	94.06
433.844	89.06
434.066	83.06
434.287	83.06
434.509	86.06
434.731	78.06
434.953	75.06
435.175	91.06
435.397	84.06
435.618	76.06
435.84	83.06
436.062	79.06
436.284	68.06
436.505	88.06
436.727	81.06
436.949	76.06
437.17	88.06
437.392	88.06
437.614	67.06
437.835	67.06
438.057	71.06
438.278	87.06
438.5	83.06
438.721	88.06
438.943	77.06
439.165	80.06
439.386	82.06
439.608	77.06
439.829	93.06
440.05	88.06
440.272	81.06
440.493	90.06
440.715	77.06
440.936	82.06
441.158	80.06
441.379	81.06
441.6	72.06
441.822	78.06
442.043	86.06
442.264	66.06
442.486	98.06
442.707	76.06
442.928	64.06
443.149	71.06
443.371	93.06
443.592	79.06
443.813	87.06
444.034	96.06
444.255	87.06
444.476	87.06
444.698	82.06
444.919	86.06
445.14	157.06
445.361	117.06
445.582	70.06
445.803	90.06
446.024	90.06
446.245	86.06
446.466	78.06
446.687	86.06
446.908	64.06
447.129	98.06
447.35	84.06
447.571	83.06
447.792	75.06
448.013	80.06
448.234	83.06
448.455	68.06
448.675	88.06
448.896	75.06
449.117	85.06
449.338	93.06
449.559	89.06
449.779	69.06
450	73.06
450.221	79.06
450.442	77.06
450.662	87.06
450.883	73.06
451.104	83.06
451.324	71.06
451.545	89.06
451.766	79.06
451.986	83.06
452.207	71.06
452.428	89.06
452.648	77.06
452.869	80.06
453.089	89.06
453.31	80.06
453.53	73.06
453.751	96.06
453.971	86.06
454.192	96.06
454.412	72.06
454.633	81.06
454.853	72.06
455.073	68.06
455.294	92.06
455.514	81.06
455.734	72.06
455.955	88.06
456.175	92.06
456.395	86.06
456.616	84.06
456.836	88.06
457.056	72.06
457.276	95.06
457.497	81.06
457.717	83.06
457.937	83.06
458.157	79.06
458.377	78.06
458.598	77.06
458.818	63.06
459.038	78.06
459.258	77.06
459.478	83.06
459.698	72.06
459.918	82.06
460.138	91.06
460.358	81.06
460.578	87.06
460.798	72.06
461.018	87.06
461.238	83.06
461.458	71.06
461.678	80.06
461.898	85.06
462.118	74.06
462.338	85.06
462.558	79.06
462.777	87.06
462.997	84.06
463.217	75.06
463.437	77.06
463.657	78.06
463.876	92.06
464.096	75.06
464.316	98.06
464.536	72.06
464.755	82.06
464.975	83.06
465.195	82.06
465.414	74.06
465.634	83.06
465.854	86.06
466.073	77.06
466.293	83.06
466.512	74.06
466.732	87.06
466.951	101.06
467.171	78.06
467.391	85.06
467.61	88.06
467.829	89.06
468.049	84.06
468.268	84.06
468.488	90.06
468.707	79.06
468.927	86.06
469.146	80.06
469.365	72.06
469.585	77.06
469.804	89.06
470.023	58.06
470.243	92.06
470.462	86.06
470.681	80.06
470.901	70.06
471.12	91.06
471.339	77.06
471.558	77.06
471.777	82.06
471.997	84.06
472.216	92.06
472.435	71.06
472.654	71.06
472.873	88.06
473.092	91.06
473.311	100.06
473.53	94.06
473.749	98.06
473.968	81.06
474.187	87.06
474.406	86.06
474.625	91.06
474.844	87.06
475.063	74.06
475.282	81.06
475.501	83.06
475.72	80.06
475.939	90.06
476.158	81.06
476.377	95.06
476.596	71.06
476.814	84.06
477.033	83.06
477.252	81.06
477.471	87.06
477.69	82.06
477.908	78.06
478.127	87.06
478.346	89.06
478.564	73.06
478.783	71.06
479.002	74.06
479.22	88.06
479.439	98.06
479.658	82.06
479.876	81.06
480.095	73.06
480.313	88.06
480.532	91.06
480.751	95.06
480.969	74.06
481.188	94.06
481.406	80.06
481.624	87.06
481.843	95.06
482.061	81.06
482.28	95.06
482.498	76.06
482.717	79.06
482.935	92.06
483.153	86.06
483.372	82.06
483.59	98.06
483.808	86.06
484.027	84.06
484.245	77.06
484.463	80.06
484.681	101.06
484.9	73.06
485.118	82.06
485.336	89.06
485.554	92.06
485.772	84.06
485.99	102.06
486.209	83.06
486.427	69.06
486.645	87.06
486.863	85.06
487.081	74.06
487.299	89.06
487.517	81.06
487.735	76.06
487.953	92.06
488.171	90.06
488.389	72.06
488.607	74.06
488.825	83.06
489.043	83.06
489.261	87.06
489.479	86.06
489.696	80.06
489.914	77.06
490.132	83.06
490.35	85.06
490.568	76.06
490.786	78.06
491.003	95.06
491.221	78.06
491.439	70.06
491.657	84.06
491.874	64.06
492.092	75.06
492.31	85.06
492.527	83.06
492.745	84.06
492.963	65.06
493.18	95.06
493.398	72.06
493.615	74.06
493.833	96.06
494.05	91.06
494.268	88.06
494.485	77.06
494.703	79.06
494.92	72.06
495.138	82.06
495.355	96.06
495.573	83.06
495.79	82.06
496.008	91.06
496.225	87.06
496.442	94.06
496.66	83.06
496.877	75.06
497.094	96.06
497.312	77.06
497.529	71.06
497.746	91.06
497.963	88.06
498.181	81.06
498.398	78.06
498.615	87.06
498.832	86.06
499.049	84.06
499.267	92.06
499.484	70.06
499.701	88.06
499.918	87.06
500.135	74.06
500.352	87.06
500.569	86.06
500.786	74.06
501.003	79.06
501.22	80.06
501.437	98.06
501.654	79.06
501.871	81.06
502.088	71.06
502.305	71.06
502.522	88.06
502.739	77.06
502.956	84.06
503.172	91.06
503.389	77.06
503.606	81.06
503.823	84.06
504.04	80.06
504.256	85.06
504.473	92.06
504.69	92.06
504.907	104.06
505.123	92.06
505.34	92.06
505.557	78.06
505.773	86.06
505.99	87.06
506.207	96.06
506.423	94.06
506.64	76.06
506.856	74.06
507.073	79.06
507.289	81.06
507.506	87.06
507.722	78.06
507.939	86.06
508.155	94.06
508.372	74.06
508.588	96.06
508.805	82.06
509.021	77.06
509.238	73.06
509.454	81.06
509.67	80.06
509.887	77.06
510.103	83.06
510.319	80.06
510.536	87.06
510.752	86.06
510.968	80.06
511.184	74.06
511.401	93.06
511.617	90.06
511.833	94.06
512.049	84.06
512.265	81.06
512.481	93.06
512.698	79.06
512.914	78.06
513.13	85.06
513.346	87.06
513.562	80.06
513.778	89.06
513.994	98.06
514.21	81.06
514.426	91.06
514.642	90.06
514.858	89.06
515.074	74.06
515.29	80.06
515.506	70.06
515.721	73.06
515.937	83.06
516.153	79.06
516.369	85.06
516.585	89.06
516.801	84.06
517.016	91.06
517.232	72.06
517.448	84.06
517.664	76.06
517.879	86.06
518.095	90.06
518.311	89.06
518.527	77.06
518.742	95.06
518.958	84.06
519.173	100.06
519.389	80.06
519.605	94.06
519.82	98.06
