Data from Background_2_HRD10591_00068.txt Node
Date: Wed Nov 05 14:47:30 EST 2025
User: Yrep
Spectrometer: HR+D1059
Trigger mode: 1
Integration Time (sec): 1.000000E-1
Scans to average: 1
Electric dark correction enabled: true
Nonlinearity correction enabled: false
Boxcar width: 0
XAxis mode: Wavelengths
Number of Pixels in Spectrum: 2048
>>>>>Begin Spectral Data<<<<<
223.165	-22.56
223.4	-22.56
223.635	-22.56
223.869	-11.56
224.104	-20.56
224.338	-23.56
224.573	-15.56
224.808	-9.56
225.042	-2.56
225.277	-13.56
225.511	2.44
225.746	-8.56
225.98	4.44
226.215	14.44
226.449	8.44
226.683	33.44
226.918	22.44
227.152	42.44
227.387	43.44
227.621	33.44
227.856	48.44
228.09	52.44
228.324	60.44
228.559	56.44
228.793	61.44
229.027	57.44
229.262	71.44
229.496	62.44
229.73	67.44
229.964	73.44
230.199	85.44
230.433	74.44
230.667	77.44
230.901	81.44
231.136	85.44
231.37	81.44
231.604	91.44
231.838	78.44
232.072	80.44
232.306	91.44
232.541	68.44
232.775	81.44
233.009	87.44
233.243	66.44
233.477	82.44
233.711	80.44
233.945	70.44
234.179	86.44
234.413	77.44
234.647	74.44
234.881	80.44
235.115	89.44
235.349	72.44
235.583	86.44
235.817	77.44
236.051	87.44
236.285	84.44
236.519	77.44
236.753	82.44
236.987	96.44
237.221	70.44
237.455	76.44
237.689	67.44
237.922	83.44
238.156	79.44
238.39	85.44
238.624	84.44
238.858	84.44
239.091	81.44
239.325	82.44
239.559	79.44
239.793	73.44
240.027	82.44
240.26	77.44
240.494	84.44
240.728	78.44
240.961	85.44
241.195	81.44
241.429	85.44
241.662	83.44
241.896	76.44
242.13	75.44
242.363	72.44
242.597	67.44
242.83	83.44
243.064	73.44
243.298	73.44
243.531	81.44
243.765	80.44
243.998	71.44
244.232	71.44
244.465	85.44
244.699	78.44
244.932	90.44
245.166	76.44
245.399	74.44
245.633	84.44
245.866	85.44
246.099	86.44
246.333	79.44
246.566	82.44
246.8	91.44
247.033	76.44
247.266	80.44
247.5	92.44
247.733	92.44
247.966	82.44
248.2	74.44
248.433	72.44
248.666	83.44
248.899	83.44
249.133	85.44
249.366	79.44
249.599	94.44
249.832	77.44
250.066	75.44
250.299	76.44
250.532	78.44
250.765	75.44
250.998	70.44
251.231	85.44
251.465	77.44
251.698	90.44
251.931	82.44
252.164	80.44
252.397	84.44
252.63	65.44
252.863	71.44
253.096	89.44
253.329	82.44
253.562	102.44
253.795	70.44
254.028	78.44
254.261	77.44
254.494	86.44
254.727	73.44
254.96	79.44
255.193	80.44
255.426	94.44
255.659	84.44
255.892	93.44
256.124	90.44
256.357	66.44
256.59	68.44
256.823	83.44
257.056	85.44
257.289	81.44
257.521	88.44
257.754	86.44
257.987	84.44
258.22	77.44
258.452	78.44
258.685	66.44
258.918	79.44
259.151	93.44
259.383	80.44
259.616	84.44
259.849	89.44
260.081	82.44
260.314	87.44
260.547	84.44
260.779	63.44
261.012	64.44
261.244	81.44
261.477	79.44
261.71	84.44
261.942	85.44
262.175	78.44
262.407	73.44
262.64	72.44
262.872	75.44
263.105	86.44
263.337	86.44
263.57	81.44
263.802	91.44
264.035	94.44
264.267	87.44
264.499	97.44
264.732	67.44
264.964	98.44
265.197	75.44
265.429	69.44
265.661	82.44
265.894	84.44
266.126	74.44
266.358	87.44
266.591	83.44
266.823	74.44
267.055	73.44
267.287	86.44
267.52	92.44
267.752	78.44
267.984	80.44
268.216	79.44
268.448	78.44
268.681	86.44
268.913	83.44
269.145	71.44
269.377	82.44
269.609	86.44
269.841	91.44
270.073	95.44
270.306	99.44
270.538	77.44
270.77	90.44
271.002	92.44
271.234	84.44
271.466	73.44
271.698	82.44
271.93	72.44
272.162	90.44
272.394	81.44
272.626	78.44
272.858	84.44
273.09	77.44
273.322	80.44
273.553	79.44
273.785	70.44
274.017	80.44
274.249	84.44
274.481	79.44
274.713	92.44
274.945	91.44
275.176	79.44
275.408	76.44
275.64	88.44
275.872	81.44
276.104	75.44
276.335	89.44
276.567	63.44
276.799	76.44
277.031	91.44
277.262	87.44
277.494	102.44
277.726	96.44
277.957	62.44
278.189	87.44
278.421	81.44
278.652	86.44
278.884	64.44
279.115	82.44
279.347	85.44
279.579	98.44
279.81	68.44
280.042	99.44
280.273	78.44
280.505	78.44
280.736	84.44
280.968	68.44
281.199	91.44
281.431	80.44
281.662	78.44
281.894	71.44
282.125	89.44
282.356	84.44
282.588	83.44
282.819	86.44
283.051	74.44
283.282	82.44
283.513	80.44
283.745	87.44
283.976	84.44
284.207	67.44
284.439	78.44
284.67	84.44
284.901	90.44
285.132	91.44
285.364	87.44
285.595	101.44
285.826	91.44
286.057	84.44
286.288	95.44
286.52	73.44
286.751	79.44
286.982	97.44
287.213	94.44
287.444	92.44
287.675	70.44
287.906	80.44
288.138	92.44
288.369	80.44
288.6	80.44
288.831	82.44
289.062	83.44
289.293	87.44
289.524	94.44
289.755	76.44
289.986	78.44
290.217	81.44
290.448	83.44
290.679	80.44
290.91	86.44
291.141	89.44
291.371	93.44
291.602	88.44
291.833	84.44
292.064	74.44
292.295	68.44
292.526	88.44
292.757	80.44
292.987	86.44
293.218	92.44
293.449	79.44
293.68	85.44
293.91	85.44
294.141	90.44
294.372	83.44
294.603	73.44
294.833	96.44
295.064	92.44
295.295	96.44
295.525	80.44
295.756	98.44
295.987	82.44
296.217	93.44
296.448	95.44
296.679	84.44
296.909	83.44
297.14	92.44
297.37	94.44
297.601	82.44
297.831	80.44
298.062	106.44
298.292	86.44
298.523	100.44
298.753	90.44
298.984	86.44
299.214	94.44
299.445	90.44
299.675	95.44
299.905	80.44
300.136	85.44
300.366	95.44
300.597	93.44
300.827	91.44
301.057	94.44
301.288	86.44
301.518	72.44
301.748	92.44
301.979	90.44
302.209	82.44
302.439	89.44
302.669	79.44
302.9	83.44
303.13	82.44
303.36	85.44
303.59	86.44
303.82	84.44
304.051	91.44
304.281	71.44
304.511	71.44
304.741	88.44
304.971	72.44
305.201	88.44
305.431	101.44
305.661	81.44
305.891	75.44
306.121	89.44
306.352	96.44
306.582	87.44
306.812	94.44
307.042	88.44
307.272	71.44
307.502	93.44
307.731	73.44
307.961	77.44
308.191	72.44
308.421	87.44
308.651	88.44
308.881	93.44
309.111	79.44
309.341	84.44
309.571	83.44
309.8	82.44
310.03	86.44
310.26	101.44
310.49	78.44
310.72	87.44
310.949	72.44
311.179	82.44
311.409	76.44
311.639	89.44
311.868	87.44
312.098	82.44
312.328	91.44
312.557	89.44
312.787	79.44
313.017	88.44
313.246	98.44
313.476	81.44
313.706	87.44
313.935	74.44
314.165	82.44
314.394	88.44
314.624	75.44
314.853	80.44
315.083	92.44
315.312	76.44
315.542	87.44
315.771	92.44
316.001	79.44
316.23	90.44
316.46	89.44
316.689	76.44
316.919	91.44
317.148	76.44
317.377	90.44
317.607	94.44
317.836	94.44
318.065	100.44
318.295	78.44
318.524	78.44
318.753	94.44
318.983	85.44
319.212	89.44
319.441	86.44
319.67	89.44
319.9	102.44
320.129	91.44
320.358	90.44
320.587	85.44
320.816	73.44
321.046	87.44
321.275	85.44
321.504	95.44
321.733	83.44
321.962	85.44
322.191	88.44
322.42	88.44
322.649	85.44
322.878	69.44
323.108	97.44
323.337	94.44
323.566	80.44
323.795	72.44
324.024	85.44
324.253	91.44
324.482	86.44
324.71	85.44
324.939	85.44
325.168	96.44
325.397	83.44
325.626	89.44
325.855	93.44
326.084	103.44
326.313	93.44
326.542	78.44
326.77	87.44
326.999	69.44
327.228	69.44
327.457	87.44
327.686	78.44
327.914	89.44
328.143	99.44
328.372	84.44
328.6	84.44
328.829	81.44
329.058	71.44
329.287	88.44
329.515	84.44
329.744	81.44
329.972	86.44
330.201	72.44
330.43	97.44
330.658	88.44
330.887	84.44
331.115	85.44
331.344	82.44
331.572	82.44
331.801	79.44
332.03	80.44
332.258	86.44
332.486	100.44
332.715	86.44
332.943	89.44
333.172	66.44
333.4	81.44
333.629	93.44
333.857	84.44
334.085	81.44
334.314	93.44
334.542	78.44
334.771	84.44
334.999	76.44
335.227	86.44
335.455	96.44
335.684	90.44
335.912	92.44
336.14	80.44
336.369	84.44
336.597	96.44
336.825	83.44
337.053	86.44
337.281	66.44
337.51	85.44
337.738	82.44
337.966	77.44
338.194	87.44
338.422	72.44
338.65	78.44
338.878	78.44
339.106	95.44
339.334	90.44
339.562	78.44
339.79	96.44
340.018	86.44
340.246	79.44
340.474	82.44
340.702	87.44
340.93	100.44
341.158	87.44
341.386	80.44
341.614	92.44
341.842	86.44
342.07	80.44
342.298	91.44
342.526	91.44
342.754	78.44
342.981	75.44
343.209	86.44
343.437	106.44
343.665	79.44
343.893	78.44
344.12	91.44
344.348	82.44
344.576	93.44
344.804	95.44
345.031	86.44
345.259	88.44
345.487	86.44
345.714	71.44
345.942	80.44
346.17	82.44
346.397	75.44
346.625	98.44
346.853	78.44
347.08	84.44
347.308	82.44
347.535	93.44
347.763	90.44
347.99	90.44
348.218	79.44
348.445	77.44
348.673	90.44
348.9	84.44
349.128	76.44
349.355	68.44
349.583	73.44
349.81	90.44
350.037	87.44
350.265	85.44
350.492	101.44
350.72	82.44
350.947	88.44
351.174	93.44
351.402	82.44
351.629	92.44
351.856	87.44
352.083	85.44
352.311	83.44
352.538	74.44
352.765	90.44
352.992	94.44
353.22	83.44
353.447	72.44
353.674	71.44
353.901	87.44
354.128	83.44
354.355	76.44
354.583	81.44
354.81	98.44
355.037	96.44
355.264	97.44
355.491	87.44
355.718	62.44
355.945	87.44
356.172	83.44
356.399	84.44
356.626	88.44
356.853	96.44
357.08	90.44
357.307	91.44
357.534	83.44
357.761	83.44
357.988	87.44
358.215	93.44
358.441	78.44
358.668	87.44
358.895	86.44
359.122	92.44
359.349	84.44
359.576	98.44
359.802	79.44
360.029	89.44
360.256	86.44
360.483	82.44
360.709	103.44
360.936	88.44
361.163	85.44
361.39	80.44
361.616	87.44
361.843	82.44
362.07	82.44
362.296	87.44
362.523	80.44
362.749	91.44
362.976	96.44
363.203	96.44
363.429	75.44
363.656	88.44
363.882	66.44
364.109	95.44
364.335	92.44
364.562	82.44
364.788	70.44
365.015	80.44
365.241	82.44
365.468	81.44
365.694	89.44
365.92	72.44
366.147	73.44
366.373	81.44
366.599	86.44
366.826	84.44
367.052	93.44
367.278	78.44
367.505	76.44
367.731	88.44
367.957	88.44
368.184	86.44
368.41	86.44
368.636	82.44
368.862	97.44
369.089	80.44
369.315	74.44
369.541	90.44
369.767	75.44
369.993	72.44
370.219	68.44
370.445	73.44
370.672	83.44
370.898	88.44
371.124	70.44
371.35	90.44
371.576	78.44
371.802	82.44
372.028	70.44
372.254	90.44
372.48	79.44
372.706	95.44
372.932	76.44
373.158	74.44
373.384	86.44
373.61	79.44
373.835	93.44
374.061	75.44
374.287	90.44
374.513	77.44
374.739	84.44
374.965	80.44
375.191	86.44
375.416	72.44
375.642	82.44
375.868	78.44
376.094	89.44
376.319	73.44
376.545	86.44
376.771	78.44
376.997	88.44
377.222	81.44
377.448	83.44
377.674	88.44
377.899	76.44
378.125	78.44
378.35	83.44
378.576	90.44
378.802	83.44
379.027	82.44
379.253	79.44
379.478	71.44
379.704	81.44
379.929	92.44
380.155	91.44
380.38	78.44
380.606	86.44
380.831	96.44
381.057	76.44
381.282	88.44
381.507	94.44
381.733	71.44
381.958	100.44
382.184	70.44
382.409	88.44
382.634	79.44
382.86	91.44
383.085	84.44
383.31	100.44
383.535	95.44
383.761	78.44
383.986	84.44
384.211	90.44
384.436	96.44
384.662	84.44
384.887	71.44
385.112	87.44
385.337	84.44
385.562	90.44
385.787	87.44
386.013	76.44
386.238	75.44
386.463	75.44
386.688	107.44
386.913	98.44
387.138	79.44
387.363	83.44
387.588	85.44
387.813	94.44
388.038	95.44
388.263	82.44
388.488	79.44
388.713	84.44
388.938	75.44
389.163	88.44
389.387	82.44
389.612	99.44
389.837	85.44
390.062	77.44
390.287	74.44
390.512	78.44
390.736	70.44
390.961	70.44
391.186	79.44
391.411	75.44
391.636	71.44
391.86	89.44
392.085	100.44
392.31	80.44
392.534	91.44
392.759	96.44
392.984	81.44
393.208	84.44
393.433	77.44
393.658	82.44
393.882	88.44
394.107	93.44
394.331	74.44
394.556	72.44
394.78	84.44
395.005	72.44
395.229	83.44
395.454	81.44
395.678	85.44
395.903	75.44
396.127	85.44
396.352	82.44
396.576	70.44
396.801	85.44
397.025	81.44
397.249	87.44
397.474	75.44
397.698	87.44
397.922	91.44
398.147	84.44
398.371	70.44
398.595	71.44
398.82	78.44
399.044	92.44
399.268	85.44
399.492	80.44
399.717	72.44
399.941	79.44
400.165	90.44
400.389	70.44
400.613	80.44
400.837	81.44
401.062	78.44
401.286	99.44
401.51	92.44
401.734	78.44
401.958	83.44
402.182	72.44
402.406	68.44
402.63	88.44
402.854	79.44
403.078	79.44
403.302	73.44
403.526	82.44
403.75	78.44
403.974	91.44
404.198	69.44
404.422	91.44
404.645	80.44
404.869	94.44
405.093	84.44
405.317	90.44
405.541	76.44
405.765	87.44
405.988	86.44
406.212	59.44
406.436	66.44
406.66	101.44
406.883	69.44
407.107	75.44
407.331	88.44
407.555	96.44
407.778	84.44
408.002	98.44
408.226	89.44
408.449	73.44
408.673	76.44
408.896	84.44
409.12	76.44
409.344	72.44
409.567	85.44
409.791	90.44
410.014	90.44
410.238	81.44
410.461	79.44
410.685	87.44
410.908	80.44
411.132	68.44
411.355	82.44
411.578	87.44
411.802	87.44
412.025	76.44
412.249	76.44
412.472	82.44
412.695	91.44
412.919	89.44
413.142	66.44
413.365	85.44
413.589	83.44
413.812	67.44
414.035	87.44
414.258	75.44
414.482	72.44
414.705	79.44
414.928	86.44
415.151	70.44
415.374	82.44
415.597	89.44
415.821	64.44
416.044	79.44
416.267	81.44
416.49	79.44
416.713	86.44
416.936	79.44
417.159	82.44
417.382	86.44
417.605	84.44
417.828	82.44
418.051	81.44
418.274	76.44
418.497	65.44
418.72	88.44
418.943	79.44
419.166	77.44
419.389	86.44
419.611	70.44
419.834	77.44
420.057	85.44
420.28	80.44
420.503	78.44
420.726	88.44
420.948	79.44
421.171	84.44
421.394	91.44
421.617	93.44
421.839	86.44
422.062	84.44
422.285	87.44
422.507	66.44
422.73	98.44
422.953	86.44
423.175	95.44
423.398	88.44
423.621	79.44
423.843	74.44
424.066	77.44
424.288	76.44
424.511	101.44
424.733	84.44
424.956	82.44
425.178	79.44
425.401	104.44
425.623	85.44
425.846	88.44
426.068	92.44
426.291	90.44
426.513	91.44
426.735	81.44
426.958	81.44
427.18	77.44
427.402	86.44
427.625	86.44
427.847	71.44
428.069	84.44
428.292	75.44
428.514	84.44
428.736	92.44
428.958	86.44
429.181	92.44
429.403	71.44
429.625	78.44
429.847	85.44
430.069	97.44
430.292	86.44
430.514	66.44
430.736	75.44
430.958	80.44
431.18	78.44
431.402	91.44
431.624	71.44
431.846	89.44
432.068	80.44
432.29	82.44
432.512	83.44
432.734	79.44
432.956	96.44
433.178	83.44
433.4	91.44
433.622	86.44
433.844	78.44
434.066	89.44
434.287	70.44
434.509	74.44
434.731	79.44
434.953	77.44
435.175	88.44
435.397	80.44
435.618	93.44
435.84	85.44
436.062	84.44
436.284	89.44
436.505	102.44
436.727	79.44
436.949	81.44
437.17	69.44
437.392	98.44
437.614	90.44
437.835	77.44
438.057	83.44
438.278	90.44
438.5	77.44
438.721	91.44
438.943	74.44
439.165	72.44
439.386	92.44
439.608	82.44
439.829	79.44
440.05	80.44
440.272	75.44
440.493	81.44
440.715	87.44
440.936	80.44
441.158	80.44
441.379	101.44
441.6	84.44
441.822	81.44
442.043	91.44
442.264	95.44
442.486	68.44
442.707	77.44
442.928	84.44
443.149	80.44
443.371	95.44
443.592	77.44
443.813	88.44
444.034	89.44
444.255	87.44
444.476	78.44
444.698	65.44
444.919	75.44
445.14	172.44
445.361	119.44
445.582	82.44
445.803	72.44
446.024	87.44
446.245	84.44
446.466	82.44
446.687	76.44
446.908	78.44
447.129	84.44
447.35	70.44
447.571	80.44
447.792	82.44
448.013	85.44
448.234	93.44
448.455	85.44
448.675	77.44
448.896	92.44
449.117	71.44
449.338	83.44
449.559	80.44
449.779	90.44
450	90.44
450.221	92.44
450.442	72.44
450.662	79.44
450.883	80.44
451.104	77.44
451.324	80.44
451.545	75.44
451.766	65.44
451.986	82.44
452.207	82.44
452.428	75.44
452.648	92.44
452.869	83.44
453.089	82.44
453.31	86.44
453.53	82.44
453.751	87.44
453.971	73.44
454.192	70.44
454.412	66.44
454.633	72.44
454.853	85.44
455.073	68.44
455.294	78.44
455.514	87.44
455.734	72.44
455.955	81.44
456.175	79.44
456.395	86.44
456.616	88.44
456.836	87.44
457.056	82.44
457.276	84.44
457.497	77.44
457.717	87.44
457.937	77.44
458.157	78.44
458.377	80.44
458.598	82.44
458.818	81.44
459.038	79.44
459.258	87.44
459.478	99.44
459.698	74.44
459.918	100.44
460.138	78.44
460.358	79.44
460.578	80.44
460.798	87.44
461.018	78.44
461.238	86.44
461.458	82.44
461.678	91.44
461.898	89.44
462.118	84.44
462.338	92.44
462.558	81.44
462.777	93.44
462.997	81.44
463.217	91.44
463.437	82.44
463.657	82.44
463.876	73.44
464.096	81.44
464.316	88.44
464.536	88.44
464.755	80.44
464.975	72.44
465.195	78.44
465.414	92.44
465.634	80.44
465.854	77.44
466.073	83.44
466.293	83.44
466.512	64.44
466.732	78.44
466.951	85.44
467.171	74.44
467.391	77.44
467.61	70.44
467.829	71.44
468.049	73.44
468.268	83.44
468.488	81.44
468.707	102.44
468.927	85.44
469.146	90.44
469.365	72.44
469.585	77.44
469.804	95.44
470.023	76.44
470.243	86.44
470.462	93.44
470.681	92.44
470.901	82.44
471.12	81.44
471.339	91.44
471.558	80.44
471.777	89.44
471.997	91.44
472.216	86.44
472.435	81.44
472.654	78.44
472.873	84.44
473.092	89.44
473.311	86.44
473.53	83.44
473.749	86.44
473.968	71.44
474.187	82.44
474.406	91.44
474.625	94.44
474.844	94.44
475.063	95.44
475.282	82.44
475.501	76.44
475.72	83.44
475.939	81.44
476.158	88.44
476.377	103.44
476.596	96.44
476.814	97.44
477.033	98.44
477.252	82.44
477.471	99.44
477.69	99.44
477.908	102.44
478.127	84.44
478.346	87.44
478.564	85.44
478.783	84.44
479.002	84.44
479.22	70.44
479.439	91.44
479.658	98.44
479.876	71.44
480.095	83.44
480.313	71.44
480.532	76.44
480.751	74.44
480.969	81.44
481.188	82.44
481.406	83.44
481.624	88.44
481.843	77.44
482.061	77.44
482.28	71.44
482.498	86.44
482.717	85.44
482.935	80.44
483.153	99.44
483.372	84.44
483.59	79.44
483.808	85.44
484.027	92.44
484.245	86.44
484.463	92.44
484.681	78.44
484.9	95.44
485.118	77.44
485.336	76.44
485.554	78.44
485.772	87.44
485.99	75.44
486.209	82.44
486.427	81.44
486.645	88.44
486.863	80.44
487.081	87.44
487.299	80.44
487.517	75.44
487.735	89.44
487.953	91.44
488.171	86.44
488.389	82.44
488.607	84.44
488.825	86.44
489.043	86.44
489.261	95.44
489.479	68.44
489.696	74.44
489.914	90.44
490.132	82.44
490.35	77.44
490.568	97.44
490.786	106.44
491.003	95.44
491.221	81.44
491.439	83.44
491.657	76.44
491.874	87.44
492.092	90.44
492.31	90.44
492.527	77.44
492.745	90.44
492.963	89.44
493.18	79.44
493.398	78.44
493.615	83.44
493.833	72.44
494.05	98.44
494.268	94.44
494.485	80.44
494.703	86.44
494.92	97.44
495.138	84.44
495.355	70.44
495.573	101.44
495.79	77.44
496.008	72.44
496.225	88.44
496.442	73.44
496.66	84.44
496.877	92.44
497.094	87.44
497.312	87.44
497.529	64.44
497.746	85.44
497.963	93.44
498.181	84.44
498.398	84.44
498.615	78.44
498.832	87.44
499.049	80.44
499.267	86.44
499.484	73.44
499.701	78.44
499.918	83.44
500.135	93.44
500.352	90.44
500.569	90.44
500.786	99.44
501.003	80.44
501.22	82.44
501.437	78.44
501.654	70.44
501.871	79.44
502.088	83.44
502.305	82.44
502.522	85.44
502.739	89.44
502.956	93.44
503.172	92.44
503.389	91.44
503.606	87.44
503.823	72.44
504.04	92.44
504.256	82.44
504.473	96.44
504.69	70.44
504.907	91.44
505.123	84.44
505.34	80.44
505.557	98.44
505.773	84.44
505.99	77.44
506.207	88.44
506.423	87.44
506.64	81.44
506.856	68.44
507.073	73.44
507.289	94.44
507.506	63.44
507.722	80.44
507.939	86.44
508.155	80.44
508.372	102.44
508.588	80.44
508.805	84.44
509.021	77.44
509.238	86.44
509.454	75.44
509.67	83.44
509.887	63.44
510.103	84.44
510.319	87.44
510.536	93.44
510.752	80.44
510.968	82.44
511.184	85.44
511.401	80.44
511.617	86.44
511.833	82.44
512.049	66.44
512.265	87.44
512.481	76.44
512.698	83.44
512.914	87.44
513.13	94.44
513.346	83.44
513.562	76.44
513.778	72.44
513.994	89.44
514.21	74.44
514.426	91.44
514.642	76.44
514.858	64.44
515.074	76.44
515.29	93.44
515.506	85.44
515.721	69.44
515.937	83.44
516.153	94.44
516.369	82.44
516.585	97.44
516.801	84.44
517.016	86.44
517.232	79.44
517.448	83.44
517.664	86.44
517.879	85.44
518.095	89.44
518.311	92.44
518.527	80.44
518.742	73.44
518.958	75.44
519.173	89.44
519.389	88.44
519.605	94.44
519.82	67.44
