Data from Background_2_HRD10591_00045.txt Node
Date: Wed Nov 05 14:47:19 EST 2025
User: Yrep
Spectrometer: HR+D1059
Trigger mode: 1
Integration Time (sec): 1.000000E-1
Scans to average: 1
Electric dark correction enabled: true
Nonlinearity correction enabled: false
Boxcar width: 0
XAxis mode: Wavelengths
Number of Pixels in Spectrum: 2048
>>>>>Begin Spectral Data<<<<<
223.165	-13.56
223.4	-13.56
223.635	-13.56
223.869	-10.56
224.104	-28.56
224.338	-9.56
224.573	-17.56
224.808	-12.56
225.042	-9.56
225.277	-9.56
225.511	-2.56
225.746	6.44
225.98	10.44
226.215	12.44
226.449	6.44
226.683	30.44
226.918	21.44
227.152	26.44
227.387	47.44
227.621	42.44
227.856	36.44
228.09	51.44
228.324	50.44
228.559	56.44
228.793	53.44
229.027	66.44
229.262	63.44
229.496	65.44
229.73	61.44
229.964	74.44
230.199	76.44
230.433	72.44
230.667	72.44
230.901	82.44
231.136	74.44
231.37	62.44
231.604	80.44
231.838	95.44
232.072	77.44
232.306	88.44
232.541	81.44
232.775	86.44
233.009	81.44
233.243	84.44
233.477	88.44
233.711	86.44
233.945	83.44
234.179	83.44
234.413	88.44
234.647	76.44
234.881	76.44
235.115	80.44
235.349	77.44
235.583	82.44
235.817	97.44
236.051	86.44
236.285	75.44
236.519	74.44
236.753	73.44
236.987	76.44
237.221	76.44
237.455	77.44
237.689	60.44
237.922	87.44
238.156	72.44
238.39	72.44
238.624	69.44
238.858	79.44
239.091	86.44
239.325	80.44
239.559	63.44
239.793	81.44
240.027	83.44
240.26	79.44
240.494	92.44
240.728	72.44
240.961	66.44
241.195	79.44
241.429	90.44
241.662	78.44
241.896	74.44
242.13	74.44
242.363	84.44
242.597	80.44
242.83	68.44
243.064	72.44
243.298	63.44
243.531	69.44
243.765	78.44
243.998	73.44
244.232	78.44
244.465	75.44
244.699	82.44
244.932	78.44
245.166	84.44
245.399	94.44
245.633	86.44
245.866	83.44
246.099	73.44
246.333	77.44
246.566	88.44
246.8	72.44
247.033	77.44
247.266	76.44
247.5	67.44
247.733	75.44
247.966	85.44
248.2	78.44
248.433	75.44
248.666	78.44
248.899	84.44
249.133	92.44
249.366	78.44
249.599	75.44
249.832	94.44
250.066	77.44
250.299	72.44
250.532	89.44
250.765	68.44
250.998	82.44
251.231	83.44
251.465	81.44
251.698	85.44
251.931	82.44
252.164	79.44
252.397	76.44
252.63	83.44
252.863	82.44
253.096	93.44
253.329	93.44
253.562	88.44
253.795	88.44
254.028	85.44
254.261	82.44
254.494	80.44
254.727	85.44
254.96	79.44
255.193	85.44
255.426	69.44
255.659	78.44
255.892	90.44
256.124	96.44
256.357	71.44
256.59	83.44
256.823	88.44
257.056	82.44
257.289	72.44
257.521	96.44
257.754	84.44
257.987	87.44
258.22	88.44
258.452	82.44
258.685	79.44
258.918	81.44
259.151	76.44
259.383	74.44
259.616	92.44
259.849	76.44
260.081	83.44
260.314	82.44
260.547	82.44
260.779	82.44
261.012	83.44
261.244	83.44
261.477	86.44
261.71	86.44
261.942	83.44
262.175	94.44
262.407	78.44
262.64	85.44
262.872	98.44
263.105	82.44
263.337	90.44
263.57	64.44
263.802	75.44
264.035	68.44
264.267	82.44
264.499	88.44
264.732	89.44
264.964	84.44
265.197	94.44
265.429	83.44
265.661	99.44
265.894	88.44
266.126	98.44
266.358	78.44
266.591	78.44
266.823	87.44
267.055	85.44
267.287	76.44
267.52	66.44
267.752	75.44
267.984	92.44
268.216	88.44
268.448	78.44
268.681	89.44
268.913	85.44
269.145	86.44
269.377	82.44
269.609	88.44
269.841	89.44
270.073	77.44
270.306	80.44
270.538	87.44
270.77	79.44
271.002	94.44
271.234	90.44
271.466	76.44
271.698	84.44
271.93	87.44
272.162	109.44
272.394	90.44
272.626	79.44
272.858	88.44
273.09	92.44
273.322	80.44
273.553	68.44
273.785	94.44
274.017	81.44
274.249	80.44
274.481	79.44
274.713	88.44
274.945	98.44
275.176	90.44
275.408	87.44
275.64	94.44
275.872	80.44
276.104	85.44
276.335	76.44
276.567	84.44
276.799	83.44
277.031	90.44
277.262	86.44
277.494	88.44
277.726	88.44
277.957	84.44
278.189	88.44
278.421	74.44
278.652	77.44
278.884	80.44
279.115	87.44
279.347	84.44
279.579	80.44
279.81	90.44
280.042	94.44
280.273	68.44
280.505	80.44
280.736	88.44
280.968	74.44
281.199	81.44
281.431	82.44
281.662	93.44
281.894	76.44
282.125	85.44
282.356	84.44
282.588	84.44
282.819	85.44
283.051	87.44
283.282	84.44
283.513	103.44
283.745	90.44
283.976	86.44
284.207	85.44
284.439	91.44
284.67	85.44
284.901	79.44
285.132	84.44
285.364	95.44
285.595	79.44
285.826	71.44
286.057	90.44
286.288	80.44
286.52	84.44
286.751	87.44
286.982	68.44
287.213	89.44
287.444	87.44
287.675	96.44
287.906	80.44
288.138	87.44
288.369	94.44
288.6	83.44
288.831	83.44
289.062	83.44
289.293	82.44
289.524	71.44
289.755	71.44
289.986	88.44
290.217	96.44
290.448	81.44
290.679	86.44
290.91	85.44
291.141	80.44
291.371	84.44
291.602	82.44
291.833	88.44
292.064	87.44
292.295	81.44
292.526	87.44
292.757	90.44
292.987	83.44
293.218	75.44
293.449	82.44
293.68	78.44
293.91	86.44
294.141	96.44
294.372	87.44
294.603	92.44
294.833	76.44
295.064	78.44
295.295	85.44
295.525	82.44
295.756	85.44
295.987	69.44
296.217	92.44
296.448	66.44
296.679	85.44
296.909	98.44
297.14	87.44
297.37	70.44
297.601	83.44
297.831	89.44
298.062	94.44
298.292	91.44
298.523	80.44
298.753	86.44
298.984	93.44
299.214	83.44
299.445	94.44
299.675	83.44
299.905	94.44
300.136	80.44
300.366	93.44
300.597	84.44
300.827	78.44
301.057	79.44
301.288	90.44
301.518	77.44
301.748	75.44
301.979	94.44
302.209	93.44
302.439	78.44
302.669	78.44
302.9	81.44
303.13	80.44
303.36	86.44
303.59	90.44
303.82	92.44
304.051	94.44
304.281	80.44
304.511	94.44
304.741	88.44
304.971	83.44
305.201	92.44
305.431	76.44
305.661	81.44
305.891	80.44
306.121	82.44
306.352	78.44
306.582	82.44
306.812	85.44
307.042	85.44
307.272	78.44
307.502	92.44
307.731	75.44
307.961	98.44
308.191	84.44
308.421	80.44
308.651	92.44
308.881	86.44
309.111	83.44
309.341	74.44
309.571	84.44
309.8	84.44
310.03	85.44
310.26	92.44
310.49	83.44
310.72	84.44
310.949	84.44
311.179	91.44
311.409	80.44
311.639	85.44
311.868	95.44
312.098	91.44
312.328	91.44
312.557	87.44
312.787	98.44
313.017	78.44
313.246	82.44
313.476	80.44
313.706	89.44
313.935	91.44
314.165	85.44
314.394	85.44
314.624	82.44
314.853	78.44
315.083	75.44
315.312	79.44
315.542	85.44
315.771	91.44
316.001	78.44
316.23	93.44
316.46	87.44
316.689	78.44
316.919	94.44
317.148	88.44
317.377	81.44
317.607	84.44
317.836	76.44
318.065	71.44
318.295	80.44
318.524	92.44
318.753	108.44
318.983	109.44
319.212	80.44
319.441	80.44
319.67	91.44
319.9	73.44
320.129	86.44
320.358	99.44
320.587	99.44
320.816	95.44
321.046	80.44
321.275	71.44
321.504	82.44
321.733	76.44
321.962	98.44
322.191	82.44
322.42	97.44
322.649	88.44
322.878	93.44
323.108	81.44
323.337	92.44
323.566	86.44
323.795	99.44
324.024	91.44
324.253	77.44
324.482	86.44
324.71	90.44
324.939	86.44
325.168	83.44
325.397	79.44
325.626	83.44
325.855	88.44
326.084	81.44
326.313	84.44
326.542	87.44
326.77	87.44
326.999	82.44
327.228	86.44
327.457	100.44
327.686	103.44
327.914	92.44
328.143	93.44
328.372	79.44
328.6	92.44
328.829	88.44
329.058	83.44
329.287	87.44
329.515	87.44
329.744	73.44
329.972	94.44
330.201	100.44
330.43	76.44
330.658	91.44
330.887	83.44
331.115	74.44
331.344	74.44
331.572	91.44
331.801	80.44
332.03	90.44
332.258	93.44
332.486	78.44
332.715	90.44
332.943	100.44
333.172	88.44
333.4	94.44
333.629	96.44
333.857	73.44
334.085	90.44
334.314	76.44
334.542	83.44
334.771	93.44
334.999	82.44
335.227	77.44
335.455	82.44
335.684	80.44
335.912	88.44
336.14	82.44
336.369	88.44
336.597	86.44
336.825	89.44
337.053	88.44
337.281	83.44
337.51	79.44
337.738	96.44
337.966	77.44
338.194	98.44
338.422	71.44
338.65	83.44
338.878	97.44
339.106	79.44
339.334	84.44
339.562	78.44
339.79	72.44
340.018	84.44
340.246	86.44
340.474	103.44
340.702	86.44
340.93	96.44
341.158	74.44
341.386	97.44
341.614	84.44
341.842	74.44
342.07	64.44
342.298	88.44
342.526	82.44
342.754	79.44
342.981	86.44
343.209	80.44
343.437	82.44
343.665	78.44
343.893	83.44
344.12	78.44
344.348	87.44
344.576	90.44
344.804	82.44
345.031	80.44
345.259	94.44
345.487	96.44
345.714	86.44
345.942	78.44
346.17	91.44
346.397	79.44
346.625	78.44
346.853	87.44
347.08	93.44
347.308	78.44
347.535	78.44
347.763	73.44
347.99	90.44
348.218	80.44
348.445	87.44
348.673	82.44
348.9	92.44
349.128	90.44
349.355	90.44
349.583	85.44
349.81	93.44
350.037	87.44
350.265	95.44
350.492	75.44
350.72	76.44
350.947	80.44
351.174	77.44
351.402	79.44
351.629	74.44
351.856	86.44
352.083	83.44
352.311	81.44
352.538	85.44
352.765	87.44
352.992	104.44
353.22	88.44
353.447	92.44
353.674	89.44
353.901	84.44
354.128	82.44
354.355	79.44
354.583	82.44
354.81	75.44
355.037	95.44
355.264	96.44
355.491	84.44
355.718	86.44
355.945	99.44
356.172	92.44
356.399	75.44
356.626	75.44
356.853	72.44
357.08	85.44
357.307	101.44
357.534	78.44
357.761	86.44
357.988	97.44
358.215	72.44
358.441	77.44
358.668	66.44
358.895	78.44
359.122	80.44
359.349	99.44
359.576	85.44
359.802	72.44
360.029	78.44
360.256	78.44
360.483	66.44
360.709	92.44
360.936	92.44
361.163	94.44
361.39	102.44
361.616	101.44
361.843	70.44
362.07	80.44
362.296	92.44
362.523	101.44
362.749	86.44
362.976	78.44
363.203	83.44
363.429	94.44
363.656	92.44
363.882	88.44
364.109	87.44
364.335	85.44
364.562	95.44
364.788	80.44
365.015	85.44
365.241	94.44
365.468	92.44
365.694	77.44
365.92	82.44
366.147	89.44
366.373	81.44
366.599	81.44
366.826	87.44
367.052	79.44
367.278	85.44
367.505	83.44
367.731	96.44
367.957	80.44
368.184	72.44
368.41	76.44
368.636	84.44
368.862	83.44
369.089	86.44
369.315	82.44
369.541	87.44
369.767	99.44
369.993	80.44
370.219	76.44
370.445	82.44
370.672	83.44
370.898	101.44
371.124	84.44
371.35	89.44
371.576	93.44
371.802	90.44
372.028	86.44
372.254	73.44
372.48	85.44
372.706	66.44
372.932	94.44
373.158	88.44
373.384	77.44
373.61	95.44
373.835	82.44
374.061	78.44
374.287	87.44
374.513	81.44
374.739	80.44
374.965	78.44
375.191	85.44
375.416	78.44
375.642	84.44
375.868	82.44
376.094	84.44
376.319	78.44
376.545	84.44
376.771	85.44
376.997	99.44
377.222	79.44
377.448	91.44
377.674	93.44
377.899	96.44
378.125	78.44
378.35	74.44
378.576	75.44
378.802	84.44
379.027	89.44
379.253	80.44
379.478	87.44
379.704	92.44
379.929	77.44
380.155	86.44
380.38	92.44
380.606	93.44
380.831	79.44
381.057	79.44
381.282	89.44
381.507	82.44
381.733	87.44
381.958	77.44
382.184	71.44
382.409	88.44
382.634	80.44
382.86	76.44
383.085	78.44
383.31	92.44
383.535	88.44
383.761	78.44
383.986	81.44
384.211	76.44
384.436	92.44
384.662	94.44
384.887	86.44
385.112	85.44
385.337	72.44
385.562	69.44
385.787	86.44
386.013	92.44
386.238	81.44
386.463	77.44
386.688	93.44
386.913	76.44
387.138	91.44
387.363	79.44
387.588	79.44
387.813	75.44
388.038	93.44
388.263	78.44
388.488	88.44
388.713	82.44
388.938	72.44
389.163	84.44
389.387	92.44
389.612	82.44
389.837	87.44
390.062	88.44
390.287	86.44
390.512	81.44
390.736	86.44
390.961	82.44
391.186	86.44
391.411	83.44
391.636	80.44
391.86	87.44
392.085	91.44
392.31	91.44
392.534	88.44
392.759	83.44
392.984	86.44
393.208	88.44
393.433	73.44
393.658	72.44
393.882	88.44
394.107	88.44
394.331	92.44
394.556	86.44
394.78	91.44
395.005	77.44
395.229	80.44
395.454	92.44
395.678	86.44
395.903	89.44
396.127	70.44
396.352	80.44
396.576	82.44
396.801	94.44
397.025	74.44
397.249	87.44
397.474	84.44
397.698	87.44
397.922	72.44
398.147	76.44
398.371	80.44
398.595	97.44
398.82	82.44
399.044	60.44
399.268	77.44
399.492	76.44
399.717	80.44
399.941	85.44
400.165	89.44
400.389	82.44
400.613	95.44
400.837	76.44
401.062	87.44
401.286	90.44
401.51	84.44
401.734	90.44
401.958	84.44
402.182	86.44
402.406	78.44
402.63	85.44
402.854	71.44
403.078	81.44
403.302	89.44
403.526	75.44
403.75	89.44
403.974	79.44
404.198	79.44
404.422	91.44
404.645	84.44
404.869	83.44
405.093	81.44
405.317	88.44
405.541	87.44
405.765	96.44
405.988	88.44
406.212	85.44
406.436	93.44
406.66	90.44
406.883	79.44
407.107	80.44
407.331	72.44
407.555	88.44
407.778	83.44
408.002	73.44
408.226	76.44
408.449	83.44
408.673	81.44
408.896	83.44
409.12	64.44
409.344	87.44
409.567	83.44
409.791	91.44
410.014	79.44
410.238	76.44
410.461	77.44
410.685	80.44
410.908	87.44
411.132	87.44
411.355	88.44
411.578	81.44
411.802	77.44
412.025	78.44
412.249	109.44
412.472	82.44
412.695	81.44
412.919	78.44
413.142	88.44
413.365	76.44
413.589	68.44
413.812	98.44
414.035	93.44
414.258	86.44
414.482	78.44
414.705	91.44
414.928	82.44
415.151	74.44
415.374	90.44
415.597	80.44
415.821	84.44
416.044	99.44
416.267	82.44
416.49	67.44
416.713	91.44
416.936	79.44
417.159	71.44
417.382	79.44
417.605	92.44
417.828	78.44
418.051	96.44
418.274	83.44
418.497	76.44
418.72	102.44
418.943	92.44
419.166	96.44
419.389	99.44
419.611	83.44
419.834	78.44
420.057	94.44
420.28	78.44
420.503	70.44
420.726	73.44
420.948	83.44
421.171	76.44
421.394	86.44
421.617	92.44
421.839	80.44
422.062	71.44
422.285	93.44
422.507	88.44
422.73	88.44
422.953	91.44
423.175	70.44
423.398	84.44
423.621	84.44
423.843	86.44
424.066	94.44
424.288	68.44
424.511	80.44
424.733	85.44
424.956	87.44
425.178	77.44
425.401	66.44
425.623	83.44
425.846	74.44
426.068	74.44
426.291	84.44
426.513	89.44
426.735	86.44
426.958	87.44
427.18	86.44
427.402	96.44
427.625	76.44
427.847	81.44
428.069	77.44
428.292	90.44
428.514	77.44
428.736	78.44
428.958	71.44
429.181	98.44
429.403	80.44
429.625	90.44
429.847	89.44
430.069	88.44
430.292	88.44
430.514	86.44
430.736	89.44
430.958	82.44
431.18	81.44
431.402	76.44
431.624	82.44
431.846	84.44
432.068	88.44
432.29	93.44
432.512	78.44
432.734	88.44
432.956	100.44
433.178	91.44
433.4	83.44
433.622	78.44
433.844	78.44
434.066	86.44
434.287	79.44
434.509	82.44
434.731	93.44
434.953	87.44
435.175	74.44
435.397	79.44
435.618	76.44
435.84	86.44
436.062	78.44
436.284	72.44
436.505	76.44
436.727	88.44
436.949	86.44
437.17	80.44
437.392	83.44
437.614	82.44
437.835	88.44
438.057	96.44
438.278	90.44
438.5	91.44
438.721	86.44
438.943	82.44
439.165	80.44
439.386	91.44
439.608	83.44
439.829	75.44
440.05	83.44
440.272	86.44
440.493	84.44
440.715	70.44
440.936	81.44
441.158	83.44
441.379	81.44
441.6	79.44
441.822	78.44
442.043	90.44
442.264	85.44
442.486	83.44
442.707	97.44
442.928	74.44
443.149	88.44
443.371	91.44
443.592	67.44
443.813	85.44
444.034	77.44
444.255	79.44
444.476	85.44
444.698	83.44
444.919	68.44
445.14	156.44
445.361	115.44
445.582	96.44
445.803	81.44
446.024	88.44
446.245	78.44
446.466	85.44
446.687	73.44
446.908	81.44
447.129	85.44
447.35	82.44
447.571	78.44
447.792	79.44
448.013	83.44
448.234	78.44
448.455	71.44
448.675	70.44
448.896	73.44
449.117	91.44
449.338	79.44
449.559	93.44
449.779	74.44
450	85.44
450.221	86.44
450.442	81.44
450.662	87.44
450.883	83.44
451.104	85.44
451.324	84.44
451.545	83.44
451.766	85.44
451.986	75.44
452.207	68.44
452.428	76.44
452.648	90.44
452.869	78.44
453.089	75.44
453.31	87.44
453.53	77.44
453.751	78.44
453.971	76.44
454.192	80.44
454.412	79.44
454.633	89.44
454.853	84.44
455.073	76.44
455.294	70.44
455.514	73.44
455.734	88.44
455.955	68.44
456.175	82.44
456.395	80.44
456.616	90.44
456.836	86.44
457.056	79.44
457.276	85.44
457.497	74.44
457.717	65.44
457.937	68.44
458.157	87.44
458.377	83.44
458.598	88.44
458.818	88.44
459.038	73.44
459.258	87.44
459.478	72.44
459.698	85.44
459.918	78.44
460.138	76.44
460.358	73.44
460.578	87.44
460.798	77.44
461.018	99.44
461.238	83.44
461.458	75.44
461.678	83.44
461.898	90.44
462.118	75.44
462.338	77.44
462.558	85.44
462.777	77.44
462.997	81.44
463.217	84.44
463.437	77.44
463.657	80.44
463.876	90.44
464.096	84.44
464.316	78.44
464.536	79.44
464.755	83.44
464.975	75.44
465.195	85.44
465.414	89.44
465.634	83.44
465.854	90.44
466.073	86.44
466.293	75.44
466.512	97.44
466.732	88.44
466.951	84.44
467.171	75.44
467.391	80.44
467.61	85.44
467.829	84.44
468.049	83.44
468.268	82.44
468.488	77.44
468.707	79.44
468.927	69.44
469.146	83.44
469.365	78.44
469.585	78.44
469.804	70.44
470.023	68.44
470.243	92.44
470.462	93.44
470.681	87.44
470.901	78.44
471.12	62.44
471.339	82.44
471.558	90.44
471.777	91.44
471.997	82.44
472.216	87.44
472.435	90.44
472.654	82.44
472.873	80.44
473.092	87.44
473.311	83.44
473.53	87.44
473.749	91.44
473.968	87.44
474.187	97.44
474.406	78.44
474.625	76.44
474.844	74.44
475.063	82.44
475.282	89.44
475.501	91.44
475.72	88.44
475.939	88.44
476.158	67.44
476.377	88.44
476.596	84.44
476.814	73.44
477.033	76.44
477.252	79.44
477.471	71.44
477.69	74.44
477.908	62.44
478.127	78.44
478.346	76.44
478.564	73.44
478.783	72.44
479.002	74.44
479.22	88.44
479.439	91.44
479.658	79.44
479.876	91.44
480.095	66.44
480.313	90.44
480.532	80.44
480.751	74.44
480.969	98.44
481.188	69.44
481.406	70.44
481.624	75.44
481.843	95.44
482.061	95.44
482.28	78.44
482.498	90.44
482.717	64.44
482.935	86.44
483.153	82.44
483.372	83.44
483.59	75.44
483.808	85.44
484.027	88.44
484.245	78.44
484.463	83.44
484.681	91.44
484.9	78.44
485.118	88.44
485.336	88.44
485.554	91.44
485.772	90.44
485.99	88.44
486.209	82.44
486.427	76.44
486.645	69.44
486.863	80.44
487.081	80.44
487.299	86.44
487.517	87.44
487.735	86.44
487.953	91.44
488.171	91.44
488.389	103.44
488.607	82.44
488.825	87.44
489.043	76.44
489.261	98.44
489.479	82.44
489.696	94.44
489.914	91.44
490.132	70.44
490.35	84.44
490.568	72.44
490.786	85.44
491.003	88.44
491.221	76.44
491.439	86.44
491.657	70.44
491.874	83.44
492.092	95.44
492.31	75.44
492.527	80.44
492.745	88.44
492.963	93.44
493.18	81.44
493.398	95.44
493.615	87.44
493.833	86.44
494.05	87.44
494.268	84.44
494.485	74.44
494.703	85.44
494.92	83.44
495.138	86.44
495.355	93.44
495.573	88.44
495.79	88.44
496.008	71.44
496.225	78.44
496.442	90.44
496.66	88.44
496.877	94.44
497.094	86.44
497.312	85.44
497.529	85.44
497.746	83.44
497.963	86.44
498.181	80.44
498.398	83.44
498.615	80.44
498.832	84.44
499.049	83.44
499.267	95.44
499.484	96.44
499.701	82.44
499.918	86.44
500.135	83.44
500.352	72.44
500.569	91.44
500.786	75.44
501.003	84.44
501.22	79.44
501.437	82.44
501.654	89.44
501.871	99.44
502.088	82.44
502.305	92.44
502.522	85.44
502.739	84.44
502.956	82.44
503.172	79.44
503.389	94.44
503.606	99.44
503.823	79.44
504.04	71.44
504.256	66.44
504.473	67.44
504.69	88.44
504.907	88.44
505.123	77.44
505.34	86.44
505.557	88.44
505.773	95.44
505.99	85.44
506.207	76.44
506.423	91.44
506.64	85.44
506.856	84.44
507.073	93.44
507.289	80.44
507.506	83.44
507.722	80.44
507.939	84.44
508.155	75.44
508.372	86.44
508.588	90.44
508.805	95.44
509.021	79.44
509.238	90.44
509.454	84.44
509.67	68.44
509.887	96.44
510.103	76.44
510.319	93.44
510.536	88.44
510.752	84.44
510.968	74.44
511.184	84.44
511.401	92.44
511.617	78.44
511.833	80.44
512.049	86.44
512.265	75.44
512.481	86.44
512.698	90.44
512.914	86.44
513.13	87.44
513.346	92.44
513.562	95.44
513.778	82.44
513.994	88.44
514.21	94.44
514.426	78.44
514.642	80.44
514.858	86.44
515.074	87.44
515.29	86.44
515.506	78.44
515.721	79.44
515.937	84.44
516.153	93.44
516.369	84.44
516.585	87.44
516.801	73.44
517.016	87.44
517.232	101.44
517.448	95.44
517.664	80.44
517.879	77.44
518.095	100.44
518.311	85.44
518.527	83.44
518.742	87.44
518.958	83.44
519.173	85.44
519.389	73.44
519.605	86.44
519.82	79.44
