Data from Background_2_HRD10591_00055.txt Node
Date: Wed Nov 05 14:47:24 EST 2025
User: Yrep
Spectrometer: HR+D1059
Trigger mode: 1
Integration Time (sec): 1.000000E-1
Scans to average: 1
Electric dark correction enabled: true
Nonlinearity correction enabled: false
Boxcar width: 0
XAxis mode: Wavelengths
Number of Pixels in Spectrum: 2048
>>>>>Begin Spectral Data<<<<<
223.165	-15.19
223.4	-15.19
223.635	-15.19
223.869	-29.19
224.104	-20.19
224.338	-9.19
224.573	-17.19
224.808	-10.19
225.042	-8.19
225.277	-6.19
225.511	21.81
225.746	7.81
225.98	-3.19
226.215	12.81
226.449	14.81
226.683	12.81
226.918	14.81
227.152	33.81
227.387	30.81
227.621	21.81
227.856	45.81
228.09	53.81
228.324	48.81
228.559	71.81
228.793	64.81
229.027	44.81
229.262	65.81
229.496	67.81
229.73	80.81
229.964	67.81
230.199	69.81
230.433	71.81
230.667	80.81
230.901	69.81
231.136	76.81
231.37	71.81
231.604	80.81
231.838	98.81
232.072	76.81
232.306	62.81
232.541	77.81
232.775	80.81
233.009	81.81
233.243	85.81
233.477	84.81
233.711	85.81
233.945	79.81
234.179	83.81
234.413	78.81
234.647	76.81
234.881	82.81
235.115	68.81
235.349	76.81
235.583	66.81
235.817	66.81
236.051	81.81
236.285	87.81
236.519	76.81
236.753	66.81
236.987	71.81
237.221	65.81
237.455	65.81
237.689	68.81
237.922	56.81
238.156	68.81
238.39	71.81
238.624	64.81
238.858	72.81
239.091	77.81
239.325	76.81
239.559	77.81
239.793	61.81
240.027	82.81
240.26	66.81
240.494	84.81
240.728	70.81
240.961	76.81
241.195	81.81
241.429	67.81
241.662	62.81
241.896	85.81
242.13	71.81
242.363	70.81
242.597	82.81
242.83	79.81
243.064	80.81
243.298	72.81
243.531	67.81
243.765	71.81
243.998	66.81
244.232	83.81
244.465	72.81
244.699	83.81
244.932	87.81
245.166	70.81
245.399	73.81
245.633	71.81
245.866	76.81
246.099	61.81
246.333	68.81
246.566	94.81
246.8	84.81
247.033	83.81
247.266	69.81
247.5	79.81
247.733	68.81
247.966	71.81
248.2	92.81
248.433	65.81
248.666	70.81
248.899	91.81
249.133	76.81
249.366	88.81
249.599	89.81
249.832	76.81
250.066	87.81
250.299	82.81
250.532	71.81
250.765	81.81
250.998	72.81
251.231	66.81
251.465	64.81
251.698	82.81
251.931	89.81
252.164	68.81
252.397	82.81
252.63	84.81
252.863	72.81
253.096	77.81
253.329	85.81
253.562	63.81
253.795	71.81
254.028	71.81
254.261	72.81
254.494	71.81
254.727	73.81
254.96	74.81
255.193	88.81
255.426	59.81
255.659	82.81
255.892	79.81
256.124	71.81
256.357	61.81
256.59	83.81
256.823	71.81
257.056	80.81
257.289	83.81
257.521	81.81
257.754	75.81
257.987	88.81
258.22	80.81
258.452	59.81
258.685	75.81
258.918	83.81
259.151	78.81
259.383	88.81
259.616	70.81
259.849	71.81
260.081	66.81
260.314	78.81
260.547	77.81
260.779	81.81
261.012	70.81
261.244	82.81
261.477	80.81
261.71	78.81
261.942	76.81
262.175	78.81
262.407	68.81
262.64	70.81
262.872	95.81
263.105	93.81
263.337	86.81
263.57	104.81
263.802	75.81
264.035	75.81
264.267	71.81
264.499	73.81
264.732	98.81
264.964	88.81
265.197	84.81
265.429	66.81
265.661	83.81
265.894	81.81
266.126	90.81
266.358	75.81
266.591	84.81
266.823	90.81
267.055	90.81
267.287	78.81
267.52	90.81
267.752	83.81
267.984	78.81
268.216	79.81
268.448	83.81
268.681	88.81
268.913	76.81
269.145	76.81
269.377	82.81
269.609	88.81
269.841	85.81
270.073	85.81
270.306	77.81
270.538	83.81
270.77	84.81
271.002	59.81
271.234	89.81
271.466	90.81
271.698	78.81
271.93	95.81
272.162	75.81
272.394	95.81
272.626	85.81
272.858	85.81
273.09	82.81
273.322	92.81
273.553	91.81
273.785	70.81
274.017	79.81
274.249	92.81
274.481	79.81
274.713	80.81
274.945	81.81
275.176	76.81
275.408	82.81
275.64	84.81
275.872	81.81
276.104	80.81
276.335	94.81
276.567	83.81
276.799	77.81
277.031	72.81
277.262	74.81
277.494	83.81
277.726	80.81
277.957	71.81
278.189	73.81
278.421	69.81
278.652	76.81
278.884	81.81
279.115	72.81
279.347	93.81
279.579	86.81
279.81	91.81
280.042	84.81
280.273	91.81
280.505	86.81
280.736	80.81
280.968	83.81
281.199	67.81
281.431	78.81
281.662	77.81
281.894	87.81
282.125	84.81
282.356	88.81
282.588	77.81
282.819	76.81
283.051	80.81
283.282	85.81
283.513	95.81
283.745	76.81
283.976	88.81
284.207	90.81
284.439	81.81
284.67	88.81
284.901	69.81
285.132	66.81
285.364	81.81
285.595	81.81
285.826	88.81
286.057	90.81
286.288	82.81
286.52	80.81
286.751	79.81
286.982	90.81
287.213	70.81
287.444	81.81
287.675	80.81
287.906	84.81
288.138	81.81
288.369	78.81
288.6	97.81
288.831	76.81
289.062	77.81
289.293	79.81
289.524	88.81
289.755	82.81
289.986	82.81
290.217	68.81
290.448	93.81
290.679	82.81
290.91	94.81
291.141	84.81
291.371	93.81
291.602	78.81
291.833	78.81
292.064	84.81
292.295	85.81
292.526	80.81
292.757	77.81
292.987	68.81
293.218	76.81
293.449	77.81
293.68	77.81
293.91	82.81
294.141	85.81
294.372	86.81
294.603	70.81
294.833	84.81
295.064	88.81
295.295	84.81
295.525	75.81
295.756	93.81
295.987	93.81
296.217	79.81
296.448	83.81
296.679	103.81
296.909	86.81
297.14	86.81
297.37	77.81
297.601	90.81
297.831	104.81
298.062	84.81
298.292	88.81
298.523	82.81
298.753	78.81
298.984	80.81
299.214	91.81
299.445	81.81
299.675	89.81
299.905	75.81
300.136	88.81
300.366	92.81
300.597	80.81
300.827	64.81
301.057	83.81
301.288	88.81
301.518	76.81
301.748	65.81
301.979	92.81
302.209	85.81
302.439	78.81
302.669	77.81
302.9	77.81
303.13	75.81
303.36	79.81
303.59	79.81
303.82	80.81
304.051	85.81
304.281	97.81
304.511	77.81
304.741	79.81
304.971	76.81
305.201	90.81
305.431	80.81
305.661	78.81
305.891	88.81
306.121	93.81
306.352	78.81
306.582	76.81
306.812	80.81
307.042	83.81
307.272	84.81
307.502	83.81
307.731	92.81
307.961	89.81
308.191	85.81
308.421	89.81
308.651	61.81
308.881	84.81
309.111	81.81
309.341	88.81
309.571	71.81
309.8	92.81
310.03	87.81
310.26	78.81
310.49	85.81
310.72	81.81
310.949	71.81
311.179	70.81
311.409	78.81
311.639	84.81
311.868	92.81
312.098	89.81
312.328	92.81
312.557	82.81
312.787	80.81
313.017	65.81
313.246	79.81
313.476	70.81
313.706	81.81
313.935	78.81
314.165	89.81
314.394	78.81
314.624	72.81
314.853	94.81
315.083	71.81
315.312	88.81
315.542	79.81
315.771	82.81
316.001	76.81
316.23	87.81
316.46	82.81
316.689	97.81
316.919	95.81
317.148	77.81
317.377	84.81
317.607	78.81
317.836	77.81
318.065	97.81
318.295	93.81
318.524	75.81
318.753	79.81
318.983	86.81
319.212	88.81
319.441	92.81
319.67	82.81
319.9	88.81
320.129	83.81
320.358	88.81
320.587	74.81
320.816	98.81
321.046	77.81
321.275	82.81
321.504	77.81
321.733	81.81
321.962	75.81
322.191	89.81
322.42	93.81
322.649	77.81
322.878	85.81
323.108	91.81
323.337	79.81
323.566	89.81
323.795	90.81
324.024	97.81
324.253	83.81
324.482	88.81
324.71	81.81
324.939	96.81
325.168	89.81
325.397	74.81
325.626	79.81
325.855	76.81
326.084	84.81
326.313	87.81
326.542	90.81
326.77	85.81
326.999	75.81
327.228	80.81
327.457	78.81
327.686	75.81
327.914	83.81
328.143	91.81
328.372	87.81
328.6	86.81
328.829	76.81
329.058	68.81
329.287	76.81
329.515	76.81
329.744	76.81
329.972	88.81
330.201	75.81
330.43	76.81
330.658	89.81
330.887	78.81
331.115	65.81
331.344	88.81
331.572	83.81
331.801	68.81
332.03	92.81
332.258	83.81
332.486	71.81
332.715	77.81
332.943	72.81
333.172	90.81
333.4	89.81
333.629	101.81
333.857	94.81
334.085	90.81
334.314	82.81
334.542	74.81
334.771	77.81
334.999	84.81
335.227	83.81
335.455	80.81
335.684	82.81
335.912	93.81
336.14	89.81
336.369	74.81
336.597	89.81
336.825	91.81
337.053	95.81
337.281	84.81
337.51	84.81
337.738	73.81
337.966	78.81
338.194	76.81
338.422	82.81
338.65	81.81
338.878	70.81
339.106	94.81
339.334	80.81
339.562	85.81
339.79	82.81
340.018	76.81
340.246	86.81
340.474	60.81
340.702	87.81
340.93	79.81
341.158	69.81
341.386	75.81
341.614	69.81
341.842	72.81
342.07	80.81
342.298	90.81
342.526	75.81
342.754	86.81
342.981	88.81
343.209	84.81
343.437	98.81
343.665	77.81
343.893	83.81
344.12	83.81
344.348	96.81
344.576	82.81
344.804	83.81
345.031	76.81
345.259	81.81
345.487	92.81
345.714	82.81
345.942	69.81
346.17	84.81
346.397	81.81
346.625	89.81
346.853	77.81
347.08	76.81
347.308	77.81
347.535	88.81
347.763	90.81
347.99	91.81
348.218	82.81
348.445	77.81
348.673	85.81
348.9	94.81
349.128	75.81
349.355	75.81
349.583	74.81
349.81	69.81
350.037	77.81
350.265	76.81
350.492	91.81
350.72	93.81
350.947	76.81
351.174	81.81
351.402	97.81
351.629	84.81
351.856	83.81
352.083	89.81
352.311	75.81
352.538	83.81
352.765	73.81
352.992	84.81
353.22	89.81
353.447	74.81
353.674	94.81
353.901	88.81
354.128	79.81
354.355	91.81
354.583	95.81
354.81	86.81
355.037	84.81
355.264	95.81
355.491	78.81
355.718	76.81
355.945	94.81
356.172	73.81
356.399	76.81
356.626	86.81
356.853	84.81
357.08	84.81
357.307	70.81
357.534	78.81
357.761	76.81
357.988	83.81
358.215	81.81
358.441	82.81
358.668	86.81
358.895	68.81
359.122	74.81
359.349	67.81
359.576	62.81
359.802	79.81
360.029	89.81
360.256	89.81
360.483	87.81
360.709	88.81
360.936	89.81
361.163	84.81
361.39	88.81
361.616	84.81
361.843	79.81
362.07	85.81
362.296	96.81
362.523	89.81
362.749	88.81
362.976	76.81
363.203	83.81
363.429	78.81
363.656	76.81
363.882	83.81
364.109	81.81
364.335	88.81
364.562	80.81
364.788	78.81
365.015	80.81
365.241	71.81
365.468	86.81
365.694	72.81
365.92	80.81
366.147	78.81
366.373	85.81
366.599	75.81
366.826	86.81
367.052	79.81
367.278	91.81
367.505	80.81
367.731	67.81
367.957	69.81
368.184	91.81
368.41	79.81
368.636	82.81
368.862	75.81
369.089	82.81
369.315	76.81
369.541	61.81
369.767	73.81
369.993	80.81
370.219	60.81
370.445	78.81
370.672	81.81
370.898	83.81
371.124	71.81
371.35	76.81
371.576	71.81
371.802	66.81
372.028	95.81
372.254	74.81
372.48	91.81
372.706	81.81
372.932	79.81
373.158	85.81
373.384	83.81
373.61	78.81
373.835	81.81
374.061	84.81
374.287	72.81
374.513	80.81
374.739	78.81
374.965	72.81
375.191	78.81
375.416	73.81
375.642	88.81
375.868	89.81
376.094	64.81
376.319	83.81
376.545	78.81
376.771	76.81
376.997	79.81
377.222	81.81
377.448	85.81
377.674	94.81
377.899	83.81
378.125	70.81
378.35	88.81
378.576	78.81
378.802	85.81
379.027	95.81
379.253	86.81
379.478	88.81
379.704	81.81
379.929	81.81
380.155	88.81
380.38	66.81
380.606	85.81
380.831	64.81
381.057	98.81
381.282	86.81
381.507	67.81
381.733	77.81
381.958	70.81
382.184	89.81
382.409	75.81
382.634	90.81
382.86	72.81
383.085	86.81
383.31	83.81
383.535	86.81
383.761	79.81
383.986	79.81
384.211	82.81
384.436	82.81
384.662	80.81
384.887	79.81
385.112	83.81
385.337	66.81
385.562	73.81
385.787	78.81
386.013	82.81
386.238	88.81
386.463	84.81
386.688	91.81
386.913	92.81
387.138	84.81
387.363	82.81
387.588	83.81
387.813	86.81
388.038	74.81
388.263	60.81
388.488	84.81
388.713	96.81
388.938	80.81
389.163	75.81
389.387	60.81
389.612	86.81
389.837	71.81
390.062	86.81
390.287	79.81
390.512	83.81
390.736	77.81
390.961	75.81
391.186	86.81
391.411	70.81
391.636	96.81
391.86	83.81
392.085	66.81
392.31	84.81
392.534	71.81
392.759	90.81
392.984	76.81
393.208	75.81
393.433	86.81
393.658	69.81
393.882	80.81
394.107	88.81
394.331	79.81
394.556	77.81
394.78	68.81
395.005	87.81
395.229	83.81
395.454	74.81
395.678	73.81
395.903	88.81
396.127	77.81
396.352	88.81
396.576	89.81
396.801	83.81
397.025	68.81
397.249	85.81
397.474	83.81
397.698	74.81
397.922	81.81
398.147	86.81
398.371	82.81
398.595	77.81
398.82	95.81
399.044	92.81
399.268	79.81
399.492	75.81
399.717	69.81
399.941	67.81
400.165	75.81
400.389	87.81
400.613	67.81
400.837	80.81
401.062	76.81
401.286	76.81
401.51	79.81
401.734	73.81
401.958	80.81
402.182	78.81
402.406	93.81
402.63	85.81
402.854	82.81
403.078	77.81
403.302	82.81
403.526	83.81
403.75	82.81
403.974	69.81
404.198	79.81
404.422	93.81
404.645	84.81
404.869	76.81
405.093	93.81
405.317	70.81
405.541	70.81
405.765	86.81
405.988	79.81
406.212	82.81
406.436	78.81
406.66	96.81
406.883	94.81
407.107	85.81
407.331	86.81
407.555	69.81
407.778	81.81
408.002	89.81
408.226	83.81
408.449	75.81
408.673	79.81
408.896	80.81
409.12	73.81
409.344	79.81
409.567	78.81
409.791	72.81
410.014	82.81
410.238	78.81
410.461	94.81
410.685	76.81
410.908	85.81
411.132	82.81
411.355	91.81
411.578	79.81
411.802	86.81
412.025	74.81
412.249	73.81
412.472	77.81
412.695	76.81
412.919	88.81
413.142	74.81
413.365	82.81
413.589	76.81
413.812	89.81
414.035	96.81
414.258	92.81
414.482	69.81
414.705	88.81
414.928	100.81
415.151	66.81
415.374	80.81
415.597	70.81
415.821	64.81
416.044	68.81
416.267	83.81
416.49	77.81
416.713	74.81
416.936	80.81
417.159	81.81
417.382	78.81
417.605	73.81
417.828	78.81
418.051	70.81
418.274	72.81
418.497	76.81
418.72	70.81
418.943	84.81
419.166	78.81
419.389	89.81
419.611	77.81
419.834	80.81
420.057	72.81
420.28	81.81
420.503	73.81
420.726	70.81
420.948	73.81
421.171	76.81
421.394	85.81
421.617	67.81
421.839	77.81
422.062	77.81
422.285	80.81
422.507	70.81
422.73	82.81
422.953	90.81
423.175	69.81
423.398	90.81
423.621	89.81
423.843	66.81
424.066	79.81
424.288	69.81
424.511	87.81
424.733	67.81
424.956	89.81
425.178	84.81
425.401	64.81
425.623	79.81
425.846	77.81
426.068	77.81
426.291	79.81
426.513	79.81
426.735	88.81
426.958	76.81
427.18	95.81
427.402	76.81
427.625	75.81
427.847	80.81
428.069	82.81
428.292	91.81
428.514	82.81
428.736	86.81
428.958	85.81
429.181	91.81
429.403	80.81
429.625	81.81
429.847	70.81
430.069	77.81
430.292	75.81
430.514	74.81
430.736	69.81
430.958	67.81
431.18	84.81
431.402	93.81
431.624	69.81
431.846	70.81
432.068	63.81
432.29	61.81
432.512	92.81
432.734	80.81
432.956	92.81
433.178	70.81
433.4	65.81
433.622	87.81
433.844	81.81
434.066	92.81
434.287	84.81
434.509	80.81
434.731	72.81
434.953	83.81
435.175	79.81
435.397	85.81
435.618	66.81
435.84	85.81
436.062	87.81
436.284	70.81
436.505	68.81
436.727	78.81
436.949	67.81
437.17	70.81
437.392	77.81
437.614	85.81
437.835	80.81
438.057	80.81
438.278	71.81
438.5	87.81
438.721	91.81
438.943	79.81
439.165	68.81
439.386	73.81
439.608	71.81
439.829	81.81
440.05	75.81
440.272	76.81
440.493	90.81
440.715	92.81
440.936	78.81
441.158	81.81
441.379	89.81
441.6	86.81
441.822	76.81
442.043	67.81
442.264	73.81
442.486	84.81
442.707	92.81
442.928	78.81
443.149	89.81
443.371	81.81
443.592	84.81
443.813	89.81
444.034	84.81
444.255	98.81
444.476	91.81
444.698	78.81
444.919	69.81
445.14	160.81
445.361	113.81
445.582	98.81
445.803	80.81
446.024	84.81
446.245	87.81
446.466	83.81
446.687	77.81
446.908	89.81
447.129	83.81
447.35	89.81
447.571	77.81
447.792	74.81
448.013	76.81
448.234	76.81
448.455	81.81
448.675	78.81
448.896	84.81
449.117	76.81
449.338	76.81
449.559	88.81
449.779	86.81
450	85.81
450.221	59.81
450.442	74.81
450.662	84.81
450.883	80.81
451.104	86.81
451.324	75.81
451.545	83.81
451.766	79.81
451.986	69.81
452.207	83.81
452.428	84.81
452.648	81.81
452.869	92.81
453.089	71.81
453.31	89.81
453.53	93.81
453.751	78.81
453.971	85.81
454.192	78.81
454.412	83.81
454.633	74.81
454.853	81.81
455.073	60.81
455.294	74.81
455.514	81.81
455.734	62.81
455.955	70.81
456.175	82.81
456.395	78.81
456.616	83.81
456.836	86.81
457.056	82.81
457.276	78.81
457.497	75.81
457.717	66.81
457.937	75.81
458.157	80.81
458.377	76.81
458.598	71.81
458.818	84.81
459.038	78.81
459.258	67.81
459.478	67.81
459.698	72.81
459.918	68.81
460.138	79.81
460.358	85.81
460.578	82.81
460.798	79.81
461.018	79.81
461.238	78.81
461.458	66.81
461.678	74.81
461.898	91.81
462.118	67.81
462.338	75.81
462.558	71.81
462.777	89.81
462.997	87.81
463.217	82.81
463.437	80.81
463.657	83.81
463.876	88.81
464.096	65.81
464.316	81.81
464.536	74.81
464.755	74.81
464.975	68.81
465.195	80.81
465.414	72.81
465.634	74.81
465.854	67.81
466.073	83.81
466.293	82.81
466.512	70.81
466.732	71.81
466.951	78.81
467.171	86.81
467.391	89.81
467.61	76.81
467.829	74.81
468.049	78.81
468.268	94.81
468.488	79.81
468.707	80.81
468.927	90.81
469.146	92.81
469.365	84.81
469.585	74.81
469.804	74.81
470.023	85.81
470.243	79.81
470.462	83.81
470.681	73.81
470.901	77.81
471.12	78.81
471.339	89.81
471.558	80.81
471.777	91.81
471.997	81.81
472.216	69.81
472.435	82.81
472.654	79.81
472.873	76.81
473.092	90.81
473.311	69.81
473.53	79.81
473.749	85.81
473.968	81.81
474.187	78.81
474.406	70.81
474.625	85.81
474.844	81.81
475.063	85.81
475.282	89.81
475.501	79.81
475.72	85.81
475.939	66.81
476.158	83.81
476.377	85.81
476.596	93.81
476.814	98.81
477.033	81.81
477.252	77.81
477.471	85.81
477.69	73.81
477.908	75.81
478.127	78.81
478.346	88.81
478.564	89.81
478.783	88.81
479.002	74.81
479.22	89.81
479.439	85.81
479.658	81.81
479.876	72.81
480.095	79.81
480.313	94.81
480.532	72.81
480.751	72.81
480.969	79.81
481.188	82.81
481.406	89.81
481.624	80.81
481.843	78.81
482.061	93.81
482.28	77.81
482.498	83.81
482.717	82.81
482.935	82.81
483.153	78.81
483.372	73.81
483.59	83.81
483.808	85.81
484.027	81.81
484.245	79.81
484.463	83.81
484.681	76.81
484.9	82.81
485.118	74.81
485.336	85.81
485.554	78.81
485.772	86.81
485.99	89.81
486.209	66.81
486.427	91.81
486.645	92.81
486.863	66.81
487.081	87.81
487.299	84.81
487.517	77.81
487.735	81.81
487.953	81.81
488.171	80.81
488.389	84.81
488.607	86.81
488.825	85.81
489.043	80.81
489.261	92.81
489.479	77.81
489.696	75.81
489.914	92.81
490.132	79.81
490.35	82.81
490.568	80.81
490.786	82.81
491.003	88.81
491.221	68.81
491.439	87.81
491.657	89.81
491.874	78.81
492.092	91.81
492.31	89.81
492.527	71.81
492.745	66.81
492.963	82.81
493.18	83.81
493.398	82.81
493.615	74.81
493.833	74.81
494.05	64.81
494.268	85.81
494.485	72.81
494.703	82.81
494.92	86.81
495.138	76.81
495.355	93.81
495.573	85.81
495.79	77.81
496.008	82.81
496.225	72.81
496.442	82.81
496.66	74.81
496.877	81.81
497.094	77.81
497.312	96.81
497.529	80.81
497.746	70.81
497.963	76.81
498.181	80.81
498.398	84.81
498.615	78.81
498.832	70.81
499.049	92.81
499.267	86.81
499.484	64.81
499.701	88.81
499.918	84.81
500.135	78.81
500.352	104.81
500.569	75.81
500.786	76.81
501.003	76.81
501.22	89.81
501.437	82.81
501.654	84.81
501.871	93.81
502.088	74.81
502.305	90.81
502.522	83.81
502.739	75.81
502.956	83.81
503.172	91.81
503.389	82.81
503.606	88.81
503.823	86.81
504.04	79.81
504.256	88.81
504.473	70.81
504.69	88.81
504.907	87.81
505.123	78.81
505.34	90.81
505.557	84.81
505.773	74.81
505.99	66.81
506.207	80.81
506.423	76.81
506.64	80.81
506.856	75.81
507.073	68.81
507.289	80.81
507.506	80.81
507.722	78.81
507.939	79.81
508.155	90.81
508.372	86.81
508.588	75.81
508.805	78.81
509.021	76.81
509.238	92.81
509.454	73.81
509.67	73.81
509.887	70.81
510.103	84.81
510.319	81.81
510.536	80.81
510.752	85.81
510.968	82.81
511.184	86.81
511.401	83.81
511.617	93.81
511.833	76.81
512.049	82.81
512.265	75.81
512.481	88.81
512.698	80.81
512.914	83.81
513.13	80.81
513.346	86.81
513.562	85.81
513.778	90.81
513.994	94.81
514.21	73.81
514.426	83.81
514.642	78.81
514.858	92.81
515.074	82.81
515.29	81.81
515.506	89.81
515.721	73.81
515.937	91.81
516.153	86.81
516.369	88.81
516.585	94.81
516.801	95.81
517.016	83.81
517.232	81.81
517.448	75.81
517.664	83.81
517.879	71.81
518.095	73.81
518.311	70.81
518.527	92.81
518.742	90.81
518.958	76.81
519.173	72.81
519.389	99.81
519.605	76.81
519.82	87.81
520.036	78.81
