Data from Background_2_HRD10591_00095.txt Node
Date: Wed Nov 05 14:47:43 EST 2025
User: Yrep
Spectrometer: HR+D1059
Trigger mode: 1
Integration Time (sec): 1.000000E-1
Scans to average: 1
Electric dark correction enabled: true
Nonlinearity correction enabled: false
Boxcar width: 0
XAxis mode: Wavelengths
Number of Pixels in Spectrum: 2048
>>>>>Begin Spectral Data<<<<<
223.165	-9.75
223.4	-9.75
223.635	-9.75
223.869	-33.75
224.104	-23.75
224.338	-8.75
224.573	-18.75
224.808	-12.75
225.042	-17.75
225.277	-6.75
225.511	3.25
225.746	12.25
225.98	21.25
226.215	10.25
226.449	14.25
226.683	22.25
226.918	26.25
227.152	22.25
227.387	40.25
227.621	25.25
227.856	35.25
228.09	32.25
228.324	47.25
228.559	53.25
228.793	65.25
229.027	58.25
229.262	64.25
229.496	63.25
229.73	54.25
229.964	50.25
230.199	64.25
230.433	72.25
230.667	73.25
230.901	58.25
231.136	73.25
231.37	77.25
231.604	73.25
231.838	77.25
232.072	90.25
232.306	80.25
232.541	86.25
232.775	81.25
233.009	89.25
233.243	90.25
233.477	70.25
233.711	70.25
233.945	66.25
234.179	71.25
234.413	77.25
234.647	76.25
234.881	77.25
235.115	87.25
235.349	77.25
235.583	68.25
235.817	80.25
236.051	67.25
236.285	89.25
236.519	87.25
236.753	71.25
236.987	72.25
237.221	94.25
237.455	71.25
237.689	77.25
237.922	82.25
238.156	77.25
238.39	66.25
238.624	57.25
238.858	82.25
239.091	77.25
239.325	87.25
239.559	73.25
239.793	80.25
240.027	67.25
240.26	82.25
240.494	83.25
240.728	74.25
240.961	70.25
241.195	83.25
241.429	77.25
241.662	75.25
241.896	67.25
242.13	82.25
242.363	78.25
242.597	71.25
242.83	79.25
243.064	74.25
243.298	81.25
243.531	84.25
243.765	77.25
243.998	91.25
244.232	78.25
244.465	88.25
244.699	80.25
244.932	81.25
245.166	78.25
245.399	74.25
245.633	70.25
245.866	67.25
246.099	85.25
246.333	80.25
246.566	65.25
246.8	67.25
247.033	75.25
247.266	73.25
247.5	81.25
247.733	72.25
247.966	61.25
248.2	79.25
248.433	59.25
248.666	66.25
248.899	78.25
249.133	86.25
249.366	87.25
249.599	78.25
249.832	72.25
250.066	87.25
250.299	74.25
250.532	80.25
250.765	79.25
250.998	62.25
251.231	71.25
251.465	78.25
251.698	59.25
251.931	81.25
252.164	77.25
252.397	71.25
252.63	87.25
252.863	81.25
253.096	78.25
253.329	81.25
253.562	67.25
253.795	75.25
254.028	85.25
254.261	73.25
254.494	77.25
254.727	97.25
254.96	75.25
255.193	61.25
255.426	75.25
255.659	57.25
255.892	86.25
256.124	71.25
256.357	80.25
256.59	89.25
256.823	78.25
257.056	86.25
257.289	76.25
257.521	82.25
257.754	72.25
257.987	78.25
258.22	91.25
258.452	71.25
258.685	102.25
258.918	77.25
259.151	74.25
259.383	74.25
259.616	81.25
259.849	65.25
260.081	80.25
260.314	85.25
260.547	83.25
260.779	73.25
261.012	81.25
261.244	81.25
261.477	86.25
261.71	71.25
261.942	80.25
262.175	79.25
262.407	89.25
262.64	72.25
262.872	78.25
263.105	84.25
263.337	80.25
263.57	81.25
263.802	82.25
264.035	94.25
264.267	86.25
264.499	94.25
264.732	83.25
264.964	75.25
265.197	81.25
265.429	74.25
265.661	74.25
265.894	76.25
266.126	88.25
266.358	90.25
266.591	82.25
266.823	79.25
267.055	89.25
267.287	86.25
267.52	89.25
267.752	78.25
267.984	94.25
268.216	62.25
268.448	70.25
268.681	74.25
268.913	83.25
269.145	81.25
269.377	71.25
269.609	96.25
269.841	85.25
270.073	72.25
270.306	75.25
270.538	80.25
270.77	73.25
271.002	85.25
271.234	79.25
271.466	95.25
271.698	78.25
271.93	87.25
272.162	90.25
272.394	83.25
272.626	90.25
272.858	84.25
273.09	93.25
273.322	72.25
273.553	82.25
273.785	85.25
274.017	75.25
274.249	80.25
274.481	83.25
274.713	79.25
274.945	82.25
275.176	82.25
275.408	72.25
275.64	81.25
275.872	78.25
276.104	90.25
276.335	94.25
276.567	75.25
276.799	74.25
277.031	86.25
277.262	81.25
277.494	82.25
277.726	82.25
277.957	82.25
278.189	85.25
278.421	74.25
278.652	77.25
278.884	77.25
279.115	81.25
279.347	75.25
279.579	61.25
279.81	85.25
280.042	82.25
280.273	76.25
280.505	69.25
280.736	88.25
280.968	88.25
281.199	86.25
281.431	74.25
281.662	71.25
281.894	85.25
282.125	82.25
282.356	74.25
282.588	75.25
282.819	75.25
283.051	84.25
283.282	73.25
283.513	75.25
283.745	90.25
283.976	93.25
284.207	76.25
284.439	76.25
284.67	92.25
284.901	82.25
285.132	82.25
285.364	93.25
285.595	75.25
285.826	91.25
286.057	85.25
286.288	82.25
286.52	77.25
286.751	85.25
286.982	87.25
287.213	82.25
287.444	87.25
287.675	88.25
287.906	85.25
288.138	91.25
288.369	74.25
288.6	103.25
288.831	82.25
289.062	71.25
289.293	87.25
289.524	88.25
289.755	87.25
289.986	79.25
290.217	88.25
290.448	94.25
290.679	94.25
290.91	88.25
291.141	87.25
291.371	77.25
291.602	77.25
291.833	81.25
292.064	93.25
292.295	80.25
292.526	87.25
292.757	75.25
292.987	77.25
293.218	80.25
293.449	78.25
293.68	71.25
293.91	80.25
294.141	81.25
294.372	87.25
294.603	78.25
294.833	57.25
295.064	73.25
295.295	73.25
295.525	78.25
295.756	88.25
295.987	88.25
296.217	80.25
296.448	94.25
296.679	77.25
296.909	84.25
297.14	67.25
297.37	89.25
297.601	89.25
297.831	79.25
298.062	95.25
298.292	77.25
298.523	77.25
298.753	89.25
298.984	85.25
299.214	97.25
299.445	80.25
299.675	81.25
299.905	75.25
300.136	94.25
300.366	81.25
300.597	83.25
300.827	82.25
301.057	101.25
301.288	79.25
301.518	79.25
301.748	82.25
301.979	78.25
302.209	92.25
302.439	82.25
302.669	76.25
302.9	91.25
303.13	79.25
303.36	73.25
303.59	77.25
303.82	89.25
304.051	84.25
304.281	86.25
304.511	102.25
304.741	79.25
304.971	66.25
305.201	68.25
305.431	87.25
305.661	78.25
305.891	87.25
306.121	99.25
306.352	103.25
306.582	90.25
306.812	89.25
307.042	83.25
307.272	97.25
307.502	74.25
307.731	95.25
307.961	91.25
308.191	68.25
308.421	83.25
308.651	89.25
308.881	83.25
309.111	85.25
309.341	69.25
309.571	80.25
309.8	75.25
310.03	82.25
310.26	79.25
310.49	80.25
310.72	76.25
310.949	82.25
311.179	92.25
311.409	77.25
311.639	80.25
311.868	83.25
312.098	83.25
312.328	81.25
312.557	83.25
312.787	68.25
313.017	68.25
313.246	89.25
313.476	84.25
313.706	89.25
313.935	78.25
314.165	77.25
314.394	81.25
314.624	76.25
314.853	72.25
315.083	102.25
315.312	89.25
315.542	71.25
315.771	79.25
316.001	85.25
316.23	87.25
316.46	77.25
316.689	84.25
316.919	84.25
317.148	96.25
317.377	81.25
317.607	88.25
317.836	78.25
318.065	74.25
318.295	85.25
318.524	79.25
318.753	97.25
318.983	87.25
319.212	81.25
319.441	78.25
319.67	98.25
319.9	90.25
320.129	77.25
320.358	90.25
320.587	81.25
320.816	91.25
321.046	77.25
321.275	72.25
321.504	88.25
321.733	78.25
321.962	72.25
322.191	87.25
322.42	106.25
322.649	89.25
322.878	85.25
323.108	71.25
323.337	75.25
323.566	85.25
323.795	90.25
324.024	78.25
324.253	89.25
324.482	77.25
324.71	89.25
324.939	94.25
325.168	85.25
325.397	86.25
325.626	84.25
325.855	90.25
326.084	74.25
326.313	74.25
326.542	83.25
326.77	76.25
326.999	85.25
327.228	92.25
327.457	84.25
327.686	79.25
327.914	77.25
328.143	88.25
328.372	75.25
328.6	71.25
328.829	71.25
329.058	82.25
329.287	71.25
329.515	79.25
329.744	71.25
329.972	86.25
330.201	73.25
330.43	75.25
330.658	72.25
330.887	87.25
331.115	78.25
331.344	68.25
331.572	86.25
331.801	84.25
332.03	88.25
332.258	87.25
332.486	82.25
332.715	69.25
332.943	68.25
333.172	82.25
333.4	71.25
333.629	92.25
333.857	76.25
334.085	70.25
334.314	83.25
334.542	81.25
334.771	77.25
334.999	76.25
335.227	62.25
335.455	75.25
335.684	85.25
335.912	87.25
336.14	77.25
336.369	90.25
336.597	93.25
336.825	85.25
337.053	77.25
337.281	80.25
337.51	91.25
337.738	81.25
337.966	74.25
338.194	91.25
338.422	87.25
338.65	73.25
338.878	89.25
339.106	73.25
339.334	72.25
339.562	74.25
339.79	86.25
340.018	80.25
340.246	85.25
340.474	91.25
340.702	87.25
340.93	78.25
341.158	77.25
341.386	92.25
341.614	93.25
341.842	86.25
342.07	86.25
342.298	77.25
342.526	95.25
342.754	91.25
342.981	70.25
343.209	101.25
343.437	105.25
343.665	70.25
343.893	76.25
344.12	103.25
344.348	101.25
344.576	82.25
344.804	81.25
345.031	91.25
345.259	81.25
345.487	79.25
345.714	82.25
345.942	73.25
346.17	81.25
346.397	98.25
346.625	92.25
346.853	70.25
347.08	73.25
347.308	86.25
347.535	88.25
347.763	82.25
347.99	76.25
348.218	83.25
348.445	83.25
348.673	90.25
348.9	83.25
349.128	84.25
349.355	66.25
349.583	78.25
349.81	89.25
350.037	75.25
350.265	78.25
350.492	70.25
350.72	74.25
350.947	67.25
351.174	77.25
351.402	81.25
351.629	77.25
351.856	82.25
352.083	98.25
352.311	90.25
352.538	75.25
352.765	73.25
352.992	81.25
353.22	82.25
353.447	78.25
353.674	88.25
353.901	93.25
354.128	85.25
354.355	77.25
354.583	78.25
354.81	88.25
355.037	89.25
355.264	79.25
355.491	79.25
355.718	81.25
355.945	81.25
356.172	84.25
356.399	68.25
356.626	77.25
356.853	87.25
357.08	72.25
357.307	73.25
357.534	74.25
357.761	82.25
357.988	81.25
358.215	77.25
358.441	80.25
358.668	77.25
358.895	84.25
359.122	77.25
359.349	76.25
359.576	86.25
359.802	62.25
360.029	75.25
360.256	74.25
360.483	70.25
360.709	90.25
360.936	93.25
361.163	92.25
361.39	86.25
361.616	89.25
361.843	73.25
362.07	94.25
362.296	93.25
362.523	71.25
362.749	89.25
362.976	88.25
363.203	91.25
363.429	76.25
363.656	85.25
363.882	89.25
364.109	82.25
364.335	90.25
364.562	71.25
364.788	84.25
365.015	104.25
365.241	80.25
365.468	93.25
365.694	94.25
365.92	79.25
366.147	78.25
366.373	87.25
366.599	67.25
366.826	88.25
367.052	78.25
367.278	85.25
367.505	79.25
367.731	80.25
367.957	67.25
368.184	75.25
368.41	81.25
368.636	91.25
368.862	85.25
369.089	76.25
369.315	86.25
369.541	90.25
369.767	99.25
369.993	93.25
370.219	85.25
370.445	81.25
370.672	89.25
370.898	79.25
371.124	81.25
371.35	77.25
371.576	105.25
371.802	82.25
372.028	95.25
372.254	79.25
372.48	77.25
372.706	77.25
372.932	84.25
373.158	78.25
373.384	72.25
373.61	99.25
373.835	75.25
374.061	71.25
374.287	88.25
374.513	81.25
374.739	80.25
374.965	70.25
375.191	73.25
375.416	98.25
375.642	88.25
375.868	80.25
376.094	66.25
376.319	66.25
376.545	74.25
376.771	76.25
376.997	81.25
377.222	73.25
377.448	76.25
377.674	90.25
377.899	74.25
378.125	75.25
378.35	85.25
378.576	85.25
378.802	77.25
379.027	83.25
379.253	81.25
379.478	81.25
379.704	87.25
379.929	73.25
380.155	79.25
380.38	74.25
380.606	85.25
380.831	68.25
381.057	94.25
381.282	69.25
381.507	69.25
381.733	81.25
381.958	83.25
382.184	79.25
382.409	76.25
382.634	88.25
382.86	68.25
383.085	79.25
383.31	76.25
383.535	84.25
383.761	73.25
383.986	86.25
384.211	78.25
384.436	78.25
384.662	90.25
384.887	69.25
385.112	67.25
385.337	84.25
385.562	77.25
385.787	73.25
386.013	88.25
386.238	94.25
386.463	74.25
386.688	95.25
386.913	71.25
387.138	74.25
387.363	95.25
387.588	75.25
387.813	80.25
388.038	73.25
388.263	80.25
388.488	55.25
388.713	79.25
388.938	92.25
389.163	69.25
389.387	90.25
389.612	85.25
389.837	81.25
390.062	72.25
390.287	69.25
390.512	78.25
390.736	83.25
390.961	73.25
391.186	82.25
391.411	76.25
391.636	78.25
391.86	72.25
392.085	81.25
392.31	74.25
392.534	75.25
392.759	74.25
392.984	58.25
393.208	78.25
393.433	81.25
393.658	73.25
393.882	71.25
394.107	81.25
394.331	80.25
394.556	86.25
394.78	86.25
395.005	81.25
395.229	91.25
395.454	85.25
395.678	68.25
395.903	87.25
396.127	82.25
396.352	68.25
396.576	70.25
396.801	75.25
397.025	95.25
397.249	71.25
397.474	91.25
397.698	89.25
397.922	84.25
398.147	74.25
398.371	80.25
398.595	81.25
398.82	93.25
399.044	81.25
399.268	78.25
399.492	75.25
399.717	75.25
399.941	84.25
400.165	89.25
400.389	81.25
400.613	79.25
400.837	83.25
401.062	79.25
401.286	70.25
401.51	67.25
401.734	73.25
401.958	83.25
402.182	83.25
402.406	83.25
402.63	94.25
402.854	71.25
403.078	77.25
403.302	83.25
403.526	83.25
403.75	89.25
403.974	73.25
404.198	82.25
404.422	96.25
404.645	75.25
404.869	82.25
405.093	85.25
405.317	64.25
405.541	81.25
405.765	76.25
405.988	77.25
406.212	94.25
406.436	93.25
406.66	85.25
406.883	75.25
407.107	90.25
407.331	80.25
407.555	76.25
407.778	74.25
408.002	74.25
408.226	74.25
408.449	72.25
408.673	90.25
408.896	72.25
409.12	92.25
409.344	57.25
409.567	71.25
409.791	61.25
410.014	86.25
410.238	71.25
410.461	75.25
410.685	86.25
410.908	79.25
411.132	71.25
411.355	88.25
411.578	81.25
411.802	74.25
412.025	81.25
412.249	78.25
412.472	87.25
412.695	71.25
412.919	80.25
413.142	66.25
413.365	77.25
413.589	74.25
413.812	72.25
414.035	78.25
414.258	76.25
414.482	75.25
414.705	73.25
414.928	75.25
415.151	85.25
415.374	88.25
415.597	80.25
415.821	85.25
416.044	76.25
416.267	87.25
416.49	71.25
416.713	66.25
416.936	80.25
417.159	81.25
417.382	78.25
417.605	85.25
417.828	76.25
418.051	85.25
418.274	97.25
418.497	78.25
418.72	67.25
418.943	85.25
419.166	64.25
419.389	91.25
419.611	73.25
419.834	81.25
420.057	83.25
420.28	74.25
420.503	52.25
420.726	77.25
420.948	86.25
421.171	79.25
421.394	67.25
421.617	75.25
421.839	87.25
422.062	71.25
422.285	74.25
422.507	70.25
422.73	77.25
422.953	84.25
423.175	80.25
423.398	81.25
423.621	84.25
423.843	71.25
424.066	81.25
424.288	78.25
424.511	77.25
424.733	71.25
424.956	82.25
425.178	76.25
425.401	81.25
425.623	86.25
425.846	72.25
426.068	73.25
426.291	79.25
426.513	84.25
426.735	69.25
426.958	80.25
427.18	80.25
427.402	88.25
427.625	72.25
427.847	84.25
428.069	82.25
428.292	90.25
428.514	74.25
428.736	70.25
428.958	72.25
429.181	89.25
429.403	79.25
429.625	83.25
429.847	75.25
430.069	78.25
430.292	69.25
430.514	100.25
430.736	91.25
430.958	89.25
431.18	73.25
431.402	77.25
431.624	81.25
431.846	80.25
432.068	70.25
432.29	81.25
432.512	85.25
432.734	73.25
432.956	89.25
433.178	79.25
433.4	79.25
433.622	86.25
433.844	76.25
434.066	78.25
434.287	74.25
434.509	77.25
434.731	74.25
434.953	68.25
435.175	77.25
435.397	74.25
435.618	69.25
435.84	79.25
436.062	78.25
436.284	85.25
436.505	77.25
436.727	84.25
436.949	87.25
437.17	69.25
437.392	71.25
437.614	73.25
437.835	82.25
438.057	88.25
438.278	72.25
438.5	77.25
438.721	75.25
438.943	74.25
439.165	83.25
439.386	79.25
439.608	81.25
439.829	87.25
440.05	76.25
440.272	78.25
440.493	68.25
440.715	70.25
440.936	93.25
441.158	86.25
441.379	71.25
441.6	81.25
441.822	81.25
442.043	80.25
442.264	68.25
442.486	82.25
442.707	71.25
442.928	83.25
443.149	83.25
443.371	93.25
443.592	88.25
443.813	69.25
444.034	77.25
444.255	68.25
444.476	70.25
444.698	72.25
444.919	83.25
445.14	164.25
445.361	103.25
445.582	84.25
445.803	73.25
446.024	68.25
446.245	73.25
446.466	83.25
446.687	78.25
446.908	76.25
447.129	73.25
447.35	75.25
447.571	74.25
447.792	79.25
448.013	76.25
448.234	73.25
448.455	82.25
448.675	82.25
448.896	82.25
449.117	67.25
449.338	76.25
449.559	86.25
449.779	80.25
450	81.25
450.221	70.25
450.442	87.25
450.662	85.25
450.883	85.25
451.104	90.25
451.324	74.25
451.545	89.25
451.766	66.25
451.986	81.25
452.207	81.25
452.428	75.25
452.648	85.25
452.869	77.25
453.089	68.25
453.31	77.25
453.53	74.25
453.751	81.25
453.971	73.25
454.192	90.25
454.412	71.25
454.633	85.25
454.853	78.25
455.073	91.25
455.294	68.25
455.514	74.25
455.734	79.25
455.955	81.25
456.175	73.25
456.395	75.25
456.616	72.25
456.836	75.25
457.056	88.25
457.276	75.25
457.497	75.25
457.717	71.25
457.937	94.25
458.157	68.25
458.377	80.25
458.598	68.25
458.818	59.25
459.038	81.25
459.258	73.25
459.478	83.25
459.698	81.25
459.918	89.25
460.138	98.25
460.358	70.25
460.578	85.25
460.798	76.25
461.018	88.25
461.238	77.25
461.458	82.25
461.678	87.25
461.898	73.25
462.118	78.25
462.338	85.25
462.558	71.25
462.777	75.25
462.997	86.25
463.217	70.25
463.437	77.25
463.657	78.25
463.876	85.25
464.096	78.25
464.316	82.25
464.536	92.25
464.755	93.25
464.975	87.25
465.195	82.25
465.414	71.25
465.634	67.25
465.854	87.25
466.073	85.25
466.293	78.25
466.512	85.25
466.732	77.25
466.951	91.25
467.171	88.25
467.391	77.25
467.61	75.25
467.829	71.25
468.049	80.25
468.268	77.25
468.488	72.25
468.707	87.25
468.927	73.25
469.146	79.25
469.365	64.25
469.585	87.25
469.804	86.25
470.023	83.25
470.243	78.25
470.462	89.25
470.681	79.25
470.901	73.25
471.12	89.25
471.339	85.25
471.558	78.25
471.777	67.25
471.997	82.25
472.216	74.25
472.435	78.25
472.654	85.25
472.873	94.25
473.092	69.25
473.311	75.25
473.53	67.25
473.749	67.25
473.968	70.25
474.187	86.25
474.406	79.25
474.625	81.25
474.844	59.25
475.063	72.25
475.282	70.25
475.501	73.25
475.72	81.25
475.939	83.25
476.158	79.25
476.377	61.25
476.596	63.25
476.814	82.25
477.033	86.25
477.252	77.25
477.471	87.25
477.69	92.25
477.908	71.25
478.127	82.25
478.346	71.25
478.564	64.25
478.783	75.25
479.002	72.25
479.22	73.25
479.439	72.25
479.658	82.25
479.876	77.25
480.095	78.25
480.313	78.25
480.532	74.25
480.751	79.25
480.969	78.25
481.188	72.25
481.406	68.25
481.624	79.25
481.843	77.25
482.061	85.25
482.28	73.25
482.498	71.25
482.717	61.25
482.935	71.25
483.153	82.25
483.372	84.25
483.59	61.25
483.808	85.25
484.027	89.25
484.245	80.25
484.463	89.25
484.681	99.25
484.9	68.25
485.118	86.25
485.336	86.25
485.554	95.25
485.772	66.25
485.99	85.25
486.209	76.25
486.427	75.25
486.645	84.25
486.863	83.25
487.081	80.25
487.299	90.25
487.517	82.25
487.735	83.25
487.953	83.25
488.171	89.25
488.389	82.25
488.607	74.25
488.825	79.25
489.043	64.25
489.261	80.25
489.479	72.25
489.696	65.25
489.914	67.25
490.132	78.25
490.35	77.25
490.568	84.25
490.786	85.25
491.003	74.25
491.221	75.25
491.439	72.25
491.657	82.25
491.874	71.25
492.092	73.25
492.31	89.25
492.527	78.25
492.745	77.25
492.963	79.25
493.18	69.25
493.398	65.25
493.615	82.25
493.833	68.25
494.05	73.25
494.268	80.25
494.485	77.25
494.703	89.25
494.92	79.25
495.138	73.25
495.355	79.25
495.573	102.25
495.79	71.25
496.008	75.25
496.225	80.25
496.442	72.25
496.66	74.25
496.877	72.25
497.094	90.25
497.312	86.25
497.529	88.25
497.746	81.25
497.963	75.25
498.181	75.25
498.398	73.25
498.615	81.25
498.832	75.25
499.049	73.25
499.267	94.25
499.484	65.25
499.701	69.25
499.918	71.25
500.135	92.25
500.352	73.25
500.569	88.25
500.786	86.25
501.003	75.25
501.22	66.25
501.437	80.25
501.654	87.25
501.871	79.25
502.088	83.25
502.305	82.25
502.522	87.25
502.739	87.25
502.956	80.25
503.172	77.25
503.389	76.25
503.606	82.25
503.823	67.25
504.04	90.25
504.256	74.25
504.473	74.25
504.69	70.25
504.907	82.25
505.123	80.25
505.34	86.25
505.557	85.25
505.773	82.25
505.99	86.25
506.207	93.25
506.423	77.25
506.64	81.25
506.856	71.25
507.073	99.25
507.289	76.25
507.506	88.25
507.722	64.25
507.939	75.25
508.155	86.25
508.372	89.25
508.588	83.25
508.805	71.25
509.021	76.25
509.238	86.25
509.454	82.25
509.67	63.25
509.887	79.25
510.103	75.25
510.319	61.25
510.536	71.25
510.752	69.25
510.968	80.25
511.184	76.25
511.401	80.25
511.617	86.25
511.833	79.25
512.049	75.25
512.265	70.25
512.481	81.25
512.698	73.25
512.914	84.25
513.13	81.25
513.346	84.25
513.562	78.25
513.778	81.25
513.994	66.25
514.21	83.25
514.426	69.25
514.642	81.25
514.858	79.25
515.074	83.25
515.29	78.25
515.506	87.25
515.721	79.25
515.937	86.25
516.153	80.25
516.369	88.25
516.585	77.25
516.801	89.25
517.016	91.25
517.232	82.25
517.448	86.25
517.664	84.25
517.879	95.25
518.095	70.25
518.311	88.25
518.527	81.25
518.742	75.25
518.958	74.25
519.173	74.25
519.389	72.25
519.605	75.25
519.82	88.25
520.036	82.25
