Data from Background_2_HRD10591_00086.txt Node
Date: Wed Nov 05 14:47:39 EST 2025
User: Yrep
Spectrometer: HR+D1059
Trigger mode: 1
Integration Time (sec): 1.000000E-1
Scans to average: 1
Electric dark correction enabled: true
Nonlinearity correction enabled: false
Boxcar width: 0
XAxis mode: Wavelengths
Number of Pixels in Spectrum: 2048
>>>>>Begin Spectral Data<<<<<
223.165	-30.56
223.4	-30.56
223.635	-30.56
223.869	-2.56
224.104	-15.56
224.338	-23.56
224.573	-8.56
224.808	-6.56
225.042	-1.56
225.277	-6.56
225.511	-6.56
225.746	12.44
225.98	-0.56
226.215	10.44
226.449	12.44
226.683	11.44
226.918	19.44
227.152	36.44
227.387	23.44
227.621	38.44
227.856	40.44
228.09	49.44
228.324	28.44
228.559	48.44
228.793	65.44
229.027	68.44
229.262	58.44
229.496	54.44
229.73	64.44
229.964	70.44
230.199	59.44
230.433	68.44
230.667	80.44
230.901	65.44
231.136	78.44
231.37	82.44
231.604	81.44
231.838	87.44
232.072	74.44
232.306	76.44
232.541	86.44
232.775	83.44
233.009	90.44
233.243	92.44
233.477	73.44
233.711	76.44
233.945	87.44
234.179	58.44
234.413	73.44
234.647	83.44
234.881	86.44
235.115	96.44
235.349	84.44
235.583	86.44
235.817	78.44
236.051	76.44
236.285	72.44
236.519	76.44
236.753	77.44
236.987	76.44
237.221	74.44
237.455	80.44
237.689	65.44
237.922	68.44
238.156	76.44
238.39	71.44
238.624	88.44
238.858	82.44
239.091	77.44
239.325	68.44
239.559	81.44
239.793	86.44
240.027	84.44
240.26	82.44
240.494	72.44
240.728	78.44
240.961	69.44
241.195	80.44
241.429	80.44
241.662	80.44
241.896	78.44
242.13	83.44
242.363	91.44
242.597	74.44
242.83	72.44
243.064	82.44
243.298	78.44
243.531	67.44
243.765	80.44
243.998	76.44
244.232	70.44
244.465	78.44
244.699	89.44
244.932	76.44
245.166	66.44
245.399	72.44
245.633	72.44
245.866	80.44
246.099	69.44
246.333	83.44
246.566	82.44
246.8	69.44
247.033	98.44
247.266	79.44
247.5	68.44
247.733	67.44
247.966	80.44
248.2	74.44
248.433	62.44
248.666	64.44
248.899	72.44
249.133	66.44
249.366	71.44
249.599	90.44
249.832	80.44
250.066	71.44
250.299	83.44
250.532	75.44
250.765	81.44
250.998	78.44
251.231	82.44
251.465	81.44
251.698	82.44
251.931	73.44
252.164	84.44
252.397	80.44
252.63	72.44
252.863	74.44
253.096	81.44
253.329	90.44
253.562	84.44
253.795	73.44
254.028	78.44
254.261	84.44
254.494	76.44
254.727	76.44
254.96	96.44
255.193	82.44
255.426	73.44
255.659	73.44
255.892	80.44
256.124	80.44
256.357	74.44
256.59	79.44
256.823	61.44
257.056	78.44
257.289	85.44
257.521	68.44
257.754	72.44
257.987	88.44
258.22	83.44
258.452	91.44
258.685	69.44
258.918	69.44
259.151	70.44
259.383	80.44
259.616	66.44
259.849	66.44
260.081	75.44
260.314	86.44
260.547	77.44
260.779	80.44
261.012	78.44
261.244	89.44
261.477	79.44
261.71	95.44
261.942	88.44
262.175	73.44
262.407	78.44
262.64	83.44
262.872	71.44
263.105	76.44
263.337	79.44
263.57	92.44
263.802	80.44
264.035	80.44
264.267	78.44
264.499	69.44
264.732	82.44
264.964	86.44
265.197	86.44
265.429	98.44
265.661	97.44
265.894	67.44
266.126	93.44
266.358	87.44
266.591	77.44
266.823	98.44
267.055	75.44
267.287	80.44
267.52	77.44
267.752	84.44
267.984	84.44
268.216	75.44
268.448	81.44
268.681	72.44
268.913	85.44
269.145	84.44
269.377	67.44
269.609	86.44
269.841	72.44
270.073	71.44
270.306	78.44
270.538	81.44
270.77	79.44
271.002	87.44
271.234	94.44
271.466	87.44
271.698	82.44
271.93	85.44
272.162	86.44
272.394	83.44
272.626	87.44
272.858	88.44
273.09	91.44
273.322	74.44
273.553	85.44
273.785	80.44
274.017	85.44
274.249	84.44
274.481	88.44
274.713	92.44
274.945	72.44
275.176	66.44
275.408	84.44
275.64	86.44
275.872	74.44
276.104	80.44
276.335	79.44
276.567	66.44
276.799	81.44
277.031	79.44
277.262	74.44
277.494	74.44
277.726	87.44
277.957	86.44
278.189	85.44
278.421	80.44
278.652	74.44
278.884	76.44
279.115	73.44
279.347	84.44
279.579	78.44
279.81	90.44
280.042	68.44
280.273	65.44
280.505	66.44
280.736	74.44
280.968	86.44
281.199	74.44
281.431	81.44
281.662	63.44
281.894	78.44
282.125	77.44
282.356	64.44
282.588	91.44
282.819	85.44
283.051	77.44
283.282	74.44
283.513	85.44
283.745	87.44
283.976	67.44
284.207	92.44
284.439	88.44
284.67	89.44
284.901	68.44
285.132	86.44
285.364	84.44
285.595	92.44
285.826	102.44
286.057	91.44
286.288	81.44
286.52	78.44
286.751	77.44
286.982	97.44
287.213	82.44
287.444	77.44
287.675	79.44
287.906	89.44
288.138	84.44
288.369	81.44
288.6	83.44
288.831	76.44
289.062	82.44
289.293	72.44
289.524	76.44
289.755	81.44
289.986	91.44
290.217	74.44
290.448	91.44
290.679	80.44
290.91	74.44
291.141	78.44
291.371	75.44
291.602	79.44
291.833	78.44
292.064	75.44
292.295	74.44
292.526	88.44
292.757	83.44
292.987	88.44
293.218	87.44
293.449	90.44
293.68	87.44
293.91	80.44
294.141	99.44
294.372	76.44
294.603	80.44
294.833	79.44
295.064	77.44
295.295	69.44
295.525	72.44
295.756	72.44
295.987	90.44
296.217	83.44
296.448	84.44
296.679	84.44
296.909	89.44
297.14	78.44
297.37	95.44
297.601	82.44
297.831	82.44
298.062	77.44
298.292	84.44
298.523	84.44
298.753	82.44
298.984	80.44
299.214	82.44
299.445	71.44
299.675	72.44
299.905	84.44
300.136	93.44
300.366	74.44
300.597	78.44
300.827	88.44
301.057	80.44
301.288	79.44
301.518	74.44
301.748	60.44
301.979	83.44
302.209	90.44
302.439	83.44
302.669	95.44
302.9	90.44
303.13	86.44
303.36	79.44
303.59	75.44
303.82	96.44
304.051	83.44
304.281	77.44
304.511	89.44
304.741	88.44
304.971	82.44
305.201	80.44
305.431	88.44
305.661	90.44
305.891	84.44
306.121	93.44
306.352	90.44
306.582	68.44
306.812	82.44
307.042	88.44
307.272	91.44
307.502	71.44
307.731	82.44
307.961	84.44
308.191	82.44
308.421	80.44
308.651	82.44
308.881	78.44
309.111	78.44
309.341	73.44
309.571	90.44
309.8	94.44
310.03	82.44
310.26	88.44
310.49	91.44
310.72	87.44
310.949	86.44
311.179	85.44
311.409	86.44
311.639	83.44
311.868	82.44
312.098	90.44
312.328	75.44
312.557	84.44
312.787	66.44
313.017	77.44
313.246	72.44
313.476	94.44
313.706	79.44
313.935	84.44
314.165	85.44
314.394	82.44
314.624	80.44
314.853	66.44
315.083	70.44
315.312	76.44
315.542	72.44
315.771	80.44
316.001	93.44
316.23	86.44
316.46	82.44
316.689	79.44
316.919	81.44
317.148	73.44
317.377	82.44
317.607	92.44
317.836	91.44
318.065	88.44
318.295	80.44
318.524	84.44
318.753	86.44
318.983	82.44
319.212	84.44
319.441	82.44
319.67	82.44
319.9	83.44
320.129	93.44
320.358	78.44
320.587	82.44
320.816	78.44
321.046	74.44
321.275	60.44
321.504	76.44
321.733	86.44
321.962	86.44
322.191	84.44
322.42	88.44
322.649	73.44
322.878	93.44
323.108	72.44
323.337	94.44
323.566	72.44
323.795	80.44
324.024	80.44
324.253	79.44
324.482	73.44
324.71	63.44
324.939	78.44
325.168	82.44
325.397	77.44
325.626	77.44
325.855	82.44
326.084	77.44
326.313	80.44
326.542	82.44
326.77	76.44
326.999	81.44
327.228	76.44
327.457	81.44
327.686	69.44
327.914	79.44
328.143	83.44
328.372	87.44
328.6	79.44
328.829	87.44
329.058	84.44
329.287	79.44
329.515	84.44
329.744	82.44
329.972	85.44
330.201	80.44
330.43	101.44
330.658	79.44
330.887	78.44
331.115	88.44
331.344	74.44
331.572	78.44
331.801	82.44
332.03	81.44
332.258	84.44
332.486	92.44
332.715	83.44
332.943	76.44
333.172	82.44
333.4	74.44
333.629	75.44
333.857	79.44
334.085	76.44
334.314	84.44
334.542	87.44
334.771	78.44
334.999	85.44
335.227	84.44
335.455	78.44
335.684	71.44
335.912	82.44
336.14	76.44
336.369	97.44
336.597	81.44
336.825	90.44
337.053	81.44
337.281	89.44
337.51	85.44
337.738	72.44
337.966	84.44
338.194	86.44
338.422	90.44
338.65	97.44
338.878	80.44
339.106	83.44
339.334	83.44
339.562	100.44
339.79	86.44
340.018	87.44
340.246	64.44
340.474	73.44
340.702	82.44
340.93	84.44
341.158	90.44
341.386	92.44
341.614	80.44
341.842	94.44
342.07	89.44
342.298	92.44
342.526	83.44
342.754	76.44
342.981	82.44
343.209	88.44
343.437	103.44
343.665	72.44
343.893	70.44
344.12	73.44
344.348	88.44
344.576	87.44
344.804	81.44
345.031	84.44
345.259	76.44
345.487	82.44
345.714	71.44
345.942	69.44
346.17	90.44
346.397	76.44
346.625	76.44
346.853	87.44
347.08	75.44
347.308	76.44
347.535	88.44
347.763	80.44
347.99	77.44
348.218	95.44
348.445	71.44
348.673	70.44
348.9	80.44
349.128	82.44
349.355	92.44
349.583	87.44
349.81	73.44
350.037	84.44
350.265	74.44
350.492	94.44
350.72	67.44
350.947	74.44
351.174	86.44
351.402	91.44
351.629	79.44
351.856	82.44
352.083	73.44
352.311	81.44
352.538	62.44
352.765	83.44
352.992	90.44
353.22	102.44
353.447	82.44
353.674	74.44
353.901	96.44
354.128	89.44
354.355	76.44
354.583	81.44
354.81	90.44
355.037	97.44
355.264	74.44
355.491	80.44
355.718	99.44
355.945	86.44
356.172	87.44
356.399	83.44
356.626	80.44
356.853	79.44
357.08	77.44
357.307	86.44
357.534	78.44
357.761	82.44
357.988	77.44
358.215	72.44
358.441	71.44
358.668	90.44
358.895	70.44
359.122	74.44
359.349	81.44
359.576	76.44
359.802	80.44
360.029	80.44
360.256	71.44
360.483	62.44
360.709	75.44
360.936	88.44
361.163	81.44
361.39	86.44
361.616	78.44
361.843	82.44
362.07	80.44
362.296	88.44
362.523	75.44
362.749	68.44
362.976	65.44
363.203	75.44
363.429	80.44
363.656	94.44
363.882	88.44
364.109	79.44
364.335	69.44
364.562	78.44
364.788	77.44
365.015	83.44
365.241	79.44
365.468	81.44
365.694	88.44
365.92	96.44
366.147	88.44
366.373	73.44
366.599	83.44
366.826	71.44
367.052	66.44
367.278	84.44
367.505	80.44
367.731	71.44
367.957	82.44
368.184	72.44
368.41	62.44
368.636	72.44
368.862	74.44
369.089	64.44
369.315	73.44
369.541	85.44
369.767	86.44
369.993	85.44
370.219	94.44
370.445	72.44
370.672	86.44
370.898	82.44
371.124	75.44
371.35	83.44
371.576	78.44
371.802	84.44
372.028	79.44
372.254	78.44
372.48	66.44
372.706	68.44
372.932	87.44
373.158	72.44
373.384	78.44
373.61	77.44
373.835	90.44
374.061	80.44
374.287	67.44
374.513	83.44
374.739	78.44
374.965	70.44
375.191	84.44
375.416	85.44
375.642	83.44
375.868	76.44
376.094	74.44
376.319	78.44
376.545	83.44
376.771	92.44
376.997	78.44
377.222	72.44
377.448	71.44
377.674	76.44
377.899	74.44
378.125	82.44
378.35	89.44
378.576	78.44
378.802	79.44
379.027	77.44
379.253	79.44
379.478	75.44
379.704	72.44
379.929	77.44
380.155	72.44
380.38	90.44
380.606	78.44
380.831	82.44
381.057	88.44
381.282	82.44
381.507	74.44
381.733	94.44
381.958	90.44
382.184	72.44
382.409	83.44
382.634	74.44
382.86	84.44
383.085	87.44
383.31	62.44
383.535	82.44
383.761	70.44
383.986	88.44
384.211	78.44
384.436	83.44
384.662	70.44
384.887	70.44
385.112	80.44
385.337	82.44
385.562	69.44
385.787	74.44
386.013	84.44
386.238	74.44
386.463	76.44
386.688	89.44
386.913	77.44
387.138	76.44
387.363	90.44
387.588	78.44
387.813	77.44
388.038	93.44
388.263	80.44
388.488	69.44
388.713	73.44
388.938	87.44
389.163	66.44
389.387	81.44
389.612	79.44
389.837	80.44
390.062	65.44
390.287	82.44
390.512	75.44
390.736	89.44
390.961	78.44
391.186	85.44
391.411	82.44
391.636	78.44
391.86	86.44
392.085	86.44
392.31	83.44
392.534	83.44
392.759	80.44
392.984	76.44
393.208	78.44
393.433	84.44
393.658	91.44
393.882	85.44
394.107	82.44
394.331	78.44
394.556	96.44
394.78	72.44
395.005	81.44
395.229	91.44
395.454	66.44
395.678	58.44
395.903	77.44
396.127	75.44
396.352	83.44
396.576	93.44
396.801	74.44
397.025	74.44
397.249	70.44
397.474	64.44
397.698	67.44
397.922	69.44
398.147	78.44
398.371	74.44
398.595	77.44
398.82	69.44
399.044	69.44
399.268	73.44
399.492	81.44
399.717	85.44
399.941	77.44
400.165	84.44
400.389	69.44
400.613	90.44
400.837	76.44
401.062	80.44
401.286	64.44
401.51	69.44
401.734	89.44
401.958	82.44
402.182	77.44
402.406	72.44
402.63	67.44
402.854	76.44
403.078	78.44
403.302	76.44
403.526	73.44
403.75	66.44
403.974	74.44
404.198	79.44
404.422	75.44
404.645	82.44
404.869	80.44
405.093	91.44
405.317	58.44
405.541	76.44
405.765	85.44
405.988	89.44
406.212	75.44
406.436	68.44
406.66	80.44
406.883	79.44
407.107	69.44
407.331	76.44
407.555	94.44
407.778	80.44
408.002	68.44
408.226	78.44
408.449	88.44
408.673	69.44
408.896	74.44
409.12	91.44
409.344	76.44
409.567	80.44
409.791	75.44
410.014	74.44
410.238	82.44
410.461	79.44
410.685	75.44
410.908	77.44
411.132	90.44
411.355	69.44
411.578	81.44
411.802	88.44
412.025	65.44
412.249	73.44
412.472	67.44
412.695	81.44
412.919	80.44
413.142	63.44
413.365	58.44
413.589	78.44
413.812	72.44
414.035	87.44
414.258	87.44
414.482	72.44
414.705	71.44
414.928	76.44
415.151	77.44
415.374	86.44
415.597	90.44
415.821	83.44
416.044	80.44
416.267	84.44
416.49	75.44
416.713	79.44
416.936	71.44
417.159	64.44
417.382	76.44
417.605	87.44
417.828	78.44
418.051	86.44
418.274	87.44
418.497	91.44
418.72	86.44
418.943	69.44
419.166	75.44
419.389	77.44
419.611	77.44
419.834	74.44
420.057	75.44
420.28	75.44
420.503	88.44
420.726	73.44
420.948	72.44
421.171	66.44
421.394	75.44
421.617	86.44
421.839	80.44
422.062	82.44
422.285	85.44
422.507	89.44
422.73	70.44
422.953	94.44
423.175	74.44
423.398	83.44
423.621	74.44
423.843	77.44
424.066	72.44
424.288	75.44
424.511	91.44
424.733	82.44
424.956	74.44
425.178	74.44
425.401	82.44
425.623	83.44
425.846	80.44
426.068	85.44
426.291	72.44
426.513	91.44
426.735	74.44
426.958	84.44
427.18	88.44
427.402	79.44
427.625	76.44
427.847	70.44
428.069	91.44
428.292	85.44
428.514	86.44
428.736	78.44
428.958	65.44
429.181	81.44
429.403	62.44
429.625	74.44
429.847	78.44
430.069	78.44
430.292	77.44
430.514	76.44
430.736	75.44
430.958	69.44
431.18	74.44
431.402	75.44
431.624	84.44
431.846	75.44
432.068	75.44
432.29	71.44
432.512	76.44
432.734	66.44
432.956	80.44
433.178	80.44
433.4	80.44
433.622	83.44
433.844	85.44
434.066	74.44
434.287	79.44
434.509	65.44
434.731	68.44
434.953	92.44
435.175	78.44
435.397	79.44
435.618	77.44
435.84	80.44
436.062	78.44
436.284	69.44
436.505	77.44
436.727	72.44
436.949	78.44
437.17	71.44
437.392	67.44
437.614	68.44
437.835	61.44
438.057	74.44
438.278	87.44
438.5	69.44
438.721	91.44
438.943	81.44
439.165	61.44
439.386	84.44
439.608	88.44
439.829	86.44
440.05	76.44
440.272	84.44
440.493	80.44
440.715	66.44
440.936	82.44
441.158	73.44
441.379	61.44
441.6	64.44
441.822	87.44
442.043	68.44
442.264	89.44
442.486	88.44
442.707	74.44
442.928	92.44
443.149	80.44
443.371	71.44
443.592	77.44
443.813	73.44
444.034	81.44
444.255	80.44
444.476	83.44
444.698	83.44
444.919	94.44
445.14	154.44
445.361	88.44
445.582	77.44
445.803	79.44
446.024	75.44
446.245	76.44
446.466	79.44
446.687	80.44
446.908	73.44
447.129	79.44
447.35	75.44
447.571	63.44
447.792	74.44
448.013	76.44
448.234	83.44
448.455	72.44
448.675	64.44
448.896	98.44
449.117	68.44
449.338	65.44
449.559	61.44
449.779	69.44
450	66.44
450.221	80.44
450.442	91.44
450.662	94.44
450.883	79.44
451.104	68.44
451.324	77.44
451.545	77.44
451.766	83.44
451.986	78.44
452.207	73.44
452.428	78.44
452.648	80.44
452.869	75.44
453.089	88.44
453.31	63.44
453.53	82.44
453.751	74.44
453.971	77.44
454.192	73.44
454.412	83.44
454.633	82.44
454.853	74.44
455.073	74.44
455.294	74.44
455.514	90.44
455.734	69.44
455.955	84.44
456.175	72.44
456.395	82.44
456.616	79.44
456.836	65.44
457.056	74.44
457.276	57.44
457.497	73.44
457.717	68.44
457.937	72.44
458.157	80.44
458.377	83.44
458.598	65.44
458.818	66.44
459.038	80.44
459.258	78.44
459.478	77.44
459.698	67.44
459.918	80.44
460.138	80.44
460.358	74.44
460.578	99.44
460.798	72.44
461.018	97.44
461.238	76.44
461.458	72.44
461.678	73.44
461.898	88.44
462.118	80.44
462.338	82.44
462.558	75.44
462.777	77.44
462.997	82.44
463.217	68.44
463.437	74.44
463.657	70.44
463.876	90.44
464.096	77.44
464.316	72.44
464.536	67.44
464.755	80.44
464.975	81.44
465.195	76.44
465.414	84.44
465.634	86.44
465.854	76.44
466.073	86.44
466.293	68.44
466.512	81.44
466.732	74.44
466.951	78.44
467.171	80.44
467.391	81.44
467.61	82.44
467.829	74.44
468.049	79.44
468.268	74.44
468.488	77.44
468.707	73.44
468.927	83.44
469.146	79.44
469.365	74.44
469.585	74.44
469.804	73.44
470.023	75.44
470.243	76.44
470.462	73.44
470.681	76.44
470.901	64.44
471.12	75.44
471.339	90.44
471.558	80.44
471.777	88.44
471.997	76.44
472.216	79.44
472.435	67.44
472.654	76.44
472.873	84.44
473.092	66.44
473.311	69.44
473.53	68.44
473.749	102.44
473.968	82.44
474.187	100.44
474.406	80.44
474.625	90.44
474.844	93.44
475.063	80.44
475.282	102.44
475.501	83.44
475.72	92.44
475.939	94.44
476.158	74.44
476.377	78.44
476.596	91.44
476.814	75.44
477.033	76.44
477.252	79.44
477.471	83.44
477.69	76.44
477.908	71.44
478.127	90.44
478.346	86.44
478.564	87.44
478.783	82.44
479.002	84.44
479.22	69.44
479.439	79.44
479.658	78.44
479.876	72.44
480.095	82.44
480.313	73.44
480.532	78.44
480.751	85.44
480.969	81.44
481.188	77.44
481.406	75.44
481.624	78.44
481.843	90.44
482.061	71.44
482.28	72.44
482.498	76.44
482.717	86.44
482.935	82.44
483.153	80.44
483.372	79.44
483.59	84.44
483.808	83.44
484.027	77.44
484.245	76.44
484.463	74.44
484.681	80.44
484.9	79.44
485.118	82.44
485.336	70.44
485.554	79.44
485.772	74.44
485.99	85.44
486.209	71.44
486.427	65.44
486.645	77.44
486.863	75.44
487.081	84.44
487.299	70.44
487.517	71.44
487.735	94.44
487.953	92.44
488.171	89.44
488.389	72.44
488.607	89.44
488.825	83.44
489.043	81.44
489.261	94.44
489.479	68.44
489.696	74.44
489.914	85.44
490.132	71.44
490.35	81.44
490.568	77.44
490.786	86.44
491.003	78.44
491.221	82.44
491.439	80.44
491.657	79.44
491.874	83.44
492.092	66.44
492.31	92.44
492.527	91.44
492.745	76.44
492.963	84.44
493.18	88.44
493.398	66.44
493.615	76.44
493.833	80.44
494.05	82.44
494.268	69.44
494.485	76.44
494.703	75.44
494.92	77.44
495.138	75.44
495.355	77.44
495.573	72.44
495.79	86.44
496.008	83.44
496.225	80.44
496.442	84.44
496.66	81.44
496.877	82.44
497.094	77.44
497.312	74.44
497.529	78.44
497.746	83.44
497.963	71.44
498.181	81.44
498.398	78.44
498.615	90.44
498.832	84.44
499.049	86.44
499.267	74.44
499.484	75.44
499.701	66.44
499.918	80.44
500.135	85.44
500.352	78.44
500.569	69.44
500.786	80.44
501.003	86.44
501.22	72.44
501.437	86.44
501.654	68.44
501.871	78.44
502.088	87.44
502.305	90.44
502.522	71.44
502.739	77.44
502.956	66.44
503.172	69.44
503.389	69.44
503.606	83.44
503.823	95.44
504.04	91.44
504.256	89.44
504.473	85.44
504.69	80.44
504.907	84.44
505.123	88.44
505.34	75.44
505.557	63.44
505.773	74.44
505.99	91.44
506.207	76.44
506.423	66.44
506.64	83.44
506.856	81.44
507.073	78.44
507.289	79.44
507.506	77.44
507.722	89.44
507.939	75.44
508.155	82.44
508.372	74.44
508.588	79.44
508.805	74.44
509.021	73.44
509.238	84.44
509.454	80.44
509.67	74.44
509.887	93.44
510.103	82.44
510.319	88.44
510.536	78.44
510.752	80.44
510.968	96.44
511.184	94.44
511.401	82.44
511.617	88.44
511.833	79.44
512.049	82.44
512.265	73.44
512.481	69.44
512.698	80.44
512.914	87.44
513.13	92.44
513.346	82.44
513.562	74.44
513.778	87.44
513.994	77.44
514.21	78.44
514.426	74.44
514.642	75.44
514.858	89.44
515.074	84.44
515.29	94.44
515.506	98.44
515.721	88.44
515.937	78.44
516.153	72.44
516.369	76.44
516.585	60.44
516.801	72.44
517.016	74.44
517.232	71.44
517.448	80.44
517.664	78.44
517.879	89.44
518.095	83.44
518.311	84.44
518.527	91.44
518.742	76.44
518.958	90.44
519.173	97.44
519.389	90.44
519.605	95.44
519.82	79.44
520.036	72.44
