Data from Background_2_HRD10591_00017.txt Node
Date: Wed Nov 05 14:47:05 EST 2025
User: Yrep
Spectrometer: HR+D1059
Trigger mode: 1
Integration Time (sec): 1.000000E-1
Scans to average: 1
Electric dark correction enabled: true
Nonlinearity correction enabled: false
Boxcar width: 0
XAxis mode: Wavelengths
Number of Pixels in Spectrum: 2048
>>>>>Begin Spectral Data<<<<<
223.165	-8.62
223.4	-8.62
223.635	-8.62
223.869	-11.62
224.104	-5.62
224.338	1.38
224.573	-19.62
224.808	-18.62
225.042	-24.62
225.277	-13.62
225.511	5.38
225.746	-1.62
225.98	4.38
226.215	11.38
226.449	22.38
226.683	22.38
226.918	7.38
227.152	29.38
227.387	26.38
227.621	33.38
227.856	46.38
228.09	35.38
228.324	57.38
228.559	76.38
228.793	69.38
229.027	59.38
229.262	61.38
229.496	69.38
229.73	55.38
229.964	61.38
230.199	71.38
230.433	81.38
230.667	72.38
230.901	95.38
231.136	56.38
231.37	73.38
231.604	71.38
231.838	76.38
232.072	71.38
232.306	67.38
232.541	73.38
232.775	73.38
233.009	77.38
233.243	72.38
233.477	87.38
233.711	75.38
233.945	77.38
234.179	72.38
234.413	85.38
234.647	80.38
234.881	78.38
235.115	74.38
235.349	85.38
235.583	77.38
235.817	80.38
236.051	60.38
236.285	66.38
236.519	78.38
236.753	74.38
236.987	85.38
237.221	68.38
237.455	78.38
237.689	74.38
237.922	72.38
238.156	75.38
238.39	76.38
238.624	70.38
238.858	64.38
239.091	60.38
239.325	80.38
239.559	77.38
239.793	84.38
240.027	67.38
240.26	72.38
240.494	60.38
240.728	58.38
240.961	69.38
241.195	79.38
241.429	79.38
241.662	63.38
241.896	70.38
242.13	67.38
242.363	70.38
242.597	66.38
242.83	84.38
243.064	84.38
243.298	72.38
243.531	72.38
243.765	69.38
243.998	70.38
244.232	92.38
244.465	80.38
244.699	82.38
244.932	83.38
245.166	84.38
245.399	81.38
245.633	71.38
245.866	62.38
246.099	74.38
246.333	73.38
246.566	67.38
246.8	78.38
247.033	63.38
247.266	81.38
247.5	67.38
247.733	68.38
247.966	72.38
248.2	82.38
248.433	56.38
248.666	69.38
248.899	81.38
249.133	74.38
249.366	59.38
249.599	87.38
249.832	75.38
250.066	85.38
250.299	64.38
250.532	74.38
250.765	71.38
250.998	71.38
251.231	89.38
251.465	63.38
251.698	74.38
251.931	89.38
252.164	71.38
252.397	78.38
252.63	78.38
252.863	71.38
253.096	70.38
253.329	66.38
253.562	85.38
253.795	67.38
254.028	74.38
254.261	75.38
254.494	64.38
254.727	71.38
254.96	71.38
255.193	89.38
255.426	83.38
255.659	73.38
255.892	74.38
256.124	63.38
256.357	71.38
256.59	75.38
256.823	67.38
257.056	70.38
257.289	73.38
257.521	80.38
257.754	81.38
257.987	84.38
258.22	78.38
258.452	75.38
258.685	78.38
258.918	67.38
259.151	72.38
259.383	67.38
259.616	69.38
259.849	75.38
260.081	78.38
260.314	87.38
260.547	73.38
260.779	81.38
261.012	74.38
261.244	73.38
261.477	78.38
261.71	62.38
261.942	73.38
262.175	69.38
262.407	68.38
262.64	68.38
262.872	84.38
263.105	75.38
263.337	66.38
263.57	83.38
263.802	77.38
264.035	72.38
264.267	59.38
264.499	81.38
264.732	73.38
264.964	67.38
265.197	71.38
265.429	85.38
265.661	83.38
265.894	91.38
266.126	80.38
266.358	79.38
266.591	86.38
266.823	84.38
267.055	74.38
267.287	88.38
267.52	77.38
267.752	91.38
267.984	67.38
268.216	75.38
268.448	79.38
268.681	81.38
268.913	84.38
269.145	83.38
269.377	79.38
269.609	94.38
269.841	75.38
270.073	77.38
270.306	60.38
270.538	68.38
270.77	80.38
271.002	65.38
271.234	72.38
271.466	80.38
271.698	81.38
271.93	81.38
272.162	83.38
272.394	73.38
272.626	78.38
272.858	79.38
273.09	67.38
273.322	75.38
273.553	74.38
273.785	70.38
274.017	83.38
274.249	79.38
274.481	75.38
274.713	74.38
274.945	88.38
275.176	73.38
275.408	87.38
275.64	82.38
275.872	75.38
276.104	75.38
276.335	85.38
276.567	81.38
276.799	72.38
277.031	75.38
277.262	80.38
277.494	92.38
277.726	69.38
277.957	72.38
278.189	72.38
278.421	70.38
278.652	76.38
278.884	85.38
279.115	80.38
279.347	83.38
279.579	81.38
279.81	82.38
280.042	64.38
280.273	88.38
280.505	74.38
280.736	72.38
280.968	82.38
281.199	85.38
281.431	82.38
281.662	81.38
281.894	72.38
282.125	74.38
282.356	76.38
282.588	73.38
282.819	75.38
283.051	92.38
283.282	81.38
283.513	78.38
283.745	88.38
283.976	84.38
284.207	80.38
284.439	85.38
284.67	80.38
284.901	81.38
285.132	72.38
285.364	64.38
285.595	79.38
285.826	75.38
286.057	71.38
286.288	85.38
286.52	77.38
286.751	89.38
286.982	75.38
287.213	82.38
287.444	87.38
287.675	82.38
287.906	75.38
288.138	76.38
288.369	83.38
288.6	85.38
288.831	84.38
289.062	84.38
289.293	68.38
289.524	77.38
289.755	75.38
289.986	83.38
290.217	91.38
290.448	84.38
290.679	86.38
290.91	87.38
291.141	97.38
291.371	71.38
291.602	93.38
291.833	93.38
292.064	78.38
292.295	77.38
292.526	86.38
292.757	84.38
292.987	77.38
293.218	91.38
293.449	75.38
293.68	79.38
293.91	80.38
294.141	76.38
294.372	80.38
294.603	77.38
294.833	70.38
295.064	75.38
295.295	75.38
295.525	80.38
295.756	78.38
295.987	80.38
296.217	79.38
296.448	76.38
296.679	71.38
296.909	77.38
297.14	70.38
297.37	74.38
297.601	67.38
297.831	85.38
298.062	81.38
298.292	79.38
298.523	81.38
298.753	72.38
298.984	87.38
299.214	72.38
299.445	63.38
299.675	76.38
299.905	94.38
300.136	85.38
300.366	86.38
300.597	84.38
300.827	79.38
301.057	78.38
301.288	87.38
301.518	79.38
301.748	74.38
301.979	86.38
302.209	70.38
302.439	77.38
302.669	80.38
302.9	72.38
303.13	87.38
303.36	84.38
303.59	87.38
303.82	89.38
304.051	71.38
304.281	74.38
304.511	78.38
304.741	91.38
304.971	87.38
305.201	71.38
305.431	63.38
305.661	69.38
305.891	77.38
306.121	67.38
306.352	83.38
306.582	78.38
306.812	72.38
307.042	74.38
307.272	71.38
307.502	85.38
307.731	86.38
307.961	84.38
308.191	79.38
308.421	73.38
308.651	85.38
308.881	86.38
309.111	76.38
309.341	75.38
309.571	83.38
309.8	85.38
310.03	93.38
310.26	62.38
310.49	73.38
310.72	73.38
310.949	85.38
311.179	77.38
311.409	94.38
311.639	81.38
311.868	63.38
312.098	74.38
312.328	79.38
312.557	90.38
312.787	88.38
313.017	65.38
313.246	89.38
313.476	73.38
313.706	80.38
313.935	65.38
314.165	77.38
314.394	75.38
314.624	91.38
314.853	78.38
315.083	78.38
315.312	87.38
315.542	73.38
315.771	68.38
316.001	69.38
316.23	88.38
316.46	65.38
316.689	83.38
316.919	81.38
317.148	80.38
317.377	94.38
317.607	91.38
317.836	88.38
318.065	65.38
318.295	74.38
318.524	78.38
318.753	91.38
318.983	66.38
319.212	70.38
319.441	83.38
319.67	88.38
319.9	77.38
320.129	78.38
320.358	75.38
320.587	70.38
320.816	82.38
321.046	62.38
321.275	68.38
321.504	84.38
321.733	87.38
321.962	79.38
322.191	75.38
322.42	77.38
322.649	80.38
322.878	79.38
323.108	92.38
323.337	93.38
323.566	81.38
323.795	77.38
324.024	83.38
324.253	87.38
324.482	75.38
324.71	62.38
324.939	86.38
325.168	91.38
325.397	73.38
325.626	67.38
325.855	76.38
326.084	84.38
326.313	79.38
326.542	80.38
326.77	80.38
326.999	83.38
327.228	73.38
327.457	85.38
327.686	87.38
327.914	78.38
328.143	88.38
328.372	79.38
328.6	93.38
328.829	76.38
329.058	78.38
329.287	90.38
329.515	77.38
329.744	79.38
329.972	75.38
330.201	65.38
330.43	97.38
330.658	92.38
330.887	72.38
331.115	69.38
331.344	87.38
331.572	75.38
331.801	67.38
332.03	86.38
332.258	80.38
332.486	71.38
332.715	81.38
332.943	91.38
333.172	75.38
333.4	79.38
333.629	74.38
333.857	85.38
334.085	87.38
334.314	89.38
334.542	87.38
334.771	89.38
334.999	69.38
335.227	79.38
335.455	80.38
335.684	76.38
335.912	90.38
336.14	69.38
336.369	81.38
336.597	67.38
336.825	94.38
337.053	85.38
337.281	80.38
337.51	62.38
337.738	86.38
337.966	92.38
338.194	77.38
338.422	70.38
338.65	69.38
338.878	85.38
339.106	72.38
339.334	84.38
339.562	79.38
339.79	76.38
340.018	72.38
340.246	90.38
340.474	75.38
340.702	87.38
340.93	88.38
341.158	73.38
341.386	89.38
341.614	82.38
341.842	86.38
342.07	77.38
342.298	75.38
342.526	75.38
342.754	80.38
342.981	87.38
343.209	77.38
343.437	90.38
343.665	88.38
343.893	77.38
344.12	75.38
344.348	66.38
344.576	72.38
344.804	68.38
345.031	71.38
345.259	71.38
345.487	66.38
345.714	77.38
345.942	79.38
346.17	72.38
346.397	80.38
346.625	73.38
346.853	87.38
347.08	76.38
347.308	72.38
347.535	64.38
347.763	73.38
347.99	74.38
348.218	89.38
348.445	76.38
348.673	77.38
348.9	70.38
349.128	77.38
349.355	79.38
349.583	79.38
349.81	95.38
350.037	73.38
350.265	85.38
350.492	82.38
350.72	77.38
350.947	69.38
351.174	68.38
351.402	75.38
351.629	74.38
351.856	80.38
352.083	66.38
352.311	77.38
352.538	75.38
352.765	74.38
352.992	90.38
353.22	81.38
353.447	80.38
353.674	80.38
353.901	80.38
354.128	79.38
354.355	74.38
354.583	74.38
354.81	71.38
355.037	61.38
355.264	85.38
355.491	85.38
355.718	76.38
355.945	72.38
356.172	82.38
356.399	93.38
356.626	71.38
356.853	87.38
357.08	97.38
357.307	77.38
357.534	77.38
357.761	78.38
357.988	91.38
358.215	73.38
358.441	85.38
358.668	83.38
358.895	80.38
359.122	81.38
359.349	80.38
359.576	81.38
359.802	89.38
360.029	98.38
360.256	82.38
360.483	76.38
360.709	79.38
360.936	91.38
361.163	77.38
361.39	76.38
361.616	72.38
361.843	85.38
362.07	75.38
362.296	79.38
362.523	56.38
362.749	75.38
362.976	83.38
363.203	74.38
363.429	77.38
363.656	73.38
363.882	85.38
364.109	85.38
364.335	72.38
364.562	75.38
364.788	85.38
365.015	88.38
365.241	73.38
365.468	81.38
365.694	83.38
365.92	91.38
366.147	72.38
366.373	85.38
366.599	83.38
366.826	91.38
367.052	86.38
367.278	88.38
367.505	70.38
367.731	75.38
367.957	70.38
368.184	81.38
368.41	77.38
368.636	87.38
368.862	65.38
369.089	74.38
369.315	85.38
369.541	79.38
369.767	86.38
369.993	82.38
370.219	72.38
370.445	77.38
370.672	89.38
370.898	77.38
371.124	84.38
371.35	77.38
371.576	68.38
371.802	75.38
372.028	85.38
372.254	73.38
372.48	80.38
372.706	84.38
372.932	88.38
373.158	80.38
373.384	80.38
373.61	74.38
373.835	75.38
374.061	75.38
374.287	76.38
374.513	83.38
374.739	69.38
374.965	64.38
375.191	71.38
375.416	78.38
375.642	78.38
375.868	81.38
376.094	75.38
376.319	65.38
376.545	62.38
376.771	67.38
376.997	80.38
377.222	84.38
377.448	75.38
377.674	75.38
377.899	94.38
378.125	73.38
378.35	79.38
378.576	83.38
378.802	75.38
379.027	72.38
379.253	91.38
379.478	75.38
379.704	74.38
379.929	67.38
380.155	85.38
380.38	72.38
380.606	76.38
380.831	80.38
381.057	67.38
381.282	69.38
381.507	73.38
381.733	76.38
381.958	84.38
382.184	71.38
382.409	73.38
382.634	67.38
382.86	83.38
383.085	75.38
383.31	68.38
383.535	75.38
383.761	91.38
383.986	76.38
384.211	94.38
384.436	73.38
384.662	82.38
384.887	79.38
385.112	80.38
385.337	74.38
385.562	72.38
385.787	77.38
386.013	88.38
386.238	85.38
386.463	99.38
386.688	76.38
386.913	79.38
387.138	88.38
387.363	81.38
387.588	84.38
387.813	84.38
388.038	83.38
388.263	67.38
388.488	74.38
388.713	95.38
388.938	81.38
389.163	79.38
389.387	76.38
389.612	76.38
389.837	90.38
390.062	73.38
390.287	77.38
390.512	77.38
390.736	84.38
390.961	73.38
391.186	62.38
391.411	54.38
391.636	79.38
391.86	79.38
392.085	66.38
392.31	78.38
392.534	79.38
392.759	82.38
392.984	75.38
393.208	80.38
393.433	89.38
393.658	79.38
393.882	67.38
394.107	69.38
394.331	80.38
394.556	88.38
394.78	77.38
395.005	71.38
395.229	73.38
395.454	77.38
395.678	79.38
395.903	85.38
396.127	76.38
396.352	88.38
396.576	79.38
396.801	76.38
397.025	73.38
397.249	67.38
397.474	73.38
397.698	95.38
397.922	75.38
398.147	62.38
398.371	80.38
398.595	86.38
398.82	89.38
399.044	76.38
399.268	82.38
399.492	78.38
399.717	78.38
399.941	85.38
400.165	72.38
400.389	87.38
400.613	81.38
400.837	71.38
401.062	82.38
401.286	75.38
401.51	87.38
401.734	72.38
401.958	76.38
402.182	79.38
402.406	75.38
402.63	72.38
402.854	64.38
403.078	79.38
403.302	71.38
403.526	71.38
403.75	62.38
403.974	94.38
404.198	78.38
404.422	69.38
404.645	91.38
404.869	75.38
405.093	76.38
405.317	89.38
405.541	87.38
405.765	86.38
405.988	66.38
406.212	82.38
406.436	88.38
406.66	84.38
406.883	61.38
407.107	77.38
407.331	71.38
407.555	86.38
407.778	69.38
408.002	83.38
408.226	71.38
408.449	85.38
408.673	72.38
408.896	60.38
409.12	76.38
409.344	78.38
409.567	79.38
409.791	71.38
410.014	68.38
410.238	72.38
410.461	86.38
410.685	71.38
410.908	72.38
411.132	78.38
411.355	86.38
411.578	75.38
411.802	77.38
412.025	83.38
412.249	77.38
412.472	68.38
412.695	83.38
412.919	85.38
413.142	89.38
413.365	73.38
413.589	76.38
413.812	79.38
414.035	79.38
414.258	77.38
414.482	62.38
414.705	71.38
414.928	91.38
415.151	67.38
415.374	74.38
415.597	76.38
415.821	78.38
416.044	76.38
416.267	85.38
416.49	80.38
416.713	71.38
416.936	56.38
417.159	76.38
417.382	74.38
417.605	71.38
417.828	80.38
418.051	82.38
418.274	71.38
418.497	82.38
418.72	82.38
418.943	85.38
419.166	90.38
419.389	95.38
419.611	74.38
419.834	74.38
420.057	81.38
420.28	82.38
420.503	69.38
420.726	77.38
420.948	81.38
421.171	81.38
421.394	77.38
421.617	78.38
421.839	73.38
422.062	61.38
422.285	83.38
422.507	67.38
422.73	73.38
422.953	84.38
423.175	74.38
423.398	72.38
423.621	66.38
423.843	79.38
424.066	72.38
424.288	71.38
424.511	73.38
424.733	71.38
424.956	76.38
425.178	79.38
425.401	82.38
425.623	62.38
425.846	67.38
426.068	69.38
426.291	74.38
426.513	80.38
426.735	82.38
426.958	70.38
427.18	70.38
427.402	81.38
427.625	63.38
427.847	71.38
428.069	98.38
428.292	79.38
428.514	74.38
428.736	66.38
428.958	88.38
429.181	70.38
429.403	79.38
429.625	65.38
429.847	71.38
430.069	85.38
430.292	73.38
430.514	68.38
430.736	75.38
430.958	85.38
431.18	80.38
431.402	81.38
431.624	75.38
431.846	75.38
432.068	73.38
432.29	80.38
432.512	75.38
432.734	83.38
432.956	83.38
433.178	70.38
433.4	80.38
433.622	79.38
433.844	66.38
434.066	81.38
434.287	71.38
434.509	70.38
434.731	87.38
434.953	92.38
435.175	77.38
435.397	75.38
435.618	71.38
435.84	64.38
436.062	77.38
436.284	62.38
436.505	78.38
436.727	77.38
436.949	69.38
437.17	89.38
437.392	75.38
437.614	70.38
437.835	83.38
438.057	80.38
438.278	71.38
438.5	57.38
438.721	66.38
438.943	71.38
439.165	77.38
439.386	82.38
439.608	82.38
439.829	63.38
440.05	78.38
440.272	76.38
440.493	73.38
440.715	80.38
440.936	70.38
441.158	79.38
441.379	69.38
441.6	56.38
441.822	79.38
442.043	67.38
442.264	76.38
442.486	83.38
442.707	87.38
442.928	72.38
443.149	66.38
443.371	80.38
443.592	75.38
443.813	76.38
444.034	79.38
444.255	103.38
444.476	72.38
444.698	62.38
444.919	71.38
445.14	155.38
445.361	104.38
445.582	61.38
445.803	82.38
446.024	72.38
446.245	88.38
446.466	81.38
446.687	62.38
446.908	80.38
447.129	79.38
447.35	85.38
447.571	80.38
447.792	80.38
448.013	82.38
448.234	70.38
448.455	67.38
448.675	74.38
448.896	81.38
449.117	83.38
449.338	83.38
449.559	57.38
449.779	79.38
450	79.38
450.221	72.38
450.442	71.38
450.662	73.38
450.883	78.38
451.104	72.38
451.324	81.38
451.545	75.38
451.766	73.38
451.986	75.38
452.207	76.38
452.428	74.38
452.648	75.38
452.869	77.38
453.089	78.38
453.31	72.38
453.53	56.38
453.751	77.38
453.971	92.38
454.192	94.38
454.412	88.38
454.633	84.38
454.853	68.38
455.073	69.38
455.294	77.38
455.514	79.38
455.734	81.38
455.955	94.38
456.175	74.38
456.395	83.38
456.616	89.38
456.836	63.38
457.056	83.38
457.276	73.38
457.497	74.38
457.717	71.38
457.937	76.38
458.157	75.38
458.377	71.38
458.598	87.38
458.818	85.38
459.038	90.38
459.258	82.38
459.478	75.38
459.698	72.38
459.918	88.38
460.138	74.38
460.358	64.38
460.578	75.38
460.798	69.38
461.018	73.38
461.238	79.38
461.458	80.38
461.678	78.38
461.898	83.38
462.118	87.38
462.338	80.38
462.558	79.38
462.777	64.38
462.997	75.38
463.217	71.38
463.437	74.38
463.657	87.38
463.876	64.38
464.096	80.38
464.316	78.38
464.536	73.38
464.755	75.38
464.975	68.38
465.195	76.38
465.414	69.38
465.634	68.38
465.854	74.38
466.073	76.38
466.293	86.38
466.512	73.38
466.732	86.38
466.951	71.38
467.171	74.38
467.391	74.38
467.61	71.38
467.829	81.38
468.049	76.38
468.268	64.38
468.488	77.38
468.707	63.38
468.927	69.38
469.146	69.38
469.365	66.38
469.585	74.38
469.804	70.38
470.023	73.38
470.243	80.38
470.462	86.38
470.681	79.38
470.901	72.38
471.12	69.38
471.339	80.38
471.558	69.38
471.777	85.38
471.997	78.38
472.216	73.38
472.435	73.38
472.654	65.38
472.873	79.38
473.092	71.38
473.311	61.38
473.53	78.38
473.749	71.38
473.968	67.38
474.187	80.38
474.406	81.38
474.625	86.38
474.844	73.38
475.063	79.38
475.282	76.38
475.501	82.38
475.72	88.38
475.939	89.38
476.158	73.38
476.377	79.38
476.596	85.38
476.814	81.38
477.033	74.38
477.252	71.38
477.471	79.38
477.69	74.38
477.908	81.38
478.127	74.38
478.346	89.38
478.564	66.38
478.783	83.38
479.002	70.38
479.22	68.38
479.439	79.38
479.658	85.38
479.876	73.38
480.095	83.38
480.313	80.38
480.532	72.38
480.751	76.38
480.969	66.38
481.188	63.38
481.406	83.38
481.624	66.38
481.843	78.38
482.061	79.38
482.28	89.38
482.498	76.38
482.717	73.38
482.935	77.38
483.153	75.38
483.372	63.38
483.59	81.38
483.808	80.38
484.027	79.38
484.245	83.38
484.463	51.38
484.681	73.38
484.9	64.38
485.118	86.38
485.336	81.38
485.554	97.38
485.772	83.38
485.99	76.38
486.209	75.38
486.427	83.38
486.645	67.38
486.863	67.38
487.081	77.38
487.299	70.38
487.517	75.38
487.735	75.38
487.953	69.38
488.171	78.38
488.389	87.38
488.607	88.38
488.825	74.38
489.043	58.38
489.261	86.38
489.479	79.38
489.696	81.38
489.914	79.38
490.132	93.38
490.35	71.38
490.568	82.38
490.786	83.38
491.003	77.38
491.221	71.38
491.439	72.38
491.657	89.38
491.874	85.38
492.092	87.38
492.31	85.38
492.527	75.38
492.745	85.38
492.963	80.38
493.18	61.38
493.398	68.38
493.615	67.38
493.833	86.38
494.05	82.38
494.268	79.38
494.485	85.38
494.703	80.38
494.92	69.38
495.138	83.38
495.355	74.38
495.573	67.38
495.79	71.38
496.008	72.38
496.225	73.38
496.442	63.38
496.66	87.38
496.877	70.38
497.094	62.38
497.312	78.38
497.529	83.38
497.746	65.38
497.963	71.38
498.181	65.38
498.398	63.38
498.615	80.38
498.832	81.38
499.049	77.38
499.267	83.38
499.484	87.38
499.701	80.38
499.918	93.38
500.135	74.38
500.352	62.38
500.569	69.38
500.786	58.38
501.003	83.38
501.22	86.38
501.437	75.38
501.654	82.38
501.871	64.38
502.088	79.38
502.305	73.38
502.522	82.38
502.739	82.38
502.956	84.38
503.172	77.38
503.389	81.38
503.606	75.38
503.823	74.38
504.04	73.38
504.256	86.38
504.473	76.38
504.69	85.38
504.907	81.38
505.123	78.38
505.34	75.38
505.557	76.38
505.773	72.38
505.99	71.38
506.207	73.38
506.423	91.38
506.64	71.38
506.856	83.38
507.073	74.38
507.289	77.38
507.506	84.38
507.722	80.38
507.939	89.38
508.155	80.38
508.372	77.38
508.588	67.38
508.805	94.38
509.021	76.38
509.238	79.38
509.454	76.38
509.67	67.38
509.887	90.38
510.103	81.38
510.319	74.38
510.536	67.38
510.752	75.38
510.968	71.38
511.184	80.38
511.401	73.38
511.617	82.38
511.833	71.38
512.049	83.38
512.265	89.38
512.481	75.38
512.698	78.38
512.914	73.38
513.13	74.38
513.346	91.38
513.562	87.38
513.778	78.38
513.994	84.38
514.21	76.38
514.426	91.38
514.642	63.38
514.858	84.38
515.074	81.38
515.29	79.38
515.506	80.38
515.721	78.38
515.937	81.38
516.153	97.38
516.369	79.38
516.585	61.38
516.801	85.38
517.016	87.38
517.232	82.38
517.448	65.38
517.664	76.38
517.879	73.38
518.095	72.38
518.311	70.38
518.527	91.38
518.742	83.38
518.958	74.38
519.173	87.38
519.389	88.38
519.605	83.38
519.82	85.38
520.036	70.38
520.251	73.38
