Data from Background_2_HRD10591_00050.txt Node
Date: Wed Nov 05 14:47:21 EST 2025
User: Yrep
Spectrometer: HR+D1059
Trigger mode: 1
Integration Time (sec): 1.000000E-1
Scans to average: 1
Electric dark correction enabled: true
Nonlinearity correction enabled: false
Boxcar width: 0
XAxis mode: Wavelengths
Number of Pixels in Spectrum: 2048
>>>>>Begin Spectral Data<<<<<
223.165	-15.81
223.4	-15.81
223.635	-15.81
223.869	-9.81
224.104	-21.81
224.338	-14.81
224.573	-1.81
224.808	-14.81
225.042	-10.81
225.277	-10.81
225.511	-12.81
225.746	10.19
225.98	2.19
226.215	9.19
226.449	23.19
226.683	23.19
226.918	20.19
227.152	25.19
227.387	35.19
227.621	33.19
227.856	44.19
228.09	50.19
228.324	56.19
228.559	65.19
228.793	65.19
229.027	62.19
229.262	70.19
229.496	69.19
229.73	69.19
229.964	75.19
230.199	64.19
230.433	64.19
230.667	84.19
230.901	77.19
231.136	75.19
231.37	77.19
231.604	79.19
231.838	72.19
232.072	71.19
232.306	91.19
232.541	82.19
232.775	93.19
233.009	85.19
233.243	84.19
233.477	82.19
233.711	84.19
233.945	88.19
234.179	89.19
234.413	74.19
234.647	85.19
234.881	81.19
235.115	88.19
235.349	81.19
235.583	78.19
235.817	82.19
236.051	85.19
236.285	82.19
236.519	66.19
236.753	89.19
236.987	75.19
237.221	76.19
237.455	72.19
237.689	86.19
237.922	83.19
238.156	83.19
238.39	84.19
238.624	59.19
238.858	81.19
239.091	85.19
239.325	79.19
239.559	83.19
239.793	71.19
240.027	74.19
240.26	68.19
240.494	74.19
240.728	85.19
240.961	77.19
241.195	69.19
241.429	80.19
241.662	80.19
241.896	86.19
242.13	63.19
242.363	73.19
242.597	72.19
242.83	82.19
243.064	87.19
243.298	74.19
243.531	83.19
243.765	73.19
243.998	89.19
244.232	67.19
244.465	81.19
244.699	68.19
244.932	82.19
245.166	79.19
245.399	74.19
245.633	57.19
245.866	75.19
246.099	83.19
246.333	92.19
246.566	91.19
246.8	83.19
247.033	66.19
247.266	72.19
247.5	89.19
247.733	74.19
247.966	69.19
248.2	73.19
248.433	74.19
248.666	66.19
248.899	80.19
249.133	77.19
249.366	73.19
249.599	83.19
249.832	80.19
250.066	78.19
250.299	84.19
250.532	81.19
250.765	84.19
250.998	79.19
251.231	82.19
251.465	66.19
251.698	67.19
251.931	81.19
252.164	82.19
252.397	66.19
252.63	79.19
252.863	70.19
253.096	71.19
253.329	85.19
253.562	78.19
253.795	84.19
254.028	77.19
254.261	64.19
254.494	88.19
254.727	86.19
254.96	86.19
255.193	77.19
255.426	88.19
255.659	96.19
255.892	81.19
256.124	84.19
256.357	60.19
256.59	88.19
256.823	88.19
257.056	66.19
257.289	78.19
257.521	81.19
257.754	94.19
257.987	83.19
258.22	84.19
258.452	75.19
258.685	94.19
258.918	81.19
259.151	82.19
259.383	88.19
259.616	69.19
259.849	68.19
260.081	82.19
260.314	65.19
260.547	62.19
260.779	78.19
261.012	69.19
261.244	77.19
261.477	91.19
261.71	85.19
261.942	89.19
262.175	86.19
262.407	72.19
262.64	83.19
262.872	78.19
263.105	86.19
263.337	92.19
263.57	75.19
263.802	91.19
264.035	89.19
264.267	69.19
264.499	76.19
264.732	77.19
264.964	72.19
265.197	92.19
265.429	86.19
265.661	84.19
265.894	89.19
266.126	80.19
266.358	102.19
266.591	86.19
266.823	80.19
267.055	88.19
267.287	84.19
267.52	85.19
267.752	86.19
267.984	91.19
268.216	83.19
268.448	97.19
268.681	75.19
268.913	83.19
269.145	80.19
269.377	97.19
269.609	77.19
269.841	74.19
270.073	85.19
270.306	75.19
270.538	85.19
270.77	83.19
271.002	74.19
271.234	82.19
271.466	85.19
271.698	87.19
271.93	95.19
272.162	93.19
272.394	88.19
272.626	76.19
272.858	65.19
273.09	96.19
273.322	75.19
273.553	94.19
273.785	86.19
274.017	90.19
274.249	66.19
274.481	78.19
274.713	73.19
274.945	97.19
275.176	80.19
275.408	82.19
275.64	74.19
275.872	84.19
276.104	89.19
276.335	68.19
276.567	74.19
276.799	85.19
277.031	80.19
277.262	68.19
277.494	74.19
277.726	87.19
277.957	84.19
278.189	80.19
278.421	82.19
278.652	78.19
278.884	78.19
279.115	83.19
279.347	88.19
279.579	87.19
279.81	82.19
280.042	90.19
280.273	94.19
280.505	92.19
280.736	77.19
280.968	82.19
281.199	88.19
281.431	83.19
281.662	68.19
281.894	80.19
282.125	82.19
282.356	88.19
282.588	77.19
282.819	85.19
283.051	87.19
283.282	80.19
283.513	72.19
283.745	90.19
283.976	81.19
284.207	86.19
284.439	80.19
284.67	85.19
284.901	80.19
285.132	82.19
285.364	88.19
285.595	89.19
285.826	84.19
286.057	81.19
286.288	90.19
286.52	99.19
286.751	85.19
286.982	86.19
287.213	92.19
287.444	72.19
287.675	97.19
287.906	88.19
288.138	84.19
288.369	84.19
288.6	88.19
288.831	85.19
289.062	67.19
289.293	73.19
289.524	76.19
289.755	86.19
289.986	75.19
290.217	79.19
290.448	85.19
290.679	99.19
290.91	88.19
291.141	77.19
291.371	81.19
291.602	95.19
291.833	88.19
292.064	92.19
292.295	82.19
292.526	73.19
292.757	84.19
292.987	90.19
293.218	88.19
293.449	94.19
293.68	75.19
293.91	78.19
294.141	80.19
294.372	80.19
294.603	84.19
294.833	84.19
295.064	87.19
295.295	80.19
295.525	90.19
295.756	94.19
295.987	70.19
296.217	85.19
296.448	83.19
296.679	78.19
296.909	91.19
297.14	102.19
297.37	80.19
297.601	85.19
297.831	85.19
298.062	90.19
298.292	94.19
298.523	74.19
298.753	69.19
298.984	96.19
299.214	76.19
299.445	78.19
299.675	78.19
299.905	76.19
300.136	99.19
300.366	94.19
300.597	82.19
300.827	96.19
301.057	81.19
301.288	71.19
301.518	93.19
301.748	86.19
301.979	87.19
302.209	89.19
302.439	85.19
302.669	89.19
302.9	83.19
303.13	90.19
303.36	87.19
303.59	85.19
303.82	85.19
304.051	94.19
304.281	91.19
304.511	89.19
304.741	93.19
304.971	78.19
305.201	90.19
305.431	81.19
305.661	80.19
305.891	77.19
306.121	68.19
306.352	75.19
306.582	94.19
306.812	81.19
307.042	89.19
307.272	94.19
307.502	89.19
307.731	76.19
307.961	78.19
308.191	80.19
308.421	74.19
308.651	101.19
308.881	89.19
309.111	93.19
309.341	77.19
309.571	80.19
309.8	80.19
310.03	76.19
310.26	86.19
310.49	83.19
310.72	90.19
310.949	73.19
311.179	87.19
311.409	89.19
311.639	97.19
311.868	78.19
312.098	92.19
312.328	94.19
312.557	83.19
312.787	92.19
313.017	89.19
313.246	84.19
313.476	80.19
313.706	79.19
313.935	82.19
314.165	82.19
314.394	94.19
314.624	85.19
314.853	88.19
315.083	86.19
315.312	81.19
315.542	87.19
315.771	82.19
316.001	91.19
316.23	85.19
316.46	90.19
316.689	84.19
316.919	83.19
317.148	88.19
317.377	101.19
317.607	96.19
317.836	81.19
318.065	90.19
318.295	88.19
318.524	84.19
318.753	78.19
318.983	97.19
319.212	80.19
319.441	76.19
319.67	77.19
319.9	73.19
320.129	59.19
320.358	83.19
320.587	76.19
320.816	92.19
321.046	91.19
321.275	100.19
321.504	81.19
321.733	78.19
321.962	86.19
322.191	66.19
322.42	66.19
322.649	80.19
322.878	92.19
323.108	101.19
323.337	99.19
323.566	88.19
323.795	91.19
324.024	89.19
324.253	72.19
324.482	94.19
324.71	83.19
324.939	94.19
325.168	87.19
325.397	100.19
325.626	94.19
325.855	87.19
326.084	73.19
326.313	90.19
326.542	81.19
326.77	89.19
326.999	101.19
327.228	88.19
327.457	80.19
327.686	69.19
327.914	81.19
328.143	81.19
328.372	85.19
328.6	82.19
328.829	62.19
329.058	82.19
329.287	96.19
329.515	81.19
329.744	86.19
329.972	80.19
330.201	83.19
330.43	79.19
330.658	86.19
330.887	79.19
331.115	79.19
331.344	93.19
331.572	81.19
331.801	74.19
332.03	87.19
332.258	72.19
332.486	78.19
332.715	89.19
332.943	84.19
333.172	91.19
333.4	97.19
333.629	96.19
333.857	81.19
334.085	88.19
334.314	70.19
334.542	83.19
334.771	84.19
334.999	82.19
335.227	75.19
335.455	92.19
335.684	86.19
335.912	75.19
336.14	67.19
336.369	86.19
336.597	84.19
336.825	92.19
337.053	90.19
337.281	78.19
337.51	89.19
337.738	88.19
337.966	82.19
338.194	88.19
338.422	85.19
338.65	86.19
338.878	90.19
339.106	82.19
339.334	75.19
339.562	80.19
339.79	76.19
340.018	66.19
340.246	85.19
340.474	83.19
340.702	85.19
340.93	72.19
341.158	97.19
341.386	86.19
341.614	66.19
341.842	83.19
342.07	79.19
342.298	87.19
342.526	87.19
342.754	89.19
342.981	84.19
343.209	70.19
343.437	76.19
343.665	85.19
343.893	77.19
344.12	85.19
344.348	89.19
344.576	82.19
344.804	80.19
345.031	85.19
345.259	82.19
345.487	76.19
345.714	84.19
345.942	81.19
346.17	80.19
346.397	89.19
346.625	76.19
346.853	88.19
347.08	83.19
347.308	68.19
347.535	89.19
347.763	92.19
347.99	88.19
348.218	82.19
348.445	77.19
348.673	74.19
348.9	88.19
349.128	84.19
349.355	78.19
349.583	84.19
349.81	82.19
350.037	78.19
350.265	90.19
350.492	86.19
350.72	86.19
350.947	71.19
351.174	86.19
351.402	83.19
351.629	84.19
351.856	88.19
352.083	80.19
352.311	82.19
352.538	93.19
352.765	96.19
352.992	81.19
353.22	88.19
353.447	76.19
353.674	88.19
353.901	93.19
354.128	93.19
354.355	79.19
354.583	98.19
354.81	90.19
355.037	79.19
355.264	76.19
355.491	88.19
355.718	80.19
355.945	86.19
356.172	82.19
356.399	72.19
356.626	82.19
356.853	81.19
357.08	82.19
357.307	79.19
357.534	93.19
357.761	70.19
357.988	82.19
358.215	105.19
358.441	78.19
358.668	77.19
358.895	77.19
359.122	95.19
359.349	77.19
359.576	78.19
359.802	85.19
360.029	75.19
360.256	84.19
360.483	62.19
360.709	91.19
360.936	94.19
361.163	88.19
361.39	85.19
361.616	75.19
361.843	93.19
362.07	94.19
362.296	85.19
362.523	87.19
362.749	89.19
362.976	81.19
363.203	96.19
363.429	73.19
363.656	75.19
363.882	100.19
364.109	96.19
364.335	67.19
364.562	66.19
364.788	86.19
365.015	83.19
365.241	75.19
365.468	95.19
365.694	81.19
365.92	68.19
366.147	88.19
366.373	82.19
366.599	74.19
366.826	88.19
367.052	80.19
367.278	97.19
367.505	69.19
367.731	83.19
367.957	85.19
368.184	92.19
368.41	79.19
368.636	93.19
368.862	84.19
369.089	84.19
369.315	76.19
369.541	85.19
369.767	91.19
369.993	90.19
370.219	65.19
370.445	79.19
370.672	90.19
370.898	95.19
371.124	82.19
371.35	74.19
371.576	74.19
371.802	79.19
372.028	84.19
372.254	81.19
372.48	77.19
372.706	81.19
372.932	78.19
373.158	81.19
373.384	83.19
373.61	94.19
373.835	80.19
374.061	88.19
374.287	93.19
374.513	70.19
374.739	92.19
374.965	77.19
375.191	72.19
375.416	84.19
375.642	81.19
375.868	89.19
376.094	75.19
376.319	68.19
376.545	64.19
376.771	67.19
376.997	71.19
377.222	80.19
377.448	89.19
377.674	78.19
377.899	84.19
378.125	82.19
378.35	80.19
378.576	80.19
378.802	84.19
379.027	85.19
379.253	96.19
379.478	90.19
379.704	78.19
379.929	80.19
380.155	87.19
380.38	84.19
380.606	72.19
380.831	79.19
381.057	75.19
381.282	81.19
381.507	78.19
381.733	85.19
381.958	71.19
382.184	80.19
382.409	86.19
382.634	79.19
382.86	72.19
383.085	74.19
383.31	71.19
383.535	69.19
383.761	80.19
383.986	93.19
384.211	66.19
384.436	73.19
384.662	81.19
384.887	85.19
385.112	83.19
385.337	82.19
385.562	79.19
385.787	102.19
386.013	94.19
386.238	76.19
386.463	77.19
386.688	101.19
386.913	92.19
387.138	90.19
387.363	80.19
387.588	74.19
387.813	92.19
388.038	80.19
388.263	76.19
388.488	80.19
388.713	95.19
388.938	88.19
389.163	84.19
389.387	84.19
389.612	70.19
389.837	92.19
390.062	89.19
390.287	77.19
390.512	86.19
390.736	84.19
390.961	91.19
391.186	91.19
391.411	84.19
391.636	72.19
391.86	82.19
392.085	80.19
392.31	92.19
392.534	88.19
392.759	89.19
392.984	74.19
393.208	89.19
393.433	88.19
393.658	70.19
393.882	84.19
394.107	84.19
394.331	76.19
394.556	91.19
394.78	92.19
395.005	92.19
395.229	89.19
395.454	69.19
395.678	77.19
395.903	81.19
396.127	80.19
396.352	82.19
396.576	85.19
396.801	81.19
397.025	82.19
397.249	80.19
397.474	95.19
397.698	80.19
397.922	70.19
398.147	86.19
398.371	82.19
398.595	86.19
398.82	88.19
399.044	96.19
399.268	86.19
399.492	84.19
399.717	91.19
399.941	73.19
400.165	88.19
400.389	84.19
400.613	93.19
400.837	89.19
401.062	80.19
401.286	84.19
401.51	92.19
401.734	87.19
401.958	79.19
402.182	80.19
402.406	76.19
402.63	81.19
402.854	93.19
403.078	74.19
403.302	80.19
403.526	95.19
403.75	83.19
403.974	90.19
404.198	90.19
404.422	83.19
404.645	75.19
404.869	85.19
405.093	85.19
405.317	65.19
405.541	72.19
405.765	88.19
405.988	72.19
406.212	77.19
406.436	85.19
406.66	78.19
406.883	78.19
407.107	81.19
407.331	79.19
407.555	84.19
407.778	82.19
408.002	78.19
408.226	73.19
408.449	77.19
408.673	92.19
408.896	89.19
409.12	82.19
409.344	72.19
409.567	80.19
409.791	85.19
410.014	79.19
410.238	80.19
410.461	97.19
410.685	84.19
410.908	81.19
411.132	89.19
411.355	92.19
411.578	72.19
411.802	66.19
412.025	76.19
412.249	64.19
412.472	72.19
412.695	80.19
412.919	89.19
413.142	73.19
413.365	80.19
413.589	77.19
413.812	77.19
414.035	78.19
414.258	78.19
414.482	76.19
414.705	99.19
414.928	94.19
415.151	92.19
415.374	73.19
415.597	97.19
415.821	89.19
416.044	88.19
416.267	76.19
416.49	75.19
416.713	84.19
416.936	89.19
417.159	84.19
417.382	76.19
417.605	85.19
417.828	75.19
418.051	80.19
418.274	84.19
418.497	82.19
418.72	84.19
418.943	85.19
419.166	77.19
419.389	82.19
419.611	80.19
419.834	78.19
420.057	68.19
420.28	67.19
420.503	78.19
420.726	75.19
420.948	78.19
421.171	80.19
421.394	64.19
421.617	86.19
421.839	85.19
422.062	98.19
422.285	69.19
422.507	73.19
422.73	86.19
422.953	65.19
423.175	80.19
423.398	96.19
423.621	77.19
423.843	88.19
424.066	84.19
424.288	92.19
424.511	81.19
424.733	89.19
424.956	77.19
425.178	76.19
425.401	84.19
425.623	82.19
425.846	69.19
426.068	82.19
426.291	71.19
426.513	80.19
426.735	82.19
426.958	79.19
427.18	70.19
427.402	81.19
427.625	85.19
427.847	84.19
428.069	69.19
428.292	70.19
428.514	76.19
428.736	79.19
428.958	64.19
429.181	79.19
429.403	76.19
429.625	67.19
429.847	93.19
430.069	88.19
430.292	90.19
430.514	79.19
430.736	82.19
430.958	71.19
431.18	84.19
431.402	90.19
431.624	71.19
431.846	92.19
432.068	88.19
432.29	70.19
432.512	88.19
432.734	79.19
432.956	86.19
433.178	82.19
433.4	80.19
433.622	82.19
433.844	91.19
434.066	85.19
434.287	82.19
434.509	71.19
434.731	78.19
434.953	84.19
435.175	85.19
435.397	78.19
435.618	99.19
435.84	81.19
436.062	71.19
436.284	80.19
436.505	74.19
436.727	73.19
436.949	76.19
437.17	82.19
437.392	77.19
437.614	85.19
437.835	66.19
438.057	86.19
438.278	81.19
438.5	82.19
438.721	77.19
438.943	97.19
439.165	80.19
439.386	78.19
439.608	80.19
439.829	65.19
440.05	78.19
440.272	89.19
440.493	84.19
440.715	88.19
440.936	92.19
441.158	83.19
441.379	80.19
441.6	84.19
441.822	89.19
442.043	90.19
442.264	83.19
442.486	82.19
442.707	78.19
442.928	94.19
443.149	81.19
443.371	84.19
443.592	85.19
443.813	80.19
444.034	77.19
444.255	88.19
444.476	74.19
444.698	80.19
444.919	80.19
445.14	134.19
445.361	118.19
445.582	79.19
445.803	74.19
446.024	79.19
446.245	87.19
446.466	92.19
446.687	70.19
446.908	76.19
447.129	67.19
447.35	70.19
447.571	84.19
447.792	79.19
448.013	88.19
448.234	75.19
448.455	77.19
448.675	88.19
448.896	84.19
449.117	75.19
449.338	91.19
449.559	81.19
449.779	85.19
450	69.19
450.221	82.19
450.442	82.19
450.662	66.19
450.883	78.19
451.104	83.19
451.324	75.19
451.545	73.19
451.766	79.19
451.986	79.19
452.207	83.19
452.428	74.19
452.648	87.19
452.869	87.19
453.089	87.19
453.31	86.19
453.53	95.19
453.751	83.19
453.971	84.19
454.192	75.19
454.412	73.19
454.633	70.19
454.853	85.19
455.073	93.19
455.294	57.19
455.514	84.19
455.734	80.19
455.955	88.19
456.175	92.19
456.395	90.19
456.616	77.19
456.836	91.19
457.056	74.19
457.276	77.19
457.497	88.19
457.717	92.19
457.937	83.19
458.157	81.19
458.377	82.19
458.598	89.19
458.818	82.19
459.038	86.19
459.258	88.19
459.478	80.19
459.698	80.19
459.918	76.19
460.138	74.19
460.358	82.19
460.578	82.19
460.798	96.19
461.018	80.19
461.238	76.19
461.458	88.19
461.678	92.19
461.898	80.19
462.118	82.19
462.338	82.19
462.558	81.19
462.777	72.19
462.997	72.19
463.217	80.19
463.437	91.19
463.657	93.19
463.876	74.19
464.096	85.19
464.316	76.19
464.536	75.19
464.755	89.19
464.975	83.19
465.195	88.19
465.414	90.19
465.634	77.19
465.854	85.19
466.073	79.19
466.293	76.19
466.512	86.19
466.732	73.19
466.951	86.19
467.171	85.19
467.391	74.19
467.61	68.19
467.829	64.19
468.049	77.19
468.268	87.19
468.488	84.19
468.707	90.19
468.927	69.19
469.146	91.19
469.365	93.19
469.585	94.19
469.804	90.19
470.023	86.19
470.243	78.19
470.462	63.19
470.681	85.19
470.901	81.19
471.12	92.19
471.339	90.19
471.558	83.19
471.777	74.19
471.997	86.19
472.216	78.19
472.435	86.19
472.654	87.19
472.873	62.19
473.092	80.19
473.311	92.19
473.53	70.19
473.749	80.19
473.968	75.19
474.187	72.19
474.406	90.19
474.625	77.19
474.844	83.19
475.063	83.19
475.282	84.19
475.501	65.19
475.72	92.19
475.939	83.19
476.158	82.19
476.377	86.19
476.596	93.19
476.814	88.19
477.033	72.19
477.252	88.19
477.471	70.19
477.69	88.19
477.908	90.19
478.127	88.19
478.346	83.19
478.564	86.19
478.783	73.19
479.002	94.19
479.22	96.19
479.439	85.19
479.658	93.19
479.876	84.19
480.095	83.19
480.313	88.19
480.532	86.19
480.751	81.19
480.969	96.19
481.188	93.19
481.406	88.19
481.624	90.19
481.843	88.19
482.061	68.19
482.28	82.19
482.498	76.19
482.717	85.19
482.935	84.19
483.153	81.19
483.372	88.19
483.59	91.19
483.808	93.19
484.027	79.19
484.245	96.19
484.463	78.19
484.681	95.19
484.9	67.19
485.118	84.19
485.336	87.19
485.554	82.19
485.772	72.19
485.99	67.19
486.209	74.19
486.427	77.19
486.645	90.19
486.863	85.19
487.081	72.19
487.299	70.19
487.517	86.19
487.735	79.19
487.953	75.19
488.171	89.19
488.389	87.19
488.607	80.19
488.825	83.19
489.043	81.19
489.261	92.19
489.479	83.19
489.696	88.19
489.914	92.19
490.132	77.19
490.35	70.19
490.568	80.19
490.786	80.19
491.003	85.19
491.221	77.19
491.439	98.19
491.657	87.19
491.874	85.19
492.092	90.19
492.31	85.19
492.527	74.19
492.745	84.19
492.963	84.19
493.18	80.19
493.398	90.19
493.615	84.19
493.833	91.19
494.05	82.19
494.268	86.19
494.485	99.19
494.703	82.19
494.92	82.19
495.138	83.19
495.355	80.19
495.573	90.19
495.79	74.19
496.008	91.19
496.225	80.19
496.442	83.19
496.66	92.19
496.877	86.19
497.094	71.19
497.312	79.19
497.529	86.19
497.746	80.19
497.963	80.19
498.181	75.19
498.398	93.19
498.615	82.19
498.832	91.19
499.049	80.19
499.267	79.19
499.484	78.19
499.701	76.19
499.918	88.19
500.135	80.19
500.352	72.19
500.569	80.19
500.786	89.19
501.003	99.19
501.22	89.19
501.437	74.19
501.654	69.19
501.871	75.19
502.088	82.19
502.305	72.19
502.522	87.19
502.739	83.19
502.956	83.19
503.172	71.19
503.389	71.19
503.606	84.19
503.823	85.19
504.04	78.19
504.256	85.19
504.473	84.19
504.69	85.19
504.907	100.19
505.123	93.19
505.34	86.19
505.557	83.19
505.773	75.19
505.99	82.19
506.207	106.19
506.423	84.19
506.64	78.19
506.856	82.19
507.073	85.19
507.289	75.19
507.506	86.19
507.722	81.19
507.939	82.19
508.155	81.19
508.372	80.19
508.588	80.19
508.805	93.19
509.021	88.19
509.238	78.19
509.454	74.19
509.67	87.19
509.887	79.19
510.103	76.19
510.319	79.19
510.536	77.19
510.752	74.19
510.968	74.19
511.184	88.19
511.401	78.19
511.617	97.19
511.833	98.19
512.049	76.19
512.265	64.19
512.481	74.19
512.698	72.19
512.914	83.19
513.13	88.19
513.346	73.19
513.562	73.19
513.778	76.19
513.994	85.19
514.21	89.19
514.426	87.19
514.642	85.19
514.858	89.19
515.074	96.19
515.29	88.19
515.506	65.19
515.721	87.19
515.937	80.19
516.153	78.19
516.369	91.19
516.585	68.19
516.801	84.19
517.016	85.19
517.232	83.19
517.448	73.19
517.664	96.19
517.879	82.19
518.095	89.19
518.311	85.19
518.527	82.19
518.742	86.19
518.958	80.19
519.173	84.19
519.389	81.19
519.605	78.19
519.82	91.19
520.036	80.19
