Data from Background_2_HRD10591_00032.txt Node
Date: Wed Nov 05 14:47:13 EST 2025
User: Yrep
Spectrometer: HR+D1059
Trigger mode: 1
Integration Time (sec): 1.000000E-1
Scans to average: 1
Electric dark correction enabled: true
Nonlinearity correction enabled: false
Boxcar width: 0
XAxis mode: Wavelengths
Number of Pixels in Spectrum: 2048
>>>>>Begin Spectral Data<<<<<
223.165	-18.44
223.4	-18.44
223.635	-18.44
223.869	-21.44
224.104	-23.44
224.338	-15.44
224.573	-31.44
224.808	-18.44
225.042	-2.44
225.277	-22.44
225.511	0.56
225.746	-0.44
225.98	15.56
226.215	25.56
226.449	35.56
226.683	14.56
226.918	33.56
227.152	28.56
227.387	41.56
227.621	34.56
227.856	39.56
228.09	45.56
228.324	49.56
228.559	50.56
228.793	52.56
229.027	51.56
229.262	68.56
229.496	57.56
229.73	79.56
229.964	65.56
230.199	68.56
230.433	73.56
230.667	71.56
230.901	63.56
231.136	76.56
231.37	77.56
231.604	67.56
231.838	84.56
232.072	68.56
232.306	84.56
232.541	81.56
232.775	98.56
233.009	89.56
233.243	83.56
233.477	76.56
233.711	65.56
233.945	78.56
234.179	81.56
234.413	81.56
234.647	79.56
234.881	81.56
235.115	77.56
235.349	74.56
235.583	74.56
235.817	78.56
236.051	81.56
236.285	76.56
236.519	75.56
236.753	84.56
236.987	85.56
237.221	72.56
237.455	55.56
237.689	68.56
237.922	80.56
238.156	72.56
238.39	66.56
238.624	82.56
238.858	87.56
239.091	76.56
239.325	64.56
239.559	67.56
239.793	66.56
240.027	70.56
240.26	73.56
240.494	82.56
240.728	73.56
240.961	53.56
241.195	69.56
241.429	76.56
241.662	73.56
241.896	91.56
242.13	62.56
242.363	81.56
242.597	51.56
242.83	83.56
243.064	82.56
243.298	82.56
243.531	65.56
243.765	78.56
243.998	71.56
244.232	79.56
244.465	87.56
244.699	89.56
244.932	67.56
245.166	82.56
245.399	65.56
245.633	76.56
245.866	64.56
246.099	76.56
246.333	77.56
246.566	72.56
246.8	83.56
247.033	77.56
247.266	78.56
247.5	83.56
247.733	74.56
247.966	68.56
248.2	56.56
248.433	76.56
248.666	83.56
248.899	65.56
249.133	72.56
249.366	72.56
249.599	84.56
249.832	78.56
250.066	70.56
250.299	75.56
250.532	74.56
250.765	87.56
250.998	81.56
251.231	77.56
251.465	80.56
251.698	81.56
251.931	74.56
252.164	76.56
252.397	72.56
252.63	87.56
252.863	76.56
253.096	75.56
253.329	71.56
253.562	75.56
253.795	83.56
254.028	85.56
254.261	75.56
254.494	59.56
254.727	73.56
254.96	76.56
255.193	94.56
255.426	68.56
255.659	75.56
255.892	89.56
256.124	76.56
256.357	80.56
256.59	85.56
256.823	83.56
257.056	79.56
257.289	70.56
257.521	75.56
257.754	80.56
257.987	81.56
258.22	84.56
258.452	64.56
258.685	75.56
258.918	77.56
259.151	77.56
259.383	78.56
259.616	79.56
259.849	75.56
260.081	82.56
260.314	82.56
260.547	83.56
260.779	67.56
261.012	80.56
261.244	98.56
261.477	72.56
261.71	73.56
261.942	80.56
262.175	81.56
262.407	82.56
262.64	59.56
262.872	74.56
263.105	77.56
263.337	83.56
263.57	76.56
263.802	85.56
264.035	70.56
264.267	72.56
264.499	61.56
264.732	86.56
264.964	61.56
265.197	72.56
265.429	86.56
265.661	75.56
265.894	79.56
266.126	73.56
266.358	101.56
266.591	68.56
266.823	89.56
267.055	76.56
267.287	65.56
267.52	81.56
267.752	78.56
267.984	92.56
268.216	91.56
268.448	84.56
268.681	73.56
268.913	76.56
269.145	87.56
269.377	75.56
269.609	88.56
269.841	83.56
270.073	60.56
270.306	89.56
270.538	87.56
270.77	80.56
271.002	79.56
271.234	71.56
271.466	79.56
271.698	74.56
271.93	76.56
272.162	71.56
272.394	71.56
272.626	90.56
272.858	71.56
273.09	88.56
273.322	80.56
273.553	79.56
273.785	84.56
274.017	95.56
274.249	80.56
274.481	93.56
274.713	89.56
274.945	80.56
275.176	82.56
275.408	81.56
275.64	79.56
275.872	81.56
276.104	76.56
276.335	81.56
276.567	83.56
276.799	82.56
277.031	92.56
277.262	89.56
277.494	82.56
277.726	75.56
277.957	79.56
278.189	79.56
278.421	82.56
278.652	77.56
278.884	78.56
279.115	77.56
279.347	86.56
279.579	81.56
279.81	83.56
280.042	93.56
280.273	80.56
280.505	79.56
280.736	88.56
280.968	89.56
281.199	70.56
281.431	67.56
281.662	79.56
281.894	80.56
282.125	69.56
282.356	75.56
282.588	88.56
282.819	79.56
283.051	88.56
283.282	83.56
283.513	67.56
283.745	93.56
283.976	75.56
284.207	81.56
284.439	79.56
284.67	74.56
284.901	85.56
285.132	85.56
285.364	82.56
285.595	87.56
285.826	88.56
286.057	72.56
286.288	77.56
286.52	91.56
286.751	74.56
286.982	83.56
287.213	76.56
287.444	82.56
287.675	89.56
287.906	89.56
288.138	79.56
288.369	84.56
288.6	80.56
288.831	80.56
289.062	89.56
289.293	68.56
289.524	80.56
289.755	83.56
289.986	84.56
290.217	88.56
290.448	78.56
290.679	89.56
290.91	73.56
291.141	81.56
291.371	72.56
291.602	83.56
291.833	79.56
292.064	80.56
292.295	75.56
292.526	77.56
292.757	88.56
292.987	96.56
293.218	74.56
293.449	80.56
293.68	84.56
293.91	79.56
294.141	83.56
294.372	81.56
294.603	68.56
294.833	95.56
295.064	92.56
295.295	75.56
295.525	85.56
295.756	87.56
295.987	88.56
296.217	87.56
296.448	66.56
296.679	87.56
296.909	76.56
297.14	74.56
297.37	85.56
297.601	91.56
297.831	82.56
298.062	91.56
298.292	72.56
298.523	96.56
298.753	85.56
298.984	86.56
299.214	77.56
299.445	80.56
299.675	88.56
299.905	95.56
300.136	85.56
300.366	80.56
300.597	73.56
300.827	79.56
301.057	81.56
301.288	82.56
301.518	90.56
301.748	91.56
301.979	81.56
302.209	89.56
302.439	80.56
302.669	89.56
302.9	85.56
303.13	81.56
303.36	82.56
303.59	79.56
303.82	87.56
304.051	85.56
304.281	85.56
304.511	90.56
304.741	80.56
304.971	77.56
305.201	74.56
305.431	79.56
305.661	67.56
305.891	84.56
306.121	77.56
306.352	82.56
306.582	85.56
306.812	82.56
307.042	75.56
307.272	96.56
307.502	82.56
307.731	80.56
307.961	90.56
308.191	91.56
308.421	85.56
308.651	75.56
308.881	63.56
309.111	91.56
309.341	81.56
309.571	81.56
309.8	74.56
310.03	95.56
310.26	81.56
310.49	93.56
310.72	88.56
310.949	87.56
311.179	70.56
311.409	95.56
311.639	80.56
311.868	83.56
312.098	87.56
312.328	86.56
312.557	85.56
312.787	70.56
313.017	67.56
313.246	92.56
313.476	84.56
313.706	95.56
313.935	85.56
314.165	77.56
314.394	84.56
314.624	58.56
314.853	76.56
315.083	92.56
315.312	75.56
315.542	95.56
315.771	77.56
316.001	92.56
316.23	82.56
316.46	95.56
316.689	81.56
316.919	83.56
317.148	75.56
317.377	90.56
317.607	88.56
317.836	83.56
318.065	70.56
318.295	93.56
318.524	86.56
318.753	81.56
318.983	77.56
319.212	83.56
319.441	79.56
319.67	89.56
319.9	77.56
320.129	91.56
320.358	69.56
320.587	79.56
320.816	87.56
321.046	71.56
321.275	74.56
321.504	83.56
321.733	80.56
321.962	83.56
322.191	91.56
322.42	77.56
322.649	95.56
322.878	80.56
323.108	88.56
323.337	80.56
323.566	86.56
323.795	85.56
324.024	78.56
324.253	88.56
324.482	75.56
324.71	83.56
324.939	82.56
325.168	83.56
325.397	75.56
325.626	81.56
325.855	80.56
326.084	90.56
326.313	77.56
326.542	83.56
326.77	95.56
326.999	95.56
327.228	77.56
327.457	92.56
327.686	94.56
327.914	76.56
328.143	80.56
328.372	85.56
328.6	77.56
328.829	65.56
329.058	89.56
329.287	76.56
329.515	84.56
329.744	77.56
329.972	83.56
330.201	74.56
330.43	81.56
330.658	90.56
330.887	85.56
331.115	79.56
331.344	75.56
331.572	79.56
331.801	69.56
332.03	84.56
332.258	73.56
332.486	79.56
332.715	88.56
332.943	87.56
333.172	82.56
333.4	91.56
333.629	63.56
333.857	85.56
334.085	69.56
334.314	80.56
334.542	87.56
334.771	82.56
334.999	93.56
335.227	95.56
335.455	84.56
335.684	82.56
335.912	83.56
336.14	81.56
336.369	87.56
336.597	81.56
336.825	92.56
337.053	93.56
337.281	81.56
337.51	78.56
337.738	70.56
337.966	90.56
338.194	75.56
338.422	73.56
338.65	75.56
338.878	87.56
339.106	88.56
339.334	82.56
339.562	87.56
339.79	80.56
340.018	93.56
340.246	85.56
340.474	81.56
340.702	83.56
340.93	90.56
341.158	79.56
341.386	75.56
341.614	90.56
341.842	65.56
342.07	73.56
342.298	88.56
342.526	90.56
342.754	95.56
342.981	96.56
343.209	83.56
343.437	99.56
343.665	84.56
343.893	80.56
344.12	87.56
344.348	89.56
344.576	72.56
344.804	73.56
345.031	91.56
345.259	84.56
345.487	83.56
345.714	75.56
345.942	74.56
346.17	86.56
346.397	74.56
346.625	82.56
346.853	77.56
347.08	91.56
347.308	91.56
347.535	92.56
347.763	83.56
347.99	84.56
348.218	82.56
348.445	67.56
348.673	81.56
348.9	85.56
349.128	86.56
349.355	77.56
349.583	92.56
349.81	87.56
350.037	77.56
350.265	58.56
350.492	89.56
350.72	87.56
350.947	86.56
351.174	87.56
351.402	77.56
351.629	79.56
351.856	89.56
352.083	77.56
352.311	92.56
352.538	82.56
352.765	62.56
352.992	79.56
353.22	82.56
353.447	84.56
353.674	97.56
353.901	98.56
354.128	75.56
354.355	81.56
354.583	86.56
354.81	86.56
355.037	82.56
355.264	95.56
355.491	79.56
355.718	88.56
355.945	78.56
356.172	73.56
356.399	76.56
356.626	85.56
356.853	87.56
357.08	84.56
357.307	78.56
357.534	83.56
357.761	88.56
357.988	109.56
358.215	89.56
358.441	80.56
358.668	75.56
358.895	81.56
359.122	81.56
359.349	83.56
359.576	80.56
359.802	76.56
360.029	79.56
360.256	75.56
360.483	82.56
360.709	77.56
360.936	85.56
361.163	87.56
361.39	79.56
361.616	76.56
361.843	83.56
362.07	89.56
362.296	68.56
362.523	73.56
362.749	86.56
362.976	85.56
363.203	87.56
363.429	74.56
363.656	87.56
363.882	90.56
364.109	90.56
364.335	83.56
364.562	87.56
364.788	80.56
365.015	83.56
365.241	99.56
365.468	84.56
365.694	92.56
365.92	75.56
366.147	75.56
366.373	76.56
366.599	75.56
366.826	75.56
367.052	82.56
367.278	80.56
367.505	93.56
367.731	92.56
367.957	95.56
368.184	91.56
368.41	94.56
368.636	74.56
368.862	88.56
369.089	83.56
369.315	87.56
369.541	78.56
369.767	86.56
369.993	85.56
370.219	79.56
370.445	74.56
370.672	83.56
370.898	67.56
371.124	74.56
371.35	85.56
371.576	71.56
371.802	80.56
372.028	88.56
372.254	91.56
372.48	75.56
372.706	60.56
372.932	85.56
373.158	83.56
373.384	76.56
373.61	82.56
373.835	89.56
374.061	79.56
374.287	79.56
374.513	80.56
374.739	69.56
374.965	74.56
375.191	86.56
375.416	85.56
375.642	77.56
375.868	79.56
376.094	89.56
376.319	79.56
376.545	73.56
376.771	74.56
376.997	79.56
377.222	67.56
377.448	81.56
377.674	81.56
377.899	83.56
378.125	83.56
378.35	81.56
378.576	80.56
378.802	79.56
379.027	84.56
379.253	90.56
379.478	92.56
379.704	67.56
379.929	79.56
380.155	76.56
380.38	80.56
380.606	82.56
380.831	66.56
381.057	87.56
381.282	69.56
381.507	88.56
381.733	84.56
381.958	79.56
382.184	76.56
382.409	77.56
382.634	83.56
382.86	67.56
383.085	91.56
383.31	79.56
383.535	95.56
383.761	84.56
383.986	75.56
384.211	82.56
384.436	87.56
384.662	76.56
384.887	77.56
385.112	80.56
385.337	94.56
385.562	90.56
385.787	81.56
386.013	91.56
386.238	79.56
386.463	78.56
386.688	87.56
386.913	73.56
387.138	74.56
387.363	83.56
387.588	75.56
387.813	80.56
388.038	77.56
388.263	79.56
388.488	85.56
388.713	82.56
388.938	80.56
389.163	80.56
389.387	88.56
389.612	91.56
389.837	84.56
390.062	76.56
390.287	76.56
390.512	69.56
390.736	81.56
390.961	77.56
391.186	74.56
391.411	82.56
391.636	90.56
391.86	81.56
392.085	81.56
392.31	91.56
392.534	82.56
392.759	96.56
392.984	84.56
393.208	71.56
393.433	80.56
393.658	69.56
393.882	82.56
394.107	82.56
394.331	88.56
394.556	87.56
394.78	66.56
395.005	75.56
395.229	72.56
395.454	74.56
395.678	81.56
395.903	71.56
396.127	87.56
396.352	80.56
396.576	78.56
396.801	80.56
397.025	83.56
397.249	84.56
397.474	79.56
397.698	85.56
397.922	83.56
398.147	90.56
398.371	99.56
398.595	84.56
398.82	91.56
399.044	89.56
399.268	79.56
399.492	98.56
399.717	96.56
399.941	81.56
400.165	85.56
400.389	95.56
400.613	81.56
400.837	82.56
401.062	76.56
401.286	87.56
401.51	81.56
401.734	80.56
401.958	80.56
402.182	93.56
402.406	77.56
402.63	81.56
402.854	83.56
403.078	88.56
403.302	75.56
403.526	81.56
403.75	86.56
403.974	81.56
404.198	84.56
404.422	85.56
404.645	75.56
404.869	72.56
405.093	79.56
405.317	77.56
405.541	80.56
405.765	82.56
405.988	87.56
406.212	85.56
406.436	77.56
406.66	89.56
406.883	81.56
407.107	77.56
407.331	74.56
407.555	94.56
407.778	87.56
408.002	86.56
408.226	82.56
408.449	74.56
408.673	78.56
408.896	79.56
409.12	78.56
409.344	70.56
409.567	81.56
409.791	96.56
410.014	77.56
410.238	84.56
410.461	76.56
410.685	78.56
410.908	77.56
411.132	88.56
411.355	84.56
411.578	79.56
411.802	90.56
412.025	81.56
412.249	88.56
412.472	78.56
412.695	85.56
412.919	80.56
413.142	83.56
413.365	83.56
413.589	81.56
413.812	103.56
414.035	91.56
414.258	85.56
414.482	83.56
414.705	73.56
414.928	60.56
415.151	70.56
415.374	66.56
415.597	89.56
415.821	78.56
416.044	93.56
416.267	83.56
416.49	77.56
416.713	74.56
416.936	83.56
417.159	83.56
417.382	81.56
417.605	88.56
417.828	90.56
418.051	77.56
418.274	76.56
418.497	90.56
418.72	76.56
418.943	81.56
419.166	86.56
419.389	73.56
419.611	75.56
419.834	86.56
420.057	74.56
420.28	77.56
420.503	73.56
420.726	69.56
420.948	82.56
421.171	84.56
421.394	92.56
421.617	75.56
421.839	83.56
422.062	91.56
422.285	82.56
422.507	71.56
422.73	91.56
422.953	72.56
423.175	83.56
423.398	79.56
423.621	69.56
423.843	88.56
424.066	81.56
424.288	87.56
424.511	79.56
424.733	83.56
424.956	81.56
425.178	95.56
425.401	81.56
425.623	78.56
425.846	81.56
426.068	74.56
426.291	76.56
426.513	86.56
426.735	71.56
426.958	96.56
427.18	79.56
427.402	79.56
427.625	74.56
427.847	80.56
428.069	73.56
428.292	68.56
428.514	82.56
428.736	77.56
428.958	81.56
429.181	87.56
429.403	87.56
429.625	78.56
429.847	73.56
430.069	69.56
430.292	87.56
430.514	90.56
430.736	81.56
430.958	70.56
431.18	90.56
431.402	68.56
431.624	79.56
431.846	76.56
432.068	81.56
432.29	52.56
432.512	81.56
432.734	78.56
432.956	92.56
433.178	86.56
433.4	75.56
433.622	90.56
433.844	86.56
434.066	68.56
434.287	73.56
434.509	69.56
434.731	86.56
434.953	72.56
435.175	91.56
435.397	79.56
435.618	87.56
435.84	95.56
436.062	87.56
436.284	78.56
436.505	75.56
436.727	83.56
436.949	82.56
437.17	82.56
437.392	81.56
437.614	63.56
437.835	75.56
438.057	70.56
438.278	68.56
438.5	84.56
438.721	81.56
438.943	77.56
439.165	88.56
439.386	76.56
439.608	76.56
439.829	85.56
440.05	77.56
440.272	76.56
440.493	75.56
440.715	92.56
440.936	87.56
441.158	78.56
441.379	85.56
441.6	74.56
441.822	80.56
442.043	66.56
442.264	85.56
442.486	78.56
442.707	78.56
442.928	72.56
443.149	81.56
443.371	83.56
443.592	79.56
443.813	93.56
444.034	83.56
444.255	77.56
444.476	70.56
444.698	66.56
444.919	74.56
445.14	142.56
445.361	103.56
445.582	87.56
445.803	87.56
446.024	78.56
446.245	84.56
446.466	73.56
446.687	69.56
446.908	89.56
447.129	88.56
447.35	76.56
447.571	87.56
447.792	75.56
448.013	87.56
448.234	79.56
448.455	85.56
448.675	82.56
448.896	77.56
449.117	77.56
449.338	83.56
449.559	71.56
449.779	85.56
450	73.56
450.221	88.56
450.442	71.56
450.662	82.56
450.883	74.56
451.104	88.56
451.324	79.56
451.545	83.56
451.766	73.56
451.986	79.56
452.207	70.56
452.428	70.56
452.648	72.56
452.869	86.56
453.089	80.56
453.31	73.56
453.53	71.56
453.751	80.56
453.971	84.56
454.192	72.56
454.412	94.56
454.633	83.56
454.853	94.56
455.073	88.56
455.294	70.56
455.514	71.56
455.734	83.56
455.955	75.56
456.175	60.56
456.395	87.56
456.616	78.56
456.836	71.56
457.056	78.56
457.276	89.56
457.497	79.56
457.717	82.56
457.937	76.56
458.157	90.56
458.377	78.56
458.598	85.56
458.818	75.56
459.038	83.56
459.258	78.56
459.478	72.56
459.698	87.56
459.918	77.56
460.138	88.56
460.358	77.56
460.578	83.56
460.798	68.56
461.018	91.56
461.238	73.56
461.458	91.56
461.678	89.56
461.898	101.56
462.118	79.56
462.338	69.56
462.558	80.56
462.777	69.56
462.997	92.56
463.217	76.56
463.437	69.56
463.657	91.56
463.876	57.56
464.096	76.56
464.316	85.56
464.536	84.56
464.755	74.56
464.975	90.56
465.195	91.56
465.414	66.56
465.634	86.56
465.854	76.56
466.073	87.56
466.293	77.56
466.512	69.56
466.732	79.56
466.951	81.56
467.171	78.56
467.391	77.56
467.61	79.56
467.829	69.56
468.049	77.56
468.268	65.56
468.488	69.56
468.707	75.56
468.927	72.56
469.146	82.56
469.365	68.56
469.585	92.56
469.804	82.56
470.023	67.56
470.243	77.56
470.462	66.56
470.681	89.56
470.901	68.56
471.12	70.56
471.339	75.56
471.558	88.56
471.777	74.56
471.997	79.56
472.216	79.56
472.435	84.56
472.654	81.56
472.873	83.56
473.092	66.56
473.311	90.56
473.53	96.56
473.749	89.56
473.968	78.56
474.187	71.56
474.406	78.56
474.625	76.56
474.844	73.56
475.063	82.56
475.282	84.56
475.501	74.56
475.72	82.56
475.939	84.56
476.158	84.56
476.377	74.56
476.596	85.56
476.814	83.56
477.033	76.56
477.252	79.56
477.471	78.56
477.69	87.56
477.908	77.56
478.127	78.56
478.346	77.56
478.564	74.56
478.783	75.56
479.002	79.56
479.22	72.56
479.439	84.56
479.658	88.56
479.876	83.56
480.095	83.56
480.313	69.56
480.532	84.56
480.751	79.56
480.969	72.56
481.188	99.56
481.406	90.56
481.624	86.56
481.843	74.56
482.061	75.56
482.28	69.56
482.498	82.56
482.717	83.56
482.935	67.56
483.153	73.56
483.372	87.56
483.59	98.56
483.808	74.56
484.027	75.56
484.245	82.56
484.463	70.56
484.681	82.56
484.9	68.56
485.118	93.56
485.336	87.56
485.554	83.56
485.772	92.56
485.99	89.56
486.209	79.56
486.427	82.56
486.645	67.56
486.863	89.56
487.081	70.56
487.299	81.56
487.517	72.56
487.735	73.56
487.953	84.56
488.171	76.56
488.389	75.56
488.607	67.56
488.825	75.56
489.043	74.56
489.261	88.56
489.479	84.56
489.696	76.56
489.914	72.56
490.132	79.56
490.35	77.56
490.568	85.56
490.786	76.56
491.003	75.56
491.221	76.56
491.439	77.56
491.657	80.56
491.874	79.56
492.092	91.56
492.31	86.56
492.527	75.56
492.745	85.56
492.963	83.56
493.18	80.56
493.398	88.56
493.615	90.56
493.833	89.56
494.05	72.56
494.268	76.56
494.485	88.56
494.703	68.56
494.92	75.56
495.138	79.56
495.355	67.56
495.573	73.56
495.79	69.56
496.008	76.56
496.225	83.56
496.442	81.56
496.66	87.56
496.877	87.56
497.094	68.56
497.312	77.56
497.529	80.56
497.746	88.56
497.963	70.56
498.181	81.56
498.398	77.56
498.615	76.56
498.832	87.56
499.049	81.56
499.267	58.56
499.484	83.56
499.701	99.56
499.918	83.56
500.135	87.56
500.352	83.56
500.569	75.56
500.786	81.56
501.003	87.56
501.22	80.56
501.437	82.56
501.654	81.56
501.871	86.56
502.088	81.56
502.305	73.56
502.522	69.56
502.739	88.56
502.956	88.56
503.172	85.56
503.389	72.56
503.606	75.56
503.823	72.56
504.04	75.56
504.256	100.56
504.473	87.56
504.69	84.56
504.907	87.56
505.123	97.56
505.34	91.56
505.557	80.56
505.773	70.56
505.99	87.56
506.207	83.56
506.423	74.56
506.64	77.56
506.856	62.56
507.073	77.56
507.289	85.56
507.506	77.56
507.722	90.56
507.939	77.56
508.155	83.56
508.372	69.56
508.588	85.56
508.805	84.56
509.021	90.56
509.238	92.56
509.454	74.56
509.67	78.56
509.887	77.56
510.103	83.56
510.319	75.56
510.536	96.56
510.752	69.56
510.968	74.56
511.184	78.56
511.401	72.56
511.617	87.56
511.833	83.56
512.049	77.56
512.265	96.56
512.481	75.56
512.698	89.56
512.914	81.56
513.13	85.56
513.346	88.56
513.562	79.56
513.778	87.56
513.994	85.56
514.21	67.56
514.426	76.56
514.642	89.56
514.858	94.56
515.074	81.56
515.29	81.56
515.506	94.56
515.721	90.56
515.937	106.56
516.153	76.56
516.369	65.56
516.585	82.56
516.801	71.56
517.016	79.56
517.232	91.56
517.448	75.56
517.664	76.56
517.879	80.56
518.095	75.56
518.311	79.56
518.527	88.56
518.742	79.56
518.958	77.56
519.173	88.56
519.389	84.56
519.605	90.56
519.82	88.56
520.036	86.56
