Data from Background_2_HRD10591_00043.txt Node
Date: Wed Nov 05 14:47:18 EST 2025
User: Yrep
Spectrometer: HR+D1059
Trigger mode: 1
Integration Time (sec): 1.000000E-1
Scans to average: 1
Electric dark correction enabled: true
Nonlinearity correction enabled: false
Boxcar width: 0
XAxis mode: Wavelengths
Number of Pixels in Spectrum: 2048
>>>>>Begin Spectral Data<<<<<
223.165	-4.81
223.4	-4.81
223.635	-4.81
223.869	-28.81
224.104	-27.81
224.338	-3.81
224.573	-17.81
224.808	-6.81
225.042	-8.81
225.277	-1.81
225.511	4.19
225.746	12.19
225.98	-2.81
226.215	-0.81
226.449	17.19
226.683	16.19
226.918	11.19
227.152	43.19
227.387	40.19
227.621	49.19
227.856	55.19
228.09	49.19
228.324	53.19
228.559	63.19
228.793	59.19
229.027	58.19
229.262	64.19
229.496	77.19
229.73	56.19
229.964	67.19
230.199	79.19
230.433	78.19
230.667	80.19
230.901	69.19
231.136	65.19
231.37	75.19
231.604	83.19
231.838	75.19
232.072	88.19
232.306	63.19
232.541	65.19
232.775	86.19
233.009	80.19
233.243	77.19
233.477	85.19
233.711	97.19
233.945	90.19
234.179	79.19
234.413	81.19
234.647	70.19
234.881	84.19
235.115	71.19
235.349	68.19
235.583	76.19
235.817	73.19
236.051	91.19
236.285	82.19
236.519	72.19
236.753	84.19
236.987	71.19
237.221	71.19
237.455	79.19
237.689	80.19
237.922	73.19
238.156	83.19
238.39	79.19
238.624	79.19
238.858	74.19
239.091	63.19
239.325	77.19
239.559	66.19
239.793	71.19
240.027	69.19
240.26	79.19
240.494	84.19
240.728	72.19
240.961	69.19
241.195	75.19
241.429	74.19
241.662	76.19
241.896	74.19
242.13	77.19
242.363	77.19
242.597	89.19
242.83	70.19
243.064	73.19
243.298	83.19
243.531	80.19
243.765	74.19
243.998	83.19
244.232	81.19
244.465	77.19
244.699	77.19
244.932	79.19
245.166	72.19
245.399	85.19
245.633	74.19
245.866	80.19
246.099	75.19
246.333	70.19
246.566	71.19
246.8	73.19
247.033	72.19
247.266	90.19
247.5	79.19
247.733	88.19
247.966	88.19
248.2	82.19
248.433	83.19
248.666	67.19
248.899	82.19
249.133	60.19
249.366	87.19
249.599	85.19
249.832	76.19
250.066	78.19
250.299	86.19
250.532	87.19
250.765	83.19
250.998	82.19
251.231	77.19
251.465	71.19
251.698	74.19
251.931	90.19
252.164	77.19
252.397	95.19
252.63	84.19
252.863	82.19
253.096	80.19
253.329	79.19
253.562	85.19
253.795	75.19
254.028	75.19
254.261	74.19
254.494	89.19
254.727	93.19
254.96	83.19
255.193	73.19
255.426	70.19
255.659	81.19
255.892	88.19
256.124	83.19
256.357	64.19
256.59	88.19
256.823	60.19
257.056	73.19
257.289	89.19
257.521	74.19
257.754	71.19
257.987	90.19
258.22	76.19
258.452	86.19
258.685	66.19
258.918	90.19
259.151	87.19
259.383	91.19
259.616	81.19
259.849	76.19
260.081	84.19
260.314	82.19
260.547	77.19
260.779	80.19
261.012	76.19
261.244	90.19
261.477	88.19
261.71	72.19
261.942	70.19
262.175	83.19
262.407	93.19
262.64	78.19
262.872	87.19
263.105	77.19
263.337	94.19
263.57	103.19
263.802	76.19
264.035	89.19
264.267	79.19
264.499	82.19
264.732	83.19
264.964	92.19
265.197	87.19
265.429	87.19
265.661	79.19
265.894	75.19
266.126	68.19
266.358	88.19
266.591	78.19
266.823	87.19
267.055	80.19
267.287	79.19
267.52	76.19
267.752	93.19
267.984	96.19
268.216	81.19
268.448	68.19
268.681	83.19
268.913	81.19
269.145	87.19
269.377	70.19
269.609	68.19
269.841	91.19
270.073	96.19
270.306	85.19
270.538	87.19
270.77	89.19
271.002	77.19
271.234	83.19
271.466	75.19
271.698	77.19
271.93	79.19
272.162	87.19
272.394	83.19
272.626	87.19
272.858	84.19
273.09	91.19
273.322	85.19
273.553	74.19
273.785	81.19
274.017	86.19
274.249	84.19
274.481	85.19
274.713	79.19
274.945	71.19
275.176	68.19
275.408	88.19
275.64	87.19
275.872	88.19
276.104	85.19
276.335	74.19
276.567	83.19
276.799	78.19
277.031	81.19
277.262	84.19
277.494	87.19
277.726	91.19
277.957	77.19
278.189	79.19
278.421	67.19
278.652	73.19
278.884	82.19
279.115	88.19
279.347	77.19
279.579	78.19
279.81	93.19
280.042	83.19
280.273	79.19
280.505	76.19
280.736	86.19
280.968	83.19
281.199	79.19
281.431	97.19
281.662	88.19
281.894	85.19
282.125	63.19
282.356	97.19
282.588	79.19
282.819	75.19
283.051	83.19
283.282	79.19
283.513	91.19
283.745	63.19
283.976	86.19
284.207	90.19
284.439	79.19
284.67	87.19
284.901	86.19
285.132	96.19
285.364	91.19
285.595	81.19
285.826	85.19
286.057	80.19
286.288	81.19
286.52	77.19
286.751	75.19
286.982	75.19
287.213	90.19
287.444	83.19
287.675	78.19
287.906	89.19
288.138	83.19
288.369	70.19
288.6	89.19
288.831	76.19
289.062	76.19
289.293	85.19
289.524	69.19
289.755	81.19
289.986	87.19
290.217	98.19
290.448	93.19
290.679	96.19
290.91	67.19
291.141	72.19
291.371	85.19
291.602	72.19
291.833	77.19
292.064	75.19
292.295	80.19
292.526	90.19
292.757	98.19
292.987	88.19
293.218	86.19
293.449	75.19
293.68	96.19
293.91	73.19
294.141	90.19
294.372	84.19
294.603	85.19
294.833	85.19
295.064	95.19
295.295	76.19
295.525	86.19
295.756	85.19
295.987	90.19
296.217	89.19
296.448	100.19
296.679	75.19
296.909	93.19
297.14	93.19
297.37	86.19
297.601	73.19
297.831	76.19
298.062	80.19
298.292	80.19
298.523	72.19
298.753	77.19
298.984	88.19
299.214	88.19
299.445	74.19
299.675	82.19
299.905	85.19
300.136	87.19
300.366	93.19
300.597	88.19
300.827	79.19
301.057	81.19
301.288	85.19
301.518	81.19
301.748	81.19
301.979	90.19
302.209	85.19
302.439	69.19
302.669	90.19
302.9	75.19
303.13	83.19
303.36	79.19
303.59	78.19
303.82	92.19
304.051	101.19
304.281	90.19
304.511	76.19
304.741	91.19
304.971	91.19
305.201	97.19
305.431	95.19
305.661	95.19
305.891	95.19
306.121	81.19
306.352	84.19
306.582	83.19
306.812	89.19
307.042	80.19
307.272	87.19
307.502	76.19
307.731	83.19
307.961	87.19
308.191	74.19
308.421	85.19
308.651	93.19
308.881	91.19
309.111	68.19
309.341	99.19
309.571	80.19
309.8	83.19
310.03	81.19
310.26	72.19
310.49	93.19
310.72	67.19
310.949	84.19
311.179	93.19
311.409	86.19
311.639	79.19
311.868	73.19
312.098	93.19
312.328	79.19
312.557	80.19
312.787	74.19
313.017	81.19
313.246	85.19
313.476	94.19
313.706	90.19
313.935	77.19
314.165	80.19
314.394	87.19
314.624	67.19
314.853	76.19
315.083	63.19
315.312	85.19
315.542	81.19
315.771	80.19
316.001	84.19
316.23	86.19
316.46	81.19
316.689	85.19
316.919	80.19
317.148	74.19
317.377	76.19
317.607	91.19
317.836	81.19
318.065	81.19
318.295	88.19
318.524	85.19
318.753	92.19
318.983	94.19
319.212	85.19
319.441	80.19
319.67	80.19
319.9	98.19
320.129	80.19
320.358	90.19
320.587	91.19
320.816	83.19
321.046	71.19
321.275	85.19
321.504	63.19
321.733	92.19
321.962	81.19
322.191	87.19
322.42	86.19
322.649	83.19
322.878	80.19
323.108	101.19
323.337	80.19
323.566	83.19
323.795	79.19
324.024	86.19
324.253	96.19
324.482	75.19
324.71	75.19
324.939	83.19
325.168	96.19
325.397	91.19
325.626	82.19
325.855	80.19
326.084	94.19
326.313	99.19
326.542	98.19
326.77	81.19
326.999	79.19
327.228	82.19
327.457	94.19
327.686	96.19
327.914	77.19
328.143	83.19
328.372	76.19
328.6	87.19
328.829	81.19
329.058	69.19
329.287	75.19
329.515	74.19
329.744	76.19
329.972	83.19
330.201	87.19
330.43	88.19
330.658	85.19
330.887	78.19
331.115	87.19
331.344	89.19
331.572	93.19
331.801	84.19
332.03	91.19
332.258	86.19
332.486	87.19
332.715	80.19
332.943	79.19
333.172	85.19
333.4	87.19
333.629	77.19
333.857	83.19
334.085	97.19
334.314	82.19
334.542	77.19
334.771	93.19
334.999	81.19
335.227	77.19
335.455	90.19
335.684	81.19
335.912	92.19
336.14	81.19
336.369	93.19
336.597	75.19
336.825	76.19
337.053	96.19
337.281	66.19
337.51	68.19
337.738	93.19
337.966	74.19
338.194	82.19
338.422	83.19
338.65	81.19
338.878	83.19
339.106	72.19
339.334	73.19
339.562	83.19
339.79	78.19
340.018	74.19
340.246	79.19
340.474	86.19
340.702	79.19
340.93	87.19
341.158	91.19
341.386	79.19
341.614	70.19
341.842	82.19
342.07	80.19
342.298	87.19
342.526	77.19
342.754	76.19
342.981	80.19
343.209	75.19
343.437	96.19
343.665	81.19
343.893	83.19
344.12	103.19
344.348	89.19
344.576	76.19
344.804	70.19
345.031	74.19
345.259	94.19
345.487	69.19
345.714	99.19
345.942	81.19
346.17	89.19
346.397	91.19
346.625	84.19
346.853	75.19
347.08	82.19
347.308	89.19
347.535	81.19
347.763	81.19
347.99	81.19
348.218	92.19
348.445	63.19
348.673	82.19
348.9	84.19
349.128	90.19
349.355	93.19
349.583	90.19
349.81	82.19
350.037	95.19
350.265	83.19
350.492	86.19
350.72	88.19
350.947	92.19
351.174	89.19
351.402	75.19
351.629	67.19
351.856	82.19
352.083	85.19
352.311	91.19
352.538	90.19
352.765	79.19
352.992	73.19
353.22	90.19
353.447	75.19
353.674	95.19
353.901	82.19
354.128	77.19
354.355	75.19
354.583	86.19
354.81	92.19
355.037	89.19
355.264	77.19
355.491	88.19
355.718	83.19
355.945	89.19
356.172	75.19
356.399	92.19
356.626	81.19
356.853	76.19
357.08	88.19
357.307	76.19
357.534	79.19
357.761	69.19
357.988	98.19
358.215	82.19
358.441	83.19
358.668	92.19
358.895	91.19
359.122	92.19
359.349	91.19
359.576	79.19
359.802	66.19
360.029	65.19
360.256	72.19
360.483	92.19
360.709	87.19
360.936	77.19
361.163	75.19
361.39	83.19
361.616	78.19
361.843	63.19
362.07	83.19
362.296	87.19
362.523	93.19
362.749	87.19
362.976	77.19
363.203	95.19
363.429	87.19
363.656	77.19
363.882	68.19
364.109	73.19
364.335	81.19
364.562	72.19
364.788	78.19
365.015	83.19
365.241	77.19
365.468	84.19
365.694	77.19
365.92	66.19
366.147	93.19
366.373	90.19
366.599	75.19
366.826	97.19
367.052	84.19
367.278	84.19
367.505	79.19
367.731	85.19
367.957	82.19
368.184	83.19
368.41	80.19
368.636	83.19
368.862	82.19
369.089	87.19
369.315	84.19
369.541	73.19
369.767	86.19
369.993	76.19
370.219	75.19
370.445	78.19
370.672	88.19
370.898	90.19
371.124	88.19
371.35	87.19
371.576	100.19
371.802	76.19
372.028	80.19
372.254	75.19
372.48	89.19
372.706	84.19
372.932	90.19
373.158	82.19
373.384	90.19
373.61	92.19
373.835	86.19
374.061	81.19
374.287	91.19
374.513	85.19
374.739	75.19
374.965	90.19
375.191	92.19
375.416	80.19
375.642	66.19
375.868	81.19
376.094	76.19
376.319	74.19
376.545	87.19
376.771	83.19
376.997	84.19
377.222	85.19
377.448	71.19
377.674	79.19
377.899	95.19
378.125	89.19
378.35	68.19
378.576	89.19
378.802	89.19
379.027	67.19
379.253	87.19
379.478	83.19
379.704	77.19
379.929	79.19
380.155	71.19
380.38	80.19
380.606	78.19
380.831	80.19
381.057	84.19
381.282	91.19
381.507	83.19
381.733	85.19
381.958	75.19
382.184	72.19
382.409	83.19
382.634	89.19
382.86	77.19
383.085	91.19
383.31	88.19
383.535	87.19
383.761	85.19
383.986	72.19
384.211	92.19
384.436	77.19
384.662	77.19
384.887	76.19
385.112	100.19
385.337	77.19
385.562	81.19
385.787	85.19
386.013	74.19
386.238	80.19
386.463	89.19
386.688	104.19
386.913	86.19
387.138	92.19
387.363	86.19
387.588	81.19
387.813	76.19
388.038	89.19
388.263	81.19
388.488	88.19
388.713	77.19
388.938	82.19
389.163	88.19
389.387	85.19
389.612	67.19
389.837	77.19
390.062	95.19
390.287	81.19
390.512	72.19
390.736	81.19
390.961	79.19
391.186	77.19
391.411	86.19
391.636	68.19
391.86	80.19
392.085	81.19
392.31	77.19
392.534	94.19
392.759	77.19
392.984	83.19
393.208	78.19
393.433	83.19
393.658	77.19
393.882	78.19
394.107	93.19
394.331	67.19
394.556	77.19
394.78	94.19
395.005	74.19
395.229	98.19
395.454	81.19
395.678	74.19
395.903	81.19
396.127	88.19
396.352	77.19
396.576	82.19
396.801	70.19
397.025	75.19
397.249	90.19
397.474	83.19
397.698	82.19
397.922	73.19
398.147	63.19
398.371	83.19
398.595	86.19
398.82	76.19
399.044	81.19
399.268	82.19
399.492	85.19
399.717	77.19
399.941	79.19
400.165	77.19
400.389	69.19
400.613	80.19
400.837	78.19
401.062	77.19
401.286	79.19
401.51	67.19
401.734	85.19
401.958	90.19
402.182	89.19
402.406	83.19
402.63	83.19
402.854	77.19
403.078	67.19
403.302	89.19
403.526	84.19
403.75	92.19
403.974	75.19
404.198	83.19
404.422	79.19
404.645	78.19
404.869	79.19
405.093	79.19
405.317	88.19
405.541	79.19
405.765	80.19
405.988	93.19
406.212	70.19
406.436	73.19
406.66	78.19
406.883	83.19
407.107	74.19
407.331	89.19
407.555	85.19
407.778	78.19
408.002	61.19
408.226	95.19
408.449	79.19
408.673	73.19
408.896	88.19
409.12	78.19
409.344	94.19
409.567	93.19
409.791	87.19
410.014	76.19
410.238	77.19
410.461	72.19
410.685	85.19
410.908	65.19
411.132	91.19
411.355	85.19
411.578	83.19
411.802	79.19
412.025	78.19
412.249	72.19
412.472	82.19
412.695	84.19
412.919	76.19
413.142	77.19
413.365	78.19
413.589	65.19
413.812	78.19
414.035	76.19
414.258	82.19
414.482	70.19
414.705	84.19
414.928	67.19
415.151	75.19
415.374	84.19
415.597	79.19
415.821	74.19
416.044	77.19
416.267	88.19
416.49	70.19
416.713	80.19
416.936	77.19
417.159	90.19
417.382	88.19
417.605	87.19
417.828	84.19
418.051	74.19
418.274	83.19
418.497	79.19
418.72	80.19
418.943	70.19
419.166	80.19
419.389	86.19
419.611	96.19
419.834	81.19
420.057	75.19
420.28	69.19
420.503	77.19
420.726	78.19
420.948	80.19
421.171	76.19
421.394	85.19
421.617	88.19
421.839	84.19
422.062	83.19
422.285	87.19
422.507	96.19
422.73	93.19
422.953	78.19
423.175	77.19
423.398	70.19
423.621	62.19
423.843	79.19
424.066	82.19
424.288	69.19
424.511	81.19
424.733	88.19
424.956	82.19
425.178	82.19
425.401	92.19
425.623	80.19
425.846	80.19
426.068	66.19
426.291	72.19
426.513	77.19
426.735	79.19
426.958	72.19
427.18	86.19
427.402	76.19
427.625	79.19
427.847	77.19
428.069	95.19
428.292	82.19
428.514	76.19
428.736	76.19
428.958	77.19
429.181	78.19
429.403	84.19
429.625	83.19
429.847	79.19
430.069	84.19
430.292	85.19
430.514	76.19
430.736	78.19
430.958	86.19
431.18	69.19
431.402	91.19
431.624	83.19
431.846	71.19
432.068	90.19
432.29	88.19
432.512	77.19
432.734	81.19
432.956	76.19
433.178	72.19
433.4	71.19
433.622	92.19
433.844	87.19
434.066	96.19
434.287	80.19
434.509	74.19
434.731	92.19
434.953	73.19
435.175	69.19
435.397	88.19
435.618	72.19
435.84	78.19
436.062	87.19
436.284	76.19
436.505	70.19
436.727	88.19
436.949	61.19
437.17	92.19
437.392	96.19
437.614	87.19
437.835	75.19
438.057	69.19
438.278	70.19
438.5	79.19
438.721	75.19
438.943	75.19
439.165	74.19
439.386	89.19
439.608	87.19
439.829	83.19
440.05	71.19
440.272	75.19
440.493	68.19
440.715	91.19
440.936	83.19
441.158	85.19
441.379	84.19
441.6	74.19
441.822	64.19
442.043	75.19
442.264	56.19
442.486	89.19
442.707	82.19
442.928	82.19
443.149	83.19
443.371	75.19
443.592	84.19
443.813	81.19
444.034	81.19
444.255	90.19
444.476	75.19
444.698	85.19
444.919	87.19
445.14	154.19
445.361	103.19
445.582	79.19
445.803	68.19
446.024	85.19
446.245	102.19
446.466	77.19
446.687	83.19
446.908	75.19
447.129	88.19
447.35	82.19
447.571	93.19
447.792	67.19
448.013	85.19
448.234	75.19
448.455	79.19
448.675	67.19
448.896	83.19
449.117	83.19
449.338	85.19
449.559	92.19
449.779	70.19
450	76.19
450.221	77.19
450.442	79.19
450.662	81.19
450.883	69.19
451.104	76.19
451.324	74.19
451.545	84.19
451.766	87.19
451.986	82.19
452.207	72.19
452.428	84.19
452.648	76.19
452.869	90.19
453.089	84.19
453.31	80.19
453.53	80.19
453.751	73.19
453.971	86.19
454.192	81.19
454.412	80.19
454.633	85.19
454.853	82.19
455.073	80.19
455.294	84.19
455.514	87.19
455.734	77.19
455.955	82.19
456.175	77.19
456.395	64.19
456.616	87.19
456.836	76.19
457.056	90.19
457.276	75.19
457.497	76.19
457.717	67.19
457.937	79.19
458.157	85.19
458.377	88.19
458.598	75.19
458.818	79.19
459.038	78.19
459.258	78.19
459.478	91.19
459.698	93.19
459.918	95.19
460.138	73.19
460.358	89.19
460.578	92.19
460.798	75.19
461.018	76.19
461.238	87.19
461.458	83.19
461.678	75.19
461.898	80.19
462.118	82.19
462.338	83.19
462.558	80.19
462.777	86.19
462.997	74.19
463.217	80.19
463.437	66.19
463.657	70.19
463.876	71.19
464.096	73.19
464.316	80.19
464.536	80.19
464.755	84.19
464.975	93.19
465.195	96.19
465.414	92.19
465.634	85.19
465.854	81.19
466.073	84.19
466.293	75.19
466.512	70.19
466.732	80.19
466.951	75.19
467.171	79.19
467.391	65.19
467.61	88.19
467.829	84.19
468.049	73.19
468.268	77.19
468.488	86.19
468.707	71.19
468.927	75.19
469.146	69.19
469.365	68.19
469.585	78.19
469.804	71.19
470.023	82.19
470.243	88.19
470.462	77.19
470.681	58.19
470.901	73.19
471.12	91.19
471.339	84.19
471.558	76.19
471.777	79.19
471.997	71.19
472.216	72.19
472.435	76.19
472.654	79.19
472.873	83.19
473.092	83.19
473.311	88.19
473.53	91.19
473.749	87.19
473.968	82.19
474.187	69.19
474.406	69.19
474.625	73.19
474.844	87.19
475.063	95.19
475.282	83.19
475.501	80.19
475.72	72.19
475.939	69.19
476.158	102.19
476.377	82.19
476.596	74.19
476.814	75.19
477.033	82.19
477.252	84.19
477.471	83.19
477.69	86.19
477.908	79.19
478.127	67.19
478.346	76.19
478.564	80.19
478.783	78.19
479.002	74.19
479.22	72.19
479.439	84.19
479.658	87.19
479.876	85.19
480.095	79.19
480.313	78.19
480.532	76.19
480.751	80.19
480.969	78.19
481.188	77.19
481.406	79.19
481.624	78.19
481.843	80.19
482.061	83.19
482.28	86.19
482.498	76.19
482.717	84.19
482.935	76.19
483.153	76.19
483.372	77.19
483.59	88.19
483.808	75.19
484.027	84.19
484.245	75.19
484.463	91.19
484.681	82.19
484.9	87.19
485.118	92.19
485.336	73.19
485.554	79.19
485.772	91.19
485.99	88.19
486.209	82.19
486.427	83.19
486.645	87.19
486.863	98.19
487.081	70.19
487.299	81.19
487.517	76.19
487.735	72.19
487.953	95.19
488.171	93.19
488.389	91.19
488.607	83.19
488.825	87.19
489.043	79.19
489.261	69.19
489.479	101.19
489.696	82.19
489.914	81.19
490.132	66.19
490.35	79.19
490.568	72.19
490.786	67.19
491.003	80.19
491.221	78.19
491.439	74.19
491.657	80.19
491.874	77.19
492.092	76.19
492.31	75.19
492.527	92.19
492.745	81.19
492.963	90.19
493.18	67.19
493.398	84.19
493.615	73.19
493.833	83.19
494.05	80.19
494.268	69.19
494.485	82.19
494.703	65.19
494.92	79.19
495.138	73.19
495.355	81.19
495.573	75.19
495.79	83.19
496.008	93.19
496.225	90.19
496.442	69.19
496.66	81.19
496.877	101.19
497.094	89.19
497.312	87.19
497.529	62.19
497.746	74.19
497.963	82.19
498.181	68.19
498.398	80.19
498.615	79.19
498.832	79.19
499.049	78.19
499.267	73.19
499.484	86.19
499.701	96.19
499.918	87.19
500.135	76.19
500.352	86.19
500.569	78.19
500.786	85.19
501.003	86.19
501.22	75.19
501.437	92.19
501.654	84.19
501.871	62.19
502.088	92.19
502.305	87.19
502.522	85.19
502.739	80.19
502.956	92.19
503.172	77.19
503.389	74.19
503.606	90.19
503.823	80.19
504.04	65.19
504.256	86.19
504.473	90.19
504.69	87.19
504.907	84.19
505.123	72.19
505.34	84.19
505.557	76.19
505.773	73.19
505.99	90.19
506.207	74.19
506.423	89.19
506.64	82.19
506.856	87.19
507.073	84.19
507.289	85.19
507.506	87.19
507.722	88.19
507.939	77.19
508.155	75.19
508.372	88.19
508.588	79.19
508.805	79.19
509.021	74.19
509.238	78.19
509.454	69.19
509.67	82.19
509.887	81.19
510.103	65.19
510.319	89.19
510.536	85.19
510.752	81.19
510.968	89.19
511.184	84.19
511.401	78.19
511.617	86.19
511.833	84.19
512.049	91.19
512.265	76.19
512.481	86.19
512.698	80.19
512.914	90.19
513.13	79.19
513.346	75.19
513.562	73.19
513.778	87.19
513.994	78.19
514.21	82.19
514.426	84.19
514.642	78.19
514.858	73.19
515.074	81.19
515.29	74.19
515.506	79.19
515.721	74.19
515.937	74.19
516.153	77.19
516.369	85.19
516.585	76.19
516.801	85.19
517.016	75.19
517.232	76.19
517.448	84.19
517.664	83.19
517.879	77.19
518.095	89.19
518.311	93.19
518.527	85.19
518.742	93.19
518.958	87.19
519.173	81.19
519.389	87.19
519.605	69.19
519.82	83.19
520.036	73.19
