Data from Background_2_HRD10591_00033.txt Node
Date: Wed Nov 05 14:47:13 EST 2025
User: Yrep
Spectrometer: HR+D1059
Trigger mode: 1
Integration Time (sec): 1.000000E-1
Scans to average: 1
Electric dark correction enabled: true
Nonlinearity correction enabled: false
Boxcar width: 0
XAxis mode: Wavelengths
Number of Pixels in Spectrum: 2048
>>>>>Begin Spectral Data<<<<<
223.165	-17.62
223.4	-17.62
223.635	-17.62
223.869	-20.62
224.104	-26.62
224.338	-16.62
224.573	-25.62
224.808	-2.62
225.042	-2.62
225.277	-1.62
225.511	-7.62
225.746	5.38
225.98	1.38
226.215	10.38
226.449	25.38
226.683	15.38
226.918	35.38
227.152	28.38
227.387	45.38
227.621	57.38
227.856	53.38
228.09	53.38
228.324	65.38
228.559	55.38
228.793	76.38
229.027	71.38
229.262	73.38
229.496	65.38
229.73	77.38
229.964	69.38
230.199	71.38
230.433	81.38
230.667	91.38
230.901	89.38
231.136	78.38
231.37	78.38
231.604	83.38
231.838	88.38
232.072	87.38
232.306	74.38
232.541	89.38
232.775	82.38
233.009	96.38
233.243	77.38
233.477	91.38
233.711	89.38
233.945	86.38
234.179	80.38
234.413	103.38
234.647	71.38
234.881	92.38
235.115	97.38
235.349	87.38
235.583	74.38
235.817	71.38
236.051	80.38
236.285	71.38
236.519	74.38
236.753	83.38
236.987	76.38
237.221	83.38
237.455	88.38
237.689	74.38
237.922	79.38
238.156	80.38
238.39	67.38
238.624	75.38
238.858	65.38
239.091	88.38
239.325	57.38
239.559	84.38
239.793	90.38
240.027	66.38
240.26	81.38
240.494	74.38
240.728	73.38
240.961	94.38
241.195	83.38
241.429	79.38
241.662	62.38
241.896	91.38
242.13	74.38
242.363	84.38
242.597	68.38
242.83	81.38
243.064	78.38
243.298	91.38
243.531	79.38
243.765	80.38
243.998	81.38
244.232	80.38
244.465	87.38
244.699	79.38
244.932	74.38
245.166	83.38
245.399	66.38
245.633	83.38
245.866	73.38
246.099	80.38
246.333	89.38
246.566	96.38
246.8	81.38
247.033	71.38
247.266	78.38
247.5	79.38
247.733	87.38
247.966	92.38
248.2	89.38
248.433	84.38
248.666	81.38
248.899	82.38
249.133	75.38
249.366	87.38
249.599	85.38
249.832	73.38
250.066	79.38
250.299	81.38
250.532	95.38
250.765	77.38
250.998	82.38
251.231	86.38
251.465	76.38
251.698	79.38
251.931	81.38
252.164	83.38
252.397	80.38
252.63	73.38
252.863	80.38
253.096	83.38
253.329	87.38
253.562	83.38
253.795	72.38
254.028	100.38
254.261	84.38
254.494	80.38
254.727	91.38
254.96	82.38
255.193	93.38
255.426	87.38
255.659	77.38
255.892	87.38
256.124	89.38
256.357	93.38
256.59	88.38
256.823	93.38
257.056	82.38
257.289	83.38
257.521	95.38
257.754	85.38
257.987	82.38
258.22	76.38
258.452	87.38
258.685	85.38
258.918	75.38
259.151	84.38
259.383	95.38
259.616	94.38
259.849	90.38
260.081	96.38
260.314	95.38
260.547	85.38
260.779	93.38
261.012	87.38
261.244	80.38
261.477	83.38
261.71	66.38
261.942	79.38
262.175	77.38
262.407	85.38
262.64	90.38
262.872	79.38
263.105	95.38
263.337	81.38
263.57	80.38
263.802	88.38
264.035	80.38
264.267	93.38
264.499	95.38
264.732	90.38
264.964	95.38
265.197	89.38
265.429	95.38
265.661	87.38
265.894	85.38
266.126	71.38
266.358	87.38
266.591	86.38
266.823	74.38
267.055	83.38
267.287	83.38
267.52	83.38
267.752	85.38
267.984	77.38
268.216	76.38
268.448	85.38
268.681	83.38
268.913	100.38
269.145	101.38
269.377	94.38
269.609	98.38
269.841	99.38
270.073	93.38
270.306	88.38
270.538	84.38
270.77	104.38
271.002	84.38
271.234	97.38
271.466	92.38
271.698	91.38
271.93	91.38
272.162	88.38
272.394	81.38
272.626	84.38
272.858	91.38
273.09	87.38
273.322	96.38
273.553	83.38
273.785	92.38
274.017	71.38
274.249	78.38
274.481	89.38
274.713	72.38
274.945	89.38
275.176	85.38
275.408	86.38
275.64	94.38
275.872	84.38
276.104	84.38
276.335	75.38
276.567	86.38
276.799	96.38
277.031	89.38
277.262	93.38
277.494	86.38
277.726	107.38
277.957	84.38
278.189	89.38
278.421	76.38
278.652	88.38
278.884	85.38
279.115	77.38
279.347	85.38
279.579	80.38
279.81	80.38
280.042	79.38
280.273	90.38
280.505	71.38
280.736	83.38
280.968	100.38
281.199	82.38
281.431	96.38
281.662	93.38
281.894	88.38
282.125	85.38
282.356	78.38
282.588	82.38
282.819	86.38
283.051	79.38
283.282	87.38
283.513	84.38
283.745	83.38
283.976	91.38
284.207	89.38
284.439	80.38
284.67	86.38
284.901	81.38
285.132	80.38
285.364	85.38
285.595	80.38
285.826	92.38
286.057	68.38
286.288	88.38
286.52	102.38
286.751	81.38
286.982	87.38
287.213	90.38
287.444	95.38
287.675	81.38
287.906	101.38
288.138	77.38
288.369	92.38
288.6	88.38
288.831	93.38
289.062	96.38
289.293	103.38
289.524	95.38
289.755	93.38
289.986	88.38
290.217	86.38
290.448	82.38
290.679	101.38
290.91	85.38
291.141	86.38
291.371	102.38
291.602	86.38
291.833	87.38
292.064	88.38
292.295	93.38
292.526	91.38
292.757	80.38
292.987	92.38
293.218	87.38
293.449	99.38
293.68	98.38
293.91	83.38
294.141	81.38
294.372	87.38
294.603	89.38
294.833	104.38
295.064	83.38
295.295	88.38
295.525	85.38
295.756	97.38
295.987	80.38
296.217	87.38
296.448	90.38
296.679	99.38
296.909	85.38
297.14	98.38
297.37	110.38
297.601	102.38
297.831	80.38
298.062	91.38
298.292	85.38
298.523	79.38
298.753	88.38
298.984	81.38
299.214	85.38
299.445	95.38
299.675	87.38
299.905	85.38
300.136	91.38
300.366	101.38
300.597	91.38
300.827	87.38
301.057	101.38
301.288	93.38
301.518	87.38
301.748	87.38
301.979	100.38
302.209	96.38
302.439	79.38
302.669	83.38
302.9	73.38
303.13	95.38
303.36	87.38
303.59	96.38
303.82	94.38
304.051	83.38
304.281	79.38
304.511	81.38
304.741	120.38
304.971	69.38
305.201	98.38
305.431	88.38
305.661	76.38
305.891	94.38
306.121	86.38
306.352	85.38
306.582	93.38
306.812	89.38
307.042	89.38
307.272	78.38
307.502	99.38
307.731	79.38
307.961	91.38
308.191	83.38
308.421	92.38
308.651	101.38
308.881	95.38
309.111	78.38
309.341	97.38
309.571	84.38
309.8	79.38
310.03	87.38
310.26	84.38
310.49	95.38
310.72	85.38
310.949	80.38
311.179	73.38
311.409	80.38
311.639	86.38
311.868	89.38
312.098	79.38
312.328	86.38
312.557	88.38
312.787	88.38
313.017	94.38
313.246	88.38
313.476	92.38
313.706	78.38
313.935	88.38
314.165	93.38
314.394	95.38
314.624	91.38
314.853	83.38
315.083	84.38
315.312	89.38
315.542	81.38
315.771	87.38
316.001	80.38
316.23	77.38
316.46	89.38
316.689	79.38
316.919	91.38
317.148	86.38
317.377	81.38
317.607	87.38
317.836	78.38
318.065	86.38
318.295	87.38
318.524	78.38
318.753	77.38
318.983	91.38
319.212	88.38
319.441	83.38
319.67	90.38
319.9	86.38
320.129	91.38
320.358	93.38
320.587	94.38
320.816	82.38
321.046	94.38
321.275	86.38
321.504	98.38
321.733	79.38
321.962	87.38
322.191	70.38
322.42	76.38
322.649	85.38
322.878	87.38
323.108	95.38
323.337	90.38
323.566	86.38
323.795	82.38
324.024	94.38
324.253	97.38
324.482	85.38
324.71	89.38
324.939	85.38
325.168	81.38
325.397	65.38
325.626	79.38
325.855	81.38
326.084	93.38
326.313	83.38
326.542	88.38
326.77	97.38
326.999	87.38
327.228	88.38
327.457	83.38
327.686	101.38
327.914	100.38
328.143	104.38
328.372	76.38
328.6	81.38
328.829	85.38
329.058	84.38
329.287	83.38
329.515	93.38
329.744	81.38
329.972	75.38
330.201	96.38
330.43	78.38
330.658	83.38
330.887	99.38
331.115	87.38
331.344	92.38
331.572	89.38
331.801	99.38
332.03	89.38
332.258	81.38
332.486	82.38
332.715	79.38
332.943	86.38
333.172	91.38
333.4	78.38
333.629	79.38
333.857	80.38
334.085	82.38
334.314	80.38
334.542	81.38
334.771	86.38
334.999	93.38
335.227	81.38
335.455	105.38
335.684	92.38
335.912	81.38
336.14	99.38
336.369	87.38
336.597	83.38
336.825	101.38
337.053	92.38
337.281	82.38
337.51	87.38
337.738	80.38
337.966	87.38
338.194	91.38
338.422	95.38
338.65	99.38
338.878	88.38
339.106	85.38
339.334	92.38
339.562	100.38
339.79	94.38
340.018	91.38
340.246	79.38
340.474	92.38
340.702	90.38
340.93	84.38
341.158	98.38
341.386	85.38
341.614	94.38
341.842	95.38
342.07	87.38
342.298	80.38
342.526	86.38
342.754	89.38
342.981	78.38
343.209	97.38
343.437	102.38
343.665	96.38
343.893	88.38
344.12	86.38
344.348	98.38
344.576	91.38
344.804	88.38
345.031	83.38
345.259	88.38
345.487	84.38
345.714	80.38
345.942	79.38
346.17	90.38
346.397	85.38
346.625	89.38
346.853	99.38
347.08	88.38
347.308	86.38
347.535	93.38
347.763	101.38
347.99	78.38
348.218	101.38
348.445	91.38
348.673	81.38
348.9	81.38
349.128	81.38
349.355	85.38
349.583	87.38
349.81	100.38
350.037	94.38
350.265	77.38
350.492	97.38
350.72	78.38
350.947	74.38
351.174	101.38
351.402	93.38
351.629	87.38
351.856	69.38
352.083	83.38
352.311	86.38
352.538	81.38
352.765	92.38
352.992	98.38
353.22	88.38
353.447	95.38
353.674	81.38
353.901	95.38
354.128	88.38
354.355	91.38
354.583	92.38
354.81	108.38
355.037	92.38
355.264	75.38
355.491	86.38
355.718	100.38
355.945	88.38
356.172	92.38
356.399	82.38
356.626	83.38
356.853	81.38
357.08	99.38
357.307	76.38
357.534	86.38
357.761	93.38
357.988	93.38
358.215	89.38
358.441	88.38
358.668	80.38
358.895	87.38
359.122	82.38
359.349	84.38
359.576	90.38
359.802	85.38
360.029	97.38
360.256	92.38
360.483	83.38
360.709	91.38
360.936	95.38
361.163	82.38
361.39	93.38
361.616	69.38
361.843	84.38
362.07	89.38
362.296	76.38
362.523	87.38
362.749	91.38
362.976	79.38
363.203	88.38
363.429	79.38
363.656	86.38
363.882	83.38
364.109	86.38
364.335	100.38
364.562	69.38
364.788	89.38
365.015	87.38
365.241	81.38
365.468	86.38
365.694	100.38
365.92	83.38
366.147	94.38
366.373	96.38
366.599	83.38
366.826	86.38
367.052	91.38
367.278	97.38
367.505	98.38
367.731	95.38
367.957	88.38
368.184	80.38
368.41	96.38
368.636	85.38
368.862	81.38
369.089	93.38
369.315	72.38
369.541	97.38
369.767	96.38
369.993	91.38
370.219	89.38
370.445	95.38
370.672	93.38
370.898	84.38
371.124	77.38
371.35	83.38
371.576	83.38
371.802	83.38
372.028	82.38
372.254	89.38
372.48	76.38
372.706	87.38
372.932	81.38
373.158	73.38
373.384	90.38
373.61	108.38
373.835	81.38
374.061	85.38
374.287	80.38
374.513	97.38
374.739	86.38
374.965	80.38
375.191	94.38
375.416	81.38
375.642	77.38
375.868	86.38
376.094	87.38
376.319	91.38
376.545	73.38
376.771	81.38
376.997	86.38
377.222	68.38
377.448	104.38
377.674	79.38
377.899	81.38
378.125	81.38
378.35	103.38
378.576	95.38
378.802	84.38
379.027	89.38
379.253	87.38
379.478	72.38
379.704	91.38
379.929	86.38
380.155	73.38
380.38	83.38
380.606	84.38
380.831	84.38
381.057	78.38
381.282	78.38
381.507	73.38
381.733	95.38
381.958	94.38
382.184	96.38
382.409	97.38
382.634	91.38
382.86	92.38
383.085	87.38
383.31	70.38
383.535	76.38
383.761	79.38
383.986	93.38
384.211	87.38
384.436	88.38
384.662	88.38
384.887	92.38
385.112	85.38
385.337	90.38
385.562	97.38
385.787	85.38
386.013	88.38
386.238	72.38
386.463	95.38
386.688	99.38
386.913	86.38
387.138	95.38
387.363	90.38
387.588	88.38
387.813	78.38
388.038	86.38
388.263	89.38
388.488	89.38
388.713	72.38
388.938	82.38
389.163	79.38
389.387	56.38
389.612	77.38
389.837	80.38
390.062	74.38
390.287	84.38
390.512	78.38
390.736	83.38
390.961	83.38
391.186	80.38
391.411	77.38
391.636	91.38
391.86	91.38
392.085	81.38
392.31	90.38
392.534	91.38
392.759	85.38
392.984	78.38
393.208	75.38
393.433	71.38
393.658	89.38
393.882	94.38
394.107	92.38
394.331	80.38
394.556	91.38
394.78	86.38
395.005	72.38
395.229	78.38
395.454	86.38
395.678	95.38
395.903	75.38
396.127	80.38
396.352	83.38
396.576	93.38
396.801	91.38
397.025	99.38
397.249	87.38
397.474	76.38
397.698	86.38
397.922	102.38
398.147	96.38
398.371	73.38
398.595	83.38
398.82	83.38
399.044	87.38
399.268	90.38
399.492	84.38
399.717	88.38
399.941	86.38
400.165	77.38
400.389	79.38
400.613	83.38
400.837	86.38
401.062	73.38
401.286	81.38
401.51	91.38
401.734	86.38
401.958	82.38
402.182	82.38
402.406	81.38
402.63	91.38
402.854	95.38
403.078	79.38
403.302	70.38
403.526	77.38
403.75	96.38
403.974	80.38
404.198	76.38
404.422	92.38
404.645	88.38
404.869	83.38
405.093	85.38
405.317	86.38
405.541	102.38
405.765	77.38
405.988	81.38
406.212	77.38
406.436	99.38
406.66	86.38
406.883	92.38
407.107	95.38
407.331	83.38
407.555	82.38
407.778	83.38
408.002	80.38
408.226	90.38
408.449	92.38
408.673	78.38
408.896	90.38
409.12	87.38
409.344	79.38
409.567	91.38
409.791	86.38
410.014	79.38
410.238	111.38
410.461	83.38
410.685	85.38
410.908	92.38
411.132	90.38
411.355	94.38
411.578	62.38
411.802	70.38
412.025	88.38
412.249	76.38
412.472	77.38
412.695	76.38
412.919	84.38
413.142	100.38
413.365	69.38
413.589	75.38
413.812	76.38
414.035	95.38
414.258	87.38
414.482	92.38
414.705	93.38
414.928	98.38
415.151	91.38
415.374	74.38
415.597	83.38
415.821	69.38
416.044	80.38
416.267	91.38
416.49	84.38
416.713	77.38
416.936	77.38
417.159	84.38
417.382	80.38
417.605	86.38
417.828	84.38
418.051	77.38
418.274	85.38
418.497	99.38
418.72	81.38
418.943	81.38
419.166	64.38
419.389	82.38
419.611	78.38
419.834	74.38
420.057	77.38
420.28	91.38
420.503	90.38
420.726	99.38
420.948	88.38
421.171	87.38
421.394	83.38
421.617	74.38
421.839	88.38
422.062	87.38
422.285	94.38
422.507	85.38
422.73	79.38
422.953	83.38
423.175	83.38
423.398	75.38
423.621	88.38
423.843	74.38
424.066	88.38
424.288	78.38
424.511	80.38
424.733	92.38
424.956	80.38
425.178	88.38
425.401	80.38
425.623	95.38
425.846	83.38
426.068	82.38
426.291	104.38
426.513	84.38
426.735	93.38
426.958	75.38
427.18	83.38
427.402	88.38
427.625	92.38
427.847	73.38
428.069	81.38
428.292	75.38
428.514	96.38
428.736	82.38
428.958	75.38
429.181	91.38
429.403	90.38
429.625	85.38
429.847	95.38
430.069	89.38
430.292	83.38
430.514	63.38
430.736	87.38
430.958	91.38
431.18	88.38
431.402	73.38
431.624	82.38
431.846	77.38
432.068	80.38
432.29	85.38
432.512	76.38
432.734	92.38
432.956	91.38
433.178	75.38
433.4	95.38
433.622	85.38
433.844	93.38
434.066	70.38
434.287	69.38
434.509	81.38
434.731	86.38
434.953	81.38
435.175	85.38
435.397	88.38
435.618	79.38
435.84	77.38
436.062	89.38
436.284	80.38
436.505	97.38
436.727	84.38
436.949	79.38
437.17	78.38
437.392	75.38
437.614	82.38
437.835	83.38
438.057	82.38
438.278	72.38
438.5	76.38
438.721	89.38
438.943	96.38
439.165	83.38
439.386	70.38
439.608	88.38
439.829	78.38
440.05	95.38
440.272	79.38
440.493	91.38
440.715	91.38
440.936	89.38
441.158	89.38
441.379	84.38
441.6	75.38
441.822	86.38
442.043	93.38
442.264	91.38
442.486	88.38
442.707	83.38
442.928	84.38
443.149	81.38
443.371	86.38
443.592	71.38
443.813	89.38
444.034	74.38
444.255	86.38
444.476	78.38
444.698	90.38
444.919	91.38
445.14	151.38
445.361	113.38
445.582	90.38
445.803	89.38
446.024	91.38
446.245	96.38
446.466	85.38
446.687	71.38
446.908	91.38
447.129	86.38
447.35	77.38
447.571	84.38
447.792	75.38
448.013	84.38
448.234	88.38
448.455	81.38
448.675	86.38
448.896	85.38
449.117	79.38
449.338	81.38
449.559	76.38
449.779	81.38
450	71.38
450.221	71.38
450.442	80.38
450.662	89.38
450.883	87.38
451.104	96.38
451.324	76.38
451.545	69.38
451.766	87.38
451.986	70.38
452.207	70.38
452.428	80.38
452.648	91.38
452.869	71.38
453.089	77.38
453.31	80.38
453.53	79.38
453.751	73.38
453.971	88.38
454.192	85.38
454.412	92.38
454.633	75.38
454.853	86.38
455.073	92.38
455.294	88.38
455.514	89.38
455.734	63.38
455.955	80.38
456.175	105.38
456.395	97.38
456.616	84.38
456.836	74.38
457.056	100.38
457.276	82.38
457.497	70.38
457.717	79.38
457.937	77.38
458.157	79.38
458.377	75.38
458.598	75.38
458.818	88.38
459.038	100.38
459.258	81.38
459.478	81.38
459.698	86.38
459.918	87.38
460.138	83.38
460.358	78.38
460.578	90.38
460.798	79.38
461.018	86.38
461.238	89.38
461.458	91.38
461.678	86.38
461.898	101.38
462.118	85.38
462.338	88.38
462.558	91.38
462.777	87.38
462.997	83.38
463.217	92.38
463.437	81.38
463.657	71.38
463.876	79.38
464.096	78.38
464.316	100.38
464.536	85.38
464.755	88.38
464.975	79.38
465.195	87.38
465.414	91.38
465.634	83.38
465.854	72.38
466.073	89.38
466.293	80.38
466.512	86.38
466.732	82.38
466.951	68.38
467.171	99.38
467.391	80.38
467.61	81.38
467.829	80.38
468.049	87.38
468.268	99.38
468.488	81.38
468.707	98.38
468.927	85.38
469.146	95.38
469.365	86.38
469.585	90.38
469.804	70.38
470.023	75.38
470.243	86.38
470.462	81.38
470.681	87.38
470.901	76.38
471.12	81.38
471.339	89.38
471.558	93.38
471.777	87.38
471.997	77.38
472.216	83.38
472.435	94.38
472.654	86.38
472.873	73.38
473.092	90.38
473.311	79.38
473.53	61.38
473.749	79.38
473.968	77.38
474.187	82.38
474.406	101.38
474.625	90.38
474.844	94.38
475.063	80.38
475.282	94.38
475.501	84.38
475.72	79.38
475.939	93.38
476.158	80.38
476.377	93.38
476.596	71.38
476.814	79.38
477.033	92.38
477.252	73.38
477.471	61.38
477.69	73.38
477.908	77.38
478.127	81.38
478.346	83.38
478.564	87.38
478.783	85.38
479.002	90.38
479.22	91.38
479.439	97.38
479.658	78.38
479.876	92.38
480.095	87.38
480.313	78.38
480.532	75.38
480.751	83.38
480.969	88.38
481.188	70.38
481.406	75.38
481.624	81.38
481.843	83.38
482.061	85.38
482.28	89.38
482.498	102.38
482.717	88.38
482.935	86.38
483.153	86.38
483.372	94.38
483.59	70.38
483.808	90.38
484.027	83.38
484.245	74.38
484.463	87.38
484.681	93.38
484.9	80.38
485.118	73.38
485.336	94.38
485.554	76.38
485.772	67.38
485.99	72.38
486.209	87.38
486.427	88.38
486.645	77.38
486.863	79.38
487.081	84.38
487.299	83.38
487.517	78.38
487.735	90.38
487.953	91.38
488.171	90.38
488.389	79.38
488.607	74.38
488.825	95.38
489.043	85.38
489.261	80.38
489.479	84.38
489.696	85.38
489.914	74.38
490.132	76.38
490.35	99.38
490.568	93.38
490.786	93.38
491.003	91.38
491.221	93.38
491.439	91.38
491.657	73.38
491.874	83.38
492.092	85.38
492.31	93.38
492.527	89.38
492.745	90.38
492.963	74.38
493.18	79.38
493.398	80.38
493.615	69.38
493.833	77.38
494.05	98.38
494.268	94.38
494.485	91.38
494.703	92.38
494.92	91.38
495.138	80.38
495.355	102.38
495.573	87.38
495.79	89.38
496.008	91.38
496.225	86.38
496.442	87.38
496.66	92.38
496.877	101.38
497.094	92.38
497.312	88.38
497.529	93.38
497.746	100.38
497.963	104.38
498.181	82.38
498.398	88.38
498.615	100.38
498.832	85.38
499.049	81.38
499.267	98.38
499.484	89.38
499.701	81.38
499.918	74.38
500.135	78.38
500.352	84.38
500.569	80.38
500.786	69.38
501.003	87.38
501.22	86.38
501.437	82.38
501.654	86.38
501.871	86.38
502.088	74.38
502.305	73.38
502.522	87.38
502.739	89.38
502.956	87.38
503.172	87.38
503.389	80.38
503.606	84.38
503.823	86.38
504.04	85.38
504.256	105.38
504.473	83.38
504.69	88.38
504.907	77.38
505.123	87.38
505.34	77.38
505.557	93.38
505.773	108.38
505.99	96.38
506.207	80.38
506.423	96.38
506.64	76.38
506.856	85.38
507.073	77.38
507.289	95.38
507.506	89.38
507.722	81.38
507.939	84.38
508.155	97.38
508.372	83.38
508.588	91.38
508.805	88.38
509.021	81.38
509.238	77.38
509.454	72.38
509.67	85.38
509.887	94.38
510.103	84.38
510.319	92.38
510.536	90.38
510.752	80.38
510.968	84.38
511.184	92.38
511.401	79.38
511.617	94.38
511.833	85.38
512.049	88.38
512.265	89.38
512.481	76.38
512.698	85.38
512.914	80.38
513.13	92.38
513.346	90.38
513.562	87.38
513.778	80.38
513.994	92.38
514.21	99.38
514.426	96.38
514.642	83.38
514.858	90.38
515.074	69.38
515.29	82.38
515.506	85.38
515.721	91.38
515.937	75.38
516.153	89.38
516.369	82.38
516.585	91.38
516.801	94.38
517.016	83.38
517.232	80.38
517.448	85.38
517.664	98.38
517.879	94.38
518.095	69.38
518.311	70.38
518.527	87.38
518.742	79.38
518.958	81.38
519.173	80.38
519.389	91.38
