Data from Background_2_HRD10591_00021.txt Node
Date: Wed Nov 05 14:47:07 EST 2025
User: Yrep
Spectrometer: HR+D1059
Trigger mode: 1
Integration Time (sec): 1.000000E-1
Scans to average: 1
Electric dark correction enabled: true
Nonlinearity correction enabled: false
Boxcar width: 0
XAxis mode: Wavelengths
Number of Pixels in Spectrum: 2048
>>>>>Begin Spectral Data<<<<<
223.165	-7.69
223.4	-7.69
223.635	-7.69
223.869	-17.69
224.104	-15.69
224.338	-28.69
224.573	-5.69
224.808	-0.69
225.042	9.31
225.277	0.31
225.511	-5.69
225.746	2.31
225.98	4.31
226.215	5.31
226.449	3.31
226.683	18.31
226.918	8.31
227.152	30.31
227.387	38.31
227.621	44.31
227.856	46.31
228.09	37.31
228.324	44.31
228.559	50.31
228.793	66.31
229.027	58.31
229.262	69.31
229.496	67.31
229.73	53.31
229.964	65.31
230.199	66.31
230.433	91.31
230.667	81.31
230.901	83.31
231.136	72.31
231.37	76.31
231.604	78.31
231.838	84.31
232.072	71.31
232.306	80.31
232.541	75.31
232.775	74.31
233.009	84.31
233.243	83.31
233.477	93.31
233.711	92.31
233.945	91.31
234.179	90.31
234.413	76.31
234.647	71.31
234.881	75.31
235.115	74.31
235.349	81.31
235.583	61.31
235.817	78.31
236.051	77.31
236.285	84.31
236.519	83.31
236.753	73.31
236.987	85.31
237.221	73.31
237.455	83.31
237.689	76.31
237.922	84.31
238.156	73.31
238.39	70.31
238.624	79.31
238.858	79.31
239.091	80.31
239.325	87.31
239.559	70.31
239.793	74.31
240.027	71.31
240.26	80.31
240.494	76.31
240.728	65.31
240.961	62.31
241.195	73.31
241.429	74.31
241.662	75.31
241.896	92.31
242.13	83.31
242.363	78.31
242.597	73.31
242.83	88.31
243.064	80.31
243.298	77.31
243.531	95.31
243.765	69.31
243.998	72.31
244.232	84.31
244.465	87.31
244.699	72.31
244.932	80.31
245.166	87.31
245.399	66.31
245.633	77.31
245.866	82.31
246.099	75.31
246.333	78.31
246.566	84.31
246.8	77.31
247.033	90.31
247.266	81.31
247.5	79.31
247.733	93.31
247.966	76.31
248.2	73.31
248.433	86.31
248.666	84.31
248.899	86.31
249.133	75.31
249.366	78.31
249.599	69.31
249.832	73.31
250.066	71.31
250.299	86.31
250.532	94.31
250.765	72.31
250.998	71.31
251.231	61.31
251.465	88.31
251.698	73.31
251.931	86.31
252.164	92.31
252.397	80.31
252.63	81.31
252.863	78.31
253.096	76.31
253.329	94.31
253.562	87.31
253.795	92.31
254.028	68.31
254.261	84.31
254.494	75.31
254.727	77.31
254.96	87.31
255.193	84.31
255.426	76.31
255.659	81.31
255.892	82.31
256.124	91.31
256.357	71.31
256.59	85.31
256.823	72.31
257.056	82.31
257.289	74.31
257.521	65.31
257.754	77.31
257.987	70.31
258.22	84.31
258.452	75.31
258.685	79.31
258.918	73.31
259.151	71.31
259.383	80.31
259.616	80.31
259.849	84.31
260.081	82.31
260.314	85.31
260.547	85.31
260.779	86.31
261.012	95.31
261.244	86.31
261.477	90.31
261.71	76.31
261.942	70.31
262.175	65.31
262.407	73.31
262.64	83.31
262.872	79.31
263.105	60.31
263.337	88.31
263.57	78.31
263.802	85.31
264.035	78.31
264.267	86.31
264.499	74.31
264.732	70.31
264.964	96.31
265.197	66.31
265.429	68.31
265.661	86.31
265.894	83.31
266.126	93.31
266.358	83.31
266.591	94.31
266.823	72.31
267.055	73.31
267.287	88.31
267.52	92.31
267.752	73.31
267.984	80.31
268.216	96.31
268.448	87.31
268.681	86.31
268.913	79.31
269.145	84.31
269.377	92.31
269.609	91.31
269.841	78.31
270.073	63.31
270.306	86.31
270.538	86.31
270.77	78.31
271.002	57.31
271.234	82.31
271.466	80.31
271.698	99.31
271.93	89.31
272.162	82.31
272.394	87.31
272.626	77.31
272.858	77.31
273.09	75.31
273.322	77.31
273.553	83.31
273.785	91.31
274.017	88.31
274.249	81.31
274.481	70.31
274.713	79.31
274.945	98.31
275.176	92.31
275.408	85.31
275.64	99.31
275.872	79.31
276.104	73.31
276.335	71.31
276.567	78.31
276.799	91.31
277.031	79.31
277.262	86.31
277.494	79.31
277.726	87.31
277.957	86.31
278.189	91.31
278.421	80.31
278.652	98.31
278.884	87.31
279.115	85.31
279.347	91.31
279.579	85.31
279.81	83.31
280.042	88.31
280.273	86.31
280.505	79.31
280.736	88.31
280.968	87.31
281.199	91.31
281.431	89.31
281.662	79.31
281.894	90.31
282.125	90.31
282.356	85.31
282.588	78.31
282.819	84.31
283.051	72.31
283.282	89.31
283.513	101.31
283.745	81.31
283.976	78.31
284.207	79.31
284.439	69.31
284.67	94.31
284.901	69.31
285.132	87.31
285.364	80.31
285.595	81.31
285.826	84.31
286.057	85.31
286.288	93.31
286.52	84.31
286.751	93.31
286.982	80.31
287.213	87.31
287.444	82.31
287.675	85.31
287.906	90.31
288.138	102.31
288.369	88.31
288.6	80.31
288.831	77.31
289.062	89.31
289.293	93.31
289.524	76.31
289.755	88.31
289.986	79.31
290.217	85.31
290.448	84.31
290.679	92.31
290.91	92.31
291.141	83.31
291.371	86.31
291.602	76.31
291.833	92.31
292.064	64.31
292.295	88.31
292.526	78.31
292.757	76.31
292.987	84.31
293.218	76.31
293.449	93.31
293.68	96.31
293.91	84.31
294.141	86.31
294.372	88.31
294.603	79.31
294.833	88.31
295.064	79.31
295.295	84.31
295.525	85.31
295.756	84.31
295.987	87.31
296.217	93.31
296.448	93.31
296.679	79.31
296.909	83.31
297.14	91.31
297.37	81.31
297.601	82.31
297.831	90.31
298.062	88.31
298.292	83.31
298.523	87.31
298.753	78.31
298.984	87.31
299.214	79.31
299.445	86.31
299.675	86.31
299.905	71.31
300.136	85.31
300.366	82.31
300.597	85.31
300.827	93.31
301.057	75.31
301.288	95.31
301.518	84.31
301.748	86.31
301.979	103.31
302.209	87.31
302.439	79.31
302.669	80.31
302.9	98.31
303.13	77.31
303.36	94.31
303.59	91.31
303.82	75.31
304.051	91.31
304.281	76.31
304.511	81.31
304.741	89.31
304.971	96.31
305.201	81.31
305.431	84.31
305.661	81.31
305.891	81.31
306.121	89.31
306.352	85.31
306.582	77.31
306.812	95.31
307.042	93.31
307.272	87.31
307.502	84.31
307.731	88.31
307.961	71.31
308.191	90.31
308.421	72.31
308.651	82.31
308.881	93.31
309.111	75.31
309.341	82.31
309.571	73.31
309.8	77.31
310.03	80.31
310.26	83.31
310.49	91.31
310.72	93.31
310.949	97.31
311.179	95.31
311.409	87.31
311.639	83.31
311.868	75.31
312.098	90.31
312.328	86.31
312.557	93.31
312.787	102.31
313.017	89.31
313.246	92.31
313.476	77.31
313.706	92.31
313.935	85.31
314.165	98.31
314.394	85.31
314.624	82.31
314.853	87.31
315.083	95.31
315.312	86.31
315.542	101.31
315.771	83.31
316.001	82.31
316.23	87.31
316.46	91.31
316.689	70.31
316.919	72.31
317.148	101.31
317.377	95.31
317.607	78.31
317.836	80.31
318.065	90.31
318.295	92.31
318.524	68.31
318.753	74.31
318.983	90.31
319.212	93.31
319.441	80.31
319.67	81.31
319.9	82.31
320.129	98.31
320.358	93.31
320.587	76.31
320.816	81.31
321.046	75.31
321.275	84.31
321.504	95.31
321.733	71.31
321.962	86.31
322.191	81.31
322.42	71.31
322.649	84.31
322.878	98.31
323.108	82.31
323.337	92.31
323.566	100.31
323.795	91.31
324.024	94.31
324.253	67.31
324.482	77.31
324.71	84.31
324.939	80.31
325.168	80.31
325.397	92.31
325.626	80.31
325.855	91.31
326.084	82.31
326.313	74.31
326.542	90.31
326.77	65.31
326.999	88.31
327.228	78.31
327.457	84.31
327.686	92.31
327.914	84.31
328.143	94.31
328.372	81.31
328.6	81.31
328.829	91.31
329.058	94.31
329.287	86.31
329.515	84.31
329.744	77.31
329.972	82.31
330.201	101.31
330.43	78.31
330.658	80.31
330.887	96.31
331.115	79.31
331.344	83.31
331.572	87.31
331.801	92.31
332.03	78.31
332.258	80.31
332.486	76.31
332.715	76.31
332.943	81.31
333.172	87.31
333.4	74.31
333.629	88.31
333.857	79.31
334.085	70.31
334.314	82.31
334.542	75.31
334.771	79.31
334.999	90.31
335.227	94.31
335.455	79.31
335.684	79.31
335.912	90.31
336.14	91.31
336.369	90.31
336.597	70.31
336.825	75.31
337.053	91.31
337.281	77.31
337.51	95.31
337.738	82.31
337.966	93.31
338.194	91.31
338.422	77.31
338.65	86.31
338.878	91.31
339.106	92.31
339.334	91.31
339.562	85.31
339.79	81.31
340.018	84.31
340.246	99.31
340.474	87.31
340.702	75.31
340.93	80.31
341.158	72.31
341.386	77.31
341.614	78.31
341.842	77.31
342.07	82.31
342.298	84.31
342.526	96.31
342.754	84.31
342.981	80.31
343.209	99.31
343.437	92.31
343.665	83.31
343.893	88.31
344.12	91.31
344.348	87.31
344.576	72.31
344.804	86.31
345.031	82.31
345.259	76.31
345.487	87.31
345.714	83.31
345.942	72.31
346.17	90.31
346.397	99.31
346.625	78.31
346.853	92.31
347.08	87.31
347.308	85.31
347.535	79.31
347.763	80.31
347.99	88.31
348.218	86.31
348.445	92.31
348.673	83.31
348.9	86.31
349.128	82.31
349.355	79.31
349.583	83.31
349.81	95.31
350.037	80.31
350.265	89.31
350.492	70.31
350.72	70.31
350.947	95.31
351.174	92.31
351.402	66.31
351.629	80.31
351.856	75.31
352.083	81.31
352.311	100.31
352.538	76.31
352.765	98.31
352.992	106.31
353.22	84.31
353.447	77.31
353.674	90.31
353.901	87.31
354.128	94.31
354.355	77.31
354.583	88.31
354.81	86.31
355.037	85.31
355.264	91.31
355.491	72.31
355.718	99.31
355.945	86.31
356.172	92.31
356.399	70.31
356.626	76.31
356.853	84.31
357.08	81.31
357.307	88.31
357.534	85.31
357.761	82.31
357.988	85.31
358.215	90.31
358.441	90.31
358.668	87.31
358.895	83.31
359.122	80.31
359.349	84.31
359.576	81.31
359.802	107.31
360.029	71.31
360.256	88.31
360.483	82.31
360.709	93.31
360.936	96.31
361.163	80.31
361.39	78.31
361.616	88.31
361.843	95.31
362.07	78.31
362.296	91.31
362.523	90.31
362.749	67.31
362.976	80.31
363.203	94.31
363.429	75.31
363.656	79.31
363.882	77.31
364.109	98.31
364.335	103.31
364.562	89.31
364.788	81.31
365.015	82.31
365.241	103.31
365.468	80.31
365.694	77.31
365.92	86.31
366.147	87.31
366.373	85.31
366.599	94.31
366.826	88.31
367.052	102.31
367.278	77.31
367.505	83.31
367.731	100.31
367.957	77.31
368.184	87.31
368.41	100.31
368.636	101.31
368.862	84.31
369.089	87.31
369.315	80.31
369.541	95.31
369.767	83.31
369.993	83.31
370.219	96.31
370.445	86.31
370.672	67.31
370.898	70.31
371.124	76.31
371.35	76.31
371.576	87.31
371.802	78.31
372.028	77.31
372.254	75.31
372.48	90.31
372.706	85.31
372.932	75.31
373.158	88.31
373.384	77.31
373.61	79.31
373.835	81.31
374.061	85.31
374.287	100.31
374.513	81.31
374.739	82.31
374.965	83.31
375.191	84.31
375.416	81.31
375.642	80.31
375.868	103.31
376.094	90.31
376.319	83.31
376.545	87.31
376.771	90.31
376.997	92.31
377.222	89.31
377.448	85.31
377.674	72.31
377.899	73.31
378.125	86.31
378.35	80.31
378.576	100.31
378.802	101.31
379.027	97.31
379.253	81.31
379.478	94.31
379.704	78.31
379.929	83.31
380.155	85.31
380.38	94.31
380.606	91.31
380.831	90.31
381.057	96.31
381.282	78.31
381.507	79.31
381.733	72.31
381.958	95.31
382.184	86.31
382.409	90.31
382.634	70.31
382.86	84.31
383.085	92.31
383.31	81.31
383.535	85.31
383.761	80.31
383.986	97.31
384.211	90.31
384.436	79.31
384.662	93.31
384.887	69.31
385.112	82.31
385.337	84.31
385.562	84.31
385.787	86.31
386.013	74.31
386.238	84.31
386.463	101.31
386.688	90.31
386.913	80.31
387.138	85.31
387.363	76.31
387.588	92.31
387.813	82.31
388.038	85.31
388.263	85.31
388.488	96.31
388.713	84.31
388.938	81.31
389.163	92.31
389.387	70.31
389.612	78.31
389.837	86.31
390.062	89.31
390.287	79.31
390.512	88.31
390.736	82.31
390.961	84.31
391.186	90.31
391.411	83.31
391.636	85.31
391.86	79.31
392.085	75.31
392.31	71.31
392.534	82.31
392.759	80.31
392.984	85.31
393.208	90.31
393.433	93.31
393.658	79.31
393.882	67.31
394.107	87.31
394.331	90.31
394.556	80.31
394.78	72.31
395.005	81.31
395.229	70.31
395.454	82.31
395.678	83.31
395.903	86.31
396.127	80.31
396.352	85.31
396.576	98.31
396.801	81.31
397.025	79.31
397.249	91.31
397.474	80.31
397.698	82.31
397.922	60.31
398.147	72.31
398.371	83.31
398.595	73.31
398.82	84.31
399.044	88.31
399.268	80.31
399.492	66.31
399.717	86.31
399.941	91.31
400.165	70.31
400.389	74.31
400.613	87.31
400.837	93.31
401.062	72.31
401.286	78.31
401.51	86.31
401.734	77.31
401.958	72.31
402.182	76.31
402.406	83.31
402.63	81.31
402.854	92.31
403.078	84.31
403.302	82.31
403.526	83.31
403.75	78.31
403.974	81.31
404.198	86.31
404.422	96.31
404.645	78.31
404.869	72.31
405.093	81.31
405.317	77.31
405.541	77.31
405.765	98.31
405.988	66.31
406.212	77.31
406.436	71.31
406.66	78.31
406.883	100.31
407.107	84.31
407.331	72.31
407.555	79.31
407.778	93.31
408.002	62.31
408.226	84.31
408.449	85.31
408.673	74.31
408.896	80.31
409.12	94.31
409.344	66.31
409.567	89.31
409.791	69.31
410.014	79.31
410.238	93.31
410.461	88.31
410.685	95.31
410.908	72.31
411.132	71.31
411.355	85.31
411.578	79.31
411.802	87.31
412.025	66.31
412.249	73.31
412.472	86.31
412.695	87.31
412.919	96.31
413.142	95.31
413.365	87.31
413.589	81.31
413.812	72.31
414.035	93.31
414.258	82.31
414.482	76.31
414.705	80.31
414.928	85.31
415.151	87.31
415.374	89.31
415.597	78.31
415.821	89.31
416.044	90.31
416.267	91.31
416.49	83.31
416.713	73.31
416.936	88.31
417.159	81.31
417.382	81.31
417.605	98.31
417.828	90.31
418.051	77.31
418.274	79.31
418.497	77.31
418.72	81.31
418.943	75.31
419.166	88.31
419.389	74.31
419.611	76.31
419.834	94.31
420.057	82.31
420.28	88.31
420.503	84.31
420.726	81.31
420.948	77.31
421.171	83.31
421.394	86.31
421.617	94.31
421.839	68.31
422.062	76.31
422.285	74.31
422.507	80.31
422.73	85.31
422.953	77.31
423.175	58.31
423.398	70.31
423.621	77.31
423.843	80.31
424.066	72.31
424.288	94.31
424.511	97.31
424.733	72.31
424.956	84.31
425.178	80.31
425.401	84.31
425.623	79.31
425.846	80.31
426.068	87.31
426.291	87.31
426.513	70.31
426.735	90.31
426.958	76.31
427.18	87.31
427.402	73.31
427.625	82.31
427.847	70.31
428.069	92.31
428.292	81.31
428.514	88.31
428.736	88.31
428.958	77.31
429.181	81.31
429.403	88.31
429.625	92.31
429.847	83.31
430.069	84.31
430.292	85.31
430.514	94.31
430.736	95.31
430.958	67.31
431.18	72.31
431.402	74.31
431.624	86.31
431.846	86.31
432.068	90.31
432.29	87.31
432.512	88.31
432.734	82.31
432.956	74.31
433.178	85.31
433.4	91.31
433.622	89.31
433.844	83.31
434.066	92.31
434.287	82.31
434.509	78.31
434.731	85.31
434.953	79.31
435.175	75.31
435.397	72.31
435.618	97.31
435.84	70.31
436.062	87.31
436.284	76.31
436.505	90.31
436.727	82.31
436.949	81.31
437.17	76.31
437.392	83.31
437.614	82.31
437.835	82.31
438.057	76.31
438.278	80.31
438.5	86.31
438.721	99.31
438.943	79.31
439.165	72.31
439.386	76.31
439.608	91.31
439.829	78.31
440.05	80.31
440.272	81.31
440.493	78.31
440.715	80.31
440.936	90.31
441.158	82.31
441.379	88.31
441.6	80.31
441.822	72.31
442.043	79.31
442.264	78.31
442.486	80.31
442.707	86.31
442.928	79.31
443.149	80.31
443.371	86.31
443.592	70.31
443.813	79.31
444.034	92.31
444.255	76.31
444.476	87.31
444.698	79.31
444.919	108.31
445.14	138.31
445.361	115.31
445.582	82.31
445.803	76.31
446.024	88.31
446.245	82.31
446.466	90.31
446.687	83.31
446.908	86.31
447.129	77.31
447.35	94.31
447.571	83.31
447.792	93.31
448.013	71.31
448.234	67.31
448.455	79.31
448.675	82.31
448.896	88.31
449.117	78.31
449.338	79.31
449.559	74.31
449.779	92.31
450	75.31
450.221	82.31
450.442	84.31
450.662	83.31
450.883	73.31
451.104	87.31
451.324	78.31
451.545	81.31
451.766	74.31
451.986	75.31
452.207	90.31
452.428	74.31
452.648	84.31
452.869	71.31
453.089	75.31
453.31	78.31
453.53	91.31
453.751	73.31
453.971	68.31
454.192	92.31
454.412	61.31
454.633	92.31
454.853	93.31
455.073	79.31
455.294	85.31
455.514	79.31
455.734	78.31
455.955	88.31
456.175	80.31
456.395	77.31
456.616	77.31
456.836	93.31
457.056	69.31
457.276	88.31
457.497	92.31
457.717	80.31
457.937	95.31
458.157	79.31
458.377	77.31
458.598	76.31
458.818	82.31
459.038	81.31
459.258	80.31
459.478	82.31
459.698	81.31
459.918	81.31
460.138	94.31
460.358	84.31
460.578	67.31
460.798	90.31
461.018	84.31
461.238	95.31
461.458	90.31
461.678	79.31
461.898	81.31
462.118	88.31
462.338	75.31
462.558	88.31
462.777	84.31
462.997	86.31
463.217	80.31
463.437	95.31
463.657	88.31
463.876	86.31
464.096	92.31
464.316	83.31
464.536	79.31
464.755	93.31
464.975	76.31
465.195	86.31
465.414	84.31
465.634	78.31
465.854	67.31
466.073	82.31
466.293	73.31
466.512	86.31
466.732	76.31
466.951	70.31
467.171	78.31
467.391	81.31
467.61	84.31
467.829	67.31
468.049	97.31
468.268	80.31
468.488	62.31
468.707	91.31
468.927	84.31
469.146	89.31
469.365	91.31
469.585	92.31
469.804	80.31
470.023	73.31
470.243	79.31
470.462	82.31
470.681	76.31
470.901	87.31
471.12	76.31
471.339	84.31
471.558	91.31
471.777	93.31
471.997	90.31
472.216	86.31
472.435	67.31
472.654	88.31
472.873	85.31
473.092	90.31
473.311	98.31
473.53	85.31
473.749	72.31
473.968	90.31
474.187	81.31
474.406	100.31
474.625	99.31
474.844	73.31
475.063	82.31
475.282	77.31
475.501	86.31
475.72	96.31
475.939	66.31
476.158	77.31
476.377	77.31
476.596	90.31
476.814	81.31
477.033	70.31
477.252	90.31
477.471	87.31
477.69	75.31
477.908	84.31
478.127	79.31
478.346	84.31
478.564	87.31
478.783	86.31
479.002	78.31
479.22	82.31
479.439	78.31
479.658	93.31
479.876	84.31
480.095	76.31
480.313	84.31
480.532	87.31
480.751	81.31
480.969	80.31
481.188	89.31
481.406	71.31
481.624	82.31
481.843	84.31
482.061	91.31
482.28	83.31
482.498	79.31
482.717	88.31
482.935	86.31
483.153	79.31
483.372	86.31
483.59	93.31
483.808	75.31
484.027	82.31
484.245	90.31
484.463	67.31
484.681	111.31
484.9	100.31
485.118	94.31
485.336	83.31
485.554	84.31
485.772	86.31
485.99	80.31
486.209	71.31
486.427	98.31
486.645	95.31
486.863	78.31
487.081	102.31
487.299	96.31
487.517	80.31
487.735	86.31
487.953	88.31
488.171	89.31
488.389	92.31
488.607	80.31
488.825	79.31
489.043	85.31
489.261	83.31
489.479	81.31
489.696	89.31
489.914	86.31
490.132	77.31
490.35	86.31
490.568	78.31
490.786	70.31
491.003	88.31
491.221	84.31
491.439	80.31
491.657	86.31
491.874	84.31
492.092	75.31
492.31	87.31
492.527	70.31
492.745	84.31
492.963	98.31
493.18	78.31
493.398	80.31
493.615	100.31
493.833	90.31
494.05	97.31
494.268	86.31
494.485	80.31
494.703	78.31
494.92	86.31
495.138	85.31
495.355	91.31
495.573	79.31
495.79	77.31
496.008	79.31
496.225	80.31
496.442	73.31
496.66	76.31
496.877	68.31
497.094	82.31
497.312	75.31
497.529	86.31
497.746	83.31
497.963	75.31
498.181	83.31
498.398	88.31
498.615	80.31
498.832	91.31
499.049	75.31
499.267	76.31
499.484	81.31
499.701	87.31
499.918	82.31
500.135	74.31
500.352	76.31
500.569	79.31
500.786	83.31
501.003	86.31
501.22	87.31
501.437	80.31
501.654	76.31
501.871	83.31
502.088	78.31
502.305	75.31
502.522	78.31
502.739	78.31
502.956	83.31
503.172	84.31
503.389	65.31
503.606	68.31
503.823	87.31
504.04	87.31
504.256	67.31
504.473	79.31
504.69	80.31
504.907	79.31
505.123	86.31
505.34	92.31
505.557	75.31
505.773	84.31
505.99	77.31
506.207	86.31
506.423	83.31
506.64	79.31
506.856	91.31
507.073	77.31
507.289	86.31
507.506	90.31
507.722	79.31
507.939	88.31
508.155	82.31
508.372	75.31
508.588	86.31
508.805	78.31
509.021	71.31
509.238	92.31
509.454	86.31
509.67	82.31
509.887	71.31
510.103	95.31
510.319	85.31
510.536	73.31
510.752	79.31
510.968	80.31
511.184	93.31
511.401	88.31
511.617	77.31
511.833	83.31
512.049	83.31
512.265	77.31
512.481	85.31
512.698	85.31
512.914	88.31
513.13	67.31
513.346	70.31
513.562	96.31
513.778	90.31
513.994	87.31
514.21	78.31
514.426	89.31
514.642	100.31
514.858	79.31
515.074	95.31
515.29	79.31
515.506	84.31
515.721	92.31
515.937	78.31
516.153	88.31
516.369	61.31
516.585	80.31
516.801	81.31
517.016	84.31
517.232	92.31
517.448	80.31
517.664	85.31
517.879	84.31
518.095	77.31
518.311	92.31
518.527	82.31
518.742	78.31
518.958	76.31
519.173	87.31
519.389	82.31
519.605	81.31
519.82	80.31
