Data from Background_2_HRD10591_00030.txt Node
Date: Wed Nov 05 14:47:12 EST 2025
User: Yrep
Spectrometer: HR+D1059
Trigger mode: 1
Integration Time (sec): 1.000000E-1
Scans to average: 1
Electric dark correction enabled: true
Nonlinearity correction enabled: false
Boxcar width: 0
XAxis mode: Wavelengths
Number of Pixels in Spectrum: 2048
>>>>>Begin Spectral Data<<<<<
223.165	-23.31
223.4	-23.31
223.635	-23.31
223.869	-5.31
224.104	-12.31
224.338	-16.31
224.573	-20.31
224.808	-9.31
225.042	-5.31
225.277	-19.31
225.511	-9.31
225.746	8.69
225.98	6.69
226.215	6.69
226.449	22.69
226.683	26.69
226.918	26.69
227.152	22.69
227.387	31.69
227.621	32.69
227.856	28.69
228.09	41.69
228.324	59.69
228.559	45.69
228.793	53.69
229.027	52.69
229.262	63.69
229.496	63.69
229.73	58.69
229.964	80.69
230.199	74.69
230.433	81.69
230.667	76.69
230.901	65.69
231.136	83.69
231.37	77.69
231.604	62.69
231.838	72.69
232.072	77.69
232.306	79.69
232.541	75.69
232.775	87.69
233.009	73.69
233.243	94.69
233.477	67.69
233.711	80.69
233.945	90.69
234.179	71.69
234.413	69.69
234.647	63.69
234.881	76.69
235.115	65.69
235.349	79.69
235.583	76.69
235.817	73.69
236.051	65.69
236.285	72.69
236.519	80.69
236.753	85.69
236.987	71.69
237.221	85.69
237.455	67.69
237.689	76.69
237.922	77.69
238.156	74.69
238.39	67.69
238.624	71.69
238.858	68.69
239.091	74.69
239.325	79.69
239.559	80.69
239.793	69.69
240.027	79.69
240.26	71.69
240.494	73.69
240.728	65.69
240.961	79.69
241.195	86.69
241.429	66.69
241.662	72.69
241.896	57.69
242.13	68.69
242.363	65.69
242.597	86.69
242.83	73.69
243.064	80.69
243.298	81.69
243.531	69.69
243.765	76.69
243.998	73.69
244.232	66.69
244.465	80.69
244.699	65.69
244.932	68.69
245.166	71.69
245.399	75.69
245.633	75.69
245.866	73.69
246.099	72.69
246.333	78.69
246.566	84.69
246.8	73.69
247.033	77.69
247.266	86.69
247.5	81.69
247.733	75.69
247.966	69.69
248.2	64.69
248.433	60.69
248.666	75.69
248.899	74.69
249.133	79.69
249.366	80.69
249.599	73.69
249.832	52.69
250.066	71.69
250.299	79.69
250.532	73.69
250.765	76.69
250.998	55.69
251.231	64.69
251.465	80.69
251.698	71.69
251.931	75.69
252.164	64.69
252.397	77.69
252.63	65.69
252.863	59.69
253.096	70.69
253.329	83.69
253.562	76.69
253.795	71.69
254.028	80.69
254.261	75.69
254.494	79.69
254.727	77.69
254.96	79.69
255.193	80.69
255.426	67.69
255.659	81.69
255.892	74.69
256.124	73.69
256.357	86.69
256.59	89.69
256.823	68.69
257.056	70.69
257.289	71.69
257.521	96.69
257.754	71.69
257.987	68.69
258.22	77.69
258.452	79.69
258.685	79.69
258.918	73.69
259.151	76.69
259.383	81.69
259.616	75.69
259.849	79.69
260.081	73.69
260.314	71.69
260.547	76.69
260.779	83.69
261.012	69.69
261.244	73.69
261.477	76.69
261.71	84.69
261.942	91.69
262.175	80.69
262.407	77.69
262.64	88.69
262.872	85.69
263.105	84.69
263.337	79.69
263.57	79.69
263.802	87.69
264.035	88.69
264.267	79.69
264.499	88.69
264.732	71.69
264.964	86.69
265.197	65.69
265.429	78.69
265.661	65.69
265.894	80.69
266.126	79.69
266.358	75.69
266.591	75.69
266.823	69.69
267.055	85.69
267.287	75.69
267.52	84.69
267.752	69.69
267.984	70.69
268.216	88.69
268.448	87.69
268.681	88.69
268.913	85.69
269.145	79.69
269.377	59.69
269.609	74.69
269.841	84.69
270.073	80.69
270.306	86.69
270.538	91.69
270.77	94.69
271.002	76.69
271.234	76.69
271.466	82.69
271.698	64.69
271.93	66.69
272.162	93.69
272.394	98.69
272.626	95.69
272.858	71.69
273.09	71.69
273.322	80.69
273.553	74.69
273.785	84.69
274.017	77.69
274.249	96.69
274.481	79.69
274.713	69.69
274.945	86.69
275.176	73.69
275.408	79.69
275.64	69.69
275.872	82.69
276.104	85.69
276.335	88.69
276.567	90.69
276.799	81.69
277.031	73.69
277.262	85.69
277.494	87.69
277.726	89.69
277.957	80.69
278.189	79.69
278.421	94.69
278.652	85.69
278.884	80.69
279.115	81.69
279.347	77.69
279.579	89.69
279.81	80.69
280.042	93.69
280.273	64.69
280.505	77.69
280.736	101.69
280.968	92.69
281.199	80.69
281.431	65.69
281.662	71.69
281.894	75.69
282.125	93.69
282.356	71.69
282.588	75.69
282.819	83.69
283.051	77.69
283.282	78.69
283.513	75.69
283.745	75.69
283.976	83.69
284.207	86.69
284.439	85.69
284.67	76.69
284.901	93.69
285.132	83.69
285.364	78.69
285.595	71.69
285.826	83.69
286.057	78.69
286.288	74.69
286.52	69.69
286.751	75.69
286.982	80.69
287.213	84.69
287.444	80.69
287.675	88.69
287.906	87.69
288.138	83.69
288.369	91.69
288.6	74.69
288.831	78.69
289.062	66.69
289.293	64.69
289.524	73.69
289.755	79.69
289.986	73.69
290.217	75.69
290.448	83.69
290.679	82.69
290.91	74.69
291.141	71.69
291.371	86.69
291.602	76.69
291.833	85.69
292.064	95.69
292.295	79.69
292.526	80.69
292.757	77.69
292.987	68.69
293.218	75.69
293.449	77.69
293.68	85.69
293.91	75.69
294.141	74.69
294.372	81.69
294.603	82.69
294.833	87.69
295.064	82.69
295.295	80.69
295.525	83.69
295.756	91.69
295.987	82.69
296.217	79.69
296.448	77.69
296.679	93.69
296.909	73.69
297.14	88.69
297.37	95.69
297.601	83.69
297.831	85.69
298.062	81.69
298.292	79.69
298.523	69.69
298.753	80.69
298.984	65.69
299.214	81.69
299.445	78.69
299.675	64.69
299.905	80.69
300.136	86.69
300.366	90.69
300.597	73.69
300.827	70.69
301.057	65.69
301.288	90.69
301.518	93.69
301.748	83.69
301.979	104.69
302.209	90.69
302.439	75.69
302.669	79.69
302.9	77.69
303.13	75.69
303.36	74.69
303.59	81.69
303.82	92.69
304.051	96.69
304.281	92.69
304.511	77.69
304.741	85.69
304.971	84.69
305.201	76.69
305.431	85.69
305.661	85.69
305.891	81.69
306.121	80.69
306.352	85.69
306.582	84.69
306.812	66.69
307.042	74.69
307.272	84.69
307.502	80.69
307.731	76.69
307.961	79.69
308.191	74.69
308.421	79.69
308.651	95.69
308.881	75.69
309.111	76.69
309.341	76.69
309.571	71.69
309.8	79.69
310.03	88.69
310.26	74.69
310.49	81.69
310.72	80.69
310.949	68.69
311.179	96.69
311.409	83.69
311.639	85.69
311.868	58.69
312.098	79.69
312.328	75.69
312.557	80.69
312.787	80.69
313.017	74.69
313.246	95.69
313.476	69.69
313.706	87.69
313.935	83.69
314.165	71.69
314.394	73.69
314.624	100.69
314.853	70.69
315.083	83.69
315.312	73.69
315.542	72.69
315.771	65.69
316.001	77.69
316.23	76.69
316.46	81.69
316.689	81.69
316.919	85.69
317.148	82.69
317.377	90.69
317.607	84.69
317.836	88.69
318.065	90.69
318.295	93.69
318.524	85.69
318.753	92.69
318.983	71.69
319.212	90.69
319.441	70.69
319.67	83.69
319.9	88.69
320.129	78.69
320.358	94.69
320.587	79.69
320.816	87.69
321.046	67.69
321.275	76.69
321.504	71.69
321.733	78.69
321.962	83.69
322.191	88.69
322.42	83.69
322.649	89.69
322.878	82.69
323.108	72.69
323.337	81.69
323.566	73.69
323.795	77.69
324.024	76.69
324.253	76.69
324.482	84.69
324.71	86.69
324.939	91.69
325.168	73.69
325.397	72.69
325.626	91.69
325.855	72.69
326.084	79.69
326.313	91.69
326.542	73.69
326.77	84.69
326.999	88.69
327.228	73.69
327.457	74.69
327.686	71.69
327.914	83.69
328.143	78.69
328.372	78.69
328.6	72.69
328.829	75.69
329.058	81.69
329.287	77.69
329.515	76.69
329.744	87.69
329.972	83.69
330.201	81.69
330.43	92.69
330.658	84.69
330.887	88.69
331.115	85.69
331.344	76.69
331.572	87.69
331.801	80.69
332.03	86.69
332.258	79.69
332.486	96.69
332.715	81.69
332.943	84.69
333.172	88.69
333.4	86.69
333.629	80.69
333.857	83.69
334.085	79.69
334.314	71.69
334.542	76.69
334.771	76.69
334.999	70.69
335.227	76.69
335.455	78.69
335.684	74.69
335.912	71.69
336.14	69.69
336.369	90.69
336.597	87.69
336.825	79.69
337.053	80.69
337.281	78.69
337.51	77.69
337.738	67.69
337.966	63.69
338.194	87.69
338.422	68.69
338.65	85.69
338.878	75.69
339.106	79.69
339.334	74.69
339.562	80.69
339.79	77.69
340.018	71.69
340.246	72.69
340.474	84.69
340.702	87.69
340.93	81.69
341.158	77.69
341.386	80.69
341.614	81.69
341.842	66.69
342.07	81.69
342.298	60.69
342.526	87.69
342.754	77.69
342.981	86.69
343.209	73.69
343.437	92.69
343.665	77.69
343.893	60.69
344.12	87.69
344.348	76.69
344.576	69.69
344.804	81.69
345.031	72.69
345.259	74.69
345.487	87.69
345.714	79.69
345.942	85.69
346.17	79.69
346.397	76.69
346.625	79.69
346.853	84.69
347.08	80.69
347.308	87.69
347.535	86.69
347.763	82.69
347.99	91.69
348.218	77.69
348.445	81.69
348.673	64.69
348.9	83.69
349.128	73.69
349.355	87.69
349.583	65.69
349.81	72.69
350.037	78.69
350.265	75.69
350.492	69.69
350.72	87.69
350.947	86.69
351.174	70.69
351.402	65.69
351.629	75.69
351.856	85.69
352.083	79.69
352.311	84.69
352.538	80.69
352.765	83.69
352.992	85.69
353.22	71.69
353.447	72.69
353.674	74.69
353.901	77.69
354.128	73.69
354.355	68.69
354.583	75.69
354.81	78.69
355.037	81.69
355.264	76.69
355.491	86.69
355.718	84.69
355.945	82.69
356.172	94.69
356.399	71.69
356.626	80.69
356.853	84.69
357.08	86.69
357.307	79.69
357.534	84.69
357.761	90.69
357.988	81.69
358.215	87.69
358.441	75.69
358.668	87.69
358.895	84.69
359.122	95.69
359.349	87.69
359.576	80.69
359.802	86.69
360.029	73.69
360.256	65.69
360.483	77.69
360.709	76.69
360.936	77.69
361.163	74.69
361.39	75.69
361.616	64.69
361.843	71.69
362.07	76.69
362.296	72.69
362.523	85.69
362.749	85.69
362.976	83.69
363.203	75.69
363.429	84.69
363.656	93.69
363.882	83.69
364.109	71.69
364.335	84.69
364.562	83.69
364.788	78.69
365.015	82.69
365.241	77.69
365.468	86.69
365.694	71.69
365.92	74.69
366.147	77.69
366.373	81.69
366.599	77.69
366.826	88.69
367.052	81.69
367.278	82.69
367.505	76.69
367.731	79.69
367.957	88.69
368.184	75.69
368.41	87.69
368.636	87.69
368.862	81.69
369.089	79.69
369.315	75.69
369.541	81.69
369.767	78.69
369.993	78.69
370.219	75.69
370.445	73.69
370.672	75.69
370.898	79.69
371.124	74.69
371.35	90.69
371.576	79.69
371.802	65.69
372.028	94.69
372.254	73.69
372.48	81.69
372.706	72.69
372.932	74.69
373.158	78.69
373.384	83.69
373.61	76.69
373.835	64.69
374.061	74.69
374.287	84.69
374.513	77.69
374.739	79.69
374.965	80.69
375.191	78.69
375.416	79.69
375.642	78.69
375.868	92.69
376.094	83.69
376.319	85.69
376.545	71.69
376.771	67.69
376.997	73.69
377.222	76.69
377.448	69.69
377.674	80.69
377.899	85.69
378.125	85.69
378.35	84.69
378.576	81.69
378.802	67.69
379.027	73.69
379.253	85.69
379.478	87.69
379.704	81.69
379.929	84.69
380.155	77.69
380.38	65.69
380.606	71.69
380.831	75.69
381.057	92.69
381.282	64.69
381.507	80.69
381.733	88.69
381.958	93.69
382.184	64.69
382.409	77.69
382.634	77.69
382.86	79.69
383.085	74.69
383.31	78.69
383.535	78.69
383.761	63.69
383.986	83.69
384.211	77.69
384.436	73.69
384.662	73.69
384.887	76.69
385.112	61.69
385.337	79.69
385.562	75.69
385.787	85.69
386.013	87.69
386.238	77.69
386.463	79.69
386.688	103.69
386.913	83.69
387.138	73.69
387.363	78.69
387.588	94.69
387.813	83.69
388.038	87.69
388.263	89.69
388.488	89.69
388.713	68.69
388.938	81.69
389.163	76.69
389.387	73.69
389.612	72.69
389.837	76.69
390.062	67.69
390.287	76.69
390.512	71.69
390.736	70.69
390.961	70.69
391.186	80.69
391.411	75.69
391.636	82.69
391.86	81.69
392.085	76.69
392.31	73.69
392.534	71.69
392.759	77.69
392.984	86.69
393.208	87.69
393.433	73.69
393.658	79.69
393.882	75.69
394.107	83.69
394.331	79.69
394.556	85.69
394.78	80.69
395.005	75.69
395.229	69.69
395.454	88.69
395.678	99.69
395.903	75.69
396.127	91.69
396.352	64.69
396.576	78.69
396.801	73.69
397.025	85.69
397.249	87.69
397.474	88.69
397.698	80.69
397.922	75.69
398.147	89.69
398.371	76.69
398.595	73.69
398.82	78.69
399.044	78.69
399.268	69.69
399.492	70.69
399.717	80.69
399.941	85.69
400.165	83.69
400.389	70.69
400.613	81.69
400.837	69.69
401.062	58.69
401.286	65.69
401.51	62.69
401.734	83.69
401.958	75.69
402.182	85.69
402.406	65.69
402.63	67.69
402.854	72.69
403.078	69.69
403.302	70.69
403.526	71.69
403.75	92.69
403.974	63.69
404.198	78.69
404.422	79.69
404.645	83.69
404.869	73.69
405.093	79.69
405.317	75.69
405.541	76.69
405.765	75.69
405.988	75.69
406.212	79.69
406.436	74.69
406.66	77.69
406.883	66.69
407.107	78.69
407.331	73.69
407.555	70.69
407.778	90.69
408.002	75.69
408.226	72.69
408.449	74.69
408.673	93.69
408.896	69.69
409.12	68.69
409.344	69.69
409.567	86.69
409.791	77.69
410.014	79.69
410.238	80.69
410.461	87.69
410.685	83.69
410.908	70.69
411.132	65.69
411.355	60.69
411.578	71.69
411.802	75.69
412.025	63.69
412.249	73.69
412.472	61.69
412.695	73.69
412.919	75.69
413.142	88.69
413.365	87.69
413.589	82.69
413.812	73.69
414.035	80.69
414.258	67.69
414.482	73.69
414.705	69.69
414.928	62.69
415.151	85.69
415.374	66.69
415.597	71.69
415.821	87.69
416.044	95.69
416.267	77.69
416.49	79.69
416.713	85.69
416.936	73.69
417.159	71.69
417.382	77.69
417.605	73.69
417.828	91.69
418.051	85.69
418.274	63.69
418.497	76.69
418.72	70.69
418.943	69.69
419.166	60.69
419.389	63.69
419.611	63.69
419.834	87.69
420.057	75.69
420.28	71.69
420.503	90.69
420.726	69.69
420.948	70.69
421.171	88.69
421.394	83.69
421.617	76.69
421.839	80.69
422.062	73.69
422.285	99.69
422.507	78.69
422.73	73.69
422.953	81.69
423.175	80.69
423.398	71.69
423.621	79.69
423.843	79.69
424.066	72.69
424.288	75.69
424.511	79.69
424.733	84.69
424.956	77.69
425.178	67.69
425.401	64.69
425.623	62.69
425.846	77.69
426.068	79.69
426.291	79.69
426.513	80.69
426.735	84.69
426.958	63.69
427.18	72.69
427.402	79.69
427.625	64.69
427.847	85.69
428.069	80.69
428.292	85.69
428.514	73.69
428.736	91.69
428.958	79.69
429.181	83.69
429.403	80.69
429.625	71.69
429.847	70.69
430.069	79.69
430.292	70.69
430.514	91.69
430.736	72.69
430.958	78.69
431.18	71.69
431.402	78.69
431.624	77.69
431.846	74.69
432.068	65.69
432.29	75.69
432.512	74.69
432.734	83.69
432.956	79.69
433.178	73.69
433.4	72.69
433.622	80.69
433.844	69.69
434.066	65.69
434.287	81.69
434.509	72.69
434.731	66.69
434.953	64.69
435.175	74.69
435.397	79.69
435.618	92.69
435.84	69.69
436.062	81.69
436.284	79.69
436.505	57.69
436.727	68.69
436.949	66.69
437.17	85.69
437.392	66.69
437.614	79.69
437.835	66.69
438.057	82.69
438.278	90.69
438.5	88.69
438.721	81.69
438.943	70.69
439.165	74.69
439.386	77.69
439.608	71.69
439.829	89.69
440.05	85.69
440.272	87.69
440.493	87.69
440.715	68.69
440.936	83.69
441.158	88.69
441.379	77.69
441.6	79.69
441.822	85.69
442.043	94.69
442.264	89.69
442.486	85.69
442.707	73.69
442.928	73.69
443.149	80.69
443.371	73.69
443.592	76.69
443.813	84.69
444.034	84.69
444.255	90.69
444.476	75.69
444.698	63.69
444.919	87.69
445.14	136.69
445.361	117.69
445.582	84.69
445.803	77.69
446.024	82.69
446.245	71.69
446.466	91.69
446.687	90.69
446.908	79.69
447.129	91.69
447.35	92.69
447.571	92.69
447.792	75.69
448.013	88.69
448.234	73.69
448.455	89.69
448.675	65.69
448.896	80.69
449.117	83.69
449.338	79.69
449.559	70.69
449.779	87.69
450	75.69
450.221	75.69
450.442	79.69
450.662	81.69
450.883	71.69
451.104	86.69
451.324	70.69
451.545	73.69
451.766	73.69
451.986	81.69
452.207	68.69
452.428	74.69
452.648	74.69
452.869	80.69
453.089	72.69
453.31	73.69
453.53	72.69
453.751	75.69
453.971	78.69
454.192	73.69
454.412	79.69
454.633	78.69
454.853	91.69
455.073	76.69
455.294	65.69
455.514	73.69
455.734	65.69
455.955	69.69
456.175	80.69
456.395	66.69
456.616	76.69
456.836	88.69
457.056	84.69
457.276	72.69
457.497	87.69
457.717	74.69
457.937	75.69
458.157	73.69
458.377	75.69
458.598	71.69
458.818	83.69
459.038	81.69
459.258	71.69
459.478	75.69
459.698	74.69
459.918	79.69
460.138	75.69
460.358	80.69
460.578	72.69
460.798	75.69
461.018	74.69
461.238	88.69
461.458	72.69
461.678	79.69
461.898	83.69
462.118	87.69
462.338	77.69
462.558	75.69
462.777	68.69
462.997	81.69
463.217	80.69
463.437	85.69
463.657	87.69
463.876	68.69
464.096	93.69
464.316	65.69
464.536	68.69
464.755	62.69
464.975	73.69
465.195	83.69
465.414	88.69
465.634	83.69
465.854	88.69
466.073	87.69
466.293	85.69
466.512	77.69
466.732	63.69
466.951	79.69
467.171	77.69
467.391	86.69
467.61	80.69
467.829	93.69
468.049	75.69
468.268	69.69
468.488	90.69
468.707	77.69
468.927	91.69
469.146	74.69
469.365	96.69
469.585	87.69
469.804	80.69
470.023	65.69
470.243	71.69
470.462	81.69
470.681	83.69
470.901	92.69
471.12	70.69
471.339	67.69
471.558	64.69
471.777	84.69
471.997	97.69
472.216	84.69
472.435	94.69
472.654	90.69
472.873	73.69
473.092	69.69
473.311	78.69
473.53	62.69
473.749	66.69
473.968	79.69
474.187	71.69
474.406	66.69
474.625	71.69
474.844	78.69
475.063	73.69
475.282	69.69
475.501	89.69
475.72	100.69
475.939	83.69
476.158	82.69
476.377	74.69
476.596	78.69
476.814	78.69
477.033	63.69
477.252	79.69
477.471	73.69
477.69	87.69
477.908	85.69
478.127	81.69
478.346	70.69
478.564	83.69
478.783	72.69
479.002	79.69
479.22	87.69
479.439	79.69
479.658	74.69
479.876	87.69
480.095	95.69
480.313	83.69
480.532	71.69
480.751	78.69
480.969	68.69
481.188	83.69
481.406	81.69
481.624	83.69
481.843	84.69
482.061	75.69
482.28	86.69
482.498	79.69
482.717	75.69
482.935	64.69
483.153	79.69
483.372	74.69
483.59	85.69
483.808	71.69
484.027	79.69
484.245	81.69
484.463	71.69
484.681	87.69
484.9	82.69
485.118	77.69
485.336	80.69
485.554	92.69
485.772	58.69
485.99	80.69
486.209	64.69
486.427	71.69
486.645	78.69
486.863	65.69
487.081	61.69
487.299	74.69
487.517	85.69
487.735	86.69
487.953	79.69
488.171	71.69
488.389	70.69
488.607	83.69
488.825	78.69
489.043	64.69
489.261	81.69
489.479	68.69
489.696	68.69
489.914	80.69
490.132	81.69
490.35	73.69
490.568	86.69
490.786	92.69
491.003	77.69
491.221	77.69
491.439	79.69
491.657	81.69
491.874	83.69
492.092	80.69
492.31	80.69
492.527	84.69
492.745	87.69
492.963	86.69
493.18	96.69
493.398	76.69
493.615	71.69
493.833	87.69
494.05	74.69
494.268	82.69
494.485	81.69
494.703	91.69
494.92	69.69
495.138	77.69
495.355	78.69
495.573	73.69
495.79	81.69
496.008	89.69
496.225	85.69
496.442	79.69
496.66	70.69
496.877	74.69
497.094	86.69
497.312	75.69
497.529	72.69
497.746	79.69
497.963	74.69
498.181	72.69
498.398	74.69
498.615	73.69
498.832	69.69
499.049	84.69
499.267	70.69
499.484	75.69
499.701	87.69
499.918	72.69
500.135	62.69
500.352	71.69
500.569	84.69
500.786	66.69
501.003	74.69
501.22	88.69
501.437	82.69
501.654	77.69
501.871	77.69
502.088	83.69
502.305	80.69
502.522	83.69
502.739	89.69
502.956	84.69
503.172	77.69
503.389	77.69
503.606	87.69
503.823	85.69
504.04	88.69
504.256	68.69
504.473	80.69
504.69	68.69
504.907	81.69
505.123	74.69
505.34	83.69
505.557	95.69
505.773	92.69
505.99	81.69
506.207	87.69
506.423	81.69
506.64	88.69
506.856	79.69
507.073	70.69
507.289	78.69
507.506	69.69
507.722	80.69
507.939	78.69
508.155	76.69
508.372	83.69
508.588	73.69
508.805	84.69
509.021	79.69
509.238	79.69
509.454	77.69
509.67	80.69
509.887	79.69
510.103	99.69
510.319	85.69
510.536	83.69
510.752	73.69
510.968	85.69
511.184	89.69
511.401	89.69
511.617	63.69
511.833	77.69
512.049	79.69
512.265	60.69
512.481	85.69
512.698	85.69
512.914	87.69
513.13	81.69
513.346	70.69
513.562	75.69
513.778	76.69
513.994	71.69
514.21	85.69
514.426	81.69
514.642	91.69
514.858	82.69
515.074	82.69
515.29	93.69
515.506	75.69
515.721	87.69
515.937	67.69
516.153	57.69
516.369	73.69
516.585	79.69
516.801	77.69
517.016	77.69
517.232	89.69
517.448	86.69
517.664	63.69
517.879	81.69
518.095	79.69
518.311	73.69
518.527	97.69
518.742	82.69
518.958	63.69
519.173	77.69
519.389	71.69
519.605	95.69
519.82	82.69
520.036	75.69
520.251	81.69
