Data from Background_2_HRD10591_00097.txt Node
Date: Wed Nov 05 14:47:44 EST 2025
User: Yrep
Spectrometer: HR+D1059
Trigger mode: 1
Integration Time (sec): 1.000000E-1
Scans to average: 1
Electric dark correction enabled: true
Nonlinearity correction enabled: false
Boxcar width: 0
XAxis mode: Wavelengths
Number of Pixels in Spectrum: 2048
>>>>>Begin Spectral Data<<<<<
223.165	-11.06
223.4	-11.06
223.635	-11.06
223.869	-26.06
224.104	-9.06
224.338	-8.06
224.573	0.94
224.808	-21.06
225.042	-14.06
225.277	-2.06
225.511	-1.06
225.746	-7.06
225.98	4.94
226.215	8.94
226.449	16.94
226.683	12.94
226.918	30.94
227.152	23.94
227.387	35.94
227.621	30.94
227.856	50.94
228.09	49.94
228.324	40.94
228.559	50.94
228.793	58.94
229.027	49.94
229.262	54.94
229.496	68.94
229.73	69.94
229.964	65.94
230.199	75.94
230.433	65.94
230.667	80.94
230.901	82.94
231.136	82.94
231.37	92.94
231.604	76.94
231.838	70.94
232.072	76.94
232.306	91.94
232.541	80.94
232.775	75.94
233.009	92.94
233.243	90.94
233.477	76.94
233.711	83.94
233.945	94.94
234.179	90.94
234.413	92.94
234.647	76.94
234.881	75.94
235.115	79.94
235.349	77.94
235.583	90.94
235.817	85.94
236.051	82.94
236.285	79.94
236.519	84.94
236.753	76.94
236.987	83.94
237.221	84.94
237.455	77.94
237.689	77.94
237.922	67.94
238.156	84.94
238.39	76.94
238.624	76.94
238.858	79.94
239.091	78.94
239.325	84.94
239.559	78.94
239.793	77.94
240.027	77.94
240.26	74.94
240.494	76.94
240.728	66.94
240.961	86.94
241.195	81.94
241.429	69.94
241.662	81.94
241.896	74.94
242.13	47.94
242.363	65.94
242.597	66.94
242.83	83.94
243.064	91.94
243.298	88.94
243.531	72.94
243.765	81.94
243.998	83.94
244.232	84.94
244.465	85.94
244.699	81.94
244.932	72.94
245.166	82.94
245.399	93.94
245.633	79.94
245.866	80.94
246.099	62.94
246.333	75.94
246.566	80.94
246.8	73.94
247.033	76.94
247.266	67.94
247.5	76.94
247.733	69.94
247.966	74.94
248.2	83.94
248.433	70.94
248.666	70.94
248.899	92.94
249.133	88.94
249.366	77.94
249.599	77.94
249.832	83.94
250.066	67.94
250.299	68.94
250.532	81.94
250.765	82.94
250.998	77.94
251.231	95.94
251.465	100.94
251.698	76.94
251.931	76.94
252.164	73.94
252.397	73.94
252.63	73.94
252.863	89.94
253.096	77.94
253.329	67.94
253.562	88.94
253.795	84.94
254.028	82.94
254.261	88.94
254.494	90.94
254.727	77.94
254.96	86.94
255.193	86.94
255.426	85.94
255.659	74.94
255.892	64.94
256.124	72.94
256.357	85.94
256.59	87.94
256.823	82.94
257.056	81.94
257.289	97.94
257.521	70.94
257.754	78.94
257.987	75.94
258.22	66.94
258.452	78.94
258.685	78.94
258.918	59.94
259.151	76.94
259.383	68.94
259.616	81.94
259.849	77.94
260.081	77.94
260.314	80.94
260.547	82.94
260.779	86.94
261.012	89.94
261.244	83.94
261.477	97.94
261.71	79.94
261.942	85.94
262.175	76.94
262.407	78.94
262.64	80.94
262.872	83.94
263.105	61.94
263.337	85.94
263.57	82.94
263.802	77.94
264.035	76.94
264.267	80.94
264.499	85.94
264.732	89.94
264.964	101.94
265.197	77.94
265.429	83.94
265.661	77.94
265.894	80.94
266.126	88.94
266.358	80.94
266.591	81.94
266.823	82.94
267.055	98.94
267.287	83.94
267.52	77.94
267.752	77.94
267.984	82.94
268.216	85.94
268.448	81.94
268.681	77.94
268.913	79.94
269.145	85.94
269.377	89.94
269.609	92.94
269.841	89.94
270.073	70.94
270.306	90.94
270.538	75.94
270.77	80.94
271.002	85.94
271.234	83.94
271.466	68.94
271.698	82.94
271.93	89.94
272.162	65.94
272.394	94.94
272.626	85.94
272.858	77.94
273.09	69.94
273.322	81.94
273.553	74.94
273.785	91.94
274.017	84.94
274.249	87.94
274.481	81.94
274.713	94.94
274.945	69.94
275.176	75.94
275.408	78.94
275.64	65.94
275.872	88.94
276.104	87.94
276.335	80.94
276.567	83.94
276.799	75.94
277.031	94.94
277.262	85.94
277.494	80.94
277.726	96.94
277.957	88.94
278.189	82.94
278.421	76.94
278.652	76.94
278.884	86.94
279.115	76.94
279.347	86.94
279.579	96.94
279.81	63.94
280.042	85.94
280.273	85.94
280.505	84.94
280.736	72.94
280.968	76.94
281.199	85.94
281.431	81.94
281.662	75.94
281.894	78.94
282.125	92.94
282.356	84.94
282.588	83.94
282.819	76.94
283.051	79.94
283.282	75.94
283.513	91.94
283.745	78.94
283.976	85.94
284.207	81.94
284.439	84.94
284.67	81.94
284.901	82.94
285.132	89.94
285.364	79.94
285.595	85.94
285.826	91.94
286.057	90.94
286.288	62.94
286.52	82.94
286.751	88.94
286.982	85.94
287.213	96.94
287.444	91.94
287.675	81.94
287.906	91.94
288.138	68.94
288.369	99.94
288.6	91.94
288.831	75.94
289.062	86.94
289.293	78.94
289.524	73.94
289.755	80.94
289.986	78.94
290.217	79.94
290.448	69.94
290.679	94.94
290.91	92.94
291.141	68.94
291.371	97.94
291.602	85.94
291.833	91.94
292.064	82.94
292.295	76.94
292.526	85.94
292.757	75.94
292.987	78.94
293.218	77.94
293.449	83.94
293.68	89.94
293.91	92.94
294.141	89.94
294.372	81.94
294.603	77.94
294.833	88.94
295.064	91.94
295.295	85.94
295.525	84.94
295.756	80.94
295.987	87.94
296.217	83.94
296.448	67.94
296.679	89.94
296.909	97.94
297.14	111.94
297.37	86.94
297.601	90.94
297.831	82.94
298.062	86.94
298.292	79.94
298.523	99.94
298.753	80.94
298.984	81.94
299.214	97.94
299.445	73.94
299.675	93.94
299.905	89.94
300.136	100.94
300.366	86.94
300.597	83.94
300.827	75.94
301.057	76.94
301.288	76.94
301.518	83.94
301.748	86.94
301.979	91.94
302.209	104.94
302.439	80.94
302.669	81.94
302.9	76.94
303.13	86.94
303.36	66.94
303.59	70.94
303.82	85.94
304.051	86.94
304.281	88.94
304.511	83.94
304.741	69.94
304.971	64.94
305.201	83.94
305.431	87.94
305.661	82.94
305.891	77.94
306.121	78.94
306.352	83.94
306.582	76.94
306.812	76.94
307.042	80.94
307.272	89.94
307.502	73.94
307.731	72.94
307.961	77.94
308.191	88.94
308.421	74.94
308.651	80.94
308.881	94.94
309.111	87.94
309.341	86.94
309.571	79.94
309.8	87.94
310.03	91.94
310.26	73.94
310.49	85.94
310.72	79.94
310.949	88.94
311.179	74.94
311.409	74.94
311.639	74.94
311.868	82.94
312.098	99.94
312.328	80.94
312.557	86.94
312.787	99.94
313.017	67.94
313.246	79.94
313.476	96.94
313.706	70.94
313.935	76.94
314.165	79.94
314.394	94.94
314.624	92.94
314.853	75.94
315.083	85.94
315.312	89.94
315.542	81.94
315.771	76.94
316.001	84.94
316.23	74.94
316.46	69.94
316.689	87.94
316.919	94.94
317.148	80.94
317.377	89.94
317.607	84.94
317.836	85.94
318.065	85.94
318.295	84.94
318.524	92.94
318.753	80.94
318.983	90.94
319.212	90.94
319.441	90.94
319.67	82.94
319.9	76.94
320.129	85.94
320.358	84.94
320.587	86.94
320.816	84.94
321.046	90.94
321.275	75.94
321.504	83.94
321.733	86.94
321.962	65.94
322.191	66.94
322.42	89.94
322.649	100.94
322.878	90.94
323.108	76.94
323.337	68.94
323.566	78.94
323.795	78.94
324.024	83.94
324.253	97.94
324.482	78.94
324.71	80.94
324.939	76.94
325.168	89.94
325.397	73.94
325.626	79.94
325.855	88.94
326.084	93.94
326.313	80.94
326.542	88.94
326.77	81.94
326.999	90.94
327.228	95.94
327.457	82.94
327.686	94.94
327.914	84.94
328.143	82.94
328.372	81.94
328.6	98.94
328.829	98.94
329.058	78.94
329.287	82.94
329.515	69.94
329.744	96.94
329.972	94.94
330.201	90.94
330.43	83.94
330.658	85.94
330.887	86.94
331.115	79.94
331.344	89.94
331.572	85.94
331.801	83.94
332.03	74.94
332.258	78.94
332.486	81.94
332.715	85.94
332.943	71.94
333.172	82.94
333.4	76.94
333.629	77.94
333.857	90.94
334.085	88.94
334.314	88.94
334.542	79.94
334.771	97.94
334.999	82.94
335.227	81.94
335.455	83.94
335.684	87.94
335.912	89.94
336.14	81.94
336.369	99.94
336.597	91.94
336.825	95.94
337.053	88.94
337.281	81.94
337.51	79.94
337.738	64.94
337.966	92.94
338.194	82.94
338.422	81.94
338.65	95.94
338.878	91.94
339.106	92.94
339.334	91.94
339.562	89.94
339.79	96.94
340.018	76.94
340.246	104.94
340.474	79.94
340.702	92.94
340.93	78.94
341.158	92.94
341.386	85.94
341.614	79.94
341.842	71.94
342.07	77.94
342.298	82.94
342.526	71.94
342.754	91.94
342.981	72.94
343.209	90.94
343.437	84.94
343.665	92.94
343.893	89.94
344.12	96.94
344.348	94.94
344.576	68.94
344.804	77.94
345.031	76.94
345.259	78.94
345.487	82.94
345.714	81.94
345.942	63.94
346.17	80.94
346.397	83.94
346.625	81.94
346.853	80.94
347.08	85.94
347.308	98.94
347.535	89.94
347.763	88.94
347.99	82.94
348.218	83.94
348.445	76.94
348.673	73.94
348.9	71.94
349.128	88.94
349.355	86.94
349.583	90.94
349.81	82.94
350.037	76.94
350.265	78.94
350.492	82.94
350.72	86.94
350.947	71.94
351.174	76.94
351.402	81.94
351.629	82.94
351.856	75.94
352.083	90.94
352.311	86.94
352.538	85.94
352.765	78.94
352.992	82.94
353.22	89.94
353.447	86.94
353.674	71.94
353.901	84.94
354.128	72.94
354.355	70.94
354.583	87.94
354.81	80.94
355.037	91.94
355.264	94.94
355.491	84.94
355.718	78.94
355.945	88.94
356.172	85.94
356.399	84.94
356.626	78.94
356.853	81.94
357.08	78.94
357.307	79.94
357.534	95.94
357.761	85.94
357.988	82.94
358.215	81.94
358.441	74.94
358.668	85.94
358.895	77.94
359.122	65.94
359.349	80.94
359.576	81.94
359.802	79.94
360.029	69.94
360.256	93.94
360.483	90.94
360.709	79.94
360.936	90.94
361.163	75.94
361.39	93.94
361.616	88.94
361.843	87.94
362.07	80.94
362.296	70.94
362.523	81.94
362.749	78.94
362.976	84.94
363.203	86.94
363.429	91.94
363.656	85.94
363.882	96.94
364.109	72.94
364.335	81.94
364.562	84.94
364.788	77.94
365.015	74.94
365.241	83.94
365.468	85.94
365.694	86.94
365.92	101.94
366.147	95.94
366.373	54.94
366.599	82.94
366.826	89.94
367.052	57.94
367.278	78.94
367.505	76.94
367.731	80.94
367.957	88.94
368.184	91.94
368.41	87.94
368.636	78.94
368.862	72.94
369.089	89.94
369.315	84.94
369.541	85.94
369.767	81.94
369.993	96.94
370.219	77.94
370.445	69.94
370.672	77.94
370.898	75.94
371.124	90.94
371.35	82.94
371.576	80.94
371.802	86.94
372.028	83.94
372.254	80.94
372.48	81.94
372.706	60.94
372.932	86.94
373.158	83.94
373.384	96.94
373.61	88.94
373.835	71.94
374.061	86.94
374.287	86.94
374.513	82.94
374.739	84.94
374.965	73.94
375.191	71.94
375.416	81.94
375.642	71.94
375.868	75.94
376.094	85.94
376.319	92.94
376.545	68.94
376.771	81.94
376.997	80.94
377.222	85.94
377.448	84.94
377.674	93.94
377.899	80.94
378.125	93.94
378.35	85.94
378.576	71.94
378.802	78.94
379.027	72.94
379.253	77.94
379.478	84.94
379.704	80.94
379.929	72.94
380.155	71.94
380.38	64.94
380.606	73.94
380.831	76.94
381.057	81.94
381.282	74.94
381.507	99.94
381.733	84.94
381.958	80.94
382.184	92.94
382.409	78.94
382.634	68.94
382.86	69.94
383.085	78.94
383.31	77.94
383.535	80.94
383.761	73.94
383.986	79.94
384.211	75.94
384.436	78.94
384.662	81.94
384.887	85.94
385.112	82.94
385.337	70.94
385.562	76.94
385.787	77.94
386.013	74.94
386.238	78.94
386.463	77.94
386.688	85.94
386.913	89.94
387.138	77.94
387.363	89.94
387.588	74.94
387.813	74.94
388.038	81.94
388.263	73.94
388.488	84.94
388.713	77.94
388.938	84.94
389.163	78.94
389.387	82.94
389.612	68.94
389.837	73.94
390.062	72.94
390.287	77.94
390.512	72.94
390.736	64.94
390.961	75.94
391.186	75.94
391.411	78.94
391.636	88.94
391.86	85.94
392.085	76.94
392.31	84.94
392.534	77.94
392.759	70.94
392.984	84.94
393.208	76.94
393.433	89.94
393.658	74.94
393.882	86.94
394.107	86.94
394.331	84.94
394.556	86.94
394.78	59.94
395.005	88.94
395.229	74.94
395.454	86.94
395.678	84.94
395.903	76.94
396.127	84.94
396.352	88.94
396.576	81.94
396.801	84.94
397.025	76.94
397.249	81.94
397.474	88.94
397.698	90.94
397.922	92.94
398.147	80.94
398.371	76.94
398.595	80.94
398.82	69.94
399.044	76.94
399.268	80.94
399.492	80.94
399.717	85.94
399.941	80.94
400.165	62.94
400.389	70.94
400.613	76.94
400.837	85.94
401.062	76.94
401.286	77.94
401.51	81.94
401.734	93.94
401.958	81.94
402.182	85.94
402.406	64.94
402.63	64.94
402.854	76.94
403.078	76.94
403.302	83.94
403.526	91.94
403.75	82.94
403.974	65.94
404.198	88.94
404.422	76.94
404.645	89.94
404.869	74.94
405.093	81.94
405.317	92.94
405.541	84.94
405.765	95.94
405.988	78.94
406.212	69.94
406.436	79.94
406.66	90.94
406.883	91.94
407.107	81.94
407.331	78.94
407.555	71.94
407.778	76.94
408.002	79.94
408.226	89.94
408.449	100.94
408.673	75.94
408.896	90.94
409.12	85.94
409.344	86.94
409.567	85.94
409.791	88.94
410.014	76.94
410.238	85.94
410.461	74.94
410.685	88.94
410.908	70.94
411.132	84.94
411.355	71.94
411.578	79.94
411.802	88.94
412.025	81.94
412.249	67.94
412.472	80.94
412.695	90.94
412.919	78.94
413.142	77.94
413.365	84.94
413.589	90.94
413.812	90.94
414.035	81.94
414.258	82.94
414.482	94.94
414.705	77.94
414.928	75.94
415.151	72.94
415.374	78.94
415.597	79.94
415.821	81.94
416.044	76.94
416.267	84.94
416.49	67.94
416.713	80.94
416.936	85.94
417.159	84.94
417.382	80.94
417.605	73.94
417.828	91.94
418.051	80.94
418.274	87.94
418.497	68.94
418.72	85.94
418.943	79.94
419.166	74.94
419.389	77.94
419.611	77.94
419.834	65.94
420.057	80.94
420.28	85.94
420.503	83.94
420.726	91.94
420.948	76.94
421.171	82.94
421.394	92.94
421.617	75.94
421.839	83.94
422.062	82.94
422.285	78.94
422.507	78.94
422.73	90.94
422.953	70.94
423.175	83.94
423.398	86.94
423.621	79.94
423.843	78.94
424.066	81.94
424.288	76.94
424.511	77.94
424.733	77.94
424.956	77.94
425.178	78.94
425.401	76.94
425.623	74.94
425.846	77.94
426.068	88.94
426.291	71.94
426.513	86.94
426.735	90.94
426.958	84.94
427.18	78.94
427.402	88.94
427.625	83.94
427.847	72.94
428.069	86.94
428.292	64.94
428.514	74.94
428.736	100.94
428.958	85.94
429.181	94.94
429.403	81.94
429.625	81.94
429.847	85.94
430.069	80.94
430.292	87.94
430.514	78.94
430.736	70.94
430.958	79.94
431.18	91.94
431.402	78.94
431.624	78.94
431.846	87.94
432.068	77.94
432.29	93.94
432.512	84.94
432.734	72.94
432.956	84.94
433.178	80.94
433.4	75.94
433.622	89.94
433.844	82.94
434.066	86.94
434.287	89.94
434.509	84.94
434.731	86.94
434.953	73.94
435.175	85.94
435.397	74.94
435.618	67.94
435.84	85.94
436.062	83.94
436.284	58.94
436.505	83.94
436.727	71.94
436.949	76.94
437.17	86.94
437.392	76.94
437.614	76.94
437.835	87.94
438.057	78.94
438.278	80.94
438.5	80.94
438.721	75.94
438.943	64.94
439.165	85.94
439.386	78.94
439.608	82.94
439.829	76.94
440.05	85.94
440.272	74.94
440.493	65.94
440.715	72.94
440.936	76.94
441.158	85.94
441.379	82.94
441.6	83.94
441.822	94.94
442.043	78.94
442.264	80.94
442.486	93.94
442.707	80.94
442.928	84.94
443.149	85.94
443.371	85.94
443.592	85.94
443.813	70.94
444.034	69.94
444.255	76.94
444.476	79.94
444.698	76.94
444.919	76.94
445.14	158.94
445.361	115.94
445.582	82.94
445.803	83.94
446.024	82.94
446.245	89.94
446.466	83.94
446.687	80.94
446.908	74.94
447.129	86.94
447.35	80.94
447.571	79.94
447.792	88.94
448.013	85.94
448.234	83.94
448.455	90.94
448.675	76.94
448.896	82.94
449.117	88.94
449.338	80.94
449.559	70.94
449.779	86.94
450	77.94
450.221	73.94
450.442	94.94
450.662	73.94
450.883	77.94
451.104	69.94
451.324	66.94
451.545	66.94
451.766	71.94
451.986	85.94
452.207	89.94
452.428	77.94
452.648	81.94
452.869	91.94
453.089	94.94
453.31	87.94
453.53	76.94
453.751	71.94
453.971	79.94
454.192	83.94
454.412	70.94
454.633	82.94
454.853	76.94
455.073	80.94
455.294	83.94
455.514	85.94
455.734	78.94
455.955	77.94
456.175	77.94
456.395	74.94
456.616	80.94
456.836	79.94
457.056	88.94
457.276	85.94
457.497	76.94
457.717	82.94
457.937	88.94
458.157	78.94
458.377	88.94
458.598	68.94
458.818	66.94
459.038	73.94
459.258	72.94
459.478	85.94
459.698	89.94
459.918	92.94
460.138	77.94
460.358	74.94
460.578	80.94
460.798	64.94
461.018	78.94
461.238	68.94
461.458	97.94
461.678	78.94
461.898	72.94
462.118	90.94
462.338	82.94
462.558	89.94
462.777	86.94
462.997	83.94
463.217	87.94
463.437	83.94
463.657	75.94
463.876	76.94
464.096	75.94
464.316	95.94
464.536	90.94
464.755	88.94
464.975	95.94
465.195	81.94
465.414	71.94
465.634	79.94
465.854	83.94
466.073	83.94
466.293	84.94
466.512	75.94
466.732	74.94
466.951	70.94
467.171	73.94
467.391	82.94
467.61	89.94
467.829	76.94
468.049	84.94
468.268	72.94
468.488	76.94
468.707	73.94
468.927	76.94
469.146	78.94
469.365	90.94
469.585	70.94
469.804	99.94
470.023	77.94
470.243	82.94
470.462	81.94
470.681	84.94
470.901	94.94
471.12	80.94
471.339	79.94
471.558	81.94
471.777	88.94
471.997	89.94
472.216	76.94
472.435	83.94
472.654	72.94
472.873	71.94
473.092	84.94
473.311	72.94
473.53	94.94
473.749	91.94
473.968	83.94
474.187	71.94
474.406	76.94
474.625	92.94
474.844	82.94
475.063	92.94
475.282	68.94
475.501	82.94
475.72	70.94
475.939	90.94
476.158	79.94
476.377	89.94
476.596	87.94
476.814	86.94
477.033	66.94
477.252	91.94
477.471	74.94
477.69	83.94
477.908	89.94
478.127	90.94
478.346	87.94
478.564	77.94
478.783	67.94
479.002	74.94
479.22	77.94
479.439	95.94
479.658	80.94
479.876	70.94
480.095	74.94
480.313	91.94
480.532	86.94
480.751	92.94
480.969	92.94
481.188	91.94
481.406	80.94
481.624	85.94
481.843	80.94
482.061	79.94
482.28	69.94
482.498	85.94
482.717	91.94
482.935	88.94
483.153	80.94
483.372	102.94
483.59	81.94
483.808	77.94
484.027	76.94
484.245	85.94
484.463	88.94
484.681	79.94
484.9	87.94
485.118	70.94
485.336	80.94
485.554	72.94
485.772	104.94
485.99	97.94
486.209	76.94
486.427	78.94
486.645	66.94
486.863	89.94
487.081	85.94
487.299	82.94
487.517	93.94
487.735	76.94
487.953	87.94
488.171	68.94
488.389	75.94
488.607	75.94
488.825	75.94
489.043	87.94
489.261	88.94
489.479	84.94
489.696	89.94
489.914	81.94
490.132	79.94
490.35	70.94
490.568	88.94
490.786	72.94
491.003	85.94
491.221	97.94
491.439	66.94
491.657	85.94
491.874	72.94
492.092	101.94
492.31	88.94
492.527	75.94
492.745	67.94
492.963	87.94
493.18	81.94
493.398	84.94
493.615	76.94
493.833	86.94
494.05	78.94
494.268	80.94
494.485	85.94
494.703	85.94
494.92	80.94
495.138	78.94
495.355	83.94
495.573	90.94
495.79	69.94
496.008	78.94
496.225	74.94
496.442	73.94
496.66	80.94
496.877	93.94
497.094	85.94
497.312	80.94
497.529	83.94
497.746	89.94
497.963	85.94
498.181	77.94
498.398	83.94
498.615	90.94
498.832	77.94
499.049	93.94
499.267	92.94
499.484	79.94
499.701	84.94
499.918	83.94
500.135	76.94
500.352	80.94
500.569	77.94
500.786	83.94
501.003	83.94
501.22	83.94
501.437	77.94
501.654	72.94
501.871	69.94
502.088	79.94
502.305	70.94
502.522	76.94
502.739	99.94
502.956	100.94
503.172	85.94
503.389	92.94
503.606	92.94
503.823	78.94
504.04	89.94
504.256	77.94
504.473	85.94
504.69	74.94
504.907	88.94
505.123	88.94
505.34	99.94
505.557	77.94
505.773	94.94
505.99	74.94
506.207	78.94
506.423	77.94
506.64	87.94
506.856	91.94
507.073	81.94
507.289	76.94
507.506	82.94
507.722	88.94
507.939	76.94
508.155	90.94
508.372	83.94
508.588	91.94
508.805	69.94
509.021	77.94
509.238	83.94
509.454	71.94
509.67	81.94
509.887	79.94
510.103	91.94
510.319	78.94
510.536	76.94
510.752	81.94
510.968	76.94
511.184	83.94
511.401	85.94
511.617	89.94
511.833	74.94
512.049	83.94
512.265	92.94
512.481	95.94
512.698	78.94
512.914	78.94
513.13	86.94
513.346	80.94
513.562	82.94
513.778	66.94
513.994	78.94
514.21	90.94
514.426	97.94
514.642	87.94
514.858	92.94
515.074	85.94
515.29	94.94
515.506	84.94
515.721	70.94
515.937	86.94
516.153	83.94
516.369	81.94
516.585	74.94
516.801	84.94
517.016	79.94
517.232	85.94
517.448	84.94
517.664	62.94
517.879	86.94
518.095	80.94
518.311	82.94
518.527	88.94
518.742	80.94
518.958	90.94
519.173	82.94
519.389	80.94
519.605	89.94
519.82	95.94
520.036	73.94
