Data from Background_2_HRD10591_00019.txt Node
Date: Wed Nov 05 14:47:06 EST 2025
User: Yrep
Spectrometer: HR+D1059
Trigger mode: 1
Integration Time (sec): 1.000000E-1
Scans to average: 1
Electric dark correction enabled: true
Nonlinearity correction enabled: false
Boxcar width: 0
XAxis mode: Wavelengths
Number of Pixels in Spectrum: 2048
>>>>>Begin Spectral Data<<<<<
223.165	-15.44
223.4	-15.44
223.635	-15.44
223.869	-7.44
224.104	-15.44
224.338	-27.44
224.573	-18.44
224.808	-20.44
225.042	-12.44
225.277	-2.44
225.511	-11.44
225.746	19.56
225.98	11.56
226.215	2.56
226.449	7.56
226.683	24.56
226.918	32.56
227.152	32.56
227.387	27.56
227.621	48.56
227.856	45.56
228.09	47.56
228.324	58.56
228.559	67.56
228.793	51.56
229.027	51.56
229.262	63.56
229.496	76.56
229.73	71.56
229.964	67.56
230.199	65.56
230.433	67.56
230.667	56.56
230.901	75.56
231.136	67.56
231.37	73.56
231.604	75.56
231.838	84.56
232.072	71.56
232.306	97.56
232.541	83.56
232.775	93.56
233.009	68.56
233.243	70.56
233.477	86.56
233.711	68.56
233.945	76.56
234.179	83.56
234.413	82.56
234.647	77.56
234.881	76.56
235.115	82.56
235.349	78.56
235.583	65.56
235.817	87.56
236.051	72.56
236.285	83.56
236.519	75.56
236.753	93.56
236.987	90.56
237.221	79.56
237.455	72.56
237.689	73.56
237.922	83.56
238.156	74.56
238.39	70.56
238.624	66.56
238.858	71.56
239.091	79.56
239.325	80.56
239.559	81.56
239.793	76.56
240.027	85.56
240.26	69.56
240.494	82.56
240.728	57.56
240.961	78.56
241.195	84.56
241.429	79.56
241.662	75.56
241.896	65.56
242.13	79.56
242.363	71.56
242.597	75.56
242.83	83.56
243.064	78.56
243.298	80.56
243.531	61.56
243.765	64.56
243.998	79.56
244.232	76.56
244.465	81.56
244.699	75.56
244.932	83.56
245.166	86.56
245.399	81.56
245.633	76.56
245.866	80.56
246.099	69.56
246.333	59.56
246.566	70.56
246.8	84.56
247.033	83.56
247.266	85.56
247.5	69.56
247.733	76.56
247.966	77.56
248.2	72.56
248.433	78.56
248.666	75.56
248.899	87.56
249.133	84.56
249.366	94.56
249.599	62.56
249.832	70.56
250.066	79.56
250.299	67.56
250.532	76.56
250.765	68.56
250.998	69.56
251.231	87.56
251.465	85.56
251.698	69.56
251.931	63.56
252.164	78.56
252.397	76.56
252.63	85.56
252.863	80.56
253.096	77.56
253.329	70.56
253.562	80.56
253.795	82.56
254.028	87.56
254.261	87.56
254.494	65.56
254.727	82.56
254.96	79.56
255.193	86.56
255.426	65.56
255.659	80.56
255.892	72.56
256.124	71.56
256.357	74.56
256.59	81.56
256.823	87.56
257.056	79.56
257.289	73.56
257.521	91.56
257.754	84.56
257.987	85.56
258.22	69.56
258.452	73.56
258.685	95.56
258.918	86.56
259.151	78.56
259.383	82.56
259.616	84.56
259.849	80.56
260.081	93.56
260.314	77.56
260.547	84.56
260.779	67.56
261.012	82.56
261.244	80.56
261.477	89.56
261.71	89.56
261.942	88.56
262.175	93.56
262.407	84.56
262.64	83.56
262.872	75.56
263.105	86.56
263.337	69.56
263.57	82.56
263.802	74.56
264.035	66.56
264.267	73.56
264.499	72.56
264.732	80.56
264.964	87.56
265.197	77.56
265.429	79.56
265.661	84.56
265.894	79.56
266.126	64.56
266.358	82.56
266.591	80.56
266.823	78.56
267.055	80.56
267.287	93.56
267.52	73.56
267.752	72.56
267.984	78.56
268.216	79.56
268.448	81.56
268.681	60.56
268.913	80.56
269.145	86.56
269.377	84.56
269.609	57.56
269.841	79.56
270.073	87.56
270.306	76.56
270.538	87.56
270.77	97.56
271.002	84.56
271.234	69.56
271.466	82.56
271.698	75.56
271.93	77.56
272.162	87.56
272.394	94.56
272.626	85.56
272.858	82.56
273.09	77.56
273.322	84.56
273.553	75.56
273.785	93.56
274.017	68.56
274.249	72.56
274.481	76.56
274.713	64.56
274.945	81.56
275.176	77.56
275.408	92.56
275.64	79.56
275.872	69.56
276.104	88.56
276.335	72.56
276.567	82.56
276.799	77.56
277.031	72.56
277.262	76.56
277.494	93.56
277.726	84.56
277.957	67.56
278.189	90.56
278.421	83.56
278.652	67.56
278.884	72.56
279.115	67.56
279.347	82.56
279.579	69.56
279.81	78.56
280.042	93.56
280.273	82.56
280.505	88.56
280.736	87.56
280.968	73.56
281.199	64.56
281.431	81.56
281.662	84.56
281.894	74.56
282.125	91.56
282.356	73.56
282.588	83.56
282.819	77.56
283.051	74.56
283.282	80.56
283.513	86.56
283.745	68.56
283.976	92.56
284.207	80.56
284.439	79.56
284.67	79.56
284.901	78.56
285.132	75.56
285.364	84.56
285.595	88.56
285.826	93.56
286.057	90.56
286.288	77.56
286.52	77.56
286.751	72.56
286.982	70.56
287.213	77.56
287.444	98.56
287.675	85.56
287.906	80.56
288.138	73.56
288.369	83.56
288.6	91.56
288.831	76.56
289.062	77.56
289.293	78.56
289.524	73.56
289.755	75.56
289.986	70.56
290.217	93.56
290.448	72.56
290.679	81.56
290.91	82.56
291.141	78.56
291.371	71.56
291.602	96.56
291.833	81.56
292.064	90.56
292.295	83.56
292.526	84.56
292.757	82.56
292.987	80.56
293.218	80.56
293.449	78.56
293.68	93.56
293.91	77.56
294.141	83.56
294.372	86.56
294.603	83.56
294.833	79.56
295.064	78.56
295.295	95.56
295.525	69.56
295.756	99.56
295.987	71.56
296.217	76.56
296.448	86.56
296.679	78.56
296.909	92.56
297.14	89.56
297.37	90.56
297.601	77.56
297.831	93.56
298.062	73.56
298.292	79.56
298.523	88.56
298.753	93.56
298.984	86.56
299.214	81.56
299.445	77.56
299.675	82.56
299.905	83.56
300.136	76.56
300.366	78.56
300.597	84.56
300.827	68.56
301.057	77.56
301.288	79.56
301.518	85.56
301.748	94.56
301.979	92.56
302.209	73.56
302.439	93.56
302.669	89.56
302.9	87.56
303.13	80.56
303.36	90.56
303.59	95.56
303.82	82.56
304.051	87.56
304.281	69.56
304.511	77.56
304.741	85.56
304.971	92.56
305.201	100.56
305.431	92.56
305.661	77.56
305.891	84.56
306.121	94.56
306.352	87.56
306.582	83.56
306.812	82.56
307.042	85.56
307.272	93.56
307.502	91.56
307.731	80.56
307.961	79.56
308.191	95.56
308.421	66.56
308.651	79.56
308.881	74.56
309.111	67.56
309.341	99.56
309.571	89.56
309.8	85.56
310.03	77.56
310.26	76.56
310.49	83.56
310.72	71.56
310.949	79.56
311.179	80.56
311.409	79.56
311.639	85.56
311.868	97.56
312.098	69.56
312.328	75.56
312.557	75.56
312.787	78.56
313.017	79.56
313.246	82.56
313.476	73.56
313.706	78.56
313.935	64.56
314.165	89.56
314.394	82.56
314.624	67.56
314.853	83.56
315.083	80.56
315.312	71.56
315.542	67.56
315.771	83.56
316.001	81.56
316.23	72.56
316.46	83.56
316.689	72.56
316.919	87.56
317.148	69.56
317.377	93.56
317.607	87.56
317.836	76.56
318.065	87.56
318.295	77.56
318.524	82.56
318.753	80.56
318.983	82.56
319.212	81.56
319.441	78.56
319.67	80.56
319.9	84.56
320.129	84.56
320.358	90.56
320.587	66.56
320.816	66.56
321.046	83.56
321.275	92.56
321.504	88.56
321.733	108.56
321.962	87.56
322.191	88.56
322.42	84.56
322.649	78.56
322.878	77.56
323.108	85.56
323.337	76.56
323.566	73.56
323.795	95.56
324.024	91.56
324.253	80.56
324.482	93.56
324.71	84.56
324.939	73.56
325.168	82.56
325.397	80.56
325.626	72.56
325.855	88.56
326.084	83.56
326.313	69.56
326.542	64.56
326.77	79.56
326.999	67.56
327.228	72.56
327.457	91.56
327.686	83.56
327.914	95.56
328.143	88.56
328.372	84.56
328.6	71.56
328.829	87.56
329.058	80.56
329.287	77.56
329.515	73.56
329.744	91.56
329.972	77.56
330.201	79.56
330.43	88.56
330.658	90.56
330.887	95.56
331.115	83.56
331.344	80.56
331.572	80.56
331.801	87.56
332.03	72.56
332.258	65.56
332.486	79.56
332.715	79.56
332.943	81.56
333.172	77.56
333.4	93.56
333.629	79.56
333.857	79.56
334.085	92.56
334.314	82.56
334.542	77.56
334.771	76.56
334.999	79.56
335.227	83.56
335.455	74.56
335.684	87.56
335.912	83.56
336.14	85.56
336.369	85.56
336.597	78.56
336.825	83.56
337.053	75.56
337.281	73.56
337.51	92.56
337.738	83.56
337.966	83.56
338.194	76.56
338.422	78.56
338.65	87.56
338.878	80.56
339.106	67.56
339.334	86.56
339.562	80.56
339.79	78.56
340.018	84.56
340.246	73.56
340.474	76.56
340.702	67.56
340.93	78.56
341.158	78.56
341.386	80.56
341.614	89.56
341.842	77.56
342.07	86.56
342.298	72.56
342.526	98.56
342.754	87.56
342.981	77.56
343.209	75.56
343.437	91.56
343.665	74.56
343.893	71.56
344.12	68.56
344.348	79.56
344.576	69.56
344.804	89.56
345.031	80.56
345.259	80.56
345.487	71.56
345.714	83.56
345.942	84.56
346.17	79.56
346.397	83.56
346.625	87.56
346.853	75.56
347.08	87.56
347.308	77.56
347.535	90.56
347.763	88.56
347.99	92.56
348.218	84.56
348.445	79.56
348.673	73.56
348.9	96.56
349.128	89.56
349.355	84.56
349.583	73.56
349.81	83.56
350.037	78.56
350.265	89.56
350.492	77.56
350.72	75.56
350.947	84.56
351.174	73.56
351.402	93.56
351.629	73.56
351.856	80.56
352.083	81.56
352.311	87.56
352.538	84.56
352.765	71.56
352.992	81.56
353.22	84.56
353.447	81.56
353.674	83.56
353.901	83.56
354.128	76.56
354.355	94.56
354.583	68.56
354.81	79.56
355.037	85.56
355.264	77.56
355.491	74.56
355.718	79.56
355.945	56.56
356.172	81.56
356.399	85.56
356.626	87.56
356.853	78.56
357.08	76.56
357.307	80.56
357.534	85.56
357.761	76.56
357.988	77.56
358.215	79.56
358.441	67.56
358.668	67.56
358.895	85.56
359.122	72.56
359.349	67.56
359.576	83.56
359.802	78.56
360.029	89.56
360.256	78.56
360.483	86.56
360.709	97.56
360.936	78.56
361.163	76.56
361.39	80.56
361.616	74.56
361.843	81.56
362.07	96.56
362.296	83.56
362.523	77.56
362.749	103.56
362.976	78.56
363.203	93.56
363.429	76.56
363.656	68.56
363.882	82.56
364.109	78.56
364.335	77.56
364.562	91.56
364.788	90.56
365.015	87.56
365.241	70.56
365.468	69.56
365.694	76.56
365.92	76.56
366.147	93.56
366.373	81.56
366.599	79.56
366.826	80.56
367.052	75.56
367.278	68.56
367.505	79.56
367.731	80.56
367.957	80.56
368.184	78.56
368.41	73.56
368.636	75.56
368.862	83.56
369.089	80.56
369.315	83.56
369.541	93.56
369.767	90.56
369.993	90.56
370.219	76.56
370.445	94.56
370.672	94.56
370.898	76.56
371.124	71.56
371.35	73.56
371.576	83.56
371.802	74.56
372.028	71.56
372.254	82.56
372.48	75.56
372.706	80.56
372.932	75.56
373.158	80.56
373.384	86.56
373.61	85.56
373.835	86.56
374.061	92.56
374.287	83.56
374.513	72.56
374.739	78.56
374.965	83.56
375.191	84.56
375.416	88.56
375.642	88.56
375.868	83.56
376.094	82.56
376.319	77.56
376.545	72.56
376.771	58.56
376.997	81.56
377.222	69.56
377.448	68.56
377.674	82.56
377.899	89.56
378.125	72.56
378.35	75.56
378.576	75.56
378.802	67.56
379.027	75.56
379.253	83.56
379.478	85.56
379.704	84.56
379.929	98.56
380.155	84.56
380.38	97.56
380.606	68.56
380.831	79.56
381.057	98.56
381.282	73.56
381.507	78.56
381.733	80.56
381.958	89.56
382.184	66.56
382.409	73.56
382.634	69.56
382.86	84.56
383.085	88.56
383.31	81.56
383.535	84.56
383.761	87.56
383.986	84.56
384.211	75.56
384.436	92.56
384.662	75.56
384.887	72.56
385.112	72.56
385.337	66.56
385.562	86.56
385.787	84.56
386.013	82.56
386.238	64.56
386.463	67.56
386.688	85.56
386.913	73.56
387.138	84.56
387.363	72.56
387.588	76.56
387.813	83.56
388.038	76.56
388.263	75.56
388.488	84.56
388.713	76.56
388.938	81.56
389.163	92.56
389.387	92.56
389.612	92.56
389.837	95.56
390.062	87.56
390.287	72.56
390.512	73.56
390.736	80.56
390.961	72.56
391.186	99.56
391.411	77.56
391.636	95.56
391.86	83.56
392.085	65.56
392.31	76.56
392.534	67.56
392.759	65.56
392.984	75.56
393.208	88.56
393.433	73.56
393.658	64.56
393.882	79.56
394.107	70.56
394.331	64.56
394.556	72.56
394.78	64.56
395.005	70.56
395.229	73.56
395.454	72.56
395.678	81.56
395.903	76.56
396.127	80.56
396.352	82.56
396.576	68.56
396.801	85.56
397.025	66.56
397.249	74.56
397.474	78.56
397.698	91.56
397.922	86.56
398.147	75.56
398.371	80.56
398.595	85.56
398.82	83.56
399.044	81.56
399.268	86.56
399.492	81.56
399.717	81.56
399.941	85.56
400.165	71.56
400.389	83.56
400.613	87.56
400.837	88.56
401.062	83.56
401.286	67.56
401.51	99.56
401.734	84.56
401.958	79.56
402.182	64.56
402.406	61.56
402.63	85.56
402.854	65.56
403.078	62.56
403.302	68.56
403.526	77.56
403.75	69.56
403.974	85.56
404.198	73.56
404.422	83.56
404.645	83.56
404.869	71.56
405.093	63.56
405.317	83.56
405.541	78.56
405.765	79.56
405.988	82.56
406.212	82.56
406.436	77.56
406.66	70.56
406.883	68.56
407.107	85.56
407.331	81.56
407.555	72.56
407.778	84.56
408.002	85.56
408.226	83.56
408.449	88.56
408.673	68.56
408.896	83.56
409.12	79.56
409.344	80.56
409.567	80.56
409.791	84.56
410.014	73.56
410.238	93.56
410.461	71.56
410.685	76.56
410.908	71.56
411.132	89.56
411.355	80.56
411.578	77.56
411.802	85.56
412.025	74.56
412.249	92.56
412.472	81.56
412.695	90.56
412.919	93.56
413.142	83.56
413.365	83.56
413.589	84.56
413.812	77.56
414.035	76.56
414.258	76.56
414.482	92.56
414.705	95.56
414.928	75.56
415.151	96.56
415.374	75.56
415.597	90.56
415.821	88.56
416.044	80.56
416.267	83.56
416.49	69.56
416.713	69.56
416.936	87.56
417.159	68.56
417.382	75.56
417.605	65.56
417.828	80.56
418.051	81.56
418.274	85.56
418.497	67.56
418.72	73.56
418.943	73.56
419.166	78.56
419.389	68.56
419.611	79.56
419.834	63.56
420.057	84.56
420.28	65.56
420.503	83.56
420.726	91.56
420.948	83.56
421.171	81.56
421.394	81.56
421.617	76.56
421.839	72.56
422.062	81.56
422.285	76.56
422.507	81.56
422.73	87.56
422.953	68.56
423.175	72.56
423.398	66.56
423.621	79.56
423.843	81.56
424.066	84.56
424.288	85.56
424.511	87.56
424.733	91.56
424.956	80.56
425.178	88.56
425.401	69.56
425.623	64.56
425.846	89.56
426.068	84.56
426.291	75.56
426.513	65.56
426.735	77.56
426.958	76.56
427.18	76.56
427.402	77.56
427.625	79.56
427.847	60.56
428.069	95.56
428.292	81.56
428.514	73.56
428.736	81.56
428.958	75.56
429.181	70.56
429.403	87.56
429.625	78.56
429.847	68.56
430.069	83.56
430.292	61.56
430.514	69.56
430.736	74.56
430.958	85.56
431.18	79.56
431.402	59.56
431.624	75.56
431.846	79.56
432.068	83.56
432.29	68.56
432.512	77.56
432.734	79.56
432.956	82.56
433.178	84.56
433.4	88.56
433.622	90.56
433.844	84.56
434.066	78.56
434.287	60.56
434.509	88.56
434.731	84.56
434.953	82.56
435.175	81.56
435.397	85.56
435.618	77.56
435.84	74.56
436.062	61.56
436.284	82.56
436.505	92.56
436.727	64.56
436.949	79.56
437.17	73.56
437.392	88.56
437.614	92.56
437.835	82.56
438.057	81.56
438.278	79.56
438.5	74.56
438.721	88.56
438.943	86.56
439.165	89.56
439.386	81.56
439.608	83.56
439.829	82.56
440.05	79.56
440.272	74.56
440.493	87.56
440.715	84.56
440.936	81.56
441.158	70.56
441.379	81.56
441.6	88.56
441.822	80.56
442.043	83.56
442.264	81.56
442.486	86.56
442.707	61.56
442.928	75.56
443.149	62.56
443.371	76.56
443.592	67.56
443.813	77.56
444.034	81.56
444.255	88.56
444.476	68.56
444.698	78.56
444.919	77.56
445.14	147.56
445.361	131.56
445.582	74.56
445.803	99.56
446.024	81.56
446.245	86.56
446.466	76.56
446.687	81.56
446.908	79.56
447.129	76.56
447.35	77.56
447.571	73.56
447.792	76.56
448.013	90.56
448.234	79.56
448.455	90.56
448.675	91.56
448.896	71.56
449.117	60.56
449.338	92.56
449.559	83.56
449.779	63.56
450	78.56
450.221	67.56
450.442	70.56
450.662	77.56
450.883	77.56
451.104	84.56
451.324	68.56
451.545	75.56
451.766	79.56
451.986	79.56
452.207	82.56
452.428	79.56
452.648	88.56
452.869	82.56
453.089	81.56
453.31	77.56
453.53	76.56
453.751	86.56
453.971	80.56
454.192	70.56
454.412	73.56
454.633	83.56
454.853	77.56
455.073	98.56
455.294	76.56
455.514	75.56
455.734	91.56
455.955	67.56
456.175	80.56
456.395	82.56
456.616	68.56
456.836	76.56
457.056	81.56
457.276	81.56
457.497	80.56
457.717	78.56
457.937	76.56
458.157	72.56
458.377	89.56
458.598	83.56
458.818	70.56
459.038	66.56
459.258	77.56
459.478	84.56
459.698	73.56
459.918	87.56
460.138	93.56
460.358	73.56
460.578	91.56
460.798	76.56
461.018	82.56
461.238	90.56
461.458	72.56
461.678	81.56
461.898	81.56
462.118	75.56
462.338	87.56
462.558	95.56
462.777	72.56
462.997	72.56
463.217	75.56
463.437	67.56
463.657	69.56
463.876	78.56
464.096	74.56
464.316	93.56
464.536	82.56
464.755	87.56
464.975	82.56
465.195	67.56
465.414	74.56
465.634	82.56
465.854	86.56
466.073	80.56
466.293	72.56
466.512	76.56
466.732	75.56
466.951	75.56
467.171	71.56
467.391	80.56
467.61	85.56
467.829	73.56
468.049	69.56
468.268	76.56
468.488	77.56
468.707	88.56
468.927	75.56
469.146	83.56
469.365	89.56
469.585	80.56
469.804	77.56
470.023	67.56
470.243	84.56
470.462	86.56
470.681	70.56
470.901	84.56
471.12	76.56
471.339	83.56
471.558	74.56
471.777	60.56
471.997	82.56
472.216	76.56
472.435	80.56
472.654	83.56
472.873	87.56
473.092	81.56
473.311	82.56
473.53	77.56
473.749	80.56
473.968	78.56
474.187	99.56
474.406	69.56
474.625	79.56
474.844	77.56
475.063	75.56
475.282	92.56
475.501	84.56
475.72	88.56
475.939	68.56
476.158	68.56
476.377	84.56
476.596	76.56
476.814	79.56
477.033	79.56
477.252	94.56
477.471	83.56
477.69	76.56
477.908	87.56
478.127	84.56
478.346	86.56
478.564	87.56
478.783	50.56
479.002	76.56
479.22	78.56
479.439	83.56
479.658	76.56
479.876	81.56
480.095	67.56
480.313	77.56
480.532	75.56
480.751	85.56
480.969	75.56
481.188	106.56
481.406	90.56
481.624	79.56
481.843	75.56
482.061	80.56
482.28	78.56
482.498	87.56
482.717	89.56
482.935	83.56
483.153	90.56
483.372	83.56
483.59	76.56
483.808	87.56
484.027	76.56
484.245	79.56
484.463	79.56
484.681	75.56
484.9	88.56
485.118	77.56
485.336	79.56
485.554	86.56
485.772	82.56
485.99	72.56
486.209	83.56
486.427	75.56
486.645	76.56
486.863	86.56
487.081	83.56
487.299	83.56
487.517	89.56
487.735	89.56
487.953	74.56
488.171	84.56
488.389	78.56
488.607	79.56
488.825	103.56
489.043	78.56
489.261	75.56
489.479	75.56
489.696	88.56
489.914	76.56
490.132	76.56
490.35	92.56
490.568	81.56
490.786	87.56
491.003	85.56
491.221	73.56
491.439	82.56
491.657	77.56
491.874	75.56
492.092	80.56
492.31	70.56
492.527	73.56
492.745	80.56
492.963	96.56
493.18	79.56
493.398	91.56
493.615	91.56
493.833	73.56
494.05	73.56
494.268	82.56
494.485	70.56
494.703	72.56
494.92	77.56
495.138	82.56
495.355	83.56
495.573	84.56
495.79	85.56
496.008	82.56
496.225	69.56
496.442	69.56
496.66	99.56
496.877	76.56
497.094	80.56
497.312	80.56
497.529	83.56
497.746	85.56
497.963	81.56
498.181	86.56
498.398	65.56
498.615	94.56
498.832	87.56
499.049	77.56
499.267	82.56
499.484	84.56
499.701	95.56
499.918	78.56
500.135	92.56
500.352	77.56
500.569	85.56
500.786	93.56
501.003	78.56
501.22	83.56
501.437	85.56
501.654	75.56
501.871	81.56
502.088	83.56
502.305	84.56
502.522	79.56
502.739	75.56
502.956	73.56
503.172	81.56
503.389	93.56
503.606	83.56
503.823	69.56
504.04	81.56
504.256	92.56
504.473	92.56
504.69	74.56
504.907	75.56
505.123	77.56
505.34	69.56
505.557	75.56
505.773	78.56
505.99	57.56
506.207	87.56
506.423	80.56
506.64	78.56
506.856	73.56
507.073	89.56
507.289	79.56
507.506	96.56
507.722	78.56
507.939	59.56
508.155	69.56
508.372	69.56
508.588	77.56
508.805	81.56
509.021	97.56
509.238	70.56
509.454	79.56
509.67	79.56
509.887	78.56
510.103	76.56
510.319	87.56
510.536	81.56
510.752	95.56
510.968	72.56
511.184	91.56
511.401	71.56
511.617	73.56
511.833	74.56
512.049	72.56
512.265	68.56
512.481	77.56
512.698	74.56
512.914	82.56
513.13	82.56
513.346	74.56
513.562	63.56
513.778	82.56
513.994	71.56
514.21	74.56
514.426	75.56
514.642	74.56
514.858	80.56
515.074	86.56
515.29	75.56
515.506	79.56
515.721	96.56
515.937	83.56
516.153	81.56
516.369	85.56
516.585	74.56
516.801	77.56
517.016	68.56
517.232	73.56
517.448	80.56
517.664	80.56
517.879	83.56
518.095	75.56
518.311	95.56
518.527	65.56
518.742	80.56
518.958	80.56
519.173	70.56
519.389	76.56
519.605	78.56
519.82	85.56
520.036	82.56
