Data from Background_2_HRD10591_00064.txt Node
Date: Wed Nov 05 14:47:28 EST 2025
User: Yrep
Spectrometer: HR+D1059
Trigger mode: 1
Integration Time (sec): 1.000000E-1
Scans to average: 1
Electric dark correction enabled: true
Nonlinearity correction enabled: false
Boxcar width: 0
XAxis mode: Wavelengths
Number of Pixels in Spectrum: 2048
>>>>>Begin Spectral Data<<<<<
223.165	-9.31
223.4	-9.31
223.635	-9.31
223.869	-27.31
224.104	-25.31
224.338	-9.31
224.573	5.69
224.808	-25.31
225.042	-6.31
225.277	-12.31
225.511	-17.31
225.746	4.69
225.98	7.69
226.215	13.69
226.449	15.69
226.683	22.69
226.918	30.69
227.152	31.69
227.387	36.69
227.621	31.69
227.856	36.69
228.09	55.69
228.324	61.69
228.559	47.69
228.793	68.69
229.027	65.69
229.262	67.69
229.496	61.69
229.73	57.69
229.964	60.69
230.199	70.69
230.433	81.69
230.667	68.69
230.901	76.69
231.136	73.69
231.37	78.69
231.604	93.69
231.838	84.69
232.072	86.69
232.306	62.69
232.541	87.69
232.775	75.69
233.009	84.69
233.243	86.69
233.477	74.69
233.711	76.69
233.945	60.69
234.179	77.69
234.413	69.69
234.647	71.69
234.881	79.69
235.115	76.69
235.349	70.69
235.583	75.69
235.817	80.69
236.051	65.69
236.285	75.69
236.519	82.69
236.753	76.69
236.987	65.69
237.221	79.69
237.455	60.69
237.689	77.69
237.922	68.69
238.156	63.69
238.39	67.69
238.624	70.69
238.858	80.69
239.091	67.69
239.325	67.69
239.559	69.69
239.793	86.69
240.027	78.69
240.26	68.69
240.494	72.69
240.728	69.69
240.961	70.69
241.195	69.69
241.429	75.69
241.662	78.69
241.896	79.69
242.13	78.69
242.363	81.69
242.597	62.69
242.83	79.69
243.064	67.69
243.298	71.69
243.531	76.69
243.765	70.69
243.998	83.69
244.232	85.69
244.465	73.69
244.699	70.69
244.932	66.69
245.166	89.69
245.399	76.69
245.633	76.69
245.866	82.69
246.099	65.69
246.333	82.69
246.566	68.69
246.8	69.69
247.033	83.69
247.266	70.69
247.5	86.69
247.733	69.69
247.966	65.69
248.2	72.69
248.433	78.69
248.666	74.69
248.899	83.69
249.133	55.69
249.366	82.69
249.599	56.69
249.832	70.69
250.066	82.69
250.299	70.69
250.532	69.69
250.765	81.69
250.998	79.69
251.231	72.69
251.465	95.69
251.698	79.69
251.931	67.69
252.164	64.69
252.397	82.69
252.63	82.69
252.863	73.69
253.096	58.69
253.329	72.69
253.562	74.69
253.795	73.69
254.028	68.69
254.261	83.69
254.494	72.69
254.727	79.69
254.96	83.69
255.193	82.69
255.426	90.69
255.659	73.69
255.892	80.69
256.124	89.69
256.357	78.69
256.59	68.69
256.823	80.69
257.056	87.69
257.289	84.69
257.521	72.69
257.754	74.69
257.987	62.69
258.22	81.69
258.452	74.69
258.685	78.69
258.918	78.69
259.151	71.69
259.383	78.69
259.616	75.69
259.849	81.69
260.081	80.69
260.314	81.69
260.547	67.69
260.779	84.69
261.012	94.69
261.244	85.69
261.477	78.69
261.71	88.69
261.942	64.69
262.175	86.69
262.407	79.69
262.64	65.69
262.872	70.69
263.105	82.69
263.337	81.69
263.57	72.69
263.802	78.69
264.035	90.69
264.267	88.69
264.499	89.69
264.732	78.69
264.964	75.69
265.197	84.69
265.429	76.69
265.661	81.69
265.894	66.69
266.126	86.69
266.358	75.69
266.591	73.69
266.823	68.69
267.055	82.69
267.287	68.69
267.52	65.69
267.752	67.69
267.984	85.69
268.216	88.69
268.448	87.69
268.681	85.69
268.913	81.69
269.145	72.69
269.377	78.69
269.609	95.69
269.841	70.69
270.073	83.69
270.306	70.69
270.538	80.69
270.77	81.69
271.002	100.69
271.234	89.69
271.466	79.69
271.698	87.69
271.93	76.69
272.162	83.69
272.394	87.69
272.626	92.69
272.858	81.69
273.09	82.69
273.322	85.69
273.553	76.69
273.785	91.69
274.017	82.69
274.249	80.69
274.481	67.69
274.713	92.69
274.945	76.69
275.176	77.69
275.408	82.69
275.64	94.69
275.872	78.69
276.104	77.69
276.335	90.69
276.567	82.69
276.799	82.69
277.031	75.69
277.262	70.69
277.494	79.69
277.726	80.69
277.957	80.69
278.189	75.69
278.421	68.69
278.652	80.69
278.884	80.69
279.115	75.69
279.347	83.69
279.579	87.69
279.81	78.69
280.042	75.69
280.273	83.69
280.505	79.69
280.736	75.69
280.968	76.69
281.199	60.69
281.431	77.69
281.662	67.69
281.894	95.69
282.125	77.69
282.356	89.69
282.588	65.69
282.819	72.69
283.051	64.69
283.282	93.69
283.513	85.69
283.745	89.69
283.976	82.69
284.207	84.69
284.439	89.69
284.67	78.69
284.901	90.69
285.132	81.69
285.364	89.69
285.595	83.69
285.826	84.69
286.057	90.69
286.288	74.69
286.52	79.69
286.751	86.69
286.982	87.69
287.213	73.69
287.444	93.69
287.675	85.69
287.906	87.69
288.138	89.69
288.369	90.69
288.6	88.69
288.831	80.69
289.062	89.69
289.293	71.69
289.524	80.69
289.755	83.69
289.986	79.69
290.217	75.69
290.448	82.69
290.679	87.69
290.91	76.69
291.141	80.69
291.371	75.69
291.602	89.69
291.833	91.69
292.064	89.69
292.295	87.69
292.526	76.69
292.757	65.69
292.987	68.69
293.218	77.69
293.449	84.69
293.68	82.69
293.91	84.69
294.141	85.69
294.372	92.69
294.603	83.69
294.833	92.69
295.064	76.69
295.295	71.69
295.525	78.69
295.756	76.69
295.987	77.69
296.217	78.69
296.448	88.69
296.679	92.69
296.909	79.69
297.14	66.69
297.37	80.69
297.601	90.69
297.831	90.69
298.062	79.69
298.292	90.69
298.523	82.69
298.753	73.69
298.984	87.69
299.214	73.69
299.445	79.69
299.675	72.69
299.905	82.69
300.136	79.69
300.366	84.69
300.597	73.69
300.827	71.69
301.057	75.69
301.288	76.69
301.518	90.69
301.748	68.69
301.979	87.69
302.209	88.69
302.439	83.69
302.669	83.69
302.9	94.69
303.13	80.69
303.36	73.69
303.59	78.69
303.82	88.69
304.051	79.69
304.281	88.69
304.511	84.69
304.741	92.69
304.971	74.69
305.201	82.69
305.431	81.69
305.661	73.69
305.891	93.69
306.121	79.69
306.352	78.69
306.582	94.69
306.812	89.69
307.042	84.69
307.272	82.69
307.502	71.69
307.731	74.69
307.961	89.69
308.191	88.69
308.421	85.69
308.651	70.69
308.881	81.69
309.111	75.69
309.341	82.69
309.571	69.69
309.8	87.69
310.03	89.69
310.26	92.69
310.49	78.69
310.72	109.69
310.949	86.69
311.179	82.69
311.409	83.69
311.639	88.69
311.868	80.69
312.098	95.69
312.328	74.69
312.557	90.69
312.787	94.69
313.017	82.69
313.246	86.69
313.476	79.69
313.706	82.69
313.935	74.69
314.165	80.69
314.394	77.69
314.624	83.69
314.853	77.69
315.083	68.69
315.312	99.69
315.542	80.69
315.771	82.69
316.001	75.69
316.23	77.69
316.46	80.69
316.689	83.69
316.919	70.69
317.148	71.69
317.377	88.69
317.607	93.69
317.836	84.69
318.065	71.69
318.295	83.69
318.524	63.69
318.753	87.69
318.983	76.69
319.212	75.69
319.441	77.69
319.67	76.69
319.9	65.69
320.129	86.69
320.358	81.69
320.587	87.69
320.816	70.69
321.046	80.69
321.275	71.69
321.504	67.69
321.733	86.69
321.962	73.69
322.191	82.69
322.42	83.69
322.649	81.69
322.878	82.69
323.108	83.69
323.337	86.69
323.566	80.69
323.795	74.69
324.024	68.69
324.253	81.69
324.482	100.69
324.71	79.69
324.939	78.69
325.168	63.69
325.397	86.69
325.626	76.69
325.855	95.69
326.084	86.69
326.313	74.69
326.542	79.69
326.77	88.69
326.999	89.69
327.228	80.69
327.457	78.69
327.686	69.69
327.914	72.69
328.143	86.69
328.372	84.69
328.6	74.69
328.829	77.69
329.058	75.69
329.287	63.69
329.515	80.69
329.744	88.69
329.972	80.69
330.201	83.69
330.43	78.69
330.658	76.69
330.887	80.69
331.115	80.69
331.344	78.69
331.572	79.69
331.801	88.69
332.03	82.69
332.258	83.69
332.486	74.69
332.715	98.69
332.943	80.69
333.172	88.69
333.4	71.69
333.629	74.69
333.857	76.69
334.085	71.69
334.314	88.69
334.542	74.69
334.771	84.69
334.999	73.69
335.227	87.69
335.455	74.69
335.684	84.69
335.912	85.69
336.14	73.69
336.369	74.69
336.597	79.69
336.825	78.69
337.053	76.69
337.281	79.69
337.51	83.69
337.738	90.69
337.966	81.69
338.194	76.69
338.422	75.69
338.65	76.69
338.878	82.69
339.106	82.69
339.334	93.69
339.562	81.69
339.79	86.69
340.018	91.69
340.246	84.69
340.474	80.69
340.702	86.69
340.93	86.69
341.158	87.69
341.386	82.69
341.614	94.69
341.842	66.69
342.07	76.69
342.298	94.69
342.526	80.69
342.754	73.69
342.981	68.69
343.209	82.69
343.437	97.69
343.665	73.69
343.893	79.69
344.12	87.69
344.348	82.69
344.576	63.69
344.804	86.69
345.031	69.69
345.259	80.69
345.487	87.69
345.714	88.69
345.942	79.69
346.17	69.69
346.397	79.69
346.625	77.69
346.853	85.69
347.08	58.69
347.308	83.69
347.535	86.69
347.763	76.69
347.99	87.69
348.218	83.69
348.445	84.69
348.673	76.69
348.9	88.69
349.128	79.69
349.355	85.69
349.583	78.69
349.81	74.69
350.037	67.69
350.265	83.69
350.492	94.69
350.72	84.69
350.947	81.69
351.174	81.69
351.402	71.69
351.629	75.69
351.856	87.69
352.083	83.69
352.311	81.69
352.538	70.69
352.765	75.69
352.992	94.69
353.22	80.69
353.447	85.69
353.674	94.69
353.901	74.69
354.128	75.69
354.355	66.69
354.583	70.69
354.81	89.69
355.037	74.69
355.264	87.69
355.491	65.69
355.718	97.69
355.945	86.69
356.172	72.69
356.399	80.69
356.626	65.69
356.853	93.69
357.08	86.69
357.307	67.69
357.534	83.69
357.761	78.69
357.988	80.69
358.215	69.69
358.441	99.69
358.668	87.69
358.895	77.69
359.122	89.69
359.349	86.69
359.576	83.69
359.802	78.69
360.029	74.69
360.256	90.69
360.483	74.69
360.709	75.69
360.936	79.69
361.163	79.69
361.39	67.69
361.616	84.69
361.843	77.69
362.07	78.69
362.296	70.69
362.523	91.69
362.749	69.69
362.976	88.69
363.203	82.69
363.429	76.69
363.656	77.69
363.882	79.69
364.109	82.69
364.335	89.69
364.562	94.69
364.788	82.69
365.015	84.69
365.241	80.69
365.468	81.69
365.694	93.69
365.92	81.69
366.147	85.69
366.373	79.69
366.599	82.69
366.826	93.69
367.052	66.69
367.278	86.69
367.505	86.69
367.731	76.69
367.957	79.69
368.184	86.69
368.41	90.69
368.636	89.69
368.862	66.69
369.089	75.69
369.315	80.69
369.541	81.69
369.767	84.69
369.993	77.69
370.219	74.69
370.445	74.69
370.672	65.69
370.898	70.69
371.124	80.69
371.35	78.69
371.576	71.69
371.802	73.69
372.028	81.69
372.254	65.69
372.48	71.69
372.706	82.69
372.932	77.69
373.158	90.69
373.384	91.69
373.61	90.69
373.835	81.69
374.061	82.69
374.287	73.69
374.513	72.69
374.739	71.69
374.965	72.69
375.191	82.69
375.416	77.69
375.642	84.69
375.868	62.69
376.094	73.69
376.319	68.69
376.545	75.69
376.771	81.69
376.997	80.69
377.222	66.69
377.448	90.69
377.674	81.69
377.899	73.69
378.125	69.69
378.35	72.69
378.576	77.69
378.802	73.69
379.027	88.69
379.253	78.69
379.478	87.69
379.704	89.69
379.929	83.69
380.155	82.69
380.38	76.69
380.606	76.69
380.831	82.69
381.057	91.69
381.282	74.69
381.507	76.69
381.733	68.69
381.958	75.69
382.184	78.69
382.409	79.69
382.634	77.69
382.86	104.69
383.085	81.69
383.31	80.69
383.535	86.69
383.761	80.69
383.986	76.69
384.211	68.69
384.436	83.69
384.662	73.69
384.887	81.69
385.112	75.69
385.337	83.69
385.562	72.69
385.787	79.69
386.013	87.69
386.238	71.69
386.463	98.69
386.688	82.69
386.913	81.69
387.138	71.69
387.363	75.69
387.588	76.69
387.813	64.69
388.038	73.69
388.263	78.69
388.488	75.69
388.713	75.69
388.938	81.69
389.163	80.69
389.387	79.69
389.612	67.69
389.837	56.69
390.062	88.69
390.287	86.69
390.512	81.69
390.736	67.69
390.961	66.69
391.186	77.69
391.411	81.69
391.636	83.69
391.86	91.69
392.085	75.69
392.31	88.69
392.534	63.69
392.759	76.69
392.984	78.69
393.208	78.69
393.433	90.69
393.658	92.69
393.882	81.69
394.107	80.69
394.331	82.69
394.556	79.69
394.78	70.69
395.005	73.69
395.229	71.69
395.454	88.69
395.678	86.69
395.903	83.69
396.127	80.69
396.352	78.69
396.576	86.69
396.801	77.69
397.025	90.69
397.249	83.69
397.474	72.69
397.698	75.69
397.922	104.69
398.147	72.69
398.371	61.69
398.595	76.69
398.82	82.69
399.044	80.69
399.268	68.69
399.492	73.69
399.717	78.69
399.941	58.69
400.165	69.69
400.389	96.69
400.613	78.69
400.837	70.69
401.062	81.69
401.286	76.69
401.51	76.69
401.734	75.69
401.958	76.69
402.182	83.69
402.406	78.69
402.63	79.69
402.854	90.69
403.078	67.69
403.302	82.69
403.526	83.69
403.75	78.69
403.974	64.69
404.198	77.69
404.422	89.69
404.645	81.69
404.869	83.69
405.093	90.69
405.317	77.69
405.541	69.69
405.765	70.69
405.988	81.69
406.212	81.69
406.436	86.69
406.66	90.69
406.883	77.69
407.107	87.69
407.331	63.69
407.555	73.69
407.778	75.69
408.002	66.69
408.226	77.69
408.449	68.69
408.673	83.69
408.896	87.69
409.12	63.69
409.344	88.69
409.567	76.69
409.791	76.69
410.014	74.69
410.238	80.69
410.461	70.69
410.685	83.69
410.908	78.69
411.132	85.69
411.355	73.69
411.578	74.69
411.802	71.69
412.025	91.69
412.249	79.69
412.472	80.69
412.695	81.69
412.919	83.69
413.142	75.69
413.365	88.69
413.589	90.69
413.812	88.69
414.035	88.69
414.258	79.69
414.482	79.69
414.705	79.69
414.928	74.69
415.151	84.69
415.374	77.69
415.597	74.69
415.821	72.69
416.044	76.69
416.267	76.69
416.49	71.69
416.713	81.69
416.936	79.69
417.159	87.69
417.382	82.69
417.605	82.69
417.828	72.69
418.051	74.69
418.274	75.69
418.497	81.69
418.72	75.69
418.943	82.69
419.166	73.69
419.389	82.69
419.611	73.69
419.834	74.69
420.057	83.69
420.28	76.69
420.503	72.69
420.726	70.69
420.948	81.69
421.171	76.69
421.394	79.69
421.617	80.69
421.839	59.69
422.062	88.69
422.285	92.69
422.507	79.69
422.73	87.69
422.953	72.69
423.175	82.69
423.398	81.69
423.621	70.69
423.843	77.69
424.066	75.69
424.288	75.69
424.511	78.69
424.733	82.69
424.956	102.69
425.178	89.69
425.401	74.69
425.623	69.69
425.846	80.69
426.068	64.69
426.291	84.69
426.513	78.69
426.735	79.69
426.958	58.69
427.18	83.69
427.402	86.69
427.625	81.69
427.847	78.69
428.069	67.69
428.292	72.69
428.514	84.69
428.736	83.69
428.958	79.69
429.181	74.69
429.403	77.69
429.625	84.69
429.847	94.69
430.069	86.69
430.292	70.69
430.514	62.69
430.736	78.69
430.958	88.69
431.18	74.69
431.402	70.69
431.624	65.69
431.846	70.69
432.068	76.69
432.29	68.69
432.512	78.69
432.734	78.69
432.956	83.69
433.178	82.69
433.4	89.69
433.622	74.69
433.844	72.69
434.066	78.69
434.287	83.69
434.509	81.69
434.731	68.69
434.953	67.69
435.175	81.69
435.397	81.69
435.618	60.69
435.84	72.69
436.062	80.69
436.284	89.69
436.505	84.69
436.727	75.69
436.949	79.69
437.17	77.69
437.392	64.69
437.614	72.69
437.835	75.69
438.057	83.69
438.278	80.69
438.5	62.69
438.721	84.69
438.943	88.69
439.165	73.69
439.386	85.69
439.608	76.69
439.829	86.69
440.05	87.69
440.272	76.69
440.493	92.69
440.715	75.69
440.936	85.69
441.158	75.69
441.379	82.69
441.6	83.69
441.822	89.69
442.043	81.69
442.264	68.69
442.486	78.69
442.707	80.69
442.928	74.69
443.149	73.69
443.371	74.69
443.592	75.69
443.813	80.69
444.034	86.69
444.255	80.69
444.476	83.69
444.698	75.69
444.919	79.69
445.14	154.69
445.361	114.69
445.582	85.69
445.803	68.69
446.024	75.69
446.245	84.69
446.466	81.69
446.687	76.69
446.908	75.69
447.129	79.69
447.35	64.69
447.571	83.69
447.792	76.69
448.013	73.69
448.234	78.69
448.455	86.69
448.675	83.69
448.896	86.69
449.117	78.69
449.338	68.69
449.559	73.69
449.779	68.69
450	96.69
450.221	87.69
450.442	78.69
450.662	83.69
450.883	85.69
451.104	77.69
451.324	78.69
451.545	82.69
451.766	79.69
451.986	78.69
452.207	78.69
452.428	85.69
452.648	87.69
452.869	88.69
453.089	66.69
453.31	70.69
453.53	84.69
453.751	83.69
453.971	78.69
454.192	78.69
454.412	96.69
454.633	74.69
454.853	72.69
455.073	80.69
455.294	71.69
455.514	72.69
455.734	79.69
455.955	75.69
456.175	59.69
456.395	73.69
456.616	76.69
456.836	75.69
457.056	81.69
457.276	76.69
457.497	77.69
457.717	73.69
457.937	61.69
458.157	73.69
458.377	70.69
458.598	90.69
458.818	73.69
459.038	77.69
459.258	89.69
459.478	75.69
459.698	82.69
459.918	75.69
460.138	62.69
460.358	88.69
460.578	81.69
460.798	68.69
461.018	82.69
461.238	68.69
461.458	75.69
461.678	64.69
461.898	82.69
462.118	74.69
462.338	82.69
462.558	79.69
462.777	76.69
462.997	87.69
463.217	66.69
463.437	66.69
463.657	78.69
463.876	75.69
464.096	66.69
464.316	71.69
464.536	76.69
464.755	87.69
464.975	76.69
465.195	79.69
465.414	79.69
465.634	72.69
465.854	71.69
466.073	61.69
466.293	67.69
466.512	76.69
466.732	80.69
466.951	72.69
467.171	76.69
467.391	72.69
467.61	82.69
467.829	72.69
468.049	84.69
468.268	68.69
468.488	74.69
468.707	81.69
468.927	75.69
469.146	80.69
469.365	80.69
469.585	77.69
469.804	75.69
470.023	80.69
470.243	79.69
470.462	82.69
470.681	72.69
470.901	75.69
471.12	69.69
471.339	74.69
471.558	82.69
471.777	81.69
471.997	76.69
472.216	86.69
472.435	73.69
472.654	75.69
472.873	92.69
473.092	65.69
473.311	86.69
473.53	74.69
473.749	73.69
473.968	76.69
474.187	82.69
474.406	82.69
474.625	89.69
474.844	84.69
475.063	86.69
475.282	72.69
475.501	88.69
475.72	98.69
475.939	74.69
476.158	85.69
476.377	74.69
476.596	77.69
476.814	64.69
477.033	74.69
477.252	84.69
477.471	89.69
477.69	74.69
477.908	67.69
478.127	69.69
478.346	73.69
478.564	93.69
478.783	76.69
479.002	74.69
479.22	72.69
479.439	68.69
479.658	83.69
479.876	92.69
480.095	81.69
480.313	79.69
480.532	80.69
480.751	76.69
480.969	71.69
481.188	89.69
481.406	86.69
481.624	88.69
481.843	78.69
482.061	79.69
482.28	92.69
482.498	78.69
482.717	70.69
482.935	73.69
483.153	71.69
483.372	71.69
483.59	70.69
483.808	76.69
484.027	73.69
484.245	80.69
484.463	84.69
484.681	80.69
484.9	74.69
485.118	85.69
485.336	81.69
485.554	74.69
485.772	94.69
485.99	68.69
486.209	90.69
486.427	78.69
486.645	90.69
486.863	95.69
487.081	74.69
487.299	80.69
487.517	65.69
487.735	68.69
487.953	72.69
488.171	81.69
488.389	87.69
488.607	81.69
488.825	74.69
489.043	69.69
489.261	75.69
489.479	73.69
489.696	90.69
489.914	82.69
490.132	102.69
490.35	73.69
490.568	76.69
490.786	82.69
491.003	75.69
491.221	70.69
491.439	82.69
491.657	69.69
491.874	69.69
492.092	80.69
492.31	73.69
492.527	89.69
492.745	86.69
492.963	88.69
493.18	79.69
493.398	79.69
493.615	82.69
493.833	84.69
494.05	83.69
494.268	82.69
494.485	72.69
494.703	74.69
494.92	85.69
495.138	81.69
495.355	67.69
495.573	83.69
495.79	68.69
496.008	64.69
496.225	75.69
496.442	87.69
496.66	90.69
496.877	72.69
497.094	87.69
497.312	65.69
497.529	75.69
497.746	77.69
497.963	71.69
498.181	72.69
498.398	73.69
498.615	86.69
498.832	82.69
499.049	79.69
499.267	66.69
499.484	99.69
499.701	63.69
499.918	79.69
500.135	67.69
500.352	86.69
500.569	74.69
500.786	79.69
501.003	76.69
501.22	67.69
501.437	74.69
501.654	84.69
501.871	72.69
502.088	72.69
502.305	92.69
502.522	82.69
502.739	77.69
502.956	86.69
503.172	72.69
503.389	79.69
503.606	83.69
503.823	83.69
504.04	77.69
504.256	94.69
504.473	69.69
504.69	80.69
504.907	80.69
505.123	80.69
505.34	86.69
505.557	82.69
505.773	84.69
505.99	75.69
506.207	79.69
506.423	75.69
506.64	83.69
506.856	73.69
507.073	75.69
507.289	70.69
507.506	81.69
507.722	79.69
507.939	67.69
508.155	95.69
508.372	75.69
508.588	78.69
508.805	68.69
509.021	74.69
509.238	83.69
509.454	68.69
509.67	86.69
509.887	86.69
510.103	88.69
510.319	74.69
510.536	69.69
510.752	66.69
510.968	80.69
511.184	91.69
511.401	76.69
511.617	83.69
511.833	62.69
512.049	87.69
512.265	87.69
512.481	88.69
512.698	82.69
512.914	76.69
513.13	83.69
513.346	74.69
513.562	102.69
513.778	73.69
513.994	76.69
514.21	81.69
514.426	84.69
514.642	69.69
514.858	78.69
515.074	94.69
515.29	93.69
515.506	88.69
515.721	68.69
515.937	89.69
516.153	73.69
516.369	73.69
516.585	81.69
516.801	74.69
517.016	85.69
517.232	80.69
517.448	78.69
517.664	84.69
517.879	73.69
518.095	72.69
518.311	82.69
518.527	79.69
518.742	74.69
518.958	88.69
519.173	96.69
519.389	77.69
519.605	74.69
519.82	92.69
520.036	63.69
520.251	88.69
