Data from Background_2_HRD10591_00084.txt Node
Date: Wed Nov 05 14:47:38 EST 2025
User: Yrep
Spectrometer: HR+D1059
Trigger mode: 1
Integration Time (sec): 1.000000E-1
Scans to average: 1
Electric dark correction enabled: true
Nonlinearity correction enabled: false
Boxcar width: 0
XAxis mode: Wavelengths
Number of Pixels in Spectrum: 2048
>>>>>Begin Spectral Data<<<<<
223.165	-13.38
223.4	-13.38
223.635	-13.38
223.869	-26.38
224.104	-0.38
224.338	-17.38
224.573	-11.38
224.808	-17.38
225.042	-3.38
225.277	-3.38
225.511	1.62
225.746	-2.38
225.98	3.62
226.215	14.62
226.449	15.62
226.683	10.62
226.918	17.62
227.152	31.62
227.387	29.62
227.621	37.62
227.856	44.62
228.09	44.62
228.324	54.62
228.559	60.62
228.793	61.62
229.027	79.62
229.262	79.62
229.496	79.62
229.73	77.62
229.964	79.62
230.199	82.62
230.433	70.62
230.667	83.62
230.901	84.62
231.136	94.62
231.37	85.62
231.604	87.62
231.838	84.62
232.072	97.62
232.306	76.62
232.541	68.62
232.775	91.62
233.009	87.62
233.243	87.62
233.477	89.62
233.711	92.62
233.945	78.62
234.179	73.62
234.413	96.62
234.647	78.62
234.881	84.62
235.115	89.62
235.349	76.62
235.583	97.62
235.817	72.62
236.051	78.62
236.285	76.62
236.519	79.62
236.753	88.62
236.987	85.62
237.221	73.62
237.455	68.62
237.689	77.62
237.922	73.62
238.156	77.62
238.39	87.62
238.624	75.62
238.858	72.62
239.091	65.62
239.325	83.62
239.559	73.62
239.793	72.62
240.027	80.62
240.26	91.62
240.494	89.62
240.728	82.62
240.961	67.62
241.195	82.62
241.429	71.62
241.662	98.62
241.896	85.62
242.13	65.62
242.363	82.62
242.597	92.62
242.83	68.62
243.064	73.62
243.298	88.62
243.531	71.62
243.765	78.62
243.998	86.62
244.232	85.62
244.465	84.62
244.699	76.62
244.932	85.62
245.166	82.62
245.399	83.62
245.633	71.62
245.866	78.62
246.099	71.62
246.333	82.62
246.566	79.62
246.8	74.62
247.033	86.62
247.266	78.62
247.5	74.62
247.733	85.62
247.966	76.62
248.2	99.62
248.433	65.62
248.666	69.62
248.899	88.62
249.133	82.62
249.366	72.62
249.599	74.62
249.832	83.62
250.066	85.62
250.299	76.62
250.532	89.62
250.765	77.62
250.998	77.62
251.231	93.62
251.465	81.62
251.698	77.62
251.931	100.62
252.164	78.62
252.397	79.62
252.63	76.62
252.863	85.62
253.096	82.62
253.329	92.62
253.562	79.62
253.795	72.62
254.028	85.62
254.261	83.62
254.494	86.62
254.727	85.62
254.96	85.62
255.193	89.62
255.426	83.62
255.659	74.62
255.892	98.62
256.124	98.62
256.357	79.62
256.59	81.62
256.823	81.62
257.056	84.62
257.289	98.62
257.521	76.62
257.754	77.62
257.987	77.62
258.22	62.62
258.452	85.62
258.685	71.62
258.918	80.62
259.151	78.62
259.383	79.62
259.616	89.62
259.849	80.62
260.081	78.62
260.314	88.62
260.547	92.62
260.779	88.62
261.012	87.62
261.244	89.62
261.477	97.62
261.71	78.62
261.942	66.62
262.175	73.62
262.407	83.62
262.64	89.62
262.872	80.62
263.105	89.62
263.337	91.62
263.57	82.62
263.802	97.62
264.035	84.62
264.267	86.62
264.499	74.62
264.732	81.62
264.964	95.62
265.197	91.62
265.429	83.62
265.661	74.62
265.894	77.62
266.126	60.62
266.358	98.62
266.591	92.62
266.823	83.62
267.055	81.62
267.287	86.62
267.52	80.62
267.752	84.62
267.984	68.62
268.216	99.62
268.448	80.62
268.681	83.62
268.913	73.62
269.145	85.62
269.377	79.62
269.609	100.62
269.841	97.62
270.073	83.62
270.306	72.62
270.538	84.62
270.77	75.62
271.002	88.62
271.234	74.62
271.466	80.62
271.698	89.62
271.93	88.62
272.162	92.62
272.394	98.62
272.626	76.62
272.858	80.62
273.09	74.62
273.322	85.62
273.553	83.62
273.785	89.62
274.017	77.62
274.249	60.62
274.481	73.62
274.713	80.62
274.945	77.62
275.176	77.62
275.408	84.62
275.64	75.62
275.872	79.62
276.104	103.62
276.335	90.62
276.567	93.62
276.799	80.62
277.031	92.62
277.262	82.62
277.494	99.62
277.726	89.62
277.957	81.62
278.189	91.62
278.421	78.62
278.652	91.62
278.884	75.62
279.115	82.62
279.347	88.62
279.579	89.62
279.81	95.62
280.042	76.62
280.273	93.62
280.505	72.62
280.736	84.62
280.968	83.62
281.199	71.62
281.431	71.62
281.662	99.62
281.894	78.62
282.125	78.62
282.356	92.62
282.588	73.62
282.819	89.62
283.051	89.62
283.282	96.62
283.513	99.62
283.745	91.62
283.976	98.62
284.207	78.62
284.439	73.62
284.67	74.62
284.901	82.62
285.132	91.62
285.364	80.62
285.595	79.62
285.826	96.62
286.057	87.62
286.288	98.62
286.52	90.62
286.751	95.62
286.982	77.62
287.213	80.62
287.444	94.62
287.675	72.62
287.906	81.62
288.138	78.62
288.369	91.62
288.6	92.62
288.831	91.62
289.062	85.62
289.293	79.62
289.524	80.62
289.755	92.62
289.986	91.62
290.217	93.62
290.448	100.62
290.679	98.62
290.91	90.62
291.141	83.62
291.371	82.62
291.602	93.62
291.833	85.62
292.064	84.62
292.295	85.62
292.526	83.62
292.757	88.62
292.987	90.62
293.218	89.62
293.449	82.62
293.68	80.62
293.91	77.62
294.141	94.62
294.372	87.62
294.603	95.62
294.833	85.62
295.064	82.62
295.295	99.62
295.525	87.62
295.756	105.62
295.987	93.62
296.217	78.62
296.448	84.62
296.679	89.62
296.909	88.62
297.14	102.62
297.37	97.62
297.601	90.62
297.831	94.62
298.062	80.62
298.292	92.62
298.523	87.62
298.753	86.62
298.984	82.62
299.214	91.62
299.445	90.62
299.675	89.62
299.905	87.62
300.136	85.62
300.366	87.62
300.597	86.62
300.827	84.62
301.057	108.62
301.288	98.62
301.518	83.62
301.748	92.62
301.979	93.62
302.209	73.62
302.439	73.62
302.669	101.62
302.9	103.62
303.13	100.62
303.36	84.62
303.59	73.62
303.82	86.62
304.051	91.62
304.281	90.62
304.511	79.62
304.741	83.62
304.971	81.62
305.201	80.62
305.431	106.62
305.661	85.62
305.891	88.62
306.121	97.62
306.352	96.62
306.582	86.62
306.812	87.62
307.042	102.62
307.272	92.62
307.502	86.62
307.731	82.62
307.961	96.62
308.191	81.62
308.421	85.62
308.651	90.62
308.881	77.62
309.111	89.62
309.341	99.62
309.571	85.62
309.8	90.62
310.03	80.62
310.26	75.62
310.49	67.62
310.72	87.62
310.949	76.62
311.179	93.62
311.409	82.62
311.639	81.62
311.868	87.62
312.098	89.62
312.328	77.62
312.557	84.62
312.787	88.62
313.017	85.62
313.246	69.62
313.476	84.62
313.706	75.62
313.935	89.62
314.165	95.62
314.394	95.62
314.624	100.62
314.853	85.62
315.083	101.62
315.312	87.62
315.542	72.62
315.771	78.62
316.001	79.62
316.23	72.62
316.46	88.62
316.689	81.62
316.919	100.62
317.148	88.62
317.377	85.62
317.607	95.62
317.836	96.62
318.065	84.62
318.295	88.62
318.524	82.62
318.753	93.62
318.983	85.62
319.212	80.62
319.441	82.62
319.67	92.62
319.9	84.62
320.129	73.62
320.358	95.62
320.587	91.62
320.816	72.62
321.046	86.62
321.275	75.62
321.504	79.62
321.733	96.62
321.962	95.62
322.191	88.62
322.42	103.62
322.649	82.62
322.878	92.62
323.108	92.62
323.337	97.62
323.566	96.62
323.795	103.62
324.024	91.62
324.253	94.62
324.482	89.62
324.71	99.62
324.939	76.62
325.168	81.62
325.397	73.62
325.626	92.62
325.855	77.62
326.084	81.62
326.313	86.62
326.542	86.62
326.77	89.62
326.999	96.62
327.228	89.62
327.457	87.62
327.686	82.62
327.914	84.62
328.143	87.62
328.372	74.62
328.6	69.62
328.829	87.62
329.058	71.62
329.287	74.62
329.515	87.62
329.744	92.62
329.972	87.62
330.201	78.62
330.43	98.62
330.658	93.62
330.887	84.62
331.115	107.62
331.344	87.62
331.572	97.62
331.801	88.62
332.03	89.62
332.258	79.62
332.486	73.62
332.715	81.62
332.943	67.62
333.172	92.62
333.4	91.62
333.629	79.62
333.857	77.62
334.085	92.62
334.314	83.62
334.542	93.62
334.771	86.62
334.999	86.62
335.227	87.62
335.455	93.62
335.684	94.62
335.912	87.62
336.14	101.62
336.369	76.62
336.597	82.62
336.825	89.62
337.053	80.62
337.281	95.62
337.51	92.62
337.738	86.62
337.966	72.62
338.194	81.62
338.422	93.62
338.65	84.62
338.878	89.62
339.106	91.62
339.334	91.62
339.562	89.62
339.79	90.62
340.018	66.62
340.246	88.62
340.474	89.62
340.702	88.62
340.93	92.62
341.158	81.62
341.386	83.62
341.614	88.62
341.842	104.62
342.07	80.62
342.298	91.62
342.526	88.62
342.754	79.62
342.981	86.62
343.209	84.62
343.437	88.62
343.665	89.62
343.893	92.62
344.12	91.62
344.348	92.62
344.576	97.62
344.804	80.62
345.031	85.62
345.259	91.62
345.487	88.62
345.714	92.62
345.942	93.62
346.17	81.62
346.397	89.62
346.625	83.62
346.853	93.62
347.08	76.62
347.308	75.62
347.535	81.62
347.763	79.62
347.99	69.62
348.218	78.62
348.445	91.62
348.673	83.62
348.9	87.62
349.128	95.62
349.355	79.62
349.583	76.62
349.81	89.62
350.037	83.62
350.265	78.62
350.492	84.62
350.72	84.62
350.947	77.62
351.174	97.62
351.402	82.62
351.629	82.62
351.856	95.62
352.083	96.62
352.311	86.62
352.538	81.62
352.765	75.62
352.992	95.62
353.22	75.62
353.447	62.62
353.674	85.62
353.901	82.62
354.128	85.62
354.355	77.62
354.583	82.62
354.81	83.62
355.037	96.62
355.264	71.62
355.491	77.62
355.718	85.62
355.945	82.62
356.172	92.62
356.399	83.62
356.626	90.62
356.853	89.62
357.08	94.62
357.307	93.62
357.534	91.62
357.761	79.62
357.988	73.62
358.215	93.62
358.441	99.62
358.668	86.62
358.895	85.62
359.122	82.62
359.349	78.62
359.576	79.62
359.802	84.62
360.029	82.62
360.256	109.62
360.483	93.62
360.709	89.62
360.936	92.62
361.163	84.62
361.39	81.62
361.616	84.62
361.843	81.62
362.07	80.62
362.296	84.62
362.523	82.62
362.749	86.62
362.976	97.62
363.203	87.62
363.429	77.62
363.656	81.62
363.882	90.62
364.109	97.62
364.335	86.62
364.562	92.62
364.788	78.62
365.015	84.62
365.241	81.62
365.468	92.62
365.694	68.62
365.92	81.62
366.147	80.62
366.373	87.62
366.599	91.62
366.826	100.62
367.052	87.62
367.278	89.62
367.505	96.62
367.731	90.62
367.957	85.62
368.184	102.62
368.41	83.62
368.636	94.62
368.862	91.62
369.089	81.62
369.315	81.62
369.541	83.62
369.767	85.62
369.993	87.62
370.219	84.62
370.445	79.62
370.672	73.62
370.898	100.62
371.124	94.62
371.35	81.62
371.576	85.62
371.802	91.62
372.028	86.62
372.254	81.62
372.48	99.62
372.706	83.62
372.932	92.62
373.158	85.62
373.384	86.62
373.61	73.62
373.835	74.62
374.061	69.62
374.287	92.62
374.513	84.62
374.739	81.62
374.965	73.62
375.191	85.62
375.416	82.62
375.642	86.62
375.868	94.62
376.094	80.62
376.319	86.62
376.545	95.62
376.771	86.62
376.997	86.62
377.222	101.62
377.448	96.62
377.674	82.62
377.899	84.62
378.125	80.62
378.35	85.62
378.576	83.62
378.802	96.62
379.027	83.62
379.253	82.62
379.478	83.62
379.704	74.62
379.929	77.62
380.155	92.62
380.38	73.62
380.606	73.62
380.831	87.62
381.057	84.62
381.282	96.62
381.507	88.62
381.733	86.62
381.958	78.62
382.184	80.62
382.409	84.62
382.634	86.62
382.86	82.62
383.085	81.62
383.31	94.62
383.535	84.62
383.761	90.62
383.986	81.62
384.211	80.62
384.436	73.62
384.662	87.62
384.887	88.62
385.112	91.62
385.337	77.62
385.562	70.62
385.787	94.62
386.013	81.62
386.238	90.62
386.463	80.62
386.688	79.62
386.913	77.62
387.138	80.62
387.363	79.62
387.588	71.62
387.813	87.62
388.038	78.62
388.263	73.62
388.488	85.62
388.713	81.62
388.938	77.62
389.163	83.62
389.387	91.62
389.612	81.62
389.837	94.62
390.062	97.62
390.287	72.62
390.512	80.62
390.736	89.62
390.961	88.62
391.186	98.62
391.411	79.62
391.636	77.62
391.86	78.62
392.085	86.62
392.31	91.62
392.534	81.62
392.759	85.62
392.984	85.62
393.208	85.62
393.433	76.62
393.658	89.62
393.882	87.62
394.107	66.62
394.331	75.62
394.556	91.62
394.78	86.62
395.005	94.62
395.229	87.62
395.454	99.62
395.678	89.62
395.903	87.62
396.127	81.62
396.352	85.62
396.576	83.62
396.801	95.62
397.025	79.62
397.249	84.62
397.474	94.62
397.698	84.62
397.922	78.62
398.147	80.62
398.371	86.62
398.595	86.62
398.82	78.62
399.044	91.62
399.268	83.62
399.492	85.62
399.717	78.62
399.941	89.62
400.165	101.62
400.389	73.62
400.613	92.62
400.837	85.62
401.062	85.62
401.286	94.62
401.51	75.62
401.734	77.62
401.958	95.62
402.182	81.62
402.406	73.62
402.63	85.62
402.854	83.62
403.078	74.62
403.302	85.62
403.526	87.62
403.75	93.62
403.974	97.62
404.198	76.62
404.422	78.62
404.645	94.62
404.869	77.62
405.093	87.62
405.317	84.62
405.541	92.62
405.765	81.62
405.988	85.62
406.212	88.62
406.436	85.62
406.66	86.62
406.883	84.62
407.107	74.62
407.331	72.62
407.555	77.62
407.778	84.62
408.002	89.62
408.226	91.62
408.449	94.62
408.673	93.62
408.896	77.62
409.12	86.62
409.344	77.62
409.567	84.62
409.791	93.62
410.014	79.62
410.238	80.62
410.461	87.62
410.685	79.62
410.908	92.62
411.132	79.62
411.355	88.62
411.578	78.62
411.802	91.62
412.025	82.62
412.249	93.62
412.472	81.62
412.695	89.62
412.919	105.62
413.142	88.62
413.365	72.62
413.589	84.62
413.812	73.62
414.035	99.62
414.258	87.62
414.482	91.62
414.705	78.62
414.928	77.62
415.151	92.62
415.374	81.62
415.597	83.62
415.821	82.62
416.044	70.62
416.267	81.62
416.49	80.62
416.713	78.62
416.936	88.62
417.159	91.62
417.382	96.62
417.605	86.62
417.828	76.62
418.051	84.62
418.274	103.62
418.497	69.62
418.72	78.62
418.943	91.62
419.166	76.62
419.389	92.62
419.611	84.62
419.834	68.62
420.057	86.62
420.28	71.62
420.503	83.62
420.726	82.62
420.948	77.62
421.171	81.62
421.394	88.62
421.617	75.62
421.839	87.62
422.062	83.62
422.285	91.62
422.507	84.62
422.73	79.62
422.953	79.62
423.175	79.62
423.398	90.62
423.621	87.62
423.843	76.62
424.066	72.62
424.288	86.62
424.511	84.62
424.733	81.62
424.956	79.62
425.178	85.62
425.401	94.62
425.623	82.62
425.846	86.62
426.068	88.62
426.291	90.62
426.513	81.62
426.735	96.62
426.958	92.62
427.18	80.62
427.402	80.62
427.625	71.62
427.847	79.62
428.069	84.62
428.292	73.62
428.514	78.62
428.736	87.62
428.958	93.62
429.181	93.62
429.403	89.62
429.625	81.62
429.847	83.62
430.069	85.62
430.292	73.62
430.514	84.62
430.736	81.62
430.958	80.62
431.18	72.62
431.402	103.62
431.624	84.62
431.846	71.62
432.068	91.62
432.29	81.62
432.512	76.62
432.734	93.62
432.956	83.62
433.178	83.62
433.4	81.62
433.622	79.62
433.844	95.62
434.066	101.62
434.287	84.62
434.509	87.62
434.731	96.62
434.953	78.62
435.175	65.62
435.397	97.62
435.618	69.62
435.84	81.62
436.062	85.62
436.284	83.62
436.505	78.62
436.727	83.62
436.949	80.62
437.17	65.62
437.392	87.62
437.614	69.62
437.835	76.62
438.057	82.62
438.278	84.62
438.5	92.62
438.721	83.62
438.943	94.62
439.165	84.62
439.386	86.62
439.608	97.62
439.829	75.62
440.05	87.62
440.272	66.62
440.493	81.62
440.715	89.62
440.936	77.62
441.158	100.62
441.379	76.62
441.6	82.62
441.822	84.62
442.043	77.62
442.264	86.62
442.486	80.62
442.707	70.62
442.928	84.62
443.149	73.62
443.371	93.62
443.592	74.62
443.813	84.62
444.034	94.62
444.255	78.62
444.476	82.62
444.698	90.62
444.919	87.62
445.14	166.62
445.361	95.62
445.582	81.62
445.803	71.62
446.024	97.62
446.245	92.62
446.466	88.62
446.687	87.62
446.908	90.62
447.129	71.62
447.35	75.62
447.571	81.62
447.792	69.62
448.013	76.62
448.234	88.62
448.455	95.62
448.675	94.62
448.896	83.62
449.117	83.62
449.338	84.62
449.559	77.62
449.779	92.62
450	81.62
450.221	85.62
450.442	86.62
450.662	82.62
450.883	100.62
451.104	88.62
451.324	75.62
451.545	79.62
451.766	80.62
451.986	93.62
452.207	94.62
452.428	85.62
452.648	92.62
452.869	77.62
453.089	92.62
453.31	83.62
453.53	87.62
453.751	84.62
453.971	77.62
454.192	89.62
454.412	84.62
454.633	77.62
454.853	97.62
455.073	87.62
455.294	77.62
455.514	94.62
455.734	100.62
455.955	85.62
456.175	86.62
456.395	87.62
456.616	82.62
456.836	91.62
457.056	76.62
457.276	95.62
457.497	79.62
457.717	77.62
457.937	85.62
458.157	66.62
458.377	83.62
458.598	79.62
458.818	73.62
459.038	85.62
459.258	80.62
459.478	78.62
459.698	68.62
459.918	100.62
460.138	88.62
460.358	75.62
460.578	98.62
460.798	103.62
461.018	96.62
461.238	92.62
461.458	74.62
461.678	81.62
461.898	91.62
462.118	81.62
462.338	89.62
462.558	96.62
462.777	79.62
462.997	86.62
463.217	95.62
463.437	98.62
463.657	92.62
463.876	82.62
464.096	83.62
464.316	81.62
464.536	95.62
464.755	92.62
464.975	85.62
465.195	103.62
465.414	85.62
465.634	84.62
465.854	85.62
466.073	82.62
466.293	88.62
466.512	85.62
466.732	82.62
466.951	97.62
467.171	89.62
467.391	81.62
467.61	78.62
467.829	85.62
468.049	85.62
468.268	83.62
468.488	85.62
468.707	64.62
468.927	81.62
469.146	92.62
469.365	74.62
469.585	84.62
469.804	91.62
470.023	89.62
470.243	85.62
470.462	82.62
470.681	83.62
470.901	74.62
471.12	87.62
471.339	82.62
471.558	73.62
471.777	90.62
471.997	83.62
472.216	72.62
472.435	91.62
472.654	91.62
472.873	81.62
473.092	78.62
473.311	89.62
473.53	81.62
473.749	84.62
473.968	91.62
474.187	85.62
474.406	95.62
474.625	77.62
474.844	83.62
475.063	81.62
475.282	82.62
475.501	97.62
475.72	80.62
475.939	80.62
476.158	90.62
476.377	81.62
476.596	92.62
476.814	92.62
477.033	79.62
477.252	71.62
477.471	76.62
477.69	87.62
477.908	83.62
478.127	88.62
478.346	85.62
478.564	79.62
478.783	91.62
479.002	93.62
479.22	84.62
479.439	87.62
479.658	93.62
479.876	81.62
480.095	88.62
480.313	76.62
480.532	88.62
480.751	88.62
480.969	77.62
481.188	74.62
481.406	80.62
481.624	78.62
481.843	77.62
482.061	88.62
482.28	97.62
482.498	81.62
482.717	76.62
482.935	79.62
483.153	80.62
483.372	74.62
483.59	98.62
483.808	77.62
484.027	87.62
484.245	99.62
484.463	80.62
484.681	97.62
484.9	98.62
485.118	102.62
485.336	96.62
485.554	98.62
485.772	86.62
485.99	92.62
486.209	91.62
486.427	86.62
486.645	90.62
486.863	78.62
487.081	80.62
487.299	86.62
487.517	85.62
487.735	81.62
487.953	82.62
488.171	89.62
488.389	72.62
488.607	89.62
488.825	88.62
489.043	84.62
489.261	88.62
489.479	86.62
489.696	84.62
489.914	92.62
490.132	87.62
490.35	91.62
490.568	82.62
490.786	83.62
491.003	92.62
491.221	90.62
491.439	88.62
491.657	91.62
491.874	96.62
492.092	79.62
492.31	77.62
492.527	95.62
492.745	98.62
492.963	91.62
493.18	79.62
493.398	83.62
493.615	87.62
493.833	85.62
494.05	79.62
494.268	71.62
494.485	92.62
494.703	88.62
494.92	86.62
495.138	88.62
495.355	95.62
495.573	93.62
495.79	89.62
496.008	83.62
496.225	75.62
496.442	95.62
496.66	100.62
496.877	79.62
497.094	87.62
497.312	90.62
497.529	88.62
497.746	86.62
497.963	86.62
498.181	72.62
498.398	95.62
498.615	79.62
498.832	89.62
499.049	91.62
499.267	77.62
499.484	79.62
499.701	94.62
499.918	93.62
500.135	85.62
500.352	74.62
500.569	72.62
500.786	77.62
501.003	95.62
501.22	93.62
501.437	95.62
501.654	95.62
501.871	79.62
502.088	80.62
502.305	77.62
502.522	78.62
502.739	91.62
502.956	95.62
503.172	103.62
503.389	84.62
503.606	87.62
503.823	83.62
504.04	77.62
504.256	92.62
504.473	91.62
504.69	97.62
504.907	92.62
505.123	85.62
505.34	94.62
505.557	87.62
505.773	88.62
505.99	92.62
506.207	78.62
506.423	83.62
506.64	99.62
506.856	98.62
507.073	79.62
507.289	74.62
507.506	81.62
507.722	87.62
507.939	96.62
508.155	105.62
508.372	88.62
508.588	86.62
508.805	79.62
509.021	92.62
509.238	79.62
509.454	76.62
509.67	74.62
509.887	84.62
510.103	93.62
510.319	86.62
510.536	80.62
510.752	64.62
510.968	81.62
511.184	87.62
511.401	91.62
511.617	83.62
511.833	85.62
512.049	97.62
512.265	94.62
512.481	94.62
512.698	87.62
512.914	95.62
513.13	86.62
513.346	89.62
513.562	80.62
513.778	87.62
513.994	78.62
514.21	93.62
514.426	81.62
514.642	76.62
514.858	90.62
515.074	83.62
515.29	87.62
515.506	80.62
515.721	93.62
515.937	105.62
516.153	92.62
516.369	76.62
516.585	89.62
516.801	92.62
517.016	88.62
517.232	74.62
517.448	104.62
517.664	84.62
517.879	78.62
518.095	77.62
518.311	74.62
518.527	81.62
518.742	94.62
518.958	76.62
519.173	87.62
519.389	81.62
519.605	87.62
