Data from Background_2_HRD10591_00072.txt Node
Date: Wed Nov 05 14:47:32 EST 2025
User: Yrep
Spectrometer: HR+D1059
Trigger mode: 1
Integration Time (sec): 1.000000E-1
Scans to average: 1
Electric dark correction enabled: true
Nonlinearity correction enabled: false
Boxcar width: 0
XAxis mode: Wavelengths
Number of Pixels in Spectrum: 2048
>>>>>Begin Spectral Data<<<<<
223.165	-17.25
223.4	-17.25
223.635	-17.25
223.869	-8.25
224.104	-12.25
224.338	-19.25
224.573	-5.25
224.808	-17.25
225.042	-13.25
225.277	-9.25
225.511	-10.25
225.746	7.75
225.98	3.75
226.215	25.75
226.449	25.75
226.683	9.75
226.918	13.75
227.152	25.75
227.387	30.75
227.621	39.75
227.856	60.75
228.09	55.75
228.324	55.75
228.559	61.75
228.793	58.75
229.027	70.75
229.262	53.75
229.496	52.75
229.73	70.75
229.964	65.75
230.199	83.75
230.433	69.75
230.667	86.75
230.901	67.75
231.136	79.75
231.37	91.75
231.604	79.75
231.838	91.75
232.072	83.75
232.306	79.75
232.541	89.75
232.775	83.75
233.009	79.75
233.243	83.75
233.477	83.75
233.711	70.75
233.945	84.75
234.179	80.75
234.413	91.75
234.647	94.75
234.881	95.75
235.115	81.75
235.349	76.75
235.583	93.75
235.817	98.75
236.051	74.75
236.285	61.75
236.519	84.75
236.753	85.75
236.987	83.75
237.221	77.75
237.455	77.75
237.689	80.75
237.922	81.75
238.156	75.75
238.39	76.75
238.624	77.75
238.858	76.75
239.091	78.75
239.325	78.75
239.559	74.75
239.793	77.75
240.027	79.75
240.26	92.75
240.494	73.75
240.728	85.75
240.961	72.75
241.195	79.75
241.429	74.75
241.662	84.75
241.896	89.75
242.13	74.75
242.363	68.75
242.597	73.75
242.83	80.75
243.064	81.75
243.298	69.75
243.531	78.75
243.765	85.75
243.998	81.75
244.232	70.75
244.465	88.75
244.699	83.75
244.932	90.75
245.166	96.75
245.399	73.75
245.633	70.75
245.866	71.75
246.099	83.75
246.333	82.75
246.566	83.75
246.8	74.75
247.033	80.75
247.266	88.75
247.5	77.75
247.733	76.75
247.966	62.75
248.2	76.75
248.433	78.75
248.666	85.75
248.899	83.75
249.133	88.75
249.366	85.75
249.599	77.75
249.832	62.75
250.066	80.75
250.299	73.75
250.532	81.75
250.765	86.75
250.998	78.75
251.231	85.75
251.465	85.75
251.698	72.75
251.931	78.75
252.164	88.75
252.397	93.75
252.63	73.75
252.863	71.75
253.096	85.75
253.329	62.75
253.562	83.75
253.795	90.75
254.028	70.75
254.261	80.75
254.494	88.75
254.727	78.75
254.96	75.75
255.193	80.75
255.426	87.75
255.659	81.75
255.892	76.75
256.124	72.75
256.357	76.75
256.59	84.75
256.823	91.75
257.056	65.75
257.289	75.75
257.521	76.75
257.754	74.75
257.987	91.75
258.22	91.75
258.452	95.75
258.685	92.75
258.918	73.75
259.151	74.75
259.383	80.75
259.616	76.75
259.849	79.75
260.081	97.75
260.314	91.75
260.547	74.75
260.779	78.75
261.012	79.75
261.244	90.75
261.477	91.75
261.71	79.75
261.942	81.75
262.175	77.75
262.407	68.75
262.64	68.75
262.872	74.75
263.105	90.75
263.337	81.75
263.57	82.75
263.802	86.75
264.035	90.75
264.267	80.75
264.499	74.75
264.732	68.75
264.964	84.75
265.197	80.75
265.429	79.75
265.661	77.75
265.894	75.75
266.126	90.75
266.358	92.75
266.591	94.75
266.823	71.75
267.055	93.75
267.287	61.75
267.52	87.75
267.752	89.75
267.984	94.75
268.216	91.75
268.448	81.75
268.681	87.75
268.913	71.75
269.145	85.75
269.377	82.75
269.609	86.75
269.841	84.75
270.073	81.75
270.306	78.75
270.538	79.75
270.77	91.75
271.002	75.75
271.234	77.75
271.466	85.75
271.698	80.75
271.93	85.75
272.162	86.75
272.394	90.75
272.626	85.75
272.858	83.75
273.09	93.75
273.322	78.75
273.553	92.75
273.785	87.75
274.017	79.75
274.249	73.75
274.481	84.75
274.713	67.75
274.945	76.75
275.176	76.75
275.408	91.75
275.64	83.75
275.872	93.75
276.104	82.75
276.335	81.75
276.567	88.75
276.799	83.75
277.031	78.75
277.262	79.75
277.494	85.75
277.726	87.75
277.957	88.75
278.189	78.75
278.421	76.75
278.652	89.75
278.884	82.75
279.115	76.75
279.347	88.75
279.579	77.75
279.81	90.75
280.042	100.75
280.273	88.75
280.505	95.75
280.736	82.75
280.968	81.75
281.199	94.75
281.431	84.75
281.662	68.75
281.894	89.75
282.125	79.75
282.356	82.75
282.588	83.75
282.819	73.75
283.051	90.75
283.282	89.75
283.513	84.75
283.745	86.75
283.976	70.75
284.207	96.75
284.439	81.75
284.67	77.75
284.901	75.75
285.132	97.75
285.364	80.75
285.595	82.75
285.826	89.75
286.057	78.75
286.288	86.75
286.52	96.75
286.751	87.75
286.982	83.75
287.213	80.75
287.444	82.75
287.675	73.75
287.906	90.75
288.138	92.75
288.369	86.75
288.6	93.75
288.831	75.75
289.062	84.75
289.293	81.75
289.524	72.75
289.755	76.75
289.986	85.75
290.217	90.75
290.448	82.75
290.679	90.75
290.91	83.75
291.141	83.75
291.371	78.75
291.602	65.75
291.833	86.75
292.064	68.75
292.295	74.75
292.526	86.75
292.757	98.75
292.987	93.75
293.218	95.75
293.449	79.75
293.68	59.75
293.91	88.75
294.141	81.75
294.372	80.75
294.603	86.75
294.833	81.75
295.064	91.75
295.295	88.75
295.525	93.75
295.756	80.75
295.987	85.75
296.217	88.75
296.448	92.75
296.679	89.75
296.909	85.75
297.14	92.75
297.37	87.75
297.601	84.75
297.831	84.75
298.062	81.75
298.292	95.75
298.523	78.75
298.753	84.75
298.984	74.75
299.214	86.75
299.445	84.75
299.675	77.75
299.905	75.75
300.136	93.75
300.366	90.75
300.597	75.75
300.827	93.75
301.057	95.75
301.288	95.75
301.518	79.75
301.748	82.75
301.979	94.75
302.209	79.75
302.439	78.75
302.669	80.75
302.9	93.75
303.13	87.75
303.36	73.75
303.59	85.75
303.82	84.75
304.051	85.75
304.281	83.75
304.511	82.75
304.741	96.75
304.971	78.75
305.201	83.75
305.431	72.75
305.661	82.75
305.891	76.75
306.121	75.75
306.352	76.75
306.582	69.75
306.812	71.75
307.042	68.75
307.272	80.75
307.502	81.75
307.731	91.75
307.961	80.75
308.191	80.75
308.421	82.75
308.651	93.75
308.881	85.75
309.111	81.75
309.341	90.75
309.571	80.75
309.8	76.75
310.03	72.75
310.26	63.75
310.49	78.75
310.72	82.75
310.949	80.75
311.179	85.75
311.409	87.75
311.639	82.75
311.868	84.75
312.098	82.75
312.328	76.75
312.557	95.75
312.787	92.75
313.017	89.75
313.246	78.75
313.476	87.75
313.706	87.75
313.935	86.75
314.165	82.75
314.394	73.75
314.624	73.75
314.853	73.75
315.083	77.75
315.312	79.75
315.542	94.75
315.771	90.75
316.001	80.75
316.23	87.75
316.46	89.75
316.689	98.75
316.919	85.75
317.148	76.75
317.377	87.75
317.607	84.75
317.836	84.75
318.065	89.75
318.295	97.75
318.524	73.75
318.753	79.75
318.983	99.75
319.212	89.75
319.441	87.75
319.67	92.75
319.9	85.75
320.129	76.75
320.358	98.75
320.587	85.75
320.816	86.75
321.046	73.75
321.275	81.75
321.504	72.75
321.733	85.75
321.962	86.75
322.191	92.75
322.42	94.75
322.649	77.75
322.878	92.75
323.108	74.75
323.337	80.75
323.566	89.75
323.795	85.75
324.024	83.75
324.253	82.75
324.482	77.75
324.71	71.75
324.939	85.75
325.168	98.75
325.397	74.75
325.626	84.75
325.855	101.75
326.084	80.75
326.313	85.75
326.542	85.75
326.77	80.75
326.999	84.75
327.228	82.75
327.457	92.75
327.686	92.75
327.914	89.75
328.143	76.75
328.372	82.75
328.6	86.75
328.829	83.75
329.058	80.75
329.287	103.75
329.515	84.75
329.744	88.75
329.972	66.75
330.201	64.75
330.43	93.75
330.658	70.75
330.887	64.75
331.115	82.75
331.344	68.75
331.572	73.75
331.801	95.75
332.03	87.75
332.258	86.75
332.486	90.75
332.715	84.75
332.943	73.75
333.172	85.75
333.4	90.75
333.629	77.75
333.857	80.75
334.085	95.75
334.314	117.75
334.542	78.75
334.771	77.75
334.999	78.75
335.227	83.75
335.455	89.75
335.684	95.75
335.912	74.75
336.14	82.75
336.369	87.75
336.597	80.75
336.825	85.75
337.053	87.75
337.281	72.75
337.51	86.75
337.738	85.75
337.966	82.75
338.194	88.75
338.422	76.75
338.65	80.75
338.878	83.75
339.106	65.75
339.334	83.75
339.562	92.75
339.79	71.75
340.018	79.75
340.246	73.75
340.474	78.75
340.702	86.75
340.93	82.75
341.158	80.75
341.386	85.75
341.614	78.75
341.842	74.75
342.07	80.75
342.298	86.75
342.526	87.75
342.754	78.75
342.981	82.75
343.209	81.75
343.437	86.75
343.665	80.75
343.893	86.75
344.12	86.75
344.348	94.75
344.576	98.75
344.804	68.75
345.031	87.75
345.259	87.75
345.487	76.75
345.714	80.75
345.942	80.75
346.17	79.75
346.397	78.75
346.625	79.75
346.853	84.75
347.08	82.75
347.308	64.75
347.535	83.75
347.763	88.75
347.99	82.75
348.218	73.75
348.445	88.75
348.673	86.75
348.9	87.75
349.128	84.75
349.355	79.75
349.583	86.75
349.81	79.75
350.037	76.75
350.265	84.75
350.492	73.75
350.72	80.75
350.947	105.75
351.174	78.75
351.402	74.75
351.629	66.75
351.856	95.75
352.083	78.75
352.311	92.75
352.538	88.75
352.765	83.75
352.992	91.75
353.22	73.75
353.447	80.75
353.674	76.75
353.901	82.75
354.128	57.75
354.355	91.75
354.583	90.75
354.81	82.75
355.037	84.75
355.264	87.75
355.491	69.75
355.718	91.75
355.945	78.75
356.172	82.75
356.399	83.75
356.626	86.75
356.853	70.75
357.08	86.75
357.307	75.75
357.534	90.75
357.761	79.75
357.988	96.75
358.215	86.75
358.441	83.75
358.668	90.75
358.895	95.75
359.122	82.75
359.349	93.75
359.576	82.75
359.802	88.75
360.029	85.75
360.256	86.75
360.483	92.75
360.709	84.75
360.936	90.75
361.163	96.75
361.39	88.75
361.616	80.75
361.843	63.75
362.07	84.75
362.296	94.75
362.523	86.75
362.749	83.75
362.976	77.75
363.203	86.75
363.429	70.75
363.656	78.75
363.882	77.75
364.109	70.75
364.335	90.75
364.562	74.75
364.788	73.75
365.015	93.75
365.241	76.75
365.468	85.75
365.694	79.75
365.92	76.75
366.147	88.75
366.373	96.75
366.599	83.75
366.826	85.75
367.052	91.75
367.278	84.75
367.505	81.75
367.731	71.75
367.957	80.75
368.184	77.75
368.41	89.75
368.636	92.75
368.862	87.75
369.089	80.75
369.315	77.75
369.541	95.75
369.767	76.75
369.993	72.75
370.219	85.75
370.445	78.75
370.672	82.75
370.898	89.75
371.124	84.75
371.35	91.75
371.576	87.75
371.802	80.75
372.028	85.75
372.254	77.75
372.48	84.75
372.706	81.75
372.932	82.75
373.158	97.75
373.384	82.75
373.61	83.75
373.835	82.75
374.061	75.75
374.287	86.75
374.513	72.75
374.739	80.75
374.965	80.75
375.191	87.75
375.416	74.75
375.642	66.75
375.868	86.75
376.094	76.75
376.319	74.75
376.545	79.75
376.771	88.75
376.997	78.75
377.222	84.75
377.448	68.75
377.674	74.75
377.899	78.75
378.125	72.75
378.35	78.75
378.576	78.75
378.802	84.75
379.027	80.75
379.253	86.75
379.478	80.75
379.704	90.75
379.929	90.75
380.155	85.75
380.38	86.75
380.606	77.75
380.831	83.75
381.057	70.75
381.282	88.75
381.507	74.75
381.733	87.75
381.958	78.75
382.184	78.75
382.409	67.75
382.634	85.75
382.86	86.75
383.085	79.75
383.31	72.75
383.535	78.75
383.761	85.75
383.986	90.75
384.211	77.75
384.436	90.75
384.662	87.75
384.887	86.75
385.112	78.75
385.337	81.75
385.562	78.75
385.787	79.75
386.013	75.75
386.238	79.75
386.463	75.75
386.688	84.75
386.913	94.75
387.138	82.75
387.363	78.75
387.588	85.75
387.813	81.75
388.038	83.75
388.263	86.75
388.488	80.75
388.713	88.75
388.938	76.75
389.163	90.75
389.387	96.75
389.612	93.75
389.837	91.75
390.062	77.75
390.287	89.75
390.512	82.75
390.736	81.75
390.961	91.75
391.186	102.75
391.411	80.75
391.636	84.75
391.86	87.75
392.085	67.75
392.31	94.75
392.534	78.75
392.759	83.75
392.984	80.75
393.208	94.75
393.433	82.75
393.658	81.75
393.882	82.75
394.107	89.75
394.331	80.75
394.556	77.75
394.78	90.75
395.005	76.75
395.229	74.75
395.454	82.75
395.678	91.75
395.903	84.75
396.127	83.75
396.352	78.75
396.576	84.75
396.801	86.75
397.025	74.75
397.249	69.75
397.474	74.75
397.698	88.75
397.922	83.75
398.147	73.75
398.371	82.75
398.595	82.75
398.82	79.75
399.044	82.75
399.268	64.75
399.492	89.75
399.717	82.75
399.941	82.75
400.165	76.75
400.389	85.75
400.613	78.75
400.837	83.75
401.062	102.75
401.286	90.75
401.51	82.75
401.734	76.75
401.958	75.75
402.182	81.75
402.406	71.75
402.63	73.75
402.854	84.75
403.078	91.75
403.302	86.75
403.526	73.75
403.75	80.75
403.974	87.75
404.198	86.75
404.422	84.75
404.645	90.75
404.869	70.75
405.093	80.75
405.317	81.75
405.541	85.75
405.765	78.75
405.988	86.75
406.212	76.75
406.436	79.75
406.66	73.75
406.883	64.75
407.107	75.75
407.331	82.75
407.555	86.75
407.778	79.75
408.002	80.75
408.226	81.75
408.449	83.75
408.673	79.75
408.896	98.75
409.12	66.75
409.344	94.75
409.567	72.75
409.791	78.75
410.014	71.75
410.238	82.75
410.461	78.75
410.685	82.75
410.908	77.75
411.132	92.75
411.355	78.75
411.578	84.75
411.802	88.75
412.025	96.75
412.249	92.75
412.472	85.75
412.695	83.75
412.919	86.75
413.142	92.75
413.365	85.75
413.589	84.75
413.812	84.75
414.035	79.75
414.258	90.75
414.482	87.75
414.705	80.75
414.928	72.75
415.151	92.75
415.374	88.75
415.597	77.75
415.821	89.75
416.044	70.75
416.267	70.75
416.49	85.75
416.713	82.75
416.936	79.75
417.159	70.75
417.382	82.75
417.605	96.75
417.828	95.75
418.051	92.75
418.274	75.75
418.497	82.75
418.72	87.75
418.943	92.75
419.166	86.75
419.389	102.75
419.611	68.75
419.834	81.75
420.057	82.75
420.28	83.75
420.503	93.75
420.726	72.75
420.948	76.75
421.171	91.75
421.394	78.75
421.617	90.75
421.839	78.75
422.062	77.75
422.285	68.75
422.507	82.75
422.73	83.75
422.953	81.75
423.175	82.75
423.398	90.75
423.621	98.75
423.843	83.75
424.066	84.75
424.288	94.75
424.511	82.75
424.733	83.75
424.956	76.75
425.178	79.75
425.401	79.75
425.623	80.75
425.846	72.75
426.068	88.75
426.291	98.75
426.513	76.75
426.735	86.75
426.958	83.75
427.18	92.75
427.402	105.75
427.625	90.75
427.847	78.75
428.069	83.75
428.292	87.75
428.514	90.75
428.736	79.75
428.958	86.75
429.181	85.75
429.403	86.75
429.625	72.75
429.847	81.75
430.069	78.75
430.292	83.75
430.514	68.75
430.736	82.75
430.958	95.75
431.18	81.75
431.402	86.75
431.624	74.75
431.846	78.75
432.068	70.75
432.29	80.75
432.512	82.75
432.734	90.75
432.956	97.75
433.178	89.75
433.4	81.75
433.622	86.75
433.844	84.75
434.066	73.75
434.287	81.75
434.509	72.75
434.731	71.75
434.953	78.75
435.175	97.75
435.397	85.75
435.618	84.75
435.84	91.75
436.062	87.75
436.284	84.75
436.505	64.75
436.727	77.75
436.949	83.75
437.17	89.75
437.392	79.75
437.614	78.75
437.835	92.75
438.057	76.75
438.278	96.75
438.5	95.75
438.721	81.75
438.943	82.75
439.165	88.75
439.386	80.75
439.608	79.75
439.829	86.75
440.05	76.75
440.272	72.75
440.493	80.75
440.715	72.75
440.936	90.75
441.158	93.75
441.379	81.75
441.6	83.75
441.822	75.75
442.043	70.75
442.264	78.75
442.486	88.75
442.707	80.75
442.928	97.75
443.149	80.75
443.371	89.75
443.592	70.75
443.813	84.75
444.034	75.75
444.255	76.75
444.476	90.75
444.698	74.75
444.919	82.75
445.14	159.75
445.361	110.75
445.582	81.75
445.803	94.75
446.024	80.75
446.245	71.75
446.466	84.75
446.687	99.75
446.908	99.75
447.129	79.75
447.35	65.75
447.571	73.75
447.792	83.75
448.013	80.75
448.234	69.75
448.455	82.75
448.675	66.75
448.896	81.75
449.117	75.75
449.338	80.75
449.559	87.75
449.779	86.75
450	91.75
450.221	84.75
450.442	72.75
450.662	83.75
450.883	77.75
451.104	97.75
451.324	72.75
451.545	98.75
451.766	82.75
451.986	80.75
452.207	64.75
452.428	77.75
452.648	83.75
452.869	77.75
453.089	73.75
453.31	89.75
453.53	81.75
453.751	88.75
453.971	83.75
454.192	69.75
454.412	84.75
454.633	78.75
454.853	73.75
455.073	84.75
455.294	82.75
455.514	92.75
455.734	77.75
455.955	78.75
456.175	67.75
456.395	94.75
456.616	78.75
456.836	68.75
457.056	80.75
457.276	84.75
457.497	78.75
457.717	76.75
457.937	83.75
458.157	88.75
458.377	70.75
458.598	82.75
458.818	88.75
459.038	90.75
459.258	88.75
459.478	90.75
459.698	85.75
459.918	83.75
460.138	78.75
460.358	86.75
460.578	88.75
460.798	85.75
461.018	83.75
461.238	80.75
461.458	80.75
461.678	83.75
461.898	76.75
462.118	68.75
462.338	83.75
462.558	75.75
462.777	80.75
462.997	78.75
463.217	83.75
463.437	91.75
463.657	98.75
463.876	90.75
464.096	66.75
464.316	79.75
464.536	78.75
464.755	85.75
464.975	76.75
465.195	84.75
465.414	81.75
465.634	76.75
465.854	79.75
466.073	91.75
466.293	76.75
466.512	81.75
466.732	82.75
466.951	83.75
467.171	72.75
467.391	93.75
467.61	92.75
467.829	72.75
468.049	70.75
468.268	78.75
468.488	80.75
468.707	79.75
468.927	85.75
469.146	74.75
469.365	66.75
469.585	84.75
469.804	73.75
470.023	82.75
470.243	93.75
470.462	97.75
470.681	83.75
470.901	88.75
471.12	96.75
471.339	98.75
471.558	93.75
471.777	82.75
471.997	93.75
472.216	78.75
472.435	76.75
472.654	76.75
472.873	97.75
473.092	100.75
473.311	96.75
473.53	83.75
473.749	77.75
473.968	78.75
474.187	79.75
474.406	84.75
474.625	87.75
474.844	88.75
475.063	88.75
475.282	85.75
475.501	80.75
475.72	83.75
475.939	87.75
476.158	79.75
476.377	79.75
476.596	68.75
476.814	78.75
477.033	88.75
477.252	67.75
477.471	82.75
477.69	88.75
477.908	88.75
478.127	89.75
478.346	88.75
478.564	106.75
478.783	87.75
479.002	95.75
479.22	83.75
479.439	94.75
479.658	88.75
479.876	78.75
480.095	82.75
480.313	78.75
480.532	86.75
480.751	89.75
480.969	86.75
481.188	91.75
481.406	72.75
481.624	79.75
481.843	83.75
482.061	84.75
482.28	84.75
482.498	88.75
482.717	93.75
482.935	85.75
483.153	93.75
483.372	90.75
483.59	85.75
483.808	78.75
484.027	85.75
484.245	76.75
484.463	76.75
484.681	82.75
484.9	83.75
485.118	90.75
485.336	92.75
485.554	81.75
485.772	91.75
485.99	89.75
486.209	76.75
486.427	75.75
486.645	87.75
486.863	84.75
487.081	91.75
487.299	94.75
487.517	91.75
487.735	86.75
487.953	93.75
488.171	73.75
488.389	92.75
488.607	88.75
488.825	73.75
489.043	69.75
489.261	83.75
489.479	85.75
489.696	91.75
489.914	108.75
490.132	86.75
490.35	75.75
490.568	96.75
490.786	85.75
491.003	87.75
491.221	89.75
491.439	82.75
491.657	81.75
491.874	83.75
492.092	89.75
492.31	82.75
492.527	87.75
492.745	83.75
492.963	71.75
493.18	80.75
493.398	93.75
493.615	90.75
493.833	84.75
494.05	78.75
494.268	86.75
494.485	91.75
494.703	87.75
494.92	88.75
495.138	71.75
495.355	84.75
495.573	88.75
495.79	92.75
496.008	81.75
496.225	91.75
496.442	73.75
496.66	95.75
496.877	90.75
497.094	85.75
497.312	72.75
497.529	79.75
497.746	91.75
497.963	85.75
498.181	87.75
498.398	88.75
498.615	86.75
498.832	73.75
499.049	69.75
499.267	73.75
499.484	78.75
499.701	96.75
499.918	90.75
500.135	92.75
500.352	81.75
500.569	67.75
500.786	69.75
501.003	97.75
501.22	75.75
501.437	86.75
501.654	69.75
501.871	82.75
502.088	80.75
502.305	87.75
502.522	80.75
502.739	86.75
502.956	89.75
503.172	84.75
503.389	100.75
503.606	83.75
503.823	74.75
504.04	86.75
504.256	96.75
504.473	85.75
504.69	83.75
504.907	98.75
505.123	88.75
505.34	81.75
505.557	94.75
505.773	82.75
505.99	55.75
506.207	88.75
506.423	78.75
506.64	88.75
506.856	103.75
507.073	80.75
507.289	70.75
507.506	89.75
507.722	90.75
507.939	88.75
508.155	85.75
508.372	72.75
508.588	70.75
508.805	83.75
509.021	84.75
509.238	80.75
509.454	82.75
509.67	76.75
509.887	82.75
510.103	90.75
510.319	83.75
510.536	87.75
510.752	88.75
510.968	88.75
511.184	79.75
511.401	76.75
511.617	77.75
511.833	92.75
512.049	82.75
512.265	71.75
512.481	94.75
512.698	81.75
512.914	87.75
513.13	80.75
513.346	80.75
513.562	78.75
513.778	85.75
513.994	88.75
514.21	76.75
514.426	76.75
514.642	68.75
514.858	92.75
515.074	83.75
515.29	93.75
515.506	78.75
515.721	83.75
515.937	83.75
516.153	83.75
516.369	72.75
516.585	82.75
516.801	86.75
517.016	85.75
517.232	87.75
517.448	72.75
517.664	83.75
517.879	76.75
518.095	89.75
518.311	84.75
518.527	80.75
518.742	83.75
518.958	90.75
519.173	86.75
519.389	70.75
519.605	62.75
519.82	86.75
520.036	87.75
