Data from Background_2_HRD10591_00041.txt Node
Date: Wed Nov 05 14:47:17 EST 2025
User: Yrep
Spectrometer: HR+D1059
Trigger mode: 1
Integration Time (sec): 1.000000E-1
Scans to average: 1
Electric dark correction enabled: true
Nonlinearity correction enabled: false
Boxcar width: 0
XAxis mode: Wavelengths
Number of Pixels in Spectrum: 2048
>>>>>Begin Spectral Data<<<<<
223.165	-27.56
223.4	-27.56
223.635	-27.56
223.869	-11.56
224.104	-20.56
224.338	-3.56
224.573	-6.56
224.808	-18.56
225.042	-15.56
225.277	5.44
225.511	-4.56
225.746	-11.56
225.98	8.44
226.215	12.44
226.449	19.44
226.683	34.44
226.918	24.44
227.152	15.44
227.387	41.44
227.621	50.44
227.856	45.44
228.09	45.44
228.324	57.44
228.559	65.44
228.793	51.44
229.027	52.44
229.262	66.44
229.496	80.44
229.73	81.44
229.964	78.44
230.199	72.44
230.433	74.44
230.667	74.44
230.901	80.44
231.136	90.44
231.37	73.44
231.604	79.44
231.838	73.44
232.072	78.44
232.306	81.44
232.541	70.44
232.775	94.44
233.009	99.44
233.243	85.44
233.477	84.44
233.711	80.44
233.945	97.44
234.179	88.44
234.413	101.44
234.647	84.44
234.881	54.44
235.115	82.44
235.349	73.44
235.583	81.44
235.817	88.44
236.051	70.44
236.285	72.44
236.519	90.44
236.753	74.44
236.987	80.44
237.221	80.44
237.455	73.44
237.689	65.44
237.922	67.44
238.156	84.44
238.39	74.44
238.624	79.44
238.858	92.44
239.091	76.44
239.325	88.44
239.559	79.44
239.793	79.44
240.027	64.44
240.26	76.44
240.494	80.44
240.728	66.44
240.961	60.44
241.195	71.44
241.429	80.44
241.662	91.44
241.896	74.44
242.13	73.44
242.363	86.44
242.597	82.44
242.83	80.44
243.064	72.44
243.298	70.44
243.531	76.44
243.765	88.44
243.998	78.44
244.232	88.44
244.465	73.44
244.699	67.44
244.932	72.44
245.166	78.44
245.399	96.44
245.633	76.44
245.866	85.44
246.099	78.44
246.333	78.44
246.566	83.44
246.8	77.44
247.033	71.44
247.266	81.44
247.5	68.44
247.733	64.44
247.966	80.44
248.2	75.44
248.433	88.44
248.666	61.44
248.899	79.44
249.133	70.44
249.366	92.44
249.599	81.44
249.832	78.44
250.066	98.44
250.299	82.44
250.532	87.44
250.765	67.44
250.998	83.44
251.231	82.44
251.465	88.44
251.698	76.44
251.931	77.44
252.164	71.44
252.397	73.44
252.63	82.44
252.863	64.44
253.096	78.44
253.329	77.44
253.562	83.44
253.795	85.44
254.028	80.44
254.261	76.44
254.494	96.44
254.727	77.44
254.96	86.44
255.193	90.44
255.426	98.44
255.659	71.44
255.892	87.44
256.124	78.44
256.357	78.44
256.59	70.44
256.823	75.44
257.056	78.44
257.289	78.44
257.521	90.44
257.754	73.44
257.987	77.44
258.22	90.44
258.452	74.44
258.685	81.44
258.918	80.44
259.151	64.44
259.383	94.44
259.616	77.44
259.849	73.44
260.081	75.44
260.314	78.44
260.547	85.44
260.779	80.44
261.012	73.44
261.244	64.44
261.477	73.44
261.71	71.44
261.942	85.44
262.175	83.44
262.407	84.44
262.64	73.44
262.872	74.44
263.105	84.44
263.337	78.44
263.57	84.44
263.802	75.44
264.035	83.44
264.267	78.44
264.499	86.44
264.732	73.44
264.964	74.44
265.197	89.44
265.429	90.44
265.661	68.44
265.894	76.44
266.126	86.44
266.358	70.44
266.591	80.44
266.823	87.44
267.055	90.44
267.287	78.44
267.52	95.44
267.752	90.44
267.984	86.44
268.216	76.44
268.448	72.44
268.681	95.44
268.913	79.44
269.145	103.44
269.377	74.44
269.609	73.44
269.841	67.44
270.073	76.44
270.306	69.44
270.538	86.44
270.77	92.44
271.002	77.44
271.234	77.44
271.466	79.44
271.698	76.44
271.93	66.44
272.162	89.44
272.394	85.44
272.626	78.44
272.858	85.44
273.09	93.44
273.322	86.44
273.553	91.44
273.785	77.44
274.017	77.44
274.249	86.44
274.481	93.44
274.713	92.44
274.945	87.44
275.176	83.44
275.408	101.44
275.64	82.44
275.872	83.44
276.104	82.44
276.335	86.44
276.567	91.44
276.799	84.44
277.031	86.44
277.262	85.44
277.494	85.44
277.726	86.44
277.957	91.44
278.189	74.44
278.421	72.44
278.652	91.44
278.884	86.44
279.115	87.44
279.347	93.44
279.579	79.44
279.81	80.44
280.042	82.44
280.273	91.44
280.505	71.44
280.736	74.44
280.968	74.44
281.199	77.44
281.431	74.44
281.662	85.44
281.894	86.44
282.125	82.44
282.356	93.44
282.588	87.44
282.819	93.44
283.051	78.44
283.282	82.44
283.513	86.44
283.745	97.44
283.976	78.44
284.207	78.44
284.439	84.44
284.67	92.44
284.901	95.44
285.132	93.44
285.364	82.44
285.595	92.44
285.826	82.44
286.057	88.44
286.288	74.44
286.52	68.44
286.751	82.44
286.982	86.44
287.213	88.44
287.444	83.44
287.675	82.44
287.906	74.44
288.138	92.44
288.369	72.44
288.6	79.44
288.831	89.44
289.062	83.44
289.293	91.44
289.524	91.44
289.755	86.44
289.986	74.44
290.217	82.44
290.448	78.44
290.679	82.44
290.91	89.44
291.141	77.44
291.371	82.44
291.602	80.44
291.833	72.44
292.064	72.44
292.295	91.44
292.526	72.44
292.757	75.44
292.987	87.44
293.218	82.44
293.449	70.44
293.68	88.44
293.91	87.44
294.141	88.44
294.372	81.44
294.603	60.44
294.833	81.44
295.064	80.44
295.295	81.44
295.525	88.44
295.756	84.44
295.987	85.44
296.217	95.44
296.448	89.44
296.679	83.44
296.909	79.44
297.14	91.44
297.37	85.44
297.601	100.44
297.831	78.44
298.062	82.44
298.292	77.44
298.523	82.44
298.753	71.44
298.984	86.44
299.214	94.44
299.445	80.44
299.675	85.44
299.905	102.44
300.136	92.44
300.366	88.44
300.597	96.44
300.827	75.44
301.057	84.44
301.288	85.44
301.518	89.44
301.748	89.44
301.979	104.44
302.209	74.44
302.439	83.44
302.669	66.44
302.9	83.44
303.13	102.44
303.36	76.44
303.59	91.44
303.82	75.44
304.051	89.44
304.281	91.44
304.511	91.44
304.741	86.44
304.971	87.44
305.201	86.44
305.431	79.44
305.661	94.44
305.891	85.44
306.121	80.44
306.352	93.44
306.582	84.44
306.812	92.44
307.042	90.44
307.272	90.44
307.502	83.44
307.731	82.44
307.961	81.44
308.191	78.44
308.421	78.44
308.651	86.44
308.881	98.44
309.111	100.44
309.341	96.44
309.571	81.44
309.8	74.44
310.03	91.44
310.26	77.44
310.49	86.44
310.72	86.44
310.949	89.44
311.179	86.44
311.409	72.44
311.639	86.44
311.868	87.44
312.098	83.44
312.328	80.44
312.557	73.44
312.787	84.44
313.017	92.44
313.246	86.44
313.476	98.44
313.706	78.44
313.935	84.44
314.165	81.44
314.394	75.44
314.624	94.44
314.853	83.44
315.083	99.44
315.312	86.44
315.542	99.44
315.771	84.44
316.001	87.44
316.23	83.44
316.46	91.44
316.689	100.44
316.919	79.44
317.148	98.44
317.377	90.44
317.607	86.44
317.836	84.44
318.065	78.44
318.295	80.44
318.524	82.44
318.753	92.44
318.983	78.44
319.212	85.44
319.441	70.44
319.67	83.44
319.9	93.44
320.129	73.44
320.358	77.44
320.587	77.44
320.816	76.44
321.046	82.44
321.275	88.44
321.504	98.44
321.733	91.44
321.962	86.44
322.191	88.44
322.42	87.44
322.649	77.44
322.878	79.44
323.108	86.44
323.337	85.44
323.566	84.44
323.795	88.44
324.024	81.44
324.253	83.44
324.482	89.44
324.71	85.44
324.939	85.44
325.168	87.44
325.397	82.44
325.626	76.44
325.855	86.44
326.084	91.44
326.313	67.44
326.542	78.44
326.77	86.44
326.999	98.44
327.228	86.44
327.457	78.44
327.686	74.44
327.914	83.44
328.143	82.44
328.372	78.44
328.6	85.44
328.829	90.44
329.058	78.44
329.287	82.44
329.515	86.44
329.744	88.44
329.972	96.44
330.201	93.44
330.43	81.44
330.658	86.44
330.887	88.44
331.115	100.44
331.344	77.44
331.572	85.44
331.801	61.44
332.03	75.44
332.258	90.44
332.486	78.44
332.715	81.44
332.943	68.44
333.172	77.44
333.4	86.44
333.629	73.44
333.857	80.44
334.085	83.44
334.314	99.44
334.542	75.44
334.771	84.44
334.999	76.44
335.227	75.44
335.455	95.44
335.684	92.44
335.912	74.44
336.14	93.44
336.369	80.44
336.597	89.44
336.825	82.44
337.053	74.44
337.281	77.44
337.51	99.44
337.738	93.44
337.966	96.44
338.194	80.44
338.422	74.44
338.65	91.44
338.878	84.44
339.106	81.44
339.334	85.44
339.562	82.44
339.79	84.44
340.018	72.44
340.246	72.44
340.474	79.44
340.702	78.44
340.93	78.44
341.158	78.44
341.386	86.44
341.614	84.44
341.842	92.44
342.07	97.44
342.298	71.44
342.526	90.44
342.754	82.44
342.981	73.44
343.209	86.44
343.437	109.44
343.665	93.44
343.893	82.44
344.12	71.44
344.348	82.44
344.576	84.44
344.804	86.44
345.031	83.44
345.259	98.44
345.487	86.44
345.714	90.44
345.942	80.44
346.17	79.44
346.397	84.44
346.625	70.44
346.853	85.44
347.08	84.44
347.308	97.44
347.535	81.44
347.763	98.44
347.99	88.44
348.218	81.44
348.445	94.44
348.673	82.44
348.9	84.44
349.128	99.44
349.355	88.44
349.583	89.44
349.81	86.44
350.037	73.44
350.265	76.44
350.492	80.44
350.72	72.44
350.947	92.44
351.174	78.44
351.402	85.44
351.629	107.44
351.856	78.44
352.083	88.44
352.311	83.44
352.538	82.44
352.765	86.44
352.992	81.44
353.22	81.44
353.447	75.44
353.674	85.44
353.901	78.44
354.128	89.44
354.355	82.44
354.583	92.44
354.81	88.44
355.037	85.44
355.264	84.44
355.491	91.44
355.718	84.44
355.945	93.44
356.172	83.44
356.399	97.44
356.626	77.44
356.853	93.44
357.08	84.44
357.307	60.44
357.534	92.44
357.761	73.44
357.988	89.44
358.215	76.44
358.441	71.44
358.668	84.44
358.895	74.44
359.122	65.44
359.349	96.44
359.576	74.44
359.802	88.44
360.029	93.44
360.256	76.44
360.483	73.44
360.709	81.44
360.936	90.44
361.163	82.44
361.39	84.44
361.616	74.44
361.843	76.44
362.07	82.44
362.296	83.44
362.523	92.44
362.749	97.44
362.976	81.44
363.203	90.44
363.429	91.44
363.656	95.44
363.882	96.44
364.109	82.44
364.335	81.44
364.562	66.44
364.788	85.44
365.015	84.44
365.241	75.44
365.468	88.44
365.694	78.44
365.92	84.44
366.147	87.44
366.373	89.44
366.599	90.44
366.826	75.44
367.052	84.44
367.278	71.44
367.505	95.44
367.731	90.44
367.957	68.44
368.184	78.44
368.41	94.44
368.636	66.44
368.862	95.44
369.089	76.44
369.315	81.44
369.541	92.44
369.767	89.44
369.993	78.44
370.219	75.44
370.445	86.44
370.672	76.44
370.898	78.44
371.124	80.44
371.35	85.44
371.576	90.44
371.802	98.44
372.028	101.44
372.254	101.44
372.48	84.44
372.706	93.44
372.932	85.44
373.158	87.44
373.384	84.44
373.61	86.44
373.835	82.44
374.061	84.44
374.287	79.44
374.513	82.44
374.739	90.44
374.965	82.44
375.191	80.44
375.416	81.44
375.642	80.44
375.868	85.44
376.094	73.44
376.319	71.44
376.545	85.44
376.771	80.44
376.997	88.44
377.222	76.44
377.448	79.44
377.674	101.44
377.899	82.44
378.125	71.44
378.35	85.44
378.576	78.44
378.802	91.44
379.027	71.44
379.253	82.44
379.478	80.44
379.704	76.44
379.929	92.44
380.155	85.44
380.38	97.44
380.606	93.44
380.831	82.44
381.057	92.44
381.282	88.44
381.507	102.44
381.733	93.44
381.958	83.44
382.184	72.44
382.409	71.44
382.634	90.44
382.86	86.44
383.085	83.44
383.31	79.44
383.535	80.44
383.761	84.44
383.986	89.44
384.211	68.44
384.436	90.44
384.662	93.44
384.887	96.44
385.112	79.44
385.337	68.44
385.562	76.44
385.787	89.44
386.013	74.44
386.238	66.44
386.463	83.44
386.688	76.44
386.913	85.44
387.138	90.44
387.363	84.44
387.588	90.44
387.813	86.44
388.038	73.44
388.263	86.44
388.488	82.44
388.713	82.44
388.938	76.44
389.163	78.44
389.387	88.44
389.612	84.44
389.837	93.44
390.062	89.44
390.287	62.44
390.512	77.44
390.736	84.44
390.961	76.44
391.186	85.44
391.411	90.44
391.636	88.44
391.86	75.44
392.085	66.44
392.31	76.44
392.534	78.44
392.759	76.44
392.984	82.44
393.208	80.44
393.433	92.44
393.658	89.44
393.882	84.44
394.107	78.44
394.331	81.44
394.556	98.44
394.78	77.44
395.005	72.44
395.229	76.44
395.454	80.44
395.678	84.44
395.903	92.44
396.127	89.44
396.352	80.44
396.576	71.44
396.801	71.44
397.025	84.44
397.249	88.44
397.474	89.44
397.698	76.44
397.922	64.44
398.147	96.44
398.371	86.44
398.595	83.44
398.82	85.44
399.044	76.44
399.268	108.44
399.492	78.44
399.717	77.44
399.941	92.44
400.165	89.44
400.389	87.44
400.613	96.44
400.837	82.44
401.062	70.44
401.286	89.44
401.51	70.44
401.734	84.44
401.958	89.44
402.182	77.44
402.406	75.44
402.63	79.44
402.854	95.44
403.078	92.44
403.302	81.44
403.526	88.44
403.75	87.44
403.974	90.44
404.198	75.44
404.422	71.44
404.645	75.44
404.869	71.44
405.093	74.44
405.317	72.44
405.541	86.44
405.765	66.44
405.988	90.44
406.212	71.44
406.436	75.44
406.66	69.44
406.883	73.44
407.107	65.44
407.331	69.44
407.555	85.44
407.778	77.44
408.002	92.44
408.226	74.44
408.449	86.44
408.673	88.44
408.896	83.44
409.12	80.44
409.344	84.44
409.567	76.44
409.791	80.44
410.014	79.44
410.238	84.44
410.461	76.44
410.685	71.44
410.908	79.44
411.132	80.44
411.355	88.44
411.578	96.44
411.802	85.44
412.025	80.44
412.249	84.44
412.472	90.44
412.695	92.44
412.919	78.44
413.142	66.44
413.365	82.44
413.589	70.44
413.812	82.44
414.035	81.44
414.258	83.44
414.482	76.44
414.705	88.44
414.928	89.44
415.151	84.44
415.374	88.44
415.597	82.44
415.821	76.44
416.044	80.44
416.267	84.44
416.49	65.44
416.713	90.44
416.936	79.44
417.159	95.44
417.382	80.44
417.605	70.44
417.828	71.44
418.051	91.44
418.274	77.44
418.497	76.44
418.72	75.44
418.943	83.44
419.166	72.44
419.389	83.44
419.611	75.44
419.834	67.44
420.057	84.44
420.28	67.44
420.503	82.44
420.726	80.44
420.948	85.44
421.171	82.44
421.394	76.44
421.617	83.44
421.839	60.44
422.062	92.44
422.285	71.44
422.507	68.44
422.73	80.44
422.953	99.44
423.175	80.44
423.398	64.44
423.621	69.44
423.843	78.44
424.066	92.44
424.288	82.44
424.511	85.44
424.733	90.44
424.956	74.44
425.178	77.44
425.401	70.44
425.623	74.44
425.846	75.44
426.068	74.44
426.291	84.44
426.513	96.44
426.735	85.44
426.958	85.44
427.18	84.44
427.402	79.44
427.625	72.44
427.847	81.44
428.069	74.44
428.292	92.44
428.514	79.44
428.736	96.44
428.958	88.44
429.181	81.44
429.403	78.44
429.625	89.44
429.847	78.44
430.069	91.44
430.292	82.44
430.514	82.44
430.736	87.44
430.958	86.44
431.18	82.44
431.402	83.44
431.624	78.44
431.846	69.44
432.068	89.44
432.29	85.44
432.512	85.44
432.734	84.44
432.956	108.44
433.178	80.44
433.4	79.44
433.622	82.44
433.844	79.44
434.066	85.44
434.287	82.44
434.509	71.44
434.731	80.44
434.953	99.44
435.175	82.44
435.397	78.44
435.618	87.44
435.84	84.44
436.062	76.44
436.284	89.44
436.505	76.44
436.727	74.44
436.949	66.44
437.17	73.44
437.392	78.44
437.614	76.44
437.835	85.44
438.057	71.44
438.278	80.44
438.5	76.44
438.721	74.44
438.943	77.44
439.165	80.44
439.386	94.44
439.608	101.44
439.829	74.44
440.05	90.44
440.272	84.44
440.493	92.44
440.715	83.44
440.936	78.44
441.158	89.44
441.379	88.44
441.6	84.44
441.822	74.44
442.043	81.44
442.264	85.44
442.486	76.44
442.707	76.44
442.928	91.44
443.149	86.44
443.371	94.44
443.592	84.44
443.813	84.44
444.034	86.44
444.255	70.44
444.476	76.44
444.698	86.44
444.919	77.44
445.14	139.44
445.361	108.44
445.582	77.44
445.803	84.44
446.024	80.44
446.245	74.44
446.466	86.44
446.687	83.44
446.908	76.44
447.129	84.44
447.35	90.44
447.571	84.44
447.792	83.44
448.013	85.44
448.234	89.44
448.455	82.44
448.675	67.44
448.896	77.44
449.117	77.44
449.338	83.44
449.559	75.44
449.779	81.44
450	83.44
450.221	80.44
450.442	81.44
450.662	82.44
450.883	71.44
451.104	86.44
451.324	76.44
451.545	82.44
451.766	91.44
451.986	94.44
452.207	80.44
452.428	74.44
452.648	83.44
452.869	80.44
453.089	88.44
453.31	83.44
453.53	82.44
453.751	85.44
453.971	67.44
454.192	71.44
454.412	76.44
454.633	90.44
454.853	85.44
455.073	83.44
455.294	73.44
455.514	77.44
455.734	71.44
455.955	82.44
456.175	83.44
456.395	89.44
456.616	86.44
456.836	80.44
457.056	84.44
457.276	76.44
457.497	83.44
457.717	79.44
457.937	82.44
458.157	93.44
458.377	77.44
458.598	78.44
458.818	81.44
459.038	90.44
459.258	82.44
459.478	79.44
459.698	69.44
459.918	81.44
460.138	88.44
460.358	80.44
460.578	90.44
460.798	90.44
461.018	85.44
461.238	75.44
461.458	90.44
461.678	86.44
461.898	85.44
462.118	76.44
462.338	85.44
462.558	76.44
462.777	78.44
462.997	89.44
463.217	83.44
463.437	84.44
463.657	88.44
463.876	62.44
464.096	82.44
464.316	96.44
464.536	84.44
464.755	74.44
464.975	94.44
465.195	69.44
465.414	83.44
465.634	78.44
465.854	82.44
466.073	69.44
466.293	92.44
466.512	72.44
466.732	68.44
466.951	88.44
467.171	86.44
467.391	89.44
467.61	84.44
467.829	79.44
468.049	89.44
468.268	64.44
468.488	76.44
468.707	77.44
468.927	78.44
469.146	78.44
469.365	67.44
469.585	84.44
469.804	76.44
470.023	78.44
470.243	79.44
470.462	80.44
470.681	84.44
470.901	84.44
471.12	90.44
471.339	62.44
471.558	84.44
471.777	78.44
471.997	94.44
472.216	102.44
472.435	82.44
472.654	90.44
472.873	74.44
473.092	80.44
473.311	70.44
473.53	83.44
473.749	86.44
473.968	87.44
474.187	90.44
474.406	88.44
474.625	97.44
474.844	70.44
475.063	82.44
475.282	86.44
475.501	73.44
475.72	72.44
475.939	95.44
476.158	91.44
476.377	97.44
476.596	84.44
476.814	82.44
477.033	85.44
477.252	80.44
477.471	83.44
477.69	91.44
477.908	79.44
478.127	84.44
478.346	86.44
478.564	91.44
478.783	78.44
479.002	76.44
479.22	60.44
479.439	97.44
479.658	73.44
479.876	90.44
480.095	67.44
480.313	92.44
480.532	84.44
480.751	70.44
480.969	85.44
481.188	80.44
481.406	82.44
481.624	93.44
481.843	91.44
482.061	92.44
482.28	86.44
482.498	102.44
482.717	81.44
482.935	76.44
483.153	84.44
483.372	84.44
483.59	74.44
483.808	81.44
484.027	81.44
484.245	78.44
484.463	96.44
484.681	84.44
484.9	85.44
485.118	91.44
485.336	94.44
485.554	68.44
485.772	80.44
485.99	76.44
486.209	87.44
486.427	88.44
486.645	86.44
486.863	82.44
487.081	85.44
487.299	84.44
487.517	91.44
487.735	82.44
487.953	89.44
488.171	91.44
488.389	84.44
488.607	96.44
488.825	80.44
489.043	79.44
489.261	93.44
489.479	82.44
489.696	94.44
489.914	69.44
490.132	100.44
490.35	82.44
490.568	76.44
490.786	85.44
491.003	75.44
491.221	77.44
491.439	88.44
491.657	72.44
491.874	87.44
492.092	85.44
492.31	77.44
492.527	75.44
492.745	89.44
492.963	76.44
493.18	69.44
493.398	71.44
493.615	88.44
493.833	87.44
494.05	76.44
494.268	73.44
494.485	82.44
494.703	76.44
494.92	91.44
495.138	90.44
495.355	86.44
495.573	98.44
495.79	80.44
496.008	85.44
496.225	91.44
496.442	76.44
496.66	96.44
496.877	79.44
497.094	91.44
497.312	86.44
497.529	70.44
497.746	88.44
497.963	94.44
498.181	82.44
498.398	81.44
498.615	76.44
498.832	91.44
499.049	76.44
499.267	91.44
499.484	104.44
499.701	101.44
499.918	88.44
500.135	80.44
500.352	68.44
500.569	81.44
500.786	80.44
501.003	99.44
501.22	74.44
501.437	86.44
501.654	79.44
501.871	80.44
502.088	96.44
502.305	70.44
502.522	78.44
502.739	92.44
502.956	82.44
503.172	77.44
503.389	89.44
503.606	84.44
503.823	86.44
504.04	92.44
504.256	84.44
504.473	76.44
504.69	70.44
504.907	90.44
505.123	92.44
505.34	85.44
505.557	80.44
505.773	84.44
505.99	81.44
506.207	97.44
506.423	88.44
506.64	76.44
506.856	88.44
507.073	92.44
507.289	93.44
507.506	85.44
507.722	73.44
507.939	82.44
508.155	80.44
508.372	79.44
508.588	92.44
508.805	90.44
509.021	74.44
509.238	93.44
509.454	77.44
509.67	75.44
509.887	79.44
510.103	82.44
510.319	77.44
510.536	84.44
510.752	80.44
510.968	94.44
511.184	77.44
511.401	88.44
511.617	74.44
511.833	85.44
512.049	80.44
512.265	86.44
512.481	80.44
512.698	70.44
512.914	92.44
513.13	88.44
513.346	82.44
513.562	73.44
513.778	82.44
513.994	91.44
514.21	82.44
514.426	79.44
514.642	92.44
514.858	95.44
515.074	84.44
515.29	92.44
515.506	75.44
515.721	68.44
515.937	76.44
516.153	77.44
516.369	77.44
516.585	64.44
516.801	85.44
517.016	88.44
517.232	80.44
517.448	89.44
517.664	80.44
517.879	84.44
518.095	100.44
518.311	84.44
518.527	84.44
518.742	89.44
518.958	56.44
519.173	83.44
519.389	83.44
519.605	83.44
519.82	88.44
