Data from Background_2_HRD10591_00035.txt Node
Date: Wed Nov 05 14:47:14 EST 2025
User: Yrep
Spectrometer: HR+D1059
Trigger mode: 1
Integration Time (sec): 1.000000E-1
Scans to average: 1
Electric dark correction enabled: true
Nonlinearity correction enabled: false
Boxcar width: 0
XAxis mode: Wavelengths
Number of Pixels in Spectrum: 2048
>>>>>Begin Spectral Data<<<<<
223.165	-14.31
223.4	-14.31
223.635	-14.31
223.869	-14.31
224.104	-17.31
224.338	-16.31
224.573	-29.31
224.808	-15.31
225.042	-7.31
225.277	-2.31
225.511	-10.31
225.746	2.69
225.98	4.69
226.215	11.69
226.449	20.69
226.683	34.69
226.918	24.69
227.152	27.69
227.387	56.69
227.621	49.69
227.856	41.69
228.09	49.69
228.324	47.69
228.559	65.69
228.793	52.69
229.027	69.69
229.262	68.69
229.496	82.69
229.73	87.69
229.964	79.69
230.199	73.69
230.433	69.69
230.667	69.69
230.901	79.69
231.136	73.69
231.37	86.69
231.604	97.69
231.838	73.69
232.072	74.69
232.306	84.69
232.541	86.69
232.775	82.69
233.009	80.69
233.243	91.69
233.477	87.69
233.711	86.69
233.945	82.69
234.179	83.69
234.413	74.69
234.647	95.69
234.881	73.69
235.115	90.69
235.349	87.69
235.583	87.69
235.817	85.69
236.051	71.69
236.285	73.69
236.519	85.69
236.753	72.69
236.987	75.69
237.221	100.69
237.455	92.69
237.689	84.69
237.922	82.69
238.156	87.69
238.39	74.69
238.624	65.69
238.858	67.69
239.091	93.69
239.325	81.69
239.559	73.69
239.793	81.69
240.027	84.69
240.26	83.69
240.494	79.69
240.728	80.69
240.961	87.69
241.195	67.69
241.429	63.69
241.662	74.69
241.896	79.69
242.13	75.69
242.363	73.69
242.597	90.69
242.83	79.69
243.064	78.69
243.298	90.69
243.531	79.69
243.765	86.69
243.998	73.69
244.232	75.69
244.465	75.69
244.699	81.69
244.932	90.69
245.166	79.69
245.399	66.69
245.633	75.69
245.866	86.69
246.099	89.69
246.333	81.69
246.566	70.69
246.8	75.69
247.033	88.69
247.266	79.69
247.5	89.69
247.733	93.69
247.966	84.69
248.2	71.69
248.433	85.69
248.666	86.69
248.899	76.69
249.133	90.69
249.366	85.69
249.599	74.69
249.832	79.69
250.066	79.69
250.299	70.69
250.532	89.69
250.765	81.69
250.998	94.69
251.231	82.69
251.465	81.69
251.698	79.69
251.931	83.69
252.164	76.69
252.397	89.69
252.63	80.69
252.863	82.69
253.096	99.69
253.329	80.69
253.562	87.69
253.795	81.69
254.028	87.69
254.261	80.69
254.494	76.69
254.727	69.69
254.96	84.69
255.193	88.69
255.426	89.69
255.659	86.69
255.892	89.69
256.124	85.69
256.357	86.69
256.59	91.69
256.823	91.69
257.056	73.69
257.289	89.69
257.521	100.69
257.754	86.69
257.987	87.69
258.22	87.69
258.452	87.69
258.685	85.69
258.918	95.69
259.151	75.69
259.383	79.69
259.616	83.69
259.849	85.69
260.081	84.69
260.314	98.69
260.547	80.69
260.779	71.69
261.012	85.69
261.244	73.69
261.477	72.69
261.71	90.69
261.942	79.69
262.175	82.69
262.407	102.69
262.64	84.69
262.872	78.69
263.105	78.69
263.337	95.69
263.57	85.69
263.802	104.69
264.035	101.69
264.267	82.69
264.499	78.69
264.732	93.69
264.964	87.69
265.197	89.69
265.429	82.69
265.661	85.69
265.894	83.69
266.126	97.69
266.358	81.69
266.591	85.69
266.823	95.69
267.055	88.69
267.287	84.69
267.52	68.69
267.752	81.69
267.984	89.69
268.216	100.69
268.448	98.69
268.681	88.69
268.913	79.69
269.145	91.69
269.377	103.69
269.609	93.69
269.841	71.69
270.073	94.69
270.306	78.69
270.538	95.69
270.77	82.69
271.002	96.69
271.234	87.69
271.466	89.69
271.698	74.69
271.93	75.69
272.162	75.69
272.394	91.69
272.626	86.69
272.858	86.69
273.09	86.69
273.322	86.69
273.553	96.69
273.785	96.69
274.017	82.69
274.249	91.69
274.481	96.69
274.713	85.69
274.945	83.69
275.176	97.69
275.408	96.69
275.64	102.69
275.872	89.69
276.104	81.69
276.335	79.69
276.567	94.69
276.799	93.69
277.031	88.69
277.262	99.69
277.494	81.69
277.726	89.69
277.957	88.69
278.189	86.69
278.421	87.69
278.652	98.69
278.884	93.69
279.115	74.69
279.347	95.69
279.579	84.69
279.81	96.69
280.042	88.69
280.273	82.69
280.505	85.69
280.736	82.69
280.968	101.69
281.199	95.69
281.431	89.69
281.662	89.69
281.894	103.69
282.125	94.69
282.356	93.69
282.588	93.69
282.819	84.69
283.051	105.69
283.282	78.69
283.513	88.69
283.745	87.69
283.976	102.69
284.207	91.69
284.439	83.69
284.67	73.69
284.901	97.69
285.132	83.69
285.364	91.69
285.595	88.69
285.826	89.69
286.057	94.69
286.288	81.69
286.52	73.69
286.751	89.69
286.982	75.69
287.213	96.69
287.444	85.69
287.675	93.69
287.906	106.69
288.138	94.69
288.369	83.69
288.6	84.69
288.831	95.69
289.062	85.69
289.293	82.69
289.524	84.69
289.755	82.69
289.986	90.69
290.217	87.69
290.448	89.69
290.679	80.69
290.91	87.69
291.141	97.69
291.371	87.69
291.602	89.69
291.833	101.69
292.064	86.69
292.295	88.69
292.526	93.69
292.757	84.69
292.987	90.69
293.218	77.69
293.449	86.69
293.68	75.69
293.91	88.69
294.141	92.69
294.372	89.69
294.603	96.69
294.833	99.69
295.064	91.69
295.295	96.69
295.525	83.69
295.756	95.69
295.987	103.69
296.217	89.69
296.448	90.69
296.679	81.69
296.909	92.69
297.14	69.69
297.37	84.69
297.601	98.69
297.831	73.69
298.062	84.69
298.292	84.69
298.523	93.69
298.753	90.69
298.984	93.69
299.214	74.69
299.445	97.69
299.675	81.69
299.905	92.69
300.136	92.69
300.366	85.69
300.597	83.69
300.827	84.69
301.057	73.69
301.288	107.69
301.518	97.69
301.748	90.69
301.979	98.69
302.209	93.69
302.439	76.69
302.669	90.69
302.9	101.69
303.13	94.69
303.36	87.69
303.59	74.69
303.82	88.69
304.051	93.69
304.281	74.69
304.511	104.69
304.741	84.69
304.971	88.69
305.201	89.69
305.431	86.69
305.661	102.69
305.891	83.69
306.121	98.69
306.352	91.69
306.582	92.69
306.812	92.69
307.042	95.69
307.272	78.69
307.502	72.69
307.731	81.69
307.961	81.69
308.191	94.69
308.421	102.69
308.651	91.69
308.881	85.69
309.111	79.69
309.341	95.69
309.571	96.69
309.8	99.69
310.03	73.69
310.26	94.69
310.49	96.69
310.72	101.69
310.949	93.69
311.179	90.69
311.409	83.69
311.639	90.69
311.868	89.69
312.098	101.69
312.328	89.69
312.557	93.69
312.787	97.69
313.017	100.69
313.246	86.69
313.476	94.69
313.706	94.69
313.935	83.69
314.165	80.69
314.394	91.69
314.624	85.69
314.853	93.69
315.083	86.69
315.312	82.69
315.542	81.69
315.771	86.69
316.001	72.69
316.23	84.69
316.46	82.69
316.689	85.69
316.919	99.69
317.148	96.69
317.377	85.69
317.607	85.69
317.836	94.69
318.065	88.69
318.295	85.69
318.524	80.69
318.753	98.69
318.983	88.69
319.212	92.69
319.441	86.69
319.67	79.69
319.9	94.69
320.129	85.69
320.358	84.69
320.587	80.69
320.816	76.69
321.046	81.69
321.275	99.69
321.504	68.69
321.733	92.69
321.962	87.69
322.191	75.69
322.42	90.69
322.649	101.69
322.878	98.69
323.108	95.69
323.337	90.69
323.566	84.69
323.795	95.69
324.024	77.69
324.253	85.69
324.482	89.69
324.71	90.69
324.939	79.69
325.168	83.69
325.397	86.69
325.626	83.69
325.855	79.69
326.084	84.69
326.313	78.69
326.542	84.69
326.77	87.69
326.999	95.69
327.228	81.69
327.457	98.69
327.686	103.69
327.914	87.69
328.143	91.69
328.372	107.69
328.6	78.69
328.829	87.69
329.058	84.69
329.287	90.69
329.515	107.69
329.744	101.69
329.972	83.69
330.201	106.69
330.43	84.69
330.658	103.69
330.887	82.69
331.115	81.69
331.344	75.69
331.572	93.69
331.801	82.69
332.03	80.69
332.258	75.69
332.486	100.69
332.715	71.69
332.943	85.69
333.172	80.69
333.4	84.69
333.629	81.69
333.857	96.69
334.085	79.69
334.314	87.69
334.542	80.69
334.771	87.69
334.999	81.69
335.227	85.69
335.455	88.69
335.684	98.69
335.912	93.69
336.14	77.69
336.369	88.69
336.597	91.69
336.825	88.69
337.053	93.69
337.281	95.69
337.51	84.69
337.738	94.69
337.966	96.69
338.194	77.69
338.422	75.69
338.65	82.69
338.878	99.69
339.106	100.69
339.334	97.69
339.562	95.69
339.79	99.69
340.018	82.69
340.246	88.69
340.474	86.69
340.702	83.69
340.93	88.69
341.158	95.69
341.386	81.69
341.614	88.69
341.842	96.69
342.07	93.69
342.298	96.69
342.526	81.69
342.754	92.69
342.981	87.69
343.209	94.69
343.437	104.69
343.665	81.69
343.893	79.69
344.12	82.69
344.348	84.69
344.576	81.69
344.804	90.69
345.031	107.69
345.259	82.69
345.487	82.69
345.714	84.69
345.942	91.69
346.17	79.69
346.397	89.69
346.625	93.69
346.853	94.69
347.08	89.69
347.308	99.69
347.535	83.69
347.763	97.69
347.99	88.69
348.218	92.69
348.445	100.69
348.673	92.69
348.9	82.69
349.128	94.69
349.355	97.69
349.583	81.69
349.81	94.69
350.037	87.69
350.265	79.69
350.492	91.69
350.72	101.69
350.947	89.69
351.174	93.69
351.402	89.69
351.629	96.69
351.856	73.69
352.083	80.69
352.311	88.69
352.538	90.69
352.765	96.69
352.992	100.69
353.22	89.69
353.447	88.69
353.674	99.69
353.901	85.69
354.128	99.69
354.355	81.69
354.583	89.69
354.81	76.69
355.037	82.69
355.264	89.69
355.491	93.69
355.718	82.69
355.945	96.69
356.172	85.69
356.399	97.69
356.626	90.69
356.853	81.69
357.08	87.69
357.307	88.69
357.534	80.69
357.761	87.69
357.988	95.69
358.215	107.69
358.441	92.69
358.668	89.69
358.895	96.69
359.122	81.69
359.349	98.69
359.576	86.69
359.802	75.69
360.029	75.69
360.256	90.69
360.483	78.69
360.709	95.69
360.936	101.69
361.163	81.69
361.39	85.69
361.616	90.69
361.843	99.69
362.07	82.69
362.296	88.69
362.523	82.69
362.749	83.69
362.976	90.69
363.203	75.69
363.429	76.69
363.656	81.69
363.882	87.69
364.109	86.69
364.335	99.69
364.562	91.69
364.788	83.69
365.015	88.69
365.241	84.69
365.468	76.69
365.694	94.69
365.92	98.69
366.147	91.69
366.373	88.69
366.599	85.69
366.826	92.69
367.052	92.69
367.278	81.69
367.505	74.69
367.731	101.69
367.957	83.69
368.184	98.69
368.41	93.69
368.636	95.69
368.862	82.69
369.089	79.69
369.315	81.69
369.541	101.69
369.767	94.69
369.993	88.69
370.219	92.69
370.445	75.69
370.672	85.69
370.898	70.69
371.124	87.69
371.35	96.69
371.576	83.69
371.802	76.69
372.028	83.69
372.254	70.69
372.48	89.69
372.706	94.69
372.932	81.69
373.158	84.69
373.384	81.69
373.61	82.69
373.835	95.69
374.061	87.69
374.287	71.69
374.513	92.69
374.739	89.69
374.965	95.69
375.191	88.69
375.416	87.69
375.642	82.69
375.868	86.69
376.094	105.69
376.319	102.69
376.545	76.69
376.771	94.69
376.997	80.69
377.222	91.69
377.448	83.69
377.674	92.69
377.899	83.69
378.125	89.69
378.35	88.69
378.576	82.69
378.802	91.69
379.027	88.69
379.253	86.69
379.478	85.69
379.704	74.69
379.929	93.69
380.155	80.69
380.38	77.69
380.606	92.69
380.831	93.69
381.057	90.69
381.282	94.69
381.507	89.69
381.733	74.69
381.958	86.69
382.184	84.69
382.409	85.69
382.634	79.69
382.86	89.69
383.085	97.69
383.31	94.69
383.535	91.69
383.761	83.69
383.986	92.69
384.211	90.69
384.436	95.69
384.662	71.69
384.887	89.69
385.112	84.69
385.337	87.69
385.562	81.69
385.787	84.69
386.013	89.69
386.238	86.69
386.463	75.69
386.688	101.69
386.913	87.69
387.138	80.69
387.363	77.69
387.588	97.69
387.813	96.69
388.038	99.69
388.263	80.69
388.488	88.69
388.713	80.69
388.938	93.69
389.163	89.69
389.387	77.69
389.612	75.69
389.837	79.69
390.062	67.69
390.287	88.69
390.512	78.69
390.736	87.69
390.961	81.69
391.186	85.69
391.411	72.69
391.636	81.69
391.86	82.69
392.085	93.69
392.31	93.69
392.534	89.69
392.759	94.69
392.984	90.69
393.208	91.69
393.433	88.69
393.658	88.69
393.882	83.69
394.107	83.69
394.331	80.69
394.556	81.69
394.78	76.69
395.005	78.69
395.229	83.69
395.454	91.69
395.678	82.69
395.903	88.69
396.127	77.69
396.352	87.69
396.576	76.69
396.801	85.69
397.025	78.69
397.249	75.69
397.474	80.69
397.698	85.69
397.922	71.69
398.147	73.69
398.371	82.69
398.595	88.69
398.82	83.69
399.044	66.69
399.268	84.69
399.492	89.69
399.717	91.69
399.941	74.69
400.165	96.69
400.389	76.69
400.613	70.69
400.837	93.69
401.062	83.69
401.286	69.69
401.51	85.69
401.734	80.69
401.958	78.69
402.182	79.69
402.406	87.69
402.63	87.69
402.854	85.69
403.078	74.69
403.302	98.69
403.526	100.69
403.75	79.69
403.974	91.69
404.198	81.69
404.422	82.69
404.645	78.69
404.869	97.69
405.093	98.69
405.317	95.69
405.541	79.69
405.765	89.69
405.988	93.69
406.212	81.69
406.436	82.69
406.66	88.69
406.883	86.69
407.107	86.69
407.331	86.69
407.555	92.69
407.778	85.69
408.002	81.69
408.226	89.69
408.449	82.69
408.673	79.69
408.896	89.69
409.12	90.69
409.344	77.69
409.567	87.69
409.791	91.69
410.014	86.69
410.238	78.69
410.461	81.69
410.685	69.69
410.908	90.69
411.132	77.69
411.355	89.69
411.578	79.69
411.802	69.69
412.025	80.69
412.249	83.69
412.472	76.69
412.695	92.69
412.919	82.69
413.142	84.69
413.365	87.69
413.589	90.69
413.812	85.69
414.035	90.69
414.258	78.69
414.482	73.69
414.705	75.69
414.928	85.69
415.151	99.69
415.374	73.69
415.597	92.69
415.821	99.69
416.044	90.69
416.267	74.69
416.49	79.69
416.713	78.69
416.936	101.69
417.159	90.69
417.382	72.69
417.605	83.69
417.828	96.69
418.051	81.69
418.274	91.69
418.497	89.69
418.72	80.69
418.943	77.69
419.166	98.69
419.389	96.69
419.611	71.69
419.834	83.69
420.057	71.69
420.28	85.69
420.503	75.69
420.726	83.69
420.948	94.69
421.171	83.69
421.394	85.69
421.617	83.69
421.839	86.69
422.062	90.69
422.285	81.69
422.507	98.69
422.73	99.69
422.953	86.69
423.175	73.69
423.398	72.69
423.621	87.69
423.843	87.69
424.066	95.69
424.288	107.69
424.511	103.69
424.733	92.69
424.956	111.69
425.178	95.69
425.401	93.69
425.623	95.69
425.846	90.69
426.068	78.69
426.291	97.69
426.513	81.69
426.735	86.69
426.958	87.69
427.18	91.69
427.402	83.69
427.625	79.69
427.847	71.69
428.069	80.69
428.292	86.69
428.514	85.69
428.736	78.69
428.958	100.69
429.181	98.69
429.403	90.69
429.625	81.69
429.847	83.69
430.069	82.69
430.292	82.69
430.514	96.69
430.736	83.69
430.958	98.69
431.18	84.69
431.402	82.69
431.624	89.69
431.846	87.69
432.068	86.69
432.29	85.69
432.512	72.69
432.734	86.69
432.956	82.69
433.178	88.69
433.4	84.69
433.622	89.69
433.844	83.69
434.066	81.69
434.287	70.69
434.509	87.69
434.731	99.69
434.953	77.69
435.175	87.69
435.397	81.69
435.618	81.69
435.84	70.69
436.062	83.69
436.284	80.69
436.505	90.69
436.727	80.69
436.949	85.69
437.17	81.69
437.392	88.69
437.614	72.69
437.835	92.69
438.057	95.69
438.278	84.69
438.5	77.69
438.721	81.69
438.943	99.69
439.165	81.69
439.386	85.69
439.608	95.69
439.829	81.69
440.05	79.69
440.272	76.69
440.493	87.69
440.715	72.69
440.936	87.69
441.158	77.69
441.379	88.69
441.6	95.69
441.822	79.69
442.043	85.69
442.264	88.69
442.486	82.69
442.707	85.69
442.928	82.69
443.149	85.69
443.371	94.69
443.592	100.69
443.813	91.69
444.034	85.69
444.255	80.69
444.476	93.69
444.698	94.69
444.919	81.69
445.14	157.69
445.361	111.69
445.582	85.69
445.803	81.69
446.024	83.69
446.245	79.69
446.466	82.69
446.687	101.69
446.908	98.69
447.129	84.69
447.35	83.69
447.571	70.69
447.792	84.69
448.013	79.69
448.234	98.69
448.455	92.69
448.675	88.69
448.896	89.69
449.117	84.69
449.338	80.69
449.559	75.69
449.779	76.69
450	91.69
450.221	100.69
450.442	95.69
450.662	89.69
450.883	78.69
451.104	87.69
451.324	90.69
451.545	85.69
451.766	94.69
451.986	66.69
452.207	89.69
452.428	94.69
452.648	87.69
452.869	81.69
453.089	75.69
453.31	80.69
453.53	81.69
453.751	92.69
453.971	80.69
454.192	104.69
454.412	96.69
454.633	85.69
454.853	87.69
455.073	86.69
455.294	79.69
455.514	78.69
455.734	82.69
455.955	94.69
456.175	92.69
456.395	99.69
456.616	88.69
456.836	83.69
457.056	86.69
457.276	76.69
457.497	78.69
457.717	89.69
457.937	78.69
458.157	90.69
458.377	86.69
458.598	76.69
458.818	86.69
459.038	88.69
459.258	87.69
459.478	85.69
459.698	87.69
459.918	93.69
460.138	88.69
460.358	84.69
460.578	80.69
460.798	94.69
461.018	81.69
461.238	82.69
461.458	93.69
461.678	74.69
461.898	106.69
462.118	94.69
462.338	78.69
462.558	85.69
462.777	90.69
462.997	78.69
463.217	78.69
463.437	73.69
463.657	75.69
463.876	88.69
464.096	73.69
464.316	85.69
464.536	87.69
464.755	86.69
464.975	89.69
465.195	71.69
465.414	73.69
465.634	87.69
465.854	67.69
466.073	86.69
466.293	81.69
466.512	83.69
466.732	89.69
466.951	76.69
467.171	81.69
467.391	85.69
467.61	82.69
467.829	94.69
468.049	79.69
468.268	79.69
468.488	80.69
468.707	96.69
468.927	89.69
469.146	78.69
469.365	78.69
469.585	81.69
469.804	81.69
470.023	87.69
470.243	75.69
470.462	90.69
470.681	93.69
470.901	73.69
471.12	85.69
471.339	80.69
471.558	71.69
471.777	67.69
471.997	81.69
472.216	86.69
472.435	78.69
472.654	91.69
472.873	88.69
473.092	87.69
473.311	94.69
473.53	85.69
473.749	94.69
473.968	86.69
474.187	83.69
474.406	79.69
474.625	86.69
474.844	98.69
475.063	92.69
475.282	83.69
475.501	89.69
475.72	96.69
475.939	98.69
476.158	84.69
476.377	86.69
476.596	78.69
476.814	81.69
477.033	89.69
477.252	76.69
477.471	94.69
477.69	82.69
477.908	92.69
478.127	99.69
478.346	80.69
478.564	89.69
478.783	78.69
479.002	82.69
479.22	85.69
479.439	77.69
479.658	87.69
479.876	87.69
480.095	91.69
480.313	72.69
480.532	83.69
480.751	98.69
480.969	74.69
481.188	71.69
481.406	76.69
481.624	83.69
481.843	83.69
482.061	97.69
482.28	94.69
482.498	82.69
482.717	79.69
482.935	79.69
483.153	74.69
483.372	91.69
483.59	93.69
483.808	85.69
484.027	78.69
484.245	83.69
484.463	85.69
484.681	84.69
484.9	95.69
485.118	92.69
485.336	95.69
485.554	69.69
485.772	87.69
485.99	81.69
486.209	86.69
486.427	91.69
486.645	84.69
486.863	82.69
487.081	95.69
487.299	80.69
487.517	71.69
487.735	91.69
487.953	75.69
488.171	85.69
488.389	89.69
488.607	93.69
488.825	86.69
489.043	95.69
489.261	102.69
489.479	89.69
489.696	75.69
489.914	92.69
490.132	73.69
490.35	89.69
490.568	82.69
490.786	84.69
491.003	97.69
491.221	85.69
491.439	65.69
491.657	83.69
491.874	94.69
492.092	85.69
492.31	97.69
492.527	69.69
492.745	97.69
492.963	87.69
493.18	82.69
493.398	87.69
493.615	90.69
493.833	78.69
494.05	83.69
494.268	94.69
494.485	95.69
494.703	80.69
494.92	87.69
495.138	94.69
495.355	96.69
495.573	106.69
495.79	87.69
496.008	81.69
496.225	87.69
496.442	87.69
496.66	89.69
496.877	73.69
497.094	79.69
497.312	86.69
497.529	106.69
497.746	110.69
497.963	86.69
498.181	88.69
498.398	91.69
498.615	88.69
498.832	88.69
499.049	75.69
499.267	79.69
499.484	88.69
499.701	86.69
499.918	78.69
500.135	91.69
500.352	84.69
500.569	82.69
500.786	96.69
501.003	72.69
501.22	77.69
501.437	75.69
501.654	86.69
501.871	101.69
502.088	85.69
502.305	79.69
502.522	80.69
502.739	64.69
502.956	79.69
503.172	86.69
503.389	87.69
503.606	93.69
503.823	70.69
504.04	89.69
504.256	89.69
504.473	94.69
504.69	90.69
504.907	97.69
505.123	87.69
505.34	82.69
505.557	96.69
505.773	102.69
505.99	93.69
506.207	89.69
506.423	93.69
506.64	91.69
506.856	102.69
507.073	92.69
507.289	90.69
507.506	93.69
507.722	97.69
507.939	102.69
508.155	87.69
508.372	88.69
508.588	91.69
508.805	97.69
509.021	94.69
509.238	83.69
509.454	94.69
509.67	74.69
509.887	86.69
510.103	90.69
510.319	81.69
510.536	88.69
510.752	69.69
510.968	82.69
511.184	67.69
511.401	89.69
511.617	101.69
511.833	93.69
512.049	93.69
512.265	83.69
512.481	98.69
512.698	82.69
512.914	90.69
513.13	79.69
513.346	86.69
513.562	94.69
513.778	100.69
513.994	85.69
514.21	72.69
514.426	98.69
514.642	90.69
514.858	100.69
515.074	80.69
515.29	91.69
515.506	74.69
515.721	93.69
515.937	105.69
516.153	90.69
516.369	85.69
516.585	86.69
516.801	90.69
517.016	90.69
517.232	82.69
517.448	78.69
517.664	87.69
517.879	95.69
518.095	101.69
518.311	86.69
518.527	80.69
518.742	66.69
518.958	84.69
519.173	97.69
