Data from Background_2_HRD10591_00049.txt Node
Date: Wed Nov 05 14:47:21 EST 2025
User: Yrep
Spectrometer: HR+D1059
Trigger mode: 1
Integration Time (sec): 1.000000E-1
Scans to average: 1
Electric dark correction enabled: true
Nonlinearity correction enabled: false
Boxcar width: 0
XAxis mode: Wavelengths
Number of Pixels in Spectrum: 2048
>>>>>Begin Spectral Data<<<<<
223.165	-14.31
223.4	-14.31
223.635	-14.31
223.869	-24.31
224.104	-10.31
224.338	-14.31
224.573	-17.31
224.808	-4.31
225.042	-13.31
225.277	-17.31
225.511	-6.31
225.746	6.69
225.98	9.69
226.215	15.69
226.449	23.69
226.683	20.69
226.918	15.69
227.152	29.69
227.387	19.69
227.621	34.69
227.856	47.69
228.09	47.69
228.324	56.69
228.559	64.69
228.793	77.69
229.027	73.69
229.262	59.69
229.496	51.69
229.73	69.69
229.964	78.69
230.199	70.69
230.433	74.69
230.667	71.69
230.901	78.69
231.136	72.69
231.37	86.69
231.604	72.69
231.838	85.69
232.072	87.69
232.306	74.69
232.541	100.69
232.775	83.69
233.009	72.69
233.243	97.69
233.477	79.69
233.711	85.69
233.945	85.69
234.179	72.69
234.413	90.69
234.647	91.69
234.881	89.69
235.115	80.69
235.349	76.69
235.583	81.69
235.817	83.69
236.051	73.69
236.285	73.69
236.519	75.69
236.753	80.69
236.987	83.69
237.221	78.69
237.455	82.69
237.689	89.69
237.922	89.69
238.156	77.69
238.39	75.69
238.624	78.69
238.858	73.69
239.091	86.69
239.325	84.69
239.559	69.69
239.793	62.69
240.027	75.69
240.26	78.69
240.494	79.69
240.728	90.69
240.961	82.69
241.195	87.69
241.429	80.69
241.662	77.69
241.896	69.69
242.13	80.69
242.363	89.69
242.597	67.69
242.83	82.69
243.064	85.69
243.298	79.69
243.531	93.69
243.765	79.69
243.998	78.69
244.232	75.69
244.465	84.69
244.699	70.69
244.932	68.69
245.166	85.69
245.399	77.69
245.633	75.69
245.866	74.69
246.099	85.69
246.333	73.69
246.566	70.69
246.8	75.69
247.033	103.69
247.266	75.69
247.5	76.69
247.733	82.69
247.966	87.69
248.2	81.69
248.433	75.69
248.666	91.69
248.899	79.69
249.133	85.69
249.366	77.69
249.599	72.69
249.832	87.69
250.066	84.69
250.299	84.69
250.532	69.69
250.765	81.69
250.998	68.69
251.231	71.69
251.465	73.69
251.698	85.69
251.931	78.69
252.164	93.69
252.397	93.69
252.63	84.69
252.863	93.69
253.096	66.69
253.329	79.69
253.562	90.69
253.795	90.69
254.028	86.69
254.261	76.69
254.494	83.69
254.727	86.69
254.96	75.69
255.193	76.69
255.426	77.69
255.659	87.69
255.892	86.69
256.124	85.69
256.357	88.69
256.59	92.69
256.823	83.69
257.056	75.69
257.289	73.69
257.521	94.69
257.754	79.69
257.987	78.69
258.22	86.69
258.452	76.69
258.685	91.69
258.918	73.69
259.151	85.69
259.383	84.69
259.616	85.69
259.849	81.69
260.081	78.69
260.314	87.69
260.547	82.69
260.779	86.69
261.012	79.69
261.244	90.69
261.477	79.69
261.71	67.69
261.942	71.69
262.175	82.69
262.407	77.69
262.64	69.69
262.872	74.69
263.105	81.69
263.337	90.69
263.57	88.69
263.802	87.69
264.035	86.69
264.267	87.69
264.499	77.69
264.732	83.69
264.964	86.69
265.197	90.69
265.429	82.69
265.661	89.69
265.894	79.69
266.126	103.69
266.358	81.69
266.591	71.69
266.823	83.69
267.055	82.69
267.287	89.69
267.52	77.69
267.752	77.69
267.984	78.69
268.216	93.69
268.448	83.69
268.681	79.69
268.913	93.69
269.145	86.69
269.377	77.69
269.609	84.69
269.841	75.69
270.073	81.69
270.306	82.69
270.538	84.69
270.77	77.69
271.002	87.69
271.234	72.69
271.466	84.69
271.698	84.69
271.93	79.69
272.162	83.69
272.394	85.69
272.626	97.69
272.858	84.69
273.09	79.69
273.322	84.69
273.553	87.69
273.785	79.69
274.017	77.69
274.249	82.69
274.481	77.69
274.713	87.69
274.945	87.69
275.176	93.69
275.408	63.69
275.64	99.69
275.872	91.69
276.104	79.69
276.335	88.69
276.567	80.69
276.799	78.69
277.031	79.69
277.262	80.69
277.494	77.69
277.726	95.69
277.957	84.69
278.189	89.69
278.421	83.69
278.652	66.69
278.884	71.69
279.115	85.69
279.347	106.69
279.579	83.69
279.81	84.69
280.042	84.69
280.273	84.69
280.505	75.69
280.736	97.69
280.968	96.69
281.199	96.69
281.431	84.69
281.662	94.69
281.894	77.69
282.125	69.69
282.356	75.69
282.588	87.69
282.819	77.69
283.051	93.69
283.282	87.69
283.513	71.69
283.745	85.69
283.976	70.69
284.207	81.69
284.439	88.69
284.67	76.69
284.901	93.69
285.132	79.69
285.364	85.69
285.595	89.69
285.826	80.69
286.057	91.69
286.288	89.69
286.52	99.69
286.751	86.69
286.982	89.69
287.213	81.69
287.444	90.69
287.675	78.69
287.906	81.69
288.138	80.69
288.369	97.69
288.6	80.69
288.831	83.69
289.062	92.69
289.293	73.69
289.524	84.69
289.755	93.69
289.986	81.69
290.217	77.69
290.448	91.69
290.679	77.69
290.91	91.69
291.141	77.69
291.371	91.69
291.602	85.69
291.833	77.69
292.064	69.69
292.295	79.69
292.526	89.69
292.757	85.69
292.987	100.69
293.218	84.69
293.449	82.69
293.68	79.69
293.91	97.69
294.141	95.69
294.372	92.69
294.603	74.69
294.833	76.69
295.064	93.69
295.295	80.69
295.525	94.69
295.756	82.69
295.987	91.69
296.217	77.69
296.448	78.69
296.679	87.69
296.909	90.69
297.14	99.69
297.37	92.69
297.601	98.69
297.831	82.69
298.062	81.69
298.292	73.69
298.523	93.69
298.753	84.69
298.984	80.69
299.214	86.69
299.445	82.69
299.675	93.69
299.905	79.69
300.136	84.69
300.366	77.69
300.597	93.69
300.827	86.69
301.057	85.69
301.288	89.69
301.518	89.69
301.748	83.69
301.979	98.69
302.209	83.69
302.439	71.69
302.669	83.69
302.9	92.69
303.13	73.69
303.36	83.69
303.59	86.69
303.82	85.69
304.051	96.69
304.281	100.69
304.511	83.69
304.741	86.69
304.971	88.69
305.201	81.69
305.431	79.69
305.661	80.69
305.891	77.69
306.121	87.69
306.352	80.69
306.582	88.69
306.812	77.69
307.042	79.69
307.272	82.69
307.502	81.69
307.731	93.69
307.961	87.69
308.191	85.69
308.421	87.69
308.651	74.69
308.881	82.69
309.111	77.69
309.341	87.69
309.571	76.69
309.8	85.69
310.03	90.69
310.26	89.69
310.49	83.69
310.72	83.69
310.949	81.69
311.179	79.69
311.409	74.69
311.639	81.69
311.868	62.69
312.098	87.69
312.328	82.69
312.557	102.69
312.787	95.69
313.017	83.69
313.246	93.69
313.476	82.69
313.706	79.69
313.935	90.69
314.165	105.69
314.394	84.69
314.624	81.69
314.853	80.69
315.083	80.69
315.312	90.69
315.542	82.69
315.771	94.69
316.001	90.69
316.23	94.69
316.46	84.69
316.689	85.69
316.919	83.69
317.148	76.69
317.377	69.69
317.607	79.69
317.836	84.69
318.065	79.69
318.295	105.69
318.524	85.69
318.753	79.69
318.983	83.69
319.212	82.69
319.441	80.69
319.67	87.69
319.9	88.69
320.129	89.69
320.358	87.69
320.587	90.69
320.816	85.69
321.046	81.69
321.275	90.69
321.504	67.69
321.733	73.69
321.962	77.69
322.191	91.69
322.42	76.69
322.649	92.69
322.878	96.69
323.108	81.69
323.337	95.69
323.566	85.69
323.795	76.69
324.024	100.69
324.253	100.69
324.482	94.69
324.71	81.69
324.939	83.69
325.168	84.69
325.397	97.69
325.626	76.69
325.855	82.69
326.084	79.69
326.313	91.69
326.542	95.69
326.77	83.69
326.999	73.69
327.228	81.69
327.457	101.69
327.686	91.69
327.914	97.69
328.143	96.69
328.372	77.69
328.6	100.69
328.829	77.69
329.058	84.69
329.287	77.69
329.515	87.69
329.744	89.69
329.972	89.69
330.201	95.69
330.43	85.69
330.658	72.69
330.887	97.69
331.115	79.69
331.344	80.69
331.572	80.69
331.801	85.69
332.03	94.69
332.258	94.69
332.486	83.69
332.715	91.69
332.943	95.69
333.172	82.69
333.4	80.69
333.629	88.69
333.857	83.69
334.085	73.69
334.314	87.69
334.542	98.69
334.771	75.69
334.999	95.69
335.227	86.69
335.455	85.69
335.684	93.69
335.912	82.69
336.14	89.69
336.369	88.69
336.597	76.69
336.825	94.69
337.053	79.69
337.281	86.69
337.51	77.69
337.738	89.69
337.966	72.69
338.194	77.69
338.422	92.69
338.65	86.69
338.878	83.69
339.106	75.69
339.334	91.69
339.562	77.69
339.79	85.69
340.018	79.69
340.246	85.69
340.474	90.69
340.702	93.69
340.93	86.69
341.158	86.69
341.386	89.69
341.614	91.69
341.842	77.69
342.07	87.69
342.298	100.69
342.526	90.69
342.754	81.69
342.981	77.69
343.209	95.69
343.437	90.69
343.665	74.69
343.893	83.69
344.12	94.69
344.348	82.69
344.576	95.69
344.804	93.69
345.031	85.69
345.259	77.69
345.487	90.69
345.714	88.69
345.942	93.69
346.17	84.69
346.397	68.69
346.625	67.69
346.853	69.69
347.08	69.69
347.308	84.69
347.535	86.69
347.763	80.69
347.99	81.69
348.218	97.69
348.445	71.69
348.673	70.69
348.9	90.69
349.128	83.69
349.355	85.69
349.583	93.69
349.81	91.69
350.037	85.69
350.265	77.69
350.492	57.69
350.72	76.69
350.947	89.69
351.174	74.69
351.402	81.69
351.629	99.69
351.856	76.69
352.083	87.69
352.311	77.69
352.538	82.69
352.765	70.69
352.992	80.69
353.22	90.69
353.447	86.69
353.674	83.69
353.901	91.69
354.128	94.69
354.355	100.69
354.583	91.69
354.81	86.69
355.037	102.69
355.264	79.69
355.491	88.69
355.718	76.69
355.945	91.69
356.172	92.69
356.399	75.69
356.626	91.69
356.853	87.69
357.08	71.69
357.307	80.69
357.534	73.69
357.761	86.69
357.988	83.69
358.215	81.69
358.441	90.69
358.668	77.69
358.895	79.69
359.122	88.69
359.349	77.69
359.576	87.69
359.802	95.69
360.029	83.69
360.256	80.69
360.483	77.69
360.709	83.69
360.936	65.69
361.163	90.69
361.39	83.69
361.616	94.69
361.843	92.69
362.07	87.69
362.296	77.69
362.523	70.69
362.749	77.69
362.976	85.69
363.203	90.69
363.429	81.69
363.656	84.69
363.882	89.69
364.109	81.69
364.335	79.69
364.562	80.69
364.788	85.69
365.015	80.69
365.241	73.69
365.468	87.69
365.694	77.69
365.92	81.69
366.147	77.69
366.373	94.69
366.599	85.69
366.826	81.69
367.052	75.69
367.278	76.69
367.505	79.69
367.731	87.69
367.957	84.69
368.184	77.69
368.41	91.69
368.636	74.69
368.862	67.69
369.089	86.69
369.315	91.69
369.541	83.69
369.767	99.69
369.993	88.69
370.219	86.69
370.445	65.69
370.672	83.69
370.898	80.69
371.124	78.69
371.35	86.69
371.576	88.69
371.802	69.69
372.028	84.69
372.254	84.69
372.48	86.69
372.706	81.69
372.932	78.69
373.158	68.69
373.384	84.69
373.61	78.69
373.835	85.69
374.061	72.69
374.287	85.69
374.513	87.69
374.739	85.69
374.965	100.69
375.191	77.69
375.416	86.69
375.642	89.69
375.868	80.69
376.094	79.69
376.319	81.69
376.545	85.69
376.771	81.69
376.997	71.69
377.222	72.69
377.448	83.69
377.674	80.69
377.899	81.69
378.125	88.69
378.35	97.69
378.576	97.69
378.802	87.69
379.027	75.69
379.253	81.69
379.478	88.69
379.704	69.69
379.929	90.69
380.155	74.69
380.38	85.69
380.606	92.69
380.831	81.69
381.057	81.69
381.282	90.69
381.507	87.69
381.733	93.69
381.958	94.69
382.184	89.69
382.409	89.69
382.634	76.69
382.86	89.69
383.085	87.69
383.31	77.69
383.535	79.69
383.761	74.69
383.986	79.69
384.211	83.69
384.436	93.69
384.662	86.69
384.887	85.69
385.112	86.69
385.337	89.69
385.562	76.69
385.787	86.69
386.013	90.69
386.238	77.69
386.463	83.69
386.688	94.69
386.913	83.69
387.138	75.69
387.363	90.69
387.588	83.69
387.813	101.69
388.038	90.69
388.263	79.69
388.488	87.69
388.713	78.69
388.938	77.69
389.163	85.69
389.387	92.69
389.612	83.69
389.837	83.69
390.062	92.69
390.287	94.69
390.512	85.69
390.736	74.69
390.961	79.69
391.186	79.69
391.411	86.69
391.636	87.69
391.86	93.69
392.085	77.69
392.31	82.69
392.534	87.69
392.759	84.69
392.984	81.69
393.208	81.69
393.433	84.69
393.658	84.69
393.882	78.69
394.107	81.69
394.331	83.69
394.556	69.69
394.78	84.69
395.005	93.69
395.229	87.69
395.454	80.69
395.678	78.69
395.903	77.69
396.127	59.69
396.352	73.69
396.576	76.69
396.801	85.69
397.025	87.69
397.249	65.69
397.474	77.69
397.698	66.69
397.922	84.69
398.147	83.69
398.371	80.69
398.595	88.69
398.82	87.69
399.044	97.69
399.268	92.69
399.492	73.69
399.717	77.69
399.941	87.69
400.165	81.69
400.389	83.69
400.613	82.69
400.837	88.69
401.062	75.69
401.286	67.69
401.51	89.69
401.734	89.69
401.958	75.69
402.182	79.69
402.406	68.69
402.63	81.69
402.854	82.69
403.078	105.69
403.302	91.69
403.526	93.69
403.75	86.69
403.974	71.69
404.198	81.69
404.422	81.69
404.645	85.69
404.869	92.69
405.093	93.69
405.317	77.69
405.541	73.69
405.765	79.69
405.988	87.69
406.212	93.69
406.436	82.69
406.66	88.69
406.883	92.69
407.107	73.69
407.331	81.69
407.555	85.69
407.778	90.69
408.002	77.69
408.226	86.69
408.449	82.69
408.673	83.69
408.896	71.69
409.12	78.69
409.344	83.69
409.567	78.69
409.791	85.69
410.014	83.69
410.238	79.69
410.461	87.69
410.685	87.69
410.908	79.69
411.132	94.69
411.355	72.69
411.578	73.69
411.802	70.69
412.025	84.69
412.249	79.69
412.472	72.69
412.695	77.69
412.919	84.69
413.142	67.69
413.365	85.69
413.589	96.69
413.812	77.69
414.035	88.69
414.258	90.69
414.482	94.69
414.705	94.69
414.928	90.69
415.151	70.69
415.374	74.69
415.597	70.69
415.821	75.69
416.044	82.69
416.267	81.69
416.49	97.69
416.713	75.69
416.936	86.69
417.159	79.69
417.382	69.69
417.605	84.69
417.828	78.69
418.051	87.69
418.274	96.69
418.497	86.69
418.72	71.69
418.943	84.69
419.166	75.69
419.389	80.69
419.611	85.69
419.834	74.69
420.057	82.69
420.28	85.69
420.503	86.69
420.726	86.69
420.948	87.69
421.171	102.69
421.394	65.69
421.617	72.69
421.839	79.69
422.062	79.69
422.285	73.69
422.507	67.69
422.73	91.69
422.953	81.69
423.175	82.69
423.398	81.69
423.621	91.69
423.843	81.69
424.066	72.69
424.288	83.69
424.511	92.69
424.733	78.69
424.956	94.69
425.178	84.69
425.401	70.69
425.623	88.69
425.846	79.69
426.068	91.69
426.291	62.69
426.513	95.69
426.735	84.69
426.958	83.69
427.18	75.69
427.402	85.69
427.625	70.69
427.847	79.69
428.069	89.69
428.292	81.69
428.514	82.69
428.736	80.69
428.958	71.69
429.181	89.69
429.403	71.69
429.625	77.69
429.847	79.69
430.069	85.69
430.292	77.69
430.514	88.69
430.736	73.69
430.958	84.69
431.18	87.69
431.402	77.69
431.624	81.69
431.846	77.69
432.068	83.69
432.29	79.69
432.512	78.69
432.734	72.69
432.956	94.69
433.178	94.69
433.4	74.69
433.622	82.69
433.844	91.69
434.066	81.69
434.287	83.69
434.509	87.69
434.731	79.69
434.953	81.69
435.175	79.69
435.397	91.69
435.618	68.69
435.84	76.69
436.062	71.69
436.284	89.69
436.505	89.69
436.727	70.69
436.949	82.69
437.17	91.69
437.392	75.69
437.614	79.69
437.835	76.69
438.057	74.69
438.278	85.69
438.5	93.69
438.721	80.69
438.943	76.69
439.165	83.69
439.386	92.69
439.608	85.69
439.829	80.69
440.05	83.69
440.272	80.69
440.493	85.69
440.715	80.69
440.936	74.69
441.158	79.69
441.379	69.69
441.6	70.69
441.822	79.69
442.043	80.69
442.264	90.69
442.486	82.69
442.707	69.69
442.928	74.69
443.149	81.69
443.371	76.69
443.592	73.69
443.813	75.69
444.034	81.69
444.255	86.69
444.476	76.69
444.698	85.69
444.919	83.69
445.14	154.69
445.361	101.69
445.582	78.69
445.803	65.69
446.024	87.69
446.245	89.69
446.466	85.69
446.687	91.69
446.908	79.69
447.129	88.69
447.35	75.69
447.571	79.69
447.792	82.69
448.013	86.69
448.234	67.69
448.455	73.69
448.675	93.69
448.896	83.69
449.117	82.69
449.338	62.69
449.559	79.69
449.779	75.69
450	71.69
450.221	73.69
450.442	92.69
450.662	89.69
450.883	82.69
451.104	82.69
451.324	81.69
451.545	80.69
451.766	97.69
451.986	82.69
452.207	71.69
452.428	79.69
452.648	87.69
452.869	81.69
453.089	91.69
453.31	62.69
453.53	76.69
453.751	67.69
453.971	79.69
454.192	76.69
454.412	76.69
454.633	97.69
454.853	87.69
455.073	82.69
455.294	75.69
455.514	95.69
455.734	84.69
455.955	83.69
456.175	80.69
456.395	85.69
456.616	88.69
456.836	82.69
457.056	75.69
457.276	71.69
457.497	67.69
457.717	87.69
457.937	81.69
458.157	93.69
458.377	65.69
458.598	74.69
458.818	97.69
459.038	83.69
459.258	83.69
459.478	64.69
459.698	86.69
459.918	76.69
460.138	77.69
460.358	80.69
460.578	79.69
460.798	79.69
461.018	71.69
461.238	62.69
461.458	89.69
461.678	81.69
461.898	85.69
462.118	77.69
462.338	78.69
462.558	67.69
462.777	79.69
462.997	91.69
463.217	65.69
463.437	74.69
463.657	79.69
463.876	75.69
464.096	76.69
464.316	85.69
464.536	77.69
464.755	81.69
464.975	85.69
465.195	77.69
465.414	84.69
465.634	65.69
465.854	76.69
466.073	81.69
466.293	80.69
466.512	85.69
466.732	63.69
466.951	87.69
467.171	81.69
467.391	81.69
467.61	72.69
467.829	61.69
468.049	82.69
468.268	99.69
468.488	85.69
468.707	77.69
468.927	78.69
469.146	64.69
469.365	87.69
469.585	86.69
469.804	60.69
470.023	75.69
470.243	78.69
470.462	74.69
470.681	90.69
470.901	84.69
471.12	79.69
471.339	96.69
471.558	85.69
471.777	85.69
471.997	79.69
472.216	78.69
472.435	77.69
472.654	82.69
472.873	78.69
473.092	69.69
473.311	81.69
473.53	94.69
473.749	77.69
473.968	74.69
474.187	90.69
474.406	76.69
474.625	76.69
474.844	79.69
475.063	83.69
475.282	70.69
475.501	73.69
475.72	83.69
475.939	95.69
476.158	86.69
476.377	105.69
476.596	82.69
476.814	75.69
477.033	74.69
477.252	81.69
477.471	73.69
477.69	85.69
477.908	75.69
478.127	92.69
478.346	83.69
478.564	82.69
478.783	74.69
479.002	85.69
479.22	69.69
479.439	93.69
479.658	83.69
479.876	79.69
480.095	81.69
480.313	81.69
480.532	73.69
480.751	82.69
480.969	74.69
481.188	81.69
481.406	83.69
481.624	88.69
481.843	87.69
482.061	77.69
482.28	87.69
482.498	67.69
482.717	86.69
482.935	75.69
483.153	82.69
483.372	62.69
483.59	85.69
483.808	87.69
484.027	75.69
484.245	90.69
484.463	72.69
484.681	100.69
484.9	65.69
485.118	74.69
485.336	87.69
485.554	82.69
485.772	81.69
485.99	66.69
486.209	79.69
486.427	92.69
486.645	90.69
486.863	88.69
487.081	85.69
487.299	87.69
487.517	91.69
487.735	79.69
487.953	103.69
488.171	93.69
488.389	77.69
488.607	75.69
488.825	70.69
489.043	78.69
489.261	89.69
489.479	78.69
489.696	82.69
489.914	95.69
490.132	82.69
490.35	81.69
490.568	76.69
490.786	74.69
491.003	74.69
491.221	87.69
491.439	86.69
491.657	81.69
491.874	80.69
492.092	69.69
492.31	81.69
492.527	67.69
492.745	65.69
492.963	85.69
493.18	77.69
493.398	83.69
493.615	86.69
493.833	79.69
494.05	90.69
494.268	98.69
494.485	93.69
494.703	83.69
494.92	77.69
495.138	82.69
495.355	75.69
495.573	84.69
495.79	77.69
496.008	76.69
496.225	85.69
496.442	68.69
496.66	78.69
496.877	86.69
497.094	85.69
497.312	83.69
497.529	86.69
497.746	75.69
497.963	96.69
498.181	84.69
498.398	75.69
498.615	79.69
498.832	80.69
499.049	85.69
499.267	104.69
499.484	91.69
499.701	81.69
499.918	86.69
500.135	91.69
500.352	92.69
500.569	80.69
500.786	86.69
501.003	87.69
501.22	78.69
501.437	77.69
501.654	81.69
501.871	67.69
502.088	89.69
502.305	79.69
502.522	79.69
502.739	72.69
502.956	77.69
503.172	83.69
503.389	75.69
503.606	97.69
503.823	77.69
504.04	83.69
504.256	93.69
504.473	84.69
504.69	86.69
504.907	85.69
505.123	82.69
505.34	81.69
505.557	73.69
505.773	87.69
505.99	90.69
506.207	83.69
506.423	79.69
506.64	85.69
506.856	91.69
507.073	78.69
507.289	79.69
507.506	75.69
507.722	82.69
507.939	67.69
508.155	88.69
508.372	69.69
508.588	79.69
508.805	99.69
509.021	81.69
509.238	93.69
509.454	91.69
509.67	74.69
509.887	83.69
510.103	92.69
510.319	79.69
510.536	81.69
510.752	84.69
510.968	84.69
511.184	84.69
511.401	88.69
511.617	81.69
511.833	81.69
512.049	78.69
512.265	83.69
512.481	79.69
512.698	83.69
512.914	75.69
513.13	85.69
513.346	89.69
513.562	81.69
513.778	69.69
513.994	80.69
514.21	68.69
514.426	84.69
514.642	78.69
514.858	85.69
515.074	101.69
515.29	77.69
515.506	80.69
515.721	89.69
515.937	89.69
516.153	91.69
516.369	83.69
516.585	90.69
516.801	95.69
517.016	77.69
517.232	81.69
517.448	77.69
517.664	85.69
517.879	81.69
518.095	94.69
518.311	77.69
518.527	76.69
518.742	76.69
518.958	99.69
519.173	97.69
519.389	89.69
519.605	90.69
519.82	92.69
