Data from Background_2_HRD10591_00077.txt Node
Date: Wed Nov 05 14:47:34 EST 2025
User: Yrep
Spectrometer: HR+D1059
Trigger mode: 1
Integration Time (sec): 1.000000E-1
Scans to average: 1
Electric dark correction enabled: true
Nonlinearity correction enabled: false
Boxcar width: 0
XAxis mode: Wavelengths
Number of Pixels in Spectrum: 2048
>>>>>Begin Spectral Data<<<<<
223.165	-13.62
223.4	-13.62
223.635	-13.62
223.869	-21.62
224.104	-18.62
224.338	-9.62
224.573	-14.62
224.808	-3.62
225.042	-7.62
225.277	-7.62
225.511	-4.62
225.746	1.38
225.98	0.38
226.215	9.38
226.449	0.38
226.683	25.38
226.918	22.38
227.152	42.38
227.387	41.38
227.621	50.38
227.856	56.38
228.09	37.38
228.324	40.38
228.559	38.38
228.793	52.38
229.027	46.38
229.262	53.38
229.496	43.38
229.73	56.38
229.964	67.38
230.199	58.38
230.433	77.38
230.667	83.38
230.901	82.38
231.136	79.38
231.37	80.38
231.604	95.38
231.838	83.38
232.072	75.38
232.306	68.38
232.541	69.38
232.775	73.38
233.009	76.38
233.243	76.38
233.477	67.38
233.711	80.38
233.945	78.38
234.179	88.38
234.413	82.38
234.647	94.38
234.881	79.38
235.115	77.38
235.349	81.38
235.583	84.38
235.817	75.38
236.051	86.38
236.285	79.38
236.519	70.38
236.753	79.38
236.987	88.38
237.221	66.38
237.455	72.38
237.689	73.38
237.922	82.38
238.156	69.38
238.39	81.38
238.624	66.38
238.858	81.38
239.091	82.38
239.325	71.38
239.559	88.38
239.793	70.38
240.027	67.38
240.26	62.38
240.494	76.38
240.728	61.38
240.961	68.38
241.195	73.38
241.429	70.38
241.662	82.38
241.896	91.38
242.13	68.38
242.363	73.38
242.597	63.38
242.83	70.38
243.064	74.38
243.298	62.38
243.531	80.38
243.765	75.38
243.998	84.38
244.232	86.38
244.465	77.38
244.699	85.38
244.932	77.38
245.166	81.38
245.399	70.38
245.633	67.38
245.866	70.38
246.099	64.38
246.333	61.38
246.566	85.38
246.8	85.38
247.033	74.38
247.266	76.38
247.5	69.38
247.733	70.38
247.966	86.38
248.2	80.38
248.433	80.38
248.666	71.38
248.899	80.38
249.133	77.38
249.366	80.38
249.599	76.38
249.832	76.38
250.066	76.38
250.299	86.38
250.532	73.38
250.765	80.38
250.998	93.38
251.231	80.38
251.465	76.38
251.698	75.38
251.931	76.38
252.164	84.38
252.397	68.38
252.63	83.38
252.863	79.38
253.096	73.38
253.329	79.38
253.562	80.38
253.795	81.38
254.028	74.38
254.261	81.38
254.494	88.38
254.727	91.38
254.96	67.38
255.193	83.38
255.426	87.38
255.659	89.38
255.892	83.38
256.124	68.38
256.357	81.38
256.59	68.38
256.823	88.38
257.056	80.38
257.289	82.38
257.521	80.38
257.754	63.38
257.987	61.38
258.22	74.38
258.452	73.38
258.685	84.38
258.918	64.38
259.151	84.38
259.383	86.38
259.616	92.38
259.849	82.38
260.081	80.38
260.314	73.38
260.547	67.38
260.779	88.38
261.012	81.38
261.244	91.38
261.477	93.38
261.71	73.38
261.942	84.38
262.175	69.38
262.407	85.38
262.64	76.38
262.872	104.38
263.105	93.38
263.337	82.38
263.57	70.38
263.802	73.38
264.035	81.38
264.267	83.38
264.499	90.38
264.732	78.38
264.964	80.38
265.197	100.38
265.429	79.38
265.661	85.38
265.894	69.38
266.126	76.38
266.358	90.38
266.591	80.38
266.823	71.38
267.055	89.38
267.287	79.38
267.52	88.38
267.752	92.38
267.984	76.38
268.216	79.38
268.448	80.38
268.681	85.38
268.913	88.38
269.145	90.38
269.377	80.38
269.609	75.38
269.841	83.38
270.073	79.38
270.306	82.38
270.538	92.38
270.77	69.38
271.002	66.38
271.234	88.38
271.466	80.38
271.698	93.38
271.93	82.38
272.162	69.38
272.394	74.38
272.626	78.38
272.858	59.38
273.09	88.38
273.322	76.38
273.553	67.38
273.785	76.38
274.017	86.38
274.249	72.38
274.481	71.38
274.713	75.38
274.945	76.38
275.176	82.38
275.408	80.38
275.64	83.38
275.872	82.38
276.104	84.38
276.335	106.38
276.567	96.38
276.799	68.38
277.031	83.38
277.262	95.38
277.494	77.38
277.726	82.38
277.957	78.38
278.189	70.38
278.421	75.38
278.652	80.38
278.884	79.38
279.115	77.38
279.347	75.38
279.579	89.38
279.81	88.38
280.042	74.38
280.273	82.38
280.505	76.38
280.736	82.38
280.968	90.38
281.199	78.38
281.431	74.38
281.662	97.38
281.894	76.38
282.125	90.38
282.356	84.38
282.588	65.38
282.819	78.38
283.051	78.38
283.282	86.38
283.513	64.38
283.745	67.38
283.976	88.38
284.207	80.38
284.439	89.38
284.67	79.38
284.901	82.38
285.132	74.38
285.364	91.38
285.595	81.38
285.826	66.38
286.057	89.38
286.288	88.38
286.52	80.38
286.751	67.38
286.982	88.38
287.213	70.38
287.444	92.38
287.675	83.38
287.906	75.38
288.138	93.38
288.369	97.38
288.6	79.38
288.831	68.38
289.062	82.38
289.293	90.38
289.524	88.38
289.755	78.38
289.986	91.38
290.217	94.38
290.448	87.38
290.679	89.38
290.91	78.38
291.141	95.38
291.371	87.38
291.602	89.38
291.833	68.38
292.064	91.38
292.295	82.38
292.526	71.38
292.757	94.38
292.987	69.38
293.218	92.38
293.449	84.38
293.68	76.38
293.91	85.38
294.141	85.38
294.372	96.38
294.603	92.38
294.833	92.38
295.064	79.38
295.295	97.38
295.525	76.38
295.756	85.38
295.987	90.38
296.217	90.38
296.448	86.38
296.679	87.38
296.909	83.38
297.14	84.38
297.37	105.38
297.601	81.38
297.831	77.38
298.062	85.38
298.292	94.38
298.523	104.38
298.753	89.38
298.984	80.38
299.214	69.38
299.445	96.38
299.675	84.38
299.905	77.38
300.136	89.38
300.366	90.38
300.597	82.38
300.827	93.38
301.057	76.38
301.288	76.38
301.518	75.38
301.748	92.38
301.979	85.38
302.209	82.38
302.439	90.38
302.669	93.38
302.9	87.38
303.13	81.38
303.36	80.38
303.59	90.38
303.82	77.38
304.051	74.38
304.281	97.38
304.511	80.38
304.741	83.38
304.971	101.38
305.201	98.38
305.431	92.38
305.661	89.38
305.891	77.38
306.121	90.38
306.352	79.38
306.582	77.38
306.812	90.38
307.042	80.38
307.272	84.38
307.502	68.38
307.731	76.38
307.961	84.38
308.191	77.38
308.421	88.38
308.651	74.38
308.881	67.38
309.111	83.38
309.341	88.38
309.571	74.38
309.8	88.38
310.03	83.38
310.26	77.38
310.49	61.38
310.72	85.38
310.949	86.38
311.179	87.38
311.409	80.38
311.639	98.38
311.868	83.38
312.098	76.38
312.328	93.38
312.557	73.38
312.787	70.38
313.017	84.38
313.246	85.38
313.476	78.38
313.706	81.38
313.935	89.38
314.165	89.38
314.394	81.38
314.624	85.38
314.853	88.38
315.083	76.38
315.312	87.38
315.542	94.38
315.771	78.38
316.001	92.38
316.23	88.38
316.46	84.38
316.689	84.38
316.919	91.38
317.148	81.38
317.377	81.38
317.607	89.38
317.836	80.38
318.065	80.38
318.295	82.38
318.524	82.38
318.753	75.38
318.983	94.38
319.212	73.38
319.441	74.38
319.67	92.38
319.9	81.38
320.129	68.38
320.358	78.38
320.587	82.38
320.816	76.38
321.046	82.38
321.275	80.38
321.504	91.38
321.733	96.38
321.962	77.38
322.191	76.38
322.42	77.38
322.649	92.38
322.878	82.38
323.108	80.38
323.337	100.38
323.566	88.38
323.795	81.38
324.024	81.38
324.253	80.38
324.482	90.38
324.71	89.38
324.939	85.38
325.168	82.38
325.397	82.38
325.626	72.38
325.855	99.38
326.084	75.38
326.313	91.38
326.542	84.38
326.77	80.38
326.999	88.38
327.228	75.38
327.457	72.38
327.686	92.38
327.914	82.38
328.143	74.38
328.372	89.38
328.6	84.38
328.829	85.38
329.058	79.38
329.287	88.38
329.515	80.38
329.744	81.38
329.972	79.38
330.201	89.38
330.43	66.38
330.658	91.38
330.887	93.38
331.115	82.38
331.344	95.38
331.572	92.38
331.801	87.38
332.03	68.38
332.258	66.38
332.486	85.38
332.715	70.38
332.943	91.38
333.172	93.38
333.4	87.38
333.629	83.38
333.857	71.38
334.085	88.38
334.314	96.38
334.542	86.38
334.771	80.38
334.999	86.38
335.227	76.38
335.455	98.38
335.684	91.38
335.912	84.38
336.14	84.38
336.369	80.38
336.597	78.38
336.825	86.38
337.053	70.38
337.281	77.38
337.51	81.38
337.738	80.38
337.966	88.38
338.194	83.38
338.422	70.38
338.65	82.38
338.878	83.38
339.106	88.38
339.334	69.38
339.562	78.38
339.79	72.38
340.018	85.38
340.246	94.38
340.474	85.38
340.702	77.38
340.93	92.38
341.158	82.38
341.386	84.38
341.614	93.38
341.842	76.38
342.07	93.38
342.298	75.38
342.526	65.38
342.754	68.38
342.981	92.38
343.209	68.38
343.437	94.38
343.665	82.38
343.893	86.38
344.12	75.38
344.348	98.38
344.576	72.38
344.804	83.38
345.031	75.38
345.259	84.38
345.487	82.38
345.714	81.38
345.942	76.38
346.17	91.38
346.397	83.38
346.625	77.38
346.853	89.38
347.08	100.38
347.308	89.38
347.535	80.38
347.763	85.38
347.99	85.38
348.218	78.38
348.445	70.38
348.673	84.38
348.9	76.38
349.128	79.38
349.355	79.38
349.583	81.38
349.81	82.38
350.037	75.38
350.265	84.38
350.492	80.38
350.72	91.38
350.947	88.38
351.174	73.38
351.402	88.38
351.629	88.38
351.856	81.38
352.083	88.38
352.311	74.38
352.538	77.38
352.765	69.38
352.992	89.38
353.22	76.38
353.447	78.38
353.674	86.38
353.901	84.38
354.128	93.38
354.355	76.38
354.583	75.38
354.81	87.38
355.037	81.38
355.264	90.38
355.491	77.38
355.718	87.38
355.945	88.38
356.172	90.38
356.399	79.38
356.626	92.38
356.853	73.38
357.08	91.38
357.307	83.38
357.534	76.38
357.761	85.38
357.988	82.38
358.215	84.38
358.441	78.38
358.668	89.38
358.895	79.38
359.122	71.38
359.349	63.38
359.576	78.38
359.802	81.38
360.029	85.38
360.256	86.38
360.483	81.38
360.709	81.38
360.936	74.38
361.163	75.38
361.39	82.38
361.616	69.38
361.843	76.38
362.07	72.38
362.296	73.38
362.523	83.38
362.749	90.38
362.976	76.38
363.203	92.38
363.429	74.38
363.656	76.38
363.882	68.38
364.109	87.38
364.335	78.38
364.562	102.38
364.788	82.38
365.015	56.38
365.241	80.38
365.468	77.38
365.694	80.38
365.92	83.38
366.147	91.38
366.373	95.38
366.599	90.38
366.826	92.38
367.052	75.38
367.278	92.38
367.505	76.38
367.731	87.38
367.957	68.38
368.184	74.38
368.41	92.38
368.636	80.38
368.862	70.38
369.089	76.38
369.315	90.38
369.541	86.38
369.767	100.38
369.993	95.38
370.219	79.38
370.445	76.38
370.672	82.38
370.898	100.38
371.124	74.38
371.35	76.38
371.576	77.38
371.802	89.38
372.028	81.38
372.254	79.38
372.48	85.38
372.706	85.38
372.932	87.38
373.158	62.38
373.384	74.38
373.61	66.38
373.835	89.38
374.061	69.38
374.287	85.38
374.513	68.38
374.739	65.38
374.965	72.38
375.191	82.38
375.416	89.38
375.642	80.38
375.868	78.38
376.094	88.38
376.319	84.38
376.545	77.38
376.771	77.38
376.997	81.38
377.222	66.38
377.448	92.38
377.674	65.38
377.899	92.38
378.125	76.38
378.35	86.38
378.576	82.38
378.802	90.38
379.027	86.38
379.253	85.38
379.478	82.38
379.704	78.38
379.929	81.38
380.155	91.38
380.38	80.38
380.606	68.38
380.831	88.38
381.057	87.38
381.282	66.38
381.507	72.38
381.733	86.38
381.958	84.38
382.184	78.38
382.409	71.38
382.634	73.38
382.86	75.38
383.085	84.38
383.31	76.38
383.535	77.38
383.761	77.38
383.986	82.38
384.211	82.38
384.436	84.38
384.662	88.38
384.887	81.38
385.112	88.38
385.337	67.38
385.562	72.38
385.787	64.38
386.013	80.38
386.238	80.38
386.463	87.38
386.688	93.38
386.913	97.38
387.138	81.38
387.363	82.38
387.588	75.38
387.813	83.38
388.038	83.38
388.263	83.38
388.488	80.38
388.713	80.38
388.938	84.38
389.163	83.38
389.387	71.38
389.612	83.38
389.837	83.38
390.062	92.38
390.287	83.38
390.512	76.38
390.736	79.38
390.961	75.38
391.186	81.38
391.411	65.38
391.636	73.38
391.86	87.38
392.085	76.38
392.31	89.38
392.534	74.38
392.759	66.38
392.984	93.38
393.208	90.38
393.433	57.38
393.658	76.38
393.882	76.38
394.107	81.38
394.331	82.38
394.556	75.38
394.78	66.38
395.005	69.38
395.229	94.38
395.454	99.38
395.678	80.38
395.903	93.38
396.127	75.38
396.352	74.38
396.576	72.38
396.801	81.38
397.025	86.38
397.249	86.38
397.474	60.38
397.698	85.38
397.922	77.38
398.147	99.38
398.371	76.38
398.595	84.38
398.82	78.38
399.044	89.38
399.268	76.38
399.492	72.38
399.717	82.38
399.941	77.38
400.165	85.38
400.389	77.38
400.613	75.38
400.837	71.38
401.062	65.38
401.286	78.38
401.51	52.38
401.734	68.38
401.958	71.38
402.182	67.38
402.406	78.38
402.63	84.38
402.854	75.38
403.078	78.38
403.302	70.38
403.526	80.38
403.75	80.38
403.974	76.38
404.198	74.38
404.422	91.38
404.645	73.38
404.869	63.38
405.093	80.38
405.317	89.38
405.541	60.38
405.765	81.38
405.988	88.38
406.212	76.38
406.436	81.38
406.66	82.38
406.883	86.38
407.107	83.38
407.331	78.38
407.555	74.38
407.778	89.38
408.002	86.38
408.226	88.38
408.449	70.38
408.673	85.38
408.896	82.38
409.12	82.38
409.344	75.38
409.567	70.38
409.791	92.38
410.014	70.38
410.238	81.38
410.461	80.38
410.685	95.38
410.908	72.38
411.132	78.38
411.355	61.38
411.578	106.38
411.802	76.38
412.025	84.38
412.249	86.38
412.472	67.38
412.695	61.38
412.919	82.38
413.142	79.38
413.365	80.38
413.589	99.38
413.812	79.38
414.035	93.38
414.258	76.38
414.482	74.38
414.705	100.38
414.928	64.38
415.151	66.38
415.374	88.38
415.597	69.38
415.821	83.38
416.044	72.38
416.267	81.38
416.49	64.38
416.713	70.38
416.936	81.38
417.159	69.38
417.382	83.38
417.605	73.38
417.828	64.38
418.051	85.38
418.274	85.38
418.497	76.38
418.72	68.38
418.943	84.38
419.166	81.38
419.389	84.38
419.611	68.38
419.834	81.38
420.057	94.38
420.28	88.38
420.503	76.38
420.726	63.38
420.948	74.38
421.171	76.38
421.394	80.38
421.617	67.38
421.839	83.38
422.062	81.38
422.285	81.38
422.507	70.38
422.73	77.38
422.953	75.38
423.175	79.38
423.398	76.38
423.621	83.38
423.843	78.38
424.066	89.38
424.288	81.38
424.511	84.38
424.733	76.38
424.956	70.38
425.178	82.38
425.401	78.38
425.623	75.38
425.846	93.38
426.068	82.38
426.291	79.38
426.513	94.38
426.735	99.38
426.958	73.38
427.18	82.38
427.402	83.38
427.625	86.38
427.847	72.38
428.069	72.38
428.292	67.38
428.514	71.38
428.736	75.38
428.958	91.38
429.181	78.38
429.403	82.38
429.625	72.38
429.847	76.38
430.069	84.38
430.292	80.38
430.514	74.38
430.736	78.38
430.958	63.38
431.18	65.38
431.402	83.38
431.624	78.38
431.846	69.38
432.068	90.38
432.29	75.38
432.512	67.38
432.734	63.38
432.956	73.38
433.178	89.38
433.4	77.38
433.622	70.38
433.844	76.38
434.066	76.38
434.287	84.38
434.509	81.38
434.731	80.38
434.953	82.38
435.175	75.38
435.397	85.38
435.618	80.38
435.84	85.38
436.062	80.38
436.284	75.38
436.505	83.38
436.727	77.38
436.949	85.38
437.17	74.38
437.392	80.38
437.614	62.38
437.835	65.38
438.057	82.38
438.278	80.38
438.5	68.38
438.721	75.38
438.943	86.38
439.165	88.38
439.386	83.38
439.608	85.38
439.829	85.38
440.05	89.38
440.272	72.38
440.493	86.38
440.715	74.38
440.936	86.38
441.158	73.38
441.379	81.38
441.6	78.38
441.822	68.38
442.043	65.38
442.264	70.38
442.486	88.38
442.707	75.38
442.928	68.38
443.149	84.38
443.371	76.38
443.592	77.38
443.813	83.38
444.034	71.38
444.255	70.38
444.476	72.38
444.698	95.38
444.919	73.38
445.14	156.38
445.361	108.38
445.582	76.38
445.803	76.38
446.024	82.38
446.245	90.38
446.466	84.38
446.687	88.38
446.908	78.38
447.129	71.38
447.35	75.38
447.571	63.38
447.792	77.38
448.013	92.38
448.234	81.38
448.455	71.38
448.675	86.38
448.896	69.38
449.117	81.38
449.338	91.38
449.559	82.38
449.779	80.38
450	77.38
450.221	79.38
450.442	91.38
450.662	83.38
450.883	73.38
451.104	75.38
451.324	70.38
451.545	86.38
451.766	80.38
451.986	69.38
452.207	76.38
452.428	88.38
452.648	73.38
452.869	88.38
453.089	86.38
453.31	76.38
453.53	75.38
453.751	86.38
453.971	84.38
454.192	80.38
454.412	57.38
454.633	75.38
454.853	71.38
455.073	60.38
455.294	76.38
455.514	91.38
455.734	76.38
455.955	81.38
456.175	82.38
456.395	86.38
456.616	82.38
456.836	76.38
457.056	85.38
457.276	75.38
457.497	69.38
457.717	78.38
457.937	73.38
458.157	73.38
458.377	67.38
458.598	76.38
458.818	74.38
459.038	81.38
459.258	72.38
459.478	76.38
459.698	77.38
459.918	79.38
460.138	83.38
460.358	88.38
460.578	81.38
460.798	77.38
461.018	66.38
461.238	73.38
461.458	75.38
461.678	76.38
461.898	79.38
462.118	74.38
462.338	84.38
462.558	75.38
462.777	74.38
462.997	92.38
463.217	85.38
463.437	72.38
463.657	88.38
463.876	89.38
464.096	83.38
464.316	82.38
464.536	86.38
464.755	98.38
464.975	70.38
465.195	88.38
465.414	76.38
465.634	80.38
465.854	75.38
466.073	80.38
466.293	76.38
466.512	79.38
466.732	67.38
466.951	72.38
467.171	80.38
467.391	79.38
467.61	67.38
467.829	62.38
468.049	69.38
468.268	72.38
468.488	81.38
468.707	85.38
468.927	79.38
469.146	92.38
469.365	60.38
469.585	64.38
469.804	63.38
470.023	77.38
470.243	82.38
470.462	73.38
470.681	76.38
470.901	75.38
471.12	81.38
471.339	84.38
471.558	67.38
471.777	78.38
471.997	62.38
472.216	85.38
472.435	90.38
472.654	72.38
472.873	74.38
473.092	82.38
473.311	63.38
473.53	81.38
473.749	78.38
473.968	72.38
474.187	76.38
474.406	83.38
474.625	82.38
474.844	85.38
475.063	83.38
475.282	91.38
475.501	79.38
475.72	85.38
475.939	84.38
476.158	65.38
476.377	92.38
476.596	95.38
476.814	84.38
477.033	84.38
477.252	78.38
477.471	73.38
477.69	83.38
477.908	74.38
478.127	80.38
478.346	79.38
478.564	100.38
478.783	82.38
479.002	86.38
479.22	90.38
479.439	74.38
479.658	83.38
479.876	78.38
480.095	71.38
480.313	83.38
480.532	73.38
480.751	85.38
480.969	90.38
481.188	68.38
481.406	78.38
481.624	75.38
481.843	69.38
482.061	80.38
482.28	77.38
482.498	91.38
482.717	101.38
482.935	89.38
483.153	76.38
483.372	68.38
483.59	73.38
483.808	80.38
484.027	66.38
484.245	81.38
484.463	74.38
484.681	83.38
484.9	73.38
485.118	84.38
485.336	76.38
485.554	76.38
485.772	67.38
485.99	84.38
486.209	90.38
486.427	78.38
486.645	77.38
486.863	77.38
487.081	85.38
487.299	80.38
487.517	84.38
487.735	70.38
487.953	97.38
488.171	80.38
488.389	84.38
488.607	78.38
488.825	88.38
489.043	66.38
489.261	83.38
489.479	68.38
489.696	70.38
489.914	80.38
490.132	87.38
490.35	68.38
490.568	71.38
490.786	85.38
491.003	83.38
491.221	79.38
491.439	79.38
491.657	78.38
491.874	67.38
492.092	82.38
492.31	70.38
492.527	79.38
492.745	76.38
492.963	76.38
493.18	76.38
493.398	76.38
493.615	77.38
493.833	97.38
494.05	86.38
494.268	77.38
494.485	82.38
494.703	78.38
494.92	89.38
495.138	71.38
495.355	79.38
495.573	75.38
495.79	75.38
496.008	70.38
496.225	75.38
496.442	84.38
496.66	82.38
496.877	77.38
497.094	78.38
497.312	95.38
497.529	74.38
497.746	86.38
497.963	99.38
498.181	100.38
498.398	84.38
498.615	81.38
498.832	71.38
499.049	90.38
499.267	82.38
499.484	85.38
499.701	78.38
499.918	72.38
500.135	92.38
500.352	69.38
500.569	70.38
500.786	60.38
501.003	78.38
501.22	70.38
501.437	91.38
501.654	79.38
501.871	77.38
502.088	88.38
502.305	91.38
502.522	69.38
502.739	68.38
502.956	87.38
503.172	88.38
503.389	81.38
503.606	78.38
503.823	79.38
504.04	86.38
504.256	88.38
504.473	76.38
504.69	68.38
504.907	69.38
505.123	72.38
505.34	74.38
505.557	80.38
505.773	77.38
505.99	82.38
506.207	93.38
506.423	87.38
506.64	86.38
506.856	80.38
507.073	78.38
507.289	87.38
507.506	76.38
507.722	90.38
507.939	86.38
508.155	94.38
508.372	78.38
508.588	76.38
508.805	96.38
509.021	87.38
509.238	74.38
509.454	92.38
509.67	86.38
509.887	80.38
510.103	90.38
510.319	84.38
510.536	72.38
510.752	73.38
510.968	75.38
511.184	84.38
511.401	88.38
511.617	84.38
511.833	83.38
512.049	88.38
512.265	89.38
512.481	75.38
512.698	69.38
512.914	72.38
513.13	87.38
513.346	89.38
513.562	75.38
513.778	73.38
513.994	69.38
514.21	83.38
514.426	82.38
514.642	82.38
514.858	84.38
515.074	73.38
515.29	87.38
515.506	76.38
515.721	82.38
515.937	91.38
516.153	90.38
516.369	85.38
516.585	75.38
516.801	81.38
517.016	97.38
517.232	91.38
517.448	70.38
517.664	82.38
517.879	92.38
518.095	78.38
518.311	73.38
518.527	70.38
518.742	84.38
518.958	81.38
519.173	86.38
519.389	68.38
519.605	86.38
519.82	89.38
520.036	71.38
