Data from Background_2_HRD10591_00028.txt Node
Date: Wed Nov 05 14:47:11 EST 2025
User: Yrep
Spectrometer: HR+D1059
Trigger mode: 1
Integration Time (sec): 1.000000E-1
Scans to average: 1
Electric dark correction enabled: true
Nonlinearity correction enabled: false
Boxcar width: 0
XAxis mode: Wavelengths
Number of Pixels in Spectrum: 2048
>>>>>Begin Spectral Data<<<<<
223.165	-17.44
223.4	-17.44
223.635	-17.44
223.869	-14.44
224.104	-13.44
224.338	-12.44
224.573	-6.44
224.808	-24.44
225.042	-10.44
225.277	-12.44
225.511	-2.44
225.746	4.56
225.98	8.56
226.215	21.56
226.449	6.56
226.683	21.56
226.918	20.56
227.152	30.56
227.387	40.56
227.621	45.56
227.856	41.56
228.09	66.56
228.324	70.56
228.559	66.56
228.793	58.56
229.027	65.56
229.262	56.56
229.496	73.56
229.73	70.56
229.964	61.56
230.199	82.56
230.433	78.56
230.667	88.56
230.901	85.56
231.136	76.56
231.37	83.56
231.604	86.56
231.838	75.56
232.072	89.56
232.306	90.56
232.541	81.56
232.775	80.56
233.009	80.56
233.243	75.56
233.477	79.56
233.711	95.56
233.945	81.56
234.179	96.56
234.413	84.56
234.647	90.56
234.881	82.56
235.115	67.56
235.349	78.56
235.583	69.56
235.817	82.56
236.051	74.56
236.285	73.56
236.519	78.56
236.753	82.56
236.987	88.56
237.221	93.56
237.455	78.56
237.689	67.56
237.922	54.56
238.156	72.56
238.39	81.56
238.624	84.56
238.858	81.56
239.091	89.56
239.325	64.56
239.559	72.56
239.793	64.56
240.027	73.56
240.26	76.56
240.494	87.56
240.728	77.56
240.961	74.56
241.195	95.56
241.429	94.56
241.662	70.56
241.896	75.56
242.13	78.56
242.363	74.56
242.597	78.56
242.83	95.56
243.064	83.56
243.298	96.56
243.531	74.56
243.765	78.56
243.998	86.56
244.232	82.56
244.465	84.56
244.699	82.56
244.932	78.56
245.166	94.56
245.399	78.56
245.633	88.56
245.866	78.56
246.099	76.56
246.333	76.56
246.566	73.56
246.8	82.56
247.033	74.56
247.266	79.56
247.5	68.56
247.733	83.56
247.966	73.56
248.2	83.56
248.433	72.56
248.666	86.56
248.899	101.56
249.133	68.56
249.366	77.56
249.599	76.56
249.832	96.56
250.066	70.56
250.299	80.56
250.532	86.56
250.765	69.56
250.998	73.56
251.231	90.56
251.465	83.56
251.698	89.56
251.931	65.56
252.164	83.56
252.397	80.56
252.63	82.56
252.863	89.56
253.096	89.56
253.329	75.56
253.562	82.56
253.795	82.56
254.028	92.56
254.261	80.56
254.494	86.56
254.727	98.56
254.96	92.56
255.193	96.56
255.426	76.56
255.659	83.56
255.892	87.56
256.124	77.56
256.357	78.56
256.59	84.56
256.823	87.56
257.056	76.56
257.289	71.56
257.521	97.56
257.754	99.56
257.987	76.56
258.22	78.56
258.452	84.56
258.685	70.56
258.918	78.56
259.151	70.56
259.383	82.56
259.616	71.56
259.849	84.56
260.081	70.56
260.314	94.56
260.547	83.56
260.779	80.56
261.012	91.56
261.244	62.56
261.477	82.56
261.71	69.56
261.942	80.56
262.175	94.56
262.407	84.56
262.64	75.56
262.872	89.56
263.105	85.56
263.337	87.56
263.57	84.56
263.802	92.56
264.035	82.56
264.267	76.56
264.499	85.56
264.732	73.56
264.964	90.56
265.197	67.56
265.429	81.56
265.661	80.56
265.894	79.56
266.126	95.56
266.358	98.56
266.591	89.56
266.823	89.56
267.055	83.56
267.287	85.56
267.52	77.56
267.752	82.56
267.984	98.56
268.216	77.56
268.448	89.56
268.681	81.56
268.913	79.56
269.145	85.56
269.377	77.56
269.609	83.56
269.841	80.56
270.073	86.56
270.306	85.56
270.538	101.56
270.77	80.56
271.002	86.56
271.234	83.56
271.466	88.56
271.698	84.56
271.93	86.56
272.162	83.56
272.394	78.56
272.626	85.56
272.858	89.56
273.09	100.56
273.322	93.56
273.553	86.56
273.785	94.56
274.017	87.56
274.249	77.56
274.481	73.56
274.713	81.56
274.945	85.56
275.176	80.56
275.408	78.56
275.64	84.56
275.872	92.56
276.104	87.56
276.335	97.56
276.567	83.56
276.799	82.56
277.031	78.56
277.262	81.56
277.494	89.56
277.726	75.56
277.957	81.56
278.189	84.56
278.421	90.56
278.652	95.56
278.884	81.56
279.115	82.56
279.347	84.56
279.579	84.56
279.81	82.56
280.042	97.56
280.273	92.56
280.505	76.56
280.736	73.56
280.968	66.56
281.199	84.56
281.431	90.56
281.662	77.56
281.894	93.56
282.125	80.56
282.356	84.56
282.588	82.56
282.819	87.56
283.051	81.56
283.282	90.56
283.513	94.56
283.745	70.56
283.976	76.56
284.207	80.56
284.439	82.56
284.67	84.56
284.901	78.56
285.132	87.56
285.364	96.56
285.595	65.56
285.826	81.56
286.057	96.56
286.288	81.56
286.52	77.56
286.751	92.56
286.982	92.56
287.213	70.56
287.444	96.56
287.675	97.56
287.906	89.56
288.138	99.56
288.369	76.56
288.6	85.56
288.831	92.56
289.062	100.56
289.293	86.56
289.524	88.56
289.755	74.56
289.986	101.56
290.217	84.56
290.448	82.56
290.679	80.56
290.91	90.56
291.141	77.56
291.371	94.56
291.602	87.56
291.833	88.56
292.064	93.56
292.295	83.56
292.526	90.56
292.757	93.56
292.987	99.56
293.218	83.56
293.449	91.56
293.68	75.56
293.91	69.56
294.141	98.56
294.372	91.56
294.603	77.56
294.833	86.56
295.064	84.56
295.295	81.56
295.525	72.56
295.756	109.56
295.987	75.56
296.217	84.56
296.448	87.56
296.679	88.56
296.909	88.56
297.14	86.56
297.37	98.56
297.601	80.56
297.831	82.56
298.062	74.56
298.292	78.56
298.523	88.56
298.753	88.56
298.984	88.56
299.214	97.56
299.445	91.56
299.675	88.56
299.905	103.56
300.136	78.56
300.366	74.56
300.597	81.56
300.827	84.56
301.057	88.56
301.288	87.56
301.518	75.56
301.748	92.56
301.979	92.56
302.209	92.56
302.439	87.56
302.669	91.56
302.9	88.56
303.13	76.56
303.36	91.56
303.59	82.56
303.82	100.56
304.051	101.56
304.281	92.56
304.511	90.56
304.741	93.56
304.971	92.56
305.201	93.56
305.431	102.56
305.661	94.56
305.891	88.56
306.121	82.56
306.352	89.56
306.582	89.56
306.812	102.56
307.042	80.56
307.272	90.56
307.502	101.56
307.731	93.56
307.961	84.56
308.191	89.56
308.421	89.56
308.651	84.56
308.881	87.56
309.111	71.56
309.341	81.56
309.571	88.56
309.8	91.56
310.03	93.56
310.26	99.56
310.49	87.56
310.72	81.56
310.949	75.56
311.179	92.56
311.409	83.56
311.639	82.56
311.868	82.56
312.098	75.56
312.328	87.56
312.557	89.56
312.787	88.56
313.017	83.56
313.246	92.56
313.476	78.56
313.706	81.56
313.935	96.56
314.165	92.56
314.394	96.56
314.624	90.56
314.853	89.56
315.083	85.56
315.312	93.56
315.542	92.56
315.771	88.56
316.001	96.56
316.23	88.56
316.46	92.56
316.689	75.56
316.919	98.56
317.148	83.56
317.377	78.56
317.607	90.56
317.836	90.56
318.065	83.56
318.295	85.56
318.524	91.56
318.753	83.56
318.983	91.56
319.212	80.56
319.441	79.56
319.67	77.56
319.9	84.56
320.129	86.56
320.358	94.56
320.587	95.56
320.816	77.56
321.046	80.56
321.275	85.56
321.504	72.56
321.733	81.56
321.962	92.56
322.191	89.56
322.42	90.56
322.649	86.56
322.878	80.56
323.108	80.56
323.337	76.56
323.566	85.56
323.795	93.56
324.024	80.56
324.253	84.56
324.482	86.56
324.71	70.56
324.939	84.56
325.168	80.56
325.397	83.56
325.626	99.56
325.855	85.56
326.084	91.56
326.313	93.56
326.542	80.56
326.77	86.56
326.999	98.56
327.228	92.56
327.457	108.56
327.686	83.56
327.914	87.56
328.143	83.56
328.372	80.56
328.6	87.56
328.829	86.56
329.058	99.56
329.287	90.56
329.515	78.56
329.744	77.56
329.972	85.56
330.201	88.56
330.43	98.56
330.658	94.56
330.887	89.56
331.115	88.56
331.344	85.56
331.572	94.56
331.801	86.56
332.03	85.56
332.258	96.56
332.486	95.56
332.715	85.56
332.943	88.56
333.172	84.56
333.4	82.56
333.629	84.56
333.857	82.56
334.085	88.56
334.314	75.56
334.542	80.56
334.771	93.56
334.999	96.56
335.227	86.56
335.455	102.56
335.684	102.56
335.912	81.56
336.14	92.56
336.369	81.56
336.597	88.56
336.825	88.56
337.053	101.56
337.281	92.56
337.51	92.56
337.738	85.56
337.966	74.56
338.194	88.56
338.422	89.56
338.65	97.56
338.878	96.56
339.106	83.56
339.334	91.56
339.562	79.56
339.79	87.56
340.018	87.56
340.246	74.56
340.474	72.56
340.702	99.56
340.93	79.56
341.158	80.56
341.386	86.56
341.614	87.56
341.842	88.56
342.07	77.56
342.298	104.56
342.526	99.56
342.754	97.56
342.981	84.56
343.209	85.56
343.437	93.56
343.665	71.56
343.893	85.56
344.12	80.56
344.348	80.56
344.576	82.56
344.804	71.56
345.031	87.56
345.259	86.56
345.487	88.56
345.714	80.56
345.942	92.56
346.17	70.56
346.397	96.56
346.625	78.56
346.853	86.56
347.08	83.56
347.308	84.56
347.535	100.56
347.763	90.56
347.99	92.56
348.218	85.56
348.445	83.56
348.673	80.56
348.9	93.56
349.128	93.56
349.355	77.56
349.583	98.56
349.81	88.56
350.037	84.56
350.265	86.56
350.492	72.56
350.72	86.56
350.947	77.56
351.174	99.56
351.402	76.56
351.629	88.56
351.856	89.56
352.083	81.56
352.311	100.56
352.538	83.56
352.765	86.56
352.992	83.56
353.22	82.56
353.447	92.56
353.674	92.56
353.901	73.56
354.128	85.56
354.355	78.56
354.583	89.56
354.81	80.56
355.037	60.56
355.264	83.56
355.491	92.56
355.718	87.56
355.945	84.56
356.172	93.56
356.399	80.56
356.626	95.56
356.853	80.56
357.08	89.56
357.307	88.56
357.534	94.56
357.761	101.56
357.988	95.56
358.215	85.56
358.441	78.56
358.668	81.56
358.895	80.56
359.122	75.56
359.349	86.56
359.576	94.56
359.802	74.56
360.029	85.56
360.256	88.56
360.483	93.56
360.709	84.56
360.936	89.56
361.163	81.56
361.39	104.56
361.616	83.56
361.843	91.56
362.07	78.56
362.296	97.56
362.523	94.56
362.749	90.56
362.976	87.56
363.203	85.56
363.429	83.56
363.656	78.56
363.882	96.56
364.109	91.56
364.335	97.56
364.562	88.56
364.788	87.56
365.015	73.56
365.241	73.56
365.468	94.56
365.694	87.56
365.92	80.56
366.147	71.56
366.373	73.56
366.599	94.56
366.826	90.56
367.052	80.56
367.278	86.56
367.505	92.56
367.731	84.56
367.957	83.56
368.184	84.56
368.41	92.56
368.636	80.56
368.862	79.56
369.089	89.56
369.315	84.56
369.541	84.56
369.767	77.56
369.993	92.56
370.219	88.56
370.445	74.56
370.672	80.56
370.898	82.56
371.124	91.56
371.35	79.56
371.576	73.56
371.802	88.56
372.028	92.56
372.254	77.56
372.48	85.56
372.706	76.56
372.932	78.56
373.158	81.56
373.384	97.56
373.61	85.56
373.835	89.56
374.061	73.56
374.287	89.56
374.513	75.56
374.739	85.56
374.965	80.56
375.191	86.56
375.416	85.56
375.642	94.56
375.868	84.56
376.094	99.56
376.319	94.56
376.545	88.56
376.771	96.56
376.997	78.56
377.222	87.56
377.448	81.56
377.674	101.56
377.899	76.56
378.125	80.56
378.35	103.56
378.576	78.56
378.802	79.56
379.027	69.56
379.253	92.56
379.478	88.56
379.704	78.56
379.929	83.56
380.155	71.56
380.38	84.56
380.606	78.56
380.831	77.56
381.057	88.56
381.282	90.56
381.507	100.56
381.733	93.56
381.958	81.56
382.184	86.56
382.409	88.56
382.634	85.56
382.86	89.56
383.085	90.56
383.31	80.56
383.535	77.56
383.761	81.56
383.986	105.56
384.211	92.56
384.436	81.56
384.662	92.56
384.887	99.56
385.112	88.56
385.337	84.56
385.562	67.56
385.787	84.56
386.013	98.56
386.238	96.56
386.463	70.56
386.688	88.56
386.913	89.56
387.138	89.56
387.363	90.56
387.588	100.56
387.813	80.56
388.038	98.56
388.263	84.56
388.488	87.56
388.713	92.56
388.938	88.56
389.163	86.56
389.387	75.56
389.612	80.56
389.837	91.56
390.062	82.56
390.287	102.56
390.512	92.56
390.736	81.56
390.961	85.56
391.186	89.56
391.411	76.56
391.636	68.56
391.86	81.56
392.085	92.56
392.31	99.56
392.534	81.56
392.759	88.56
392.984	79.56
393.208	79.56
393.433	73.56
393.658	84.56
393.882	85.56
394.107	89.56
394.331	89.56
394.556	86.56
394.78	90.56
395.005	78.56
395.229	81.56
395.454	75.56
395.678	87.56
395.903	77.56
396.127	84.56
396.352	83.56
396.576	82.56
396.801	88.56
397.025	95.56
397.249	95.56
397.474	92.56
397.698	82.56
397.922	85.56
398.147	70.56
398.371	79.56
398.595	100.56
398.82	77.56
399.044	74.56
399.268	88.56
399.492	80.56
399.717	86.56
399.941	87.56
400.165	100.56
400.389	90.56
400.613	84.56
400.837	91.56
401.062	81.56
401.286	88.56
401.51	73.56
401.734	85.56
401.958	74.56
402.182	101.56
402.406	79.56
402.63	79.56
402.854	73.56
403.078	87.56
403.302	89.56
403.526	97.56
403.75	87.56
403.974	83.56
404.198	101.56
404.422	92.56
404.645	92.56
404.869	81.56
405.093	75.56
405.317	97.56
405.541	92.56
405.765	78.56
405.988	83.56
406.212	82.56
406.436	83.56
406.66	92.56
406.883	85.56
407.107	85.56
407.331	98.56
407.555	85.56
407.778	79.56
408.002	92.56
408.226	88.56
408.449	74.56
408.673	82.56
408.896	73.56
409.12	71.56
409.344	80.56
409.567	92.56
409.791	80.56
410.014	73.56
410.238	82.56
410.461	81.56
410.685	89.56
410.908	85.56
411.132	81.56
411.355	93.56
411.578	84.56
411.802	77.56
412.025	78.56
412.249	75.56
412.472	84.56
412.695	78.56
412.919	87.56
413.142	75.56
413.365	96.56
413.589	86.56
413.812	87.56
414.035	88.56
414.258	95.56
414.482	84.56
414.705	82.56
414.928	73.56
415.151	76.56
415.374	72.56
415.597	91.56
415.821	88.56
416.044	84.56
416.267	69.56
416.49	91.56
416.713	74.56
416.936	80.56
417.159	77.56
417.382	88.56
417.605	85.56
417.828	94.56
418.051	85.56
418.274	74.56
418.497	77.56
418.72	68.56
418.943	86.56
419.166	87.56
419.389	70.56
419.611	72.56
419.834	74.56
420.057	68.56
420.28	78.56
420.503	90.56
420.726	87.56
420.948	72.56
421.171	77.56
421.394	96.56
421.617	87.56
421.839	93.56
422.062	92.56
422.285	93.56
422.507	86.56
422.73	90.56
422.953	86.56
423.175	83.56
423.398	92.56
423.621	85.56
423.843	82.56
424.066	78.56
424.288	93.56
424.511	93.56
424.733	71.56
424.956	87.56
425.178	74.56
425.401	88.56
425.623	69.56
425.846	80.56
426.068	64.56
426.291	92.56
426.513	93.56
426.735	94.56
426.958	60.56
427.18	83.56
427.402	80.56
427.625	86.56
427.847	83.56
428.069	77.56
428.292	79.56
428.514	91.56
428.736	75.56
428.958	80.56
429.181	66.56
429.403	73.56
429.625	84.56
429.847	88.56
430.069	66.56
430.292	74.56
430.514	85.56
430.736	94.56
430.958	86.56
431.18	75.56
431.402	96.56
431.624	82.56
431.846	95.56
432.068	92.56
432.29	83.56
432.512	73.56
432.734	78.56
432.956	88.56
433.178	75.56
433.4	92.56
433.622	95.56
433.844	85.56
434.066	70.56
434.287	75.56
434.509	82.56
434.731	92.56
434.953	80.56
435.175	89.56
435.397	81.56
435.618	85.56
435.84	86.56
436.062	89.56
436.284	98.56
436.505	102.56
436.727	85.56
436.949	97.56
437.17	86.56
437.392	81.56
437.614	84.56
437.835	94.56
438.057	90.56
438.278	79.56
438.5	79.56
438.721	78.56
438.943	86.56
439.165	73.56
439.386	76.56
439.608	92.56
439.829	93.56
440.05	80.56
440.272	70.56
440.493	82.56
440.715	82.56
440.936	83.56
441.158	80.56
441.379	90.56
441.6	92.56
441.822	92.56
442.043	82.56
442.264	75.56
442.486	85.56
442.707	96.56
442.928	80.56
443.149	90.56
443.371	81.56
443.592	94.56
443.813	86.56
444.034	86.56
444.255	80.56
444.476	92.56
444.698	86.56
444.919	86.56
445.14	162.56
445.361	116.56
445.582	88.56
445.803	83.56
446.024	84.56
446.245	80.56
446.466	93.56
446.687	74.56
446.908	82.56
447.129	88.56
447.35	85.56
447.571	95.56
447.792	70.56
448.013	78.56
448.234	86.56
448.455	86.56
448.675	95.56
448.896	74.56
449.117	74.56
449.338	76.56
449.559	88.56
449.779	84.56
450	82.56
450.221	79.56
450.442	75.56
450.662	103.56
450.883	85.56
451.104	96.56
451.324	82.56
451.545	91.56
451.766	88.56
451.986	81.56
452.207	101.56
452.428	99.56
452.648	92.56
452.869	89.56
453.089	88.56
453.31	86.56
453.53	82.56
453.751	92.56
453.971	92.56
454.192	84.56
454.412	71.56
454.633	94.56
454.853	78.56
455.073	79.56
455.294	90.56
455.514	81.56
455.734	87.56
455.955	74.56
456.175	80.56
456.395	82.56
456.616	97.56
456.836	87.56
457.056	81.56
457.276	84.56
457.497	90.56
457.717	76.56
457.937	84.56
458.157	75.56
458.377	64.56
458.598	64.56
458.818	77.56
459.038	84.56
459.258	84.56
459.478	72.56
459.698	79.56
459.918	80.56
460.138	92.56
460.358	80.56
460.578	93.56
460.798	87.56
461.018	88.56
461.238	88.56
461.458	92.56
461.678	74.56
461.898	85.56
462.118	86.56
462.338	82.56
462.558	75.56
462.777	82.56
462.997	85.56
463.217	89.56
463.437	79.56
463.657	79.56
463.876	100.56
464.096	91.56
464.316	89.56
464.536	79.56
464.755	77.56
464.975	73.56
465.195	86.56
465.414	89.56
465.634	87.56
465.854	71.56
466.073	81.56
466.293	75.56
466.512	69.56
466.732	69.56
466.951	87.56
467.171	77.56
467.391	88.56
467.61	70.56
467.829	91.56
468.049	83.56
468.268	81.56
468.488	84.56
468.707	65.56
468.927	78.56
469.146	84.56
469.365	88.56
469.585	75.56
469.804	77.56
470.023	90.56
470.243	84.56
470.462	77.56
470.681	87.56
470.901	83.56
471.12	83.56
471.339	73.56
471.558	73.56
471.777	93.56
471.997	83.56
472.216	71.56
472.435	86.56
472.654	84.56
472.873	79.56
473.092	92.56
473.311	84.56
473.53	87.56
473.749	89.56
473.968	77.56
474.187	78.56
474.406	85.56
474.625	89.56
474.844	84.56
475.063	81.56
475.282	84.56
475.501	87.56
475.72	93.56
475.939	104.56
476.158	71.56
476.377	71.56
476.596	77.56
476.814	86.56
477.033	81.56
477.252	78.56
477.471	87.56
477.69	80.56
477.908	86.56
478.127	95.56
478.346	83.56
478.564	76.56
478.783	82.56
479.002	80.56
479.22	89.56
479.439	98.56
479.658	82.56
479.876	89.56
480.095	78.56
480.313	88.56
480.532	85.56
480.751	70.56
480.969	93.56
481.188	73.56
481.406	88.56
481.624	84.56
481.843	69.56
482.061	82.56
482.28	86.56
482.498	77.56
482.717	92.56
482.935	84.56
483.153	75.56
483.372	90.56
483.59	80.56
483.808	93.56
484.027	86.56
484.245	86.56
484.463	87.56
484.681	94.56
484.9	77.56
485.118	87.56
485.336	92.56
485.554	88.56
485.772	88.56
485.99	83.56
486.209	94.56
486.427	86.56
486.645	72.56
486.863	82.56
487.081	78.56
487.299	85.56
487.517	87.56
487.735	90.56
487.953	77.56
488.171	81.56
488.389	88.56
488.607	86.56
488.825	82.56
489.043	88.56
489.261	88.56
489.479	85.56
489.696	86.56
489.914	80.56
490.132	86.56
490.35	69.56
490.568	78.56
490.786	95.56
491.003	83.56
491.221	73.56
491.439	89.56
491.657	80.56
491.874	79.56
492.092	82.56
492.31	88.56
492.527	78.56
492.745	72.56
492.963	89.56
493.18	84.56
493.398	85.56
493.615	94.56
493.833	94.56
494.05	89.56
494.268	87.56
494.485	78.56
494.703	93.56
494.92	81.56
495.138	83.56
495.355	92.56
495.573	88.56
495.79	78.56
496.008	86.56
496.225	96.56
496.442	85.56
496.66	89.56
496.877	83.56
497.094	83.56
497.312	83.56
497.529	85.56
497.746	89.56
497.963	75.56
498.181	90.56
498.398	75.56
498.615	94.56
498.832	88.56
499.049	84.56
499.267	99.56
499.484	96.56
499.701	79.56
499.918	89.56
500.135	79.56
500.352	89.56
500.569	75.56
500.786	89.56
501.003	88.56
501.22	100.56
501.437	97.56
501.654	70.56
501.871	78.56
502.088	83.56
502.305	80.56
502.522	71.56
502.739	81.56
502.956	86.56
503.172	87.56
503.389	97.56
503.606	94.56
503.823	90.56
504.04	73.56
504.256	82.56
504.473	82.56
504.69	100.56
504.907	88.56
505.123	94.56
505.34	86.56
505.557	74.56
505.773	77.56
505.99	88.56
506.207	85.56
506.423	91.56
506.64	85.56
506.856	82.56
507.073	100.56
507.289	86.56
507.506	69.56
507.722	86.56
507.939	80.56
508.155	82.56
508.372	81.56
508.588	89.56
508.805	100.56
509.021	97.56
509.238	75.56
509.454	108.56
509.67	93.56
509.887	92.56
510.103	89.56
510.319	78.56
510.536	95.56
510.752	76.56
510.968	88.56
511.184	82.56
511.401	89.56
511.617	89.56
511.833	81.56
512.049	80.56
512.265	79.56
512.481	81.56
512.698	82.56
512.914	97.56
513.13	84.56
513.346	82.56
513.562	87.56
513.778	83.56
513.994	77.56
514.21	98.56
514.426	97.56
514.642	74.56
514.858	86.56
515.074	75.56
515.29	81.56
515.506	98.56
515.721	94.56
515.937	89.56
516.153	71.56
516.369	70.56
516.585	82.56
516.801	81.56
517.016	87.56
517.232	85.56
517.448	95.56
517.664	85.56
517.879	80.56
518.095	81.56
518.311	77.56
518.527	99.56
518.742	84.56
518.958	93.56
519.173	88.56
519.389	93.56
519.605	78.56
