Data from Background_2_HRD10591_00038.txt Node
Date: Wed Nov 05 14:47:16 EST 2025
User: Yrep
Spectrometer: HR+D1059
Trigger mode: 1
Integration Time (sec): 1.000000E-1
Scans to average: 1
Electric dark correction enabled: true
Nonlinearity correction enabled: false
Boxcar width: 0
XAxis mode: Wavelengths
Number of Pixels in Spectrum: 2048
>>>>>Begin Spectral Data<<<<<
223.165	-7
223.4	-7
223.635	-7
223.869	-31
224.104	-11
224.338	-4
224.573	-25
224.808	-15
225.042	0
225.277	-13
225.511	1
225.746	-8
225.98	1
226.215	18
226.449	18
226.683	28
226.918	19
227.152	29
227.387	46
227.621	34
227.856	37
228.09	40
228.324	43
228.559	71
228.793	63
229.027	70
229.262	56
229.496	56
229.73	59
229.964	57
230.199	81
230.433	86
230.667	84
230.901	75
231.136	67
231.37	87
231.604	84
231.838	83
232.072	81
232.306	82
232.541	80
232.775	71
233.009	89
233.243	84
233.477	72
233.711	88
233.945	78
234.179	85
234.413	86
234.647	83
234.881	86
235.115	90
235.349	88
235.583	83
235.817	77
236.051	73
236.285	87
236.519	79
236.753	79
236.987	88
237.221	73
237.455	101
237.689	82
237.922	84
238.156	80
238.39	67
238.624	69
238.858	63
239.091	78
239.325	69
239.559	73
239.793	92
240.027	77
240.26	91
240.494	84
240.728	66
240.961	72
241.195	77
241.429	75
241.662	81
241.896	67
242.13	83
242.363	77
242.597	80
242.83	70
243.064	77
243.298	87
243.531	79
243.765	69
243.998	70
244.232	80
244.465	73
244.699	77
244.932	86
245.166	85
245.399	74
245.633	79
245.866	70
246.099	63
246.333	96
246.566	76
246.8	94
247.033	76
247.266	78
247.5	69
247.733	82
247.966	68
248.2	81
248.433	84
248.666	79
248.899	77
249.133	82
249.366	72
249.599	83
249.832	77
250.066	86
250.299	93
250.532	81
250.765	81
250.998	72
251.231	88
251.465	78
251.698	89
251.931	87
252.164	82
252.397	83
252.63	78
252.863	80
253.096	69
253.329	87
253.562	87
253.795	97
254.028	94
254.261	71
254.494	89
254.727	81
254.96	79
255.193	94
255.426	79
255.659	73
255.892	91
256.124	89
256.357	107
256.59	83
256.823	81
257.056	85
257.289	74
257.521	90
257.754	80
257.987	88
258.22	92
258.452	85
258.685	89
258.918	90
259.151	82
259.383	76
259.616	80
259.849	85
260.081	68
260.314	77
260.547	86
260.779	79
261.012	77
261.244	80
261.477	80
261.71	78
261.942	87
262.175	78
262.407	94
262.64	78
262.872	94
263.105	92
263.337	91
263.57	77
263.802	85
264.035	75
264.267	84
264.499	78
264.732	90
264.964	85
265.197	86
265.429	89
265.661	72
265.894	81
266.126	78
266.358	82
266.591	92
266.823	100
267.055	74
267.287	87
267.52	85
267.752	88
267.984	103
268.216	71
268.448	85
268.681	79
268.913	95
269.145	92
269.377	93
269.609	89
269.841	85
270.073	91
270.306	85
270.538	91
270.77	77
271.002	93
271.234	81
271.466	86
271.698	83
271.93	78
272.162	74
272.394	84
272.626	92
272.858	89
273.09	81
273.322	80
273.553	83
273.785	93
274.017	72
274.249	91
274.481	77
274.713	88
274.945	84
275.176	89
275.408	81
275.64	92
275.872	73
276.104	83
276.335	86
276.567	89
276.799	82
277.031	92
277.262	95
277.494	79
277.726	93
277.957	85
278.189	79
278.421	83
278.652	90
278.884	96
279.115	86
279.347	88
279.579	89
279.81	88
280.042	85
280.273	84
280.505	92
280.736	97
280.968	93
281.199	96
281.431	79
281.662	91
281.894	95
282.125	74
282.356	74
282.588	84
282.819	83
283.051	87
283.282	92
283.513	71
283.745	91
283.976	89
284.207	80
284.439	73
284.67	91
284.901	73
285.132	104
285.364	99
285.595	76
285.826	81
286.057	87
286.288	91
286.52	81
286.751	91
286.982	81
287.213	87
287.444	93
287.675	84
287.906	88
288.138	60
288.369	84
288.6	85
288.831	88
289.062	73
289.293	91
289.524	86
289.755	93
289.986	83
290.217	93
290.448	95
290.679	76
290.91	97
291.141	80
291.371	95
291.602	87
291.833	84
292.064	86
292.295	89
292.526	77
292.757	70
292.987	91
293.218	78
293.449	87
293.68	85
293.91	78
294.141	87
294.372	91
294.603	90
294.833	80
295.064	85
295.295	73
295.525	81
295.756	112
295.987	104
296.217	90
296.448	92
296.679	96
296.909	97
297.14	89
297.37	84
297.601	86
297.831	89
298.062	94
298.292	91
298.523	87
298.753	87
298.984	92
299.214	101
299.445	91
299.675	74
299.905	86
300.136	90
300.366	89
300.597	81
300.827	82
301.057	90
301.288	86
301.518	79
301.748	88
301.979	86
302.209	89
302.439	86
302.669	99
302.9	75
303.13	95
303.36	84
303.59	81
303.82	84
304.051	93
304.281	91
304.511	91
304.741	96
304.971	84
305.201	84
305.431	85
305.661	92
305.891	75
306.121	91
306.352	96
306.582	100
306.812	111
307.042	85
307.272	81
307.502	76
307.731	75
307.961	81
308.191	93
308.421	92
308.651	82
308.881	79
309.111	91
309.341	96
309.571	80
309.8	71
310.03	79
310.26	89
310.49	94
310.72	89
310.949	86
311.179	93
311.409	95
311.639	85
311.868	80
312.098	98
312.328	96
312.557	103
312.787	77
313.017	87
313.246	79
313.476	72
313.706	91
313.935	84
314.165	99
314.394	92
314.624	78
314.853	76
315.083	83
315.312	90
315.542	92
315.771	94
316.001	76
316.23	79
316.46	85
316.689	93
316.919	101
317.148	91
317.377	93
317.607	87
317.836	88
318.065	76
318.295	101
318.524	79
318.753	83
318.983	92
319.212	108
319.441	80
319.67	76
319.9	80
320.129	79
320.358	91
320.587	87
320.816	101
321.046	103
321.275	80
321.504	68
321.733	93
321.962	98
322.191	91
322.42	91
322.649	89
322.878	84
323.108	88
323.337	95
323.566	86
323.795	91
324.024	83
324.253	83
324.482	65
324.71	92
324.939	92
325.168	73
325.397	88
325.626	81
325.855	98
326.084	88
326.313	72
326.542	95
326.77	92
326.999	80
327.228	100
327.457	85
327.686	93
327.914	87
328.143	97
328.372	86
328.6	84
328.829	85
329.058	83
329.287	80
329.515	97
329.744	107
329.972	89
330.201	73
330.43	78
330.658	69
330.887	87
331.115	101
331.344	85
331.572	80
331.801	81
332.03	83
332.258	96
332.486	82
332.715	84
332.943	80
333.172	86
333.4	83
333.629	87
333.857	89
334.085	83
334.314	82
334.542	87
334.771	74
334.999	96
335.227	83
335.455	86
335.684	76
335.912	81
336.14	91
336.369	71
336.597	74
336.825	81
337.053	87
337.281	90
337.51	91
337.738	95
337.966	85
338.194	91
338.422	88
338.65	87
338.878	81
339.106	95
339.334	86
339.562	91
339.79	91
340.018	80
340.246	80
340.474	92
340.702	77
340.93	99
341.158	91
341.386	91
341.614	83
341.842	76
342.07	65
342.298	97
342.526	83
342.754	95
342.981	84
343.209	95
343.437	83
343.665	85
343.893	100
344.12	99
344.348	87
344.576	85
344.804	85
345.031	95
345.259	92
345.487	94
345.714	77
345.942	79
346.17	86
346.397	84
346.625	93
346.853	83
347.08	75
347.308	93
347.535	81
347.763	83
347.99	93
348.218	101
348.445	78
348.673	84
348.9	93
349.128	80
349.355	79
349.583	96
349.81	79
350.037	102
350.265	89
350.492	86
350.72	83
350.947	78
351.174	83
351.402	87
351.629	81
351.856	92
352.083	97
352.311	81
352.538	91
352.765	105
352.992	92
353.22	100
353.447	101
353.674	89
353.901	91
354.128	86
354.355	87
354.583	99
354.81	97
355.037	76
355.264	84
355.491	78
355.718	86
355.945	90
356.172	82
356.399	85
356.626	77
356.853	96
357.08	84
357.307	87
357.534	87
357.761	92
357.988	74
358.215	84
358.441	81
358.668	83
358.895	77
359.122	92
359.349	74
359.576	77
359.802	87
360.029	89
360.256	83
360.483	86
360.709	85
360.936	88
361.163	93
361.39	83
361.616	82
361.843	97
362.07	100
362.296	90
362.523	85
362.749	74
362.976	85
363.203	71
363.429	81
363.656	85
363.882	83
364.109	94
364.335	100
364.562	89
364.788	89
365.015	89
365.241	93
365.468	80
365.694	78
365.92	84
366.147	66
366.373	87
366.599	72
366.826	89
367.052	88
367.278	96
367.505	83
367.731	97
367.957	97
368.184	98
368.41	93
368.636	89
368.862	102
369.089	74
369.315	82
369.541	94
369.767	87
369.993	86
370.219	88
370.445	81
370.672	86
370.898	88
371.124	86
371.35	91
371.576	95
371.802	86
372.028	83
372.254	87
372.48	88
372.706	90
372.932	76
373.158	98
373.384	86
373.61	76
373.835	86
374.061	92
374.287	76
374.513	85
374.739	75
374.965	81
375.191	105
375.416	87
375.642	88
375.868	83
376.094	86
376.319	91
376.545	101
376.771	78
376.997	93
377.222	80
377.448	88
377.674	83
377.899	80
378.125	89
378.35	97
378.576	83
378.802	88
379.027	85
379.253	81
379.478	101
379.704	95
379.929	87
380.155	80
380.38	89
380.606	81
380.831	76
381.057	105
381.282	91
381.507	88
381.733	69
381.958	91
382.184	83
382.409	75
382.634	91
382.86	79
383.085	93
383.31	85
383.535	89
383.761	96
383.986	92
384.211	94
384.436	83
384.662	75
384.887	92
385.112	87
385.337	85
385.562	92
385.787	81
386.013	84
386.238	84
386.463	69
386.688	86
386.913	94
387.138	96
387.363	83
387.588	81
387.813	80
388.038	83
388.263	69
388.488	77
388.713	96
388.938	92
389.163	89
389.387	76
389.612	84
389.837	90
390.062	75
390.287	83
390.512	81
390.736	78
390.961	84
391.186	74
391.411	100
391.636	81
391.86	85
392.085	85
392.31	89
392.534	84
392.759	83
392.984	96
393.208	82
393.433	74
393.658	85
393.882	79
394.107	87
394.331	76
394.556	94
394.78	88
395.005	82
395.229	78
395.454	88
395.678	84
395.903	93
396.127	83
396.352	82
396.576	88
396.801	81
397.025	64
397.249	97
397.474	102
397.698	83
397.922	72
398.147	76
398.371	96
398.595	78
398.82	94
399.044	89
399.268	69
399.492	91
399.717	93
399.941	76
400.165	89
400.389	74
400.613	101
400.837	96
401.062	97
401.286	87
401.51	79
401.734	86
401.958	73
402.182	85
402.406	94
402.63	88
402.854	89
403.078	83
403.302	80
403.526	83
403.75	85
403.974	76
404.198	78
404.422	68
404.645	71
404.869	80
405.093	81
405.317	87
405.541	74
405.765	83
405.988	81
406.212	86
406.436	90
406.66	89
406.883	95
407.107	91
407.331	85
407.555	100
407.778	88
408.002	76
408.226	87
408.449	89
408.673	72
408.896	73
409.12	92
409.344	87
409.567	97
409.791	83
410.014	75
410.238	84
410.461	92
410.685	103
410.908	92
411.132	89
411.355	93
411.578	82
411.802	86
412.025	86
412.249	82
412.472	96
412.695	79
412.919	73
413.142	85
413.365	70
413.589	87
413.812	77
414.035	85
414.258	76
414.482	79
414.705	82
414.928	81
415.151	77
415.374	91
415.597	87
415.821	82
416.044	84
416.267	80
416.49	76
416.713	76
416.936	92
417.159	97
417.382	84
417.605	90
417.828	88
418.051	89
418.274	81
418.497	76
418.72	91
418.943	79
419.166	73
419.389	73
419.611	92
419.834	84
420.057	77
420.28	79
420.503	82
420.726	84
420.948	84
421.171	88
421.394	89
421.617	91
421.839	75
422.062	86
422.285	91
422.507	86
422.73	91
422.953	76
423.175	87
423.398	88
423.621	91
423.843	76
424.066	82
424.288	88
424.511	81
424.733	104
424.956	91
425.178	91
425.401	76
425.623	91
425.846	71
426.068	86
426.291	77
426.513	83
426.735	83
426.958	84
427.18	88
427.402	85
427.625	93
427.847	85
428.069	76
428.292	81
428.514	85
428.736	78
428.958	76
429.181	81
429.403	88
429.625	100
429.847	95
430.069	89
430.292	73
430.514	94
430.736	83
430.958	82
431.18	82
431.402	68
431.624	74
431.846	95
432.068	93
432.29	79
432.512	81
432.734	92
432.956	85
433.178	84
433.4	77
433.622	87
433.844	86
434.066	84
434.287	74
434.509	89
434.731	89
434.953	82
435.175	86
435.397	69
435.618	67
435.84	72
436.062	96
436.284	86
436.505	84
436.727	87
436.949	89
437.17	82
437.392	85
437.614	90
437.835	87
438.057	81
438.278	76
438.5	93
438.721	79
438.943	95
439.165	87
439.386	80
439.608	86
439.829	89
440.05	91
440.272	87
440.493	101
440.715	78
440.936	91
441.158	91
441.379	76
441.6	92
441.822	88
442.043	78
442.264	80
442.486	83
442.707	82
442.928	79
443.149	78
443.371	71
443.592	87
443.813	81
444.034	85
444.255	81
444.476	75
444.698	67
444.919	89
445.14	151
445.361	123
445.582	83
445.803	92
446.024	71
446.245	74
446.466	84
446.687	80
446.908	73
447.129	83
447.35	76
447.571	83
447.792	93
448.013	97
448.234	78
448.455	72
448.675	104
448.896	92
449.117	78
449.338	77
449.559	83
449.779	78
450	90
450.221	77
450.442	77
450.662	85
450.883	90
451.104	88
451.324	79
451.545	101
451.766	88
451.986	75
452.207	67
452.428	78
452.648	83
452.869	99
453.089	83
453.31	84
453.53	77
453.751	82
453.971	90
454.192	86
454.412	79
454.633	85
454.853	79
455.073	71
455.294	65
455.514	87
455.734	87
455.955	70
456.175	84
456.395	68
456.616	89
456.836	81
457.056	88
457.276	84
457.497	86
457.717	88
457.937	78
458.157	84
458.377	77
458.598	93
458.818	85
459.038	71
459.258	73
459.478	91
459.698	69
459.918	94
460.138	83
460.358	83
460.578	77
460.798	79
461.018	89
461.238	79
461.458	77
461.678	80
461.898	81
462.118	80
462.338	83
462.558	82
462.777	86
462.997	90
463.217	77
463.437	91
463.657	79
463.876	88
464.096	68
464.316	86
464.536	85
464.755	76
464.975	77
465.195	70
465.414	99
465.634	79
465.854	89
466.073	79
466.293	67
466.512	91
466.732	79
466.951	81
467.171	95
467.391	84
467.61	77
467.829	74
468.049	87
468.268	92
468.488	83
468.707	71
468.927	81
469.146	83
469.365	76
469.585	91
469.804	96
470.023	72
470.243	67
470.462	76
470.681	77
470.901	88
471.12	72
471.339	94
471.558	89
471.777	71
471.997	97
472.216	91
472.435	79
472.654	82
472.873	95
473.092	88
473.311	100
473.53	85
473.749	94
473.968	96
474.187	76
474.406	93
474.625	83
474.844	81
475.063	90
475.282	88
475.501	90
475.72	91
475.939	74
476.158	84
476.377	85
476.596	86
476.814	88
477.033	78
477.252	87
477.471	80
477.69	96
477.908	94
478.127	71
478.346	79
478.564	79
478.783	83
479.002	71
479.22	89
479.439	84
479.658	82
479.876	99
480.095	80
480.313	93
480.532	87
480.751	73
480.969	90
481.188	78
481.406	87
481.624	91
481.843	81
482.061	74
482.28	79
482.498	84
482.717	87
482.935	73
483.153	87
483.372	90
483.59	98
483.808	101
484.027	91
484.245	95
484.463	95
484.681	87
484.9	94
485.118	87
485.336	84
485.554	85
485.772	90
485.99	91
486.209	87
486.427	86
486.645	65
486.863	95
487.081	85
487.299	72
487.517	87
487.735	92
487.953	84
488.171	86
488.389	82
488.607	84
488.825	87
489.043	73
489.261	95
489.479	88
489.696	70
489.914	78
490.132	79
490.35	95
490.568	88
490.786	81
491.003	85
491.221	80
491.439	92
491.657	81
491.874	85
492.092	79
492.31	88
492.527	72
492.745	86
492.963	82
493.18	84
493.398	75
493.615	84
493.833	84
494.05	90
494.268	98
494.485	98
494.703	85
494.92	89
495.138	71
495.355	68
495.573	84
495.79	85
496.008	87
496.225	82
496.442	78
496.66	83
496.877	96
497.094	99
497.312	89
497.529	99
497.746	88
497.963	87
498.181	89
498.398	81
498.615	78
498.832	98
499.049	79
499.267	82
499.484	87
499.701	101
499.918	80
500.135	89
500.352	78
500.569	95
500.786	82
501.003	83
501.22	66
501.437	97
501.654	97
501.871	81
502.088	84
502.305	97
502.522	89
502.739	79
502.956	90
503.172	87
503.389	85
503.606	74
503.823	85
504.04	99
504.256	94
504.473	81
504.69	96
504.907	97
505.123	88
505.34	92
505.557	99
505.773	89
505.99	101
506.207	87
506.423	90
506.64	99
506.856	93
507.073	93
507.289	98
507.506	84
507.722	101
507.939	76
508.155	80
508.372	86
508.588	94
508.805	94
509.021	95
509.238	76
509.454	86
509.67	96
509.887	76
510.103	79
510.319	91
510.536	90
510.752	84
510.968	70
511.184	85
511.401	80
511.617	87
511.833	79
512.049	83
512.265	91
512.481	97
512.698	91
512.914	87
513.13	91
513.346	87
513.562	87
513.778	88
513.994	86
514.21	84
514.426	77
514.642	77
514.858	99
515.074	82
515.29	90
515.506	70
515.721	79
515.937	104
516.153	97
516.369	82
516.585	77
516.801	76
517.016	72
517.232	80
517.448	81
517.664	99
517.879	88
518.095	93
518.311	93
518.527	78
518.742	73
518.958	74
519.173	83
519.389	80
519.605	96
519.82	95
520.036	94
520.251	82
520.467	73
520.682	84
520.898	98
521.113	91
521.329	90
521.544	80
521.76	84
521.975	87
522.19	72
522.406	77
522.621	92
522.836	80
523.052	91
523.267	79
523.482	84
523.698	84
523.913	94
524.128	83
524.343	92
524.559	93
524.774	82
524.989	81
525.204	95
525.419	79
525.634	97
525.849	89
526.064	95
526.28	85
526.495	85
526.71	79
526.925	75
527.14	80
527.355	83
527.57	88
527.785	83
527.999	85
528.214	87
528.429	91
528.644	83
528.859	92
529.074	89
529.289	98
529.503	72
529.718	86
529.933	81
530.148	77
530.363	77
530.577	97
530.792	89
531.007	94
531.221	84
531.436	77
531.651	103
531.865	80
532.08	70
532.295	82
532.509	85
532.724	81
532.938	84
533.153	84
533.367	74
533.582	83
533.796	76
534.011	80
534.225	93
534.44	84
534.654	83
534.868	97
535.083	91
535.297	100
535.511	104
535.726	89
535.94	95
536.154	97
536.369	93
536.583	88
536.797	89
537.011	88
537.225	96
537.44	74
537.654	85
537.868	78
538.082	93
538.296	87
538.51	87
538.724	91
538.938	82
539.153	81
539.367	78
539.581	104
539.795	97
540.009	85
540.222	87
540.436	80
540.65	91
540.864	105
541.078	68
541.292	87
541.506	92
541.72	96
541.934	66
542.147	79
542.361	91
542.575	91
542.789	98
543.002	87
543.216	83
543.43	73
543.644	88
543.857	83
544.071	72
544.285	92
544.498	90
544.712	87
544.925	95
545.139	90
545.352	77
545.566	81
545.779	82
545.993	101
546.206	92
546.42	90
546.633	98
546.847	81
547.06	84
547.274	88
547.487	81
547.7	88
547.914	95
548.127	88
548.34	103
548.554	91
548.767	73
548.98	90
549.193	86
549.407	88
549.62	81
549.833	88
550.046	89
550.259	83
550.473	80
550.686	90
550.899	83
551.112	88
551.325	85
551.538	84
551.751	84
551.964	84
552.177	92
552.39	85
552.603	72
552.816	89
553.029	91
553.242	81
553.455	84
553.667	85
553.88	81
554.093	79
554.306	92
554.519	73
554.732	94
554.944	100
555.157	77
555.37	89
555.583	89
555.795	90
556.008	94
556.221	93
556.433	84
556.646	93
556.859	63
557.071	97
557.284	91
557.496	90
557.709	83
557.921	90
558.134	95
558.346	101
558.559	85
558.771	90
558.984	93
559.196	92
559.409	81
559.621	84
559.833	89
560.046	87
560.258	73
560.47	83
560.683	91
560.895	115
561.107	96
561.32	93
561.532	87
561.744	74
561.956	88
562.168	91
562.381	84
562.593	88
562.805	87
563.017	89
563.229	85
563.441	97
563.653	91
563.865	88
564.077	94
564.289	94
564.501	96
564.713	95
564.925	90
565.137	81
565.349	73
565.561	83
565.773	88
565.985	91
566.197	73
566.408	91
566.62	87
566.832	92
567.044	76
567.255	84
567.467	76
567.679	87
567.891	79
568.102	89
568.314	100
568.526	87
568.737	97
568.949	97
569.161	99
569.372	87
569.584	79
569.795	97
570.007	83
570.218	80
570.43	83
570.641	87
570.853	84
571.064	85
571.276	85
571.487	95
571.698	89
571.91	71
572.121	80
572.333	82
572.544	105
572.755	77
572.966	82
573.178	93
573.389	85
573.6	85
573.811	88
574.023	86
574.234	90
574.445	84
574.656	96
574.867	95
575.078	77
575.289	83
575.501	80
575.712	86
575.923	87
576.134	89
576.345	83
576.556	89
576.767	112
576.978	95
577.188	91
577.399	96
577.61	64
577.821	93
578.032	84
578.243	92
578.454	97
578.665	105
578.875	97
579.086	86
579.297	91
579.508	93
579.718	87
579.929	96
580.14	94
580.35	107
580.561	98
580.772	81
580.982	79
581.193	87
581.403	81
581.614	79
581.825	82
582.035	82
582.246	74
582.456	88
582.667	75
582.877	89
583.087	89
583.298	82
583.508	91
583.719	88
583.929	104
584.139	87
584.35	93
584.56	83
584.77	96
584.981	75
585.191	74
585.401	94
585.611	95
585.821	80
586.032	78
586.242	94
586.452	100
586.662	94
586.872	86
587.082	85
587.292	93
587.502	88
587.713	77
587.923	87
588.133	80
588.343	89
588.553	85
588.762	90
588.972	91
589.182	80
589.392	89
589.602	102
589.812	94
