Data from Background_2_HRD10591_00081.txt Node
Date: Wed Nov 05 14:47:36 EST 2025
User: Yrep
Spectrometer: HR+D1059
Trigger mode: 1
Integration Time (sec): 1.000000E-1
Scans to average: 1
Electric dark correction enabled: true
Nonlinearity correction enabled: false
Boxcar width: 0
XAxis mode: Wavelengths
Number of Pixels in Spectrum: 2048
>>>>>Begin Spectral Data<<<<<
223.165	-15.69
223.4	-15.69
223.635	-15.69
223.869	-11.69
224.104	-21.69
224.338	-14.69
224.573	-16.69
224.808	-15.69
225.042	-8.69
225.277	-3.69
225.511	3.31
225.746	13.31
225.98	-3.69
226.215	19.31
226.449	6.31
226.683	8.31
226.918	29.31
227.152	32.31
227.387	37.31
227.621	45.31
227.856	63.31
228.09	46.31
228.324	48.31
228.559	51.31
228.793	64.31
229.027	74.31
229.262	61.31
229.496	71.31
229.73	62.31
229.964	69.31
230.199	72.31
230.433	86.31
230.667	80.31
230.901	97.31
231.136	73.31
231.37	71.31
231.604	64.31
231.838	81.31
232.072	95.31
232.306	85.31
232.541	92.31
232.775	79.31
233.009	83.31
233.243	77.31
233.477	92.31
233.711	79.31
233.945	88.31
234.179	83.31
234.413	88.31
234.647	86.31
234.881	80.31
235.115	79.31
235.349	92.31
235.583	79.31
235.817	87.31
236.051	80.31
236.285	73.31
236.519	70.31
236.753	80.31
236.987	78.31
237.221	72.31
237.455	98.31
237.689	83.31
237.922	79.31
238.156	76.31
238.39	67.31
238.624	78.31
238.858	71.31
239.091	64.31
239.325	75.31
239.559	101.31
239.793	72.31
240.027	65.31
240.26	88.31
240.494	69.31
240.728	71.31
240.961	74.31
241.195	69.31
241.429	70.31
241.662	77.31
241.896	89.31
242.13	78.31
242.363	92.31
242.597	72.31
242.83	78.31
243.064	69.31
243.298	79.31
243.531	64.31
243.765	75.31
243.998	83.31
244.232	67.31
244.465	72.31
244.699	81.31
244.932	84.31
245.166	89.31
245.399	86.31
245.633	82.31
245.866	93.31
246.099	79.31
246.333	75.31
246.566	93.31
246.8	81.31
247.033	70.31
247.266	79.31
247.5	70.31
247.733	80.31
247.966	71.31
248.2	73.31
248.433	65.31
248.666	77.31
248.899	82.31
249.133	85.31
249.366	92.31
249.599	79.31
249.832	72.31
250.066	87.31
250.299	77.31
250.532	74.31
250.765	85.31
250.998	97.31
251.231	74.31
251.465	77.31
251.698	68.31
251.931	79.31
252.164	77.31
252.397	73.31
252.63	82.31
252.863	81.31
253.096	80.31
253.329	80.31
253.562	84.31
253.795	77.31
254.028	85.31
254.261	69.31
254.494	82.31
254.727	78.31
254.96	77.31
255.193	84.31
255.426	79.31
255.659	75.31
255.892	86.31
256.124	59.31
256.357	68.31
256.59	80.31
256.823	79.31
257.056	75.31
257.289	88.31
257.521	93.31
257.754	84.31
257.987	65.31
258.22	68.31
258.452	79.31
258.685	71.31
258.918	69.31
259.151	88.31
259.383	91.31
259.616	92.31
259.849	96.31
260.081	85.31
260.314	73.31
260.547	79.31
260.779	67.31
261.012	89.31
261.244	72.31
261.477	101.31
261.71	80.31
261.942	96.31
262.175	92.31
262.407	78.31
262.64	87.31
262.872	82.31
263.105	86.31
263.337	88.31
263.57	83.31
263.802	92.31
264.035	93.31
264.267	83.31
264.499	77.31
264.732	95.31
264.964	64.31
265.197	80.31
265.429	84.31
265.661	70.31
265.894	87.31
266.126	94.31
266.358	82.31
266.591	71.31
266.823	88.31
267.055	84.31
267.287	81.31
267.52	78.31
267.752	97.31
267.984	82.31
268.216	75.31
268.448	82.31
268.681	98.31
268.913	91.31
269.145	94.31
269.377	95.31
269.609	88.31
269.841	81.31
270.073	89.31
270.306	98.31
270.538	81.31
270.77	87.31
271.002	79.31
271.234	93.31
271.466	102.31
271.698	84.31
271.93	88.31
272.162	70.31
272.394	91.31
272.626	72.31
272.858	80.31
273.09	92.31
273.322	77.31
273.553	82.31
273.785	81.31
274.017	90.31
274.249	85.31
274.481	78.31
274.713	90.31
274.945	61.31
275.176	75.31
275.408	82.31
275.64	74.31
275.872	83.31
276.104	92.31
276.335	91.31
276.567	79.31
276.799	73.31
277.031	84.31
277.262	72.31
277.494	87.31
277.726	89.31
277.957	82.31
278.189	92.31
278.421	99.31
278.652	91.31
278.884	79.31
279.115	81.31
279.347	86.31
279.579	86.31
279.81	90.31
280.042	90.31
280.273	90.31
280.505	71.31
280.736	81.31
280.968	94.31
281.199	83.31
281.431	77.31
281.662	78.31
281.894	84.31
282.125	89.31
282.356	88.31
282.588	83.31
282.819	91.31
283.051	73.31
283.282	83.31
283.513	85.31
283.745	85.31
283.976	86.31
284.207	81.31
284.439	85.31
284.67	79.31
284.901	82.31
285.132	84.31
285.364	88.31
285.595	95.31
285.826	95.31
286.057	94.31
286.288	94.31
286.52	89.31
286.751	91.31
286.982	97.31
287.213	74.31
287.444	88.31
287.675	91.31
287.906	81.31
288.138	83.31
288.369	95.31
288.6	80.31
288.831	79.31
289.062	82.31
289.293	90.31
289.524	79.31
289.755	82.31
289.986	88.31
290.217	76.31
290.448	99.31
290.679	91.31
290.91	82.31
291.141	91.31
291.371	92.31
291.602	85.31
291.833	80.31
292.064	86.31
292.295	79.31
292.526	82.31
292.757	71.31
292.987	88.31
293.218	79.31
293.449	85.31
293.68	91.31
293.91	99.31
294.141	82.31
294.372	91.31
294.603	97.31
294.833	95.31
295.064	89.31
295.295	87.31
295.525	89.31
295.756	95.31
295.987	85.31
296.217	87.31
296.448	70.31
296.679	76.31
296.909	81.31
297.14	83.31
297.37	97.31
297.601	69.31
297.831	89.31
298.062	74.31
298.292	69.31
298.523	59.31
298.753	73.31
298.984	104.31
299.214	79.31
299.445	93.31
299.675	87.31
299.905	86.31
300.136	95.31
300.366	80.31
300.597	88.31
300.827	94.31
301.057	86.31
301.288	89.31
301.518	100.31
301.748	85.31
301.979	87.31
302.209	88.31
302.439	77.31
302.669	73.31
302.9	87.31
303.13	80.31
303.36	85.31
303.59	103.31
303.82	94.31
304.051	89.31
304.281	87.31
304.511	76.31
304.741	86.31
304.971	78.31
305.201	81.31
305.431	86.31
305.661	92.31
305.891	84.31
306.121	83.31
306.352	90.31
306.582	89.31
306.812	75.31
307.042	99.31
307.272	91.31
307.502	94.31
307.731	86.31
307.961	88.31
308.191	70.31
308.421	85.31
308.651	87.31
308.881	100.31
309.111	96.31
309.341	85.31
309.571	86.31
309.8	100.31
310.03	84.31
310.26	91.31
310.49	97.31
310.72	74.31
310.949	95.31
311.179	95.31
311.409	94.31
311.639	95.31
311.868	96.31
312.098	94.31
312.328	84.31
312.557	81.31
312.787	96.31
313.017	89.31
313.246	94.31
313.476	92.31
313.706	71.31
313.935	87.31
314.165	98.31
314.394	84.31
314.624	89.31
314.853	88.31
315.083	83.31
315.312	79.31
315.542	91.31
315.771	101.31
316.001	89.31
316.23	88.31
316.46	93.31
316.689	91.31
316.919	77.31
317.148	73.31
317.377	95.31
317.607	86.31
317.836	93.31
318.065	86.31
318.295	85.31
318.524	90.31
318.753	85.31
318.983	82.31
319.212	89.31
319.441	90.31
319.67	80.31
319.9	82.31
320.129	84.31
320.358	72.31
320.587	108.31
320.816	80.31
321.046	83.31
321.275	93.31
321.504	89.31
321.733	96.31
321.962	77.31
322.191	95.31
322.42	93.31
322.649	77.31
322.878	86.31
323.108	89.31
323.337	87.31
323.566	76.31
323.795	85.31
324.024	81.31
324.253	88.31
324.482	83.31
324.71	87.31
324.939	85.31
325.168	92.31
325.397	84.31
325.626	92.31
325.855	83.31
326.084	92.31
326.313	89.31
326.542	75.31
326.77	74.31
326.999	81.31
327.228	86.31
327.457	74.31
327.686	80.31
327.914	85.31
328.143	89.31
328.372	85.31
328.6	88.31
328.829	92.31
329.058	79.31
329.287	71.31
329.515	76.31
329.744	95.31
329.972	87.31
330.201	74.31
330.43	84.31
330.658	85.31
330.887	101.31
331.115	94.31
331.344	90.31
331.572	96.31
331.801	83.31
332.03	84.31
332.258	84.31
332.486	73.31
332.715	77.31
332.943	90.31
333.172	92.31
333.4	91.31
333.629	95.31
333.857	92.31
334.085	84.31
334.314	98.31
334.542	82.31
334.771	96.31
334.999	88.31
335.227	89.31
335.455	81.31
335.684	76.31
335.912	109.31
336.14	71.31
336.369	90.31
336.597	82.31
336.825	77.31
337.053	83.31
337.281	98.31
337.51	95.31
337.738	93.31
337.966	74.31
338.194	85.31
338.422	86.31
338.65	89.31
338.878	71.31
339.106	89.31
339.334	88.31
339.562	86.31
339.79	89.31
340.018	85.31
340.246	91.31
340.474	81.31
340.702	84.31
340.93	86.31
341.158	81.31
341.386	77.31
341.614	82.31
341.842	93.31
342.07	88.31
342.298	73.31
342.526	82.31
342.754	87.31
342.981	81.31
343.209	88.31
343.437	101.31
343.665	83.31
343.893	91.31
344.12	83.31
344.348	79.31
344.576	85.31
344.804	83.31
345.031	86.31
345.259	95.31
345.487	92.31
345.714	87.31
345.942	91.31
346.17	86.31
346.397	66.31
346.625	89.31
346.853	91.31
347.08	94.31
347.308	92.31
347.535	96.31
347.763	80.31
347.99	88.31
348.218	71.31
348.445	88.31
348.673	80.31
348.9	85.31
349.128	86.31
349.355	80.31
349.583	83.31
349.81	77.31
350.037	98.31
350.265	83.31
350.492	77.31
350.72	76.31
350.947	77.31
351.174	81.31
351.402	94.31
351.629	89.31
351.856	92.31
352.083	78.31
352.311	91.31
352.538	85.31
352.765	86.31
352.992	101.31
353.22	80.31
353.447	77.31
353.674	87.31
353.901	79.31
354.128	78.31
354.355	89.31
354.583	78.31
354.81	84.31
355.037	84.31
355.264	69.31
355.491	75.31
355.718	81.31
355.945	88.31
356.172	78.31
356.399	82.31
356.626	84.31
356.853	82.31
357.08	81.31
357.307	93.31
357.534	86.31
357.761	86.31
357.988	75.31
358.215	100.31
358.441	84.31
358.668	80.31
358.895	87.31
359.122	79.31
359.349	85.31
359.576	79.31
359.802	63.31
360.029	82.31
360.256	84.31
360.483	85.31
360.709	76.31
360.936	86.31
361.163	87.31
361.39	85.31
361.616	86.31
361.843	84.31
362.07	89.31
362.296	85.31
362.523	83.31
362.749	95.31
362.976	79.31
363.203	82.31
363.429	78.31
363.656	75.31
363.882	83.31
364.109	88.31
364.335	85.31
364.562	85.31
364.788	78.31
365.015	83.31
365.241	67.31
365.468	84.31
365.694	89.31
365.92	78.31
366.147	78.31
366.373	92.31
366.599	82.31
366.826	83.31
367.052	78.31
367.278	99.31
367.505	93.31
367.731	92.31
367.957	76.31
368.184	80.31
368.41	72.31
368.636	77.31
368.862	85.31
369.089	72.31
369.315	67.31
369.541	90.31
369.767	77.31
369.993	74.31
370.219	70.31
370.445	69.31
370.672	78.31
370.898	83.31
371.124	77.31
371.35	67.31
371.576	89.31
371.802	81.31
372.028	87.31
372.254	83.31
372.48	94.31
372.706	83.31
372.932	77.31
373.158	93.31
373.384	89.31
373.61	87.31
373.835	84.31
374.061	98.31
374.287	82.31
374.513	71.31
374.739	73.31
374.965	91.31
375.191	78.31
375.416	83.31
375.642	88.31
375.868	79.31
376.094	77.31
376.319	77.31
376.545	72.31
376.771	87.31
376.997	80.31
377.222	70.31
377.448	81.31
377.674	77.31
377.899	88.31
378.125	89.31
378.35	93.31
378.576	72.31
378.802	75.31
379.027	99.31
379.253	88.31
379.478	91.31
379.704	79.31
379.929	79.31
380.155	72.31
380.38	75.31
380.606	77.31
380.831	84.31
381.057	93.31
381.282	96.31
381.507	95.31
381.733	80.31
381.958	95.31
382.184	81.31
382.409	87.31
382.634	72.31
382.86	95.31
383.085	84.31
383.31	81.31
383.535	94.31
383.761	68.31
383.986	79.31
384.211	90.31
384.436	91.31
384.662	74.31
384.887	96.31
385.112	82.31
385.337	87.31
385.562	85.31
385.787	91.31
386.013	85.31
386.238	91.31
386.463	76.31
386.688	92.31
386.913	71.31
387.138	95.31
387.363	94.31
387.588	89.31
387.813	79.31
388.038	68.31
388.263	71.31
388.488	72.31
388.713	94.31
388.938	81.31
389.163	80.31
389.387	79.31
389.612	91.31
389.837	81.31
390.062	92.31
390.287	73.31
390.512	67.31
390.736	89.31
390.961	88.31
391.186	84.31
391.411	79.31
391.636	87.31
391.86	85.31
392.085	80.31
392.31	85.31
392.534	89.31
392.759	87.31
392.984	98.31
393.208	86.31
393.433	65.31
393.658	78.31
393.882	79.31
394.107	64.31
394.331	88.31
394.556	76.31
394.78	82.31
395.005	83.31
395.229	84.31
395.454	80.31
395.678	81.31
395.903	72.31
396.127	95.31
396.352	87.31
396.576	87.31
396.801	88.31
397.025	77.31
397.249	87.31
397.474	81.31
397.698	83.31
397.922	83.31
398.147	82.31
398.371	95.31
398.595	78.31
398.82	83.31
399.044	77.31
399.268	91.31
399.492	82.31
399.717	78.31
399.941	94.31
400.165	93.31
400.389	85.31
400.613	80.31
400.837	77.31
401.062	98.31
401.286	87.31
401.51	88.31
401.734	88.31
401.958	87.31
402.182	74.31
402.406	73.31
402.63	85.31
402.854	81.31
403.078	85.31
403.302	78.31
403.526	78.31
403.75	82.31
403.974	80.31
404.198	88.31
404.422	74.31
404.645	71.31
404.869	64.31
405.093	71.31
405.317	95.31
405.541	91.31
405.765	84.31
405.988	90.31
406.212	81.31
406.436	66.31
406.66	91.31
406.883	78.31
407.107	72.31
407.331	82.31
407.555	72.31
407.778	76.31
408.002	85.31
408.226	93.31
408.449	80.31
408.673	88.31
408.896	73.31
409.12	75.31
409.344	88.31
409.567	75.31
409.791	78.31
410.014	80.31
410.238	90.31
410.461	84.31
410.685	81.31
410.908	86.31
411.132	86.31
411.355	76.31
411.578	81.31
411.802	84.31
412.025	87.31
412.249	75.31
412.472	91.31
412.695	68.31
412.919	83.31
413.142	89.31
413.365	86.31
413.589	85.31
413.812	75.31
414.035	85.31
414.258	78.31
414.482	93.31
414.705	81.31
414.928	81.31
415.151	90.31
415.374	74.31
415.597	60.31
415.821	79.31
416.044	76.31
416.267	86.31
416.49	93.31
416.713	82.31
416.936	79.31
417.159	81.31
417.382	76.31
417.605	84.31
417.828	69.31
418.051	94.31
418.274	81.31
418.497	86.31
418.72	63.31
418.943	73.31
419.166	79.31
419.389	89.31
419.611	72.31
419.834	69.31
420.057	70.31
420.28	82.31
420.503	100.31
420.726	77.31
420.948	75.31
421.171	85.31
421.394	76.31
421.617	91.31
421.839	88.31
422.062	84.31
422.285	71.31
422.507	91.31
422.73	67.31
422.953	79.31
423.175	91.31
423.398	87.31
423.621	85.31
423.843	87.31
424.066	74.31
424.288	68.31
424.511	86.31
424.733	88.31
424.956	87.31
425.178	87.31
425.401	71.31
425.623	73.31
425.846	81.31
426.068	89.31
426.291	83.31
426.513	78.31
426.735	80.31
426.958	67.31
427.18	84.31
427.402	92.31
427.625	88.31
427.847	77.31
428.069	85.31
428.292	74.31
428.514	74.31
428.736	77.31
428.958	75.31
429.181	77.31
429.403	83.31
429.625	98.31
429.847	92.31
430.069	80.31
430.292	80.31
430.514	68.31
430.736	78.31
430.958	68.31
431.18	83.31
431.402	75.31
431.624	88.31
431.846	87.31
432.068	88.31
432.29	87.31
432.512	83.31
432.734	95.31
432.956	79.31
433.178	86.31
433.4	79.31
433.622	75.31
433.844	87.31
434.066	93.31
434.287	78.31
434.509	73.31
434.731	82.31
434.953	70.31
435.175	91.31
435.397	81.31
435.618	87.31
435.84	94.31
436.062	93.31
436.284	83.31
436.505	94.31
436.727	86.31
436.949	78.31
437.17	73.31
437.392	61.31
437.614	83.31
437.835	80.31
438.057	63.31
438.278	71.31
438.5	93.31
438.721	61.31
438.943	79.31
439.165	87.31
439.386	84.31
439.608	72.31
439.829	91.31
440.05	79.31
440.272	90.31
440.493	88.31
440.715	79.31
440.936	83.31
441.158	89.31
441.379	77.31
441.6	87.31
441.822	81.31
442.043	73.31
442.264	82.31
442.486	84.31
442.707	73.31
442.928	76.31
443.149	73.31
443.371	81.31
443.592	73.31
443.813	74.31
444.034	78.31
444.255	88.31
444.476	83.31
444.698	64.31
444.919	82.31
445.14	154.31
445.361	104.31
445.582	79.31
445.803	85.31
446.024	86.31
446.245	80.31
446.466	86.31
446.687	85.31
446.908	93.31
447.129	80.31
447.35	93.31
447.571	74.31
447.792	94.31
448.013	95.31
448.234	84.31
448.455	85.31
448.675	81.31
448.896	76.31
449.117	81.31
449.338	93.31
449.559	91.31
449.779	82.31
450	75.31
450.221	82.31
450.442	84.31
450.662	73.31
450.883	80.31
451.104	82.31
451.324	91.31
451.545	73.31
451.766	66.31
451.986	75.31
452.207	85.31
452.428	93.31
452.648	96.31
452.869	82.31
453.089	81.31
453.31	76.31
453.53	75.31
453.751	81.31
453.971	91.31
454.192	80.31
454.412	83.31
454.633	87.31
454.853	90.31
455.073	85.31
455.294	98.31
455.514	93.31
455.734	91.31
455.955	76.31
456.175	84.31
456.395	77.31
456.616	86.31
456.836	87.31
457.056	77.31
457.276	79.31
457.497	83.31
457.717	86.31
457.937	84.31
458.157	86.31
458.377	82.31
458.598	78.31
458.818	83.31
459.038	69.31
459.258	87.31
459.478	87.31
459.698	81.31
459.918	75.31
460.138	90.31
460.358	83.31
460.578	93.31
460.798	87.31
461.018	79.31
461.238	84.31
461.458	83.31
461.678	74.31
461.898	82.31
462.118	84.31
462.338	92.31
462.558	76.31
462.777	79.31
462.997	84.31
463.217	69.31
463.437	80.31
463.657	86.31
463.876	88.31
464.096	73.31
464.316	85.31
464.536	83.31
464.755	78.31
464.975	84.31
465.195	81.31
465.414	79.31
465.634	78.31
465.854	82.31
466.073	79.31
466.293	78.31
466.512	86.31
466.732	96.31
466.951	88.31
467.171	74.31
467.391	81.31
467.61	98.31
467.829	83.31
468.049	86.31
468.268	73.31
468.488	81.31
468.707	70.31
468.927	76.31
469.146	87.31
469.365	85.31
469.585	85.31
469.804	87.31
470.023	79.31
470.243	78.31
470.462	80.31
470.681	77.31
470.901	83.31
471.12	83.31
471.339	92.31
471.558	74.31
471.777	73.31
471.997	83.31
472.216	77.31
472.435	82.31
472.654	75.31
472.873	96.31
473.092	92.31
473.311	87.31
473.53	86.31
473.749	83.31
473.968	84.31
474.187	81.31
474.406	71.31
474.625	83.31
474.844	95.31
475.063	92.31
475.282	77.31
475.501	80.31
475.72	79.31
475.939	80.31
476.158	80.31
476.377	84.31
476.596	83.31
476.814	79.31
477.033	72.31
477.252	85.31
477.471	76.31
477.69	70.31
477.908	81.31
478.127	80.31
478.346	80.31
478.564	80.31
478.783	99.31
479.002	92.31
479.22	71.31
479.439	84.31
479.658	72.31
479.876	74.31
480.095	81.31
480.313	68.31
480.532	86.31
480.751	71.31
480.969	83.31
481.188	83.31
481.406	86.31
481.624	91.31
481.843	84.31
482.061	93.31
482.28	95.31
482.498	79.31
482.717	92.31
482.935	75.31
483.153	74.31
483.372	92.31
483.59	79.31
483.808	92.31
484.027	93.31
484.245	81.31
484.463	74.31
484.681	76.31
484.9	87.31
485.118	79.31
485.336	98.31
485.554	75.31
485.772	82.31
485.99	89.31
486.209	85.31
486.427	89.31
486.645	89.31
486.863	81.31
487.081	76.31
487.299	77.31
487.517	81.31
487.735	74.31
487.953	84.31
488.171	88.31
488.389	76.31
488.607	88.31
488.825	79.31
489.043	93.31
489.261	85.31
489.479	91.31
489.696	84.31
489.914	81.31
490.132	79.31
490.35	77.31
490.568	88.31
490.786	87.31
491.003	89.31
491.221	80.31
491.439	76.31
491.657	78.31
491.874	94.31
492.092	79.31
492.31	86.31
492.527	92.31
492.745	87.31
492.963	95.31
493.18	76.31
493.398	87.31
493.615	81.31
493.833	75.31
494.05	85.31
494.268	84.31
494.485	69.31
494.703	101.31
494.92	72.31
495.138	83.31
495.355	87.31
495.573	80.31
495.79	86.31
496.008	76.31
496.225	83.31
496.442	87.31
496.66	84.31
496.877	87.31
497.094	83.31
497.312	77.31
497.529	87.31
497.746	81.31
497.963	76.31
498.181	80.31
498.398	81.31
498.615	88.31
498.832	81.31
499.049	103.31
499.267	83.31
499.484	77.31
499.701	91.31
499.918	101.31
500.135	87.31
500.352	80.31
500.569	95.31
500.786	91.31
501.003	95.31
501.22	74.31
501.437	89.31
501.654	101.31
501.871	88.31
502.088	85.31
502.305	92.31
502.522	95.31
502.739	74.31
502.956	84.31
503.172	97.31
503.389	79.31
503.606	80.31
503.823	83.31
504.04	86.31
504.256	87.31
504.473	76.31
504.69	85.31
504.907	91.31
505.123	93.31
505.34	82.31
505.557	79.31
505.773	74.31
505.99	85.31
506.207	76.31
506.423	90.31
506.64	83.31
506.856	92.31
507.073	76.31
507.289	98.31
507.506	84.31
507.722	80.31
507.939	80.31
508.155	92.31
508.372	78.31
508.588	84.31
508.805	85.31
509.021	77.31
509.238	101.31
509.454	95.31
509.67	95.31
509.887	89.31
510.103	83.31
510.319	82.31
510.536	77.31
510.752	71.31
510.968	75.31
511.184	79.31
511.401	81.31
511.617	78.31
511.833	76.31
512.049	94.31
512.265	94.31
512.481	77.31
512.698	77.31
512.914	85.31
513.13	79.31
513.346	79.31
513.562	95.31
513.778	81.31
513.994	70.31
514.21	89.31
514.426	84.31
514.642	93.31
514.858	93.31
515.074	88.31
515.29	78.31
515.506	92.31
515.721	79.31
515.937	79.31
516.153	78.31
516.369	78.31
516.585	80.31
516.801	79.31
517.016	92.31
517.232	95.31
517.448	87.31
517.664	90.31
517.879	73.31
518.095	83.31
518.311	93.31
518.527	85.31
518.742	79.31
518.958	72.31
519.173	72.31
519.389	66.31
519.605	72.31
519.82	73.31
