Data from Background_2_HRD10591_00096.txt Node
Date: Wed Nov 05 14:47:44 EST 2025
User: Yrep
Spectrometer: HR+D1059
Trigger mode: 1
Integration Time (sec): 1.000000E-1
Scans to average: 1
Electric dark correction enabled: true
Nonlinearity correction enabled: false
Boxcar width: 0
XAxis mode: Wavelengths
Number of Pixels in Spectrum: 2048
>>>>>Begin Spectral Data<<<<<
223.165	-25.62
223.4	-25.62
223.635	-25.62
223.869	-13.62
224.104	-25.62
224.338	-8.62
224.573	-12.62
224.808	-15.62
225.042	-4.62
225.277	-1.62
225.511	3.38
225.746	1.38
225.98	-2.62
226.215	11.38
226.449	8.38
226.683	15.38
226.918	30.38
227.152	40.38
227.387	47.38
227.621	45.38
227.856	40.38
228.09	51.38
228.324	60.38
228.559	62.38
228.793	47.38
229.027	73.38
229.262	61.38
229.496	57.38
229.73	92.38
229.964	79.38
230.199	84.38
230.433	78.38
230.667	89.38
230.901	94.38
231.136	74.38
231.37	86.38
231.604	79.38
231.838	82.38
232.072	97.38
232.306	88.38
232.541	74.38
232.775	64.38
233.009	89.38
233.243	77.38
233.477	82.38
233.711	94.38
233.945	90.38
234.179	82.38
234.413	97.38
234.647	79.38
234.881	90.38
235.115	88.38
235.349	82.38
235.583	89.38
235.817	78.38
236.051	65.38
236.285	88.38
236.519	81.38
236.753	78.38
236.987	88.38
237.221	67.38
237.455	77.38
237.689	78.38
237.922	65.38
238.156	79.38
238.39	78.38
238.624	84.38
238.858	83.38
239.091	83.38
239.325	87.38
239.559	74.38
239.793	79.38
240.027	97.38
240.26	88.38
240.494	100.38
240.728	99.38
240.961	87.38
241.195	74.38
241.429	73.38
241.662	77.38
241.896	72.38
242.13	93.38
242.363	89.38
242.597	93.38
242.83	75.38
243.064	81.38
243.298	89.38
243.531	74.38
243.765	87.38
243.998	75.38
244.232	76.38
244.465	75.38
244.699	85.38
244.932	96.38
245.166	91.38
245.399	82.38
245.633	77.38
245.866	81.38
246.099	76.38
246.333	76.38
246.566	76.38
246.8	81.38
247.033	86.38
247.266	62.38
247.5	84.38
247.733	92.38
247.966	82.38
248.2	74.38
248.433	107.38
248.666	72.38
248.899	80.38
249.133	106.38
249.366	90.38
249.599	83.38
249.832	78.38
250.066	72.38
250.299	96.38
250.532	93.38
250.765	93.38
250.998	83.38
251.231	91.38
251.465	80.38
251.698	78.38
251.931	78.38
252.164	98.38
252.397	75.38
252.63	82.38
252.863	70.38
253.096	84.38
253.329	76.38
253.562	93.38
253.795	87.38
254.028	73.38
254.261	88.38
254.494	83.38
254.727	73.38
254.96	77.38
255.193	83.38
255.426	68.38
255.659	87.38
255.892	87.38
256.124	91.38
256.357	80.38
256.59	86.38
256.823	87.38
257.056	66.38
257.289	93.38
257.521	87.38
257.754	75.38
257.987	84.38
258.22	89.38
258.452	81.38
258.685	82.38
258.918	73.38
259.151	81.38
259.383	76.38
259.616	83.38
259.849	84.38
260.081	79.38
260.314	89.38
260.547	96.38
260.779	85.38
261.012	98.38
261.244	88.38
261.477	75.38
261.71	73.38
261.942	92.38
262.175	86.38
262.407	89.38
262.64	80.38
262.872	67.38
263.105	83.38
263.337	97.38
263.57	81.38
263.802	84.38
264.035	75.38
264.267	79.38
264.499	89.38
264.732	95.38
264.964	80.38
265.197	83.38
265.429	94.38
265.661	96.38
265.894	85.38
266.126	90.38
266.358	85.38
266.591	85.38
266.823	93.38
267.055	88.38
267.287	90.38
267.52	94.38
267.752	83.38
267.984	88.38
268.216	80.38
268.448	89.38
268.681	88.38
268.913	81.38
269.145	86.38
269.377	90.38
269.609	67.38
269.841	98.38
270.073	97.38
270.306	85.38
270.538	86.38
270.77	91.38
271.002	81.38
271.234	84.38
271.466	88.38
271.698	99.38
271.93	88.38
272.162	94.38
272.394	79.38
272.626	95.38
272.858	81.38
273.09	83.38
273.322	90.38
273.553	81.38
273.785	78.38
274.017	93.38
274.249	81.38
274.481	84.38
274.713	94.38
274.945	83.38
275.176	91.38
275.408	87.38
275.64	103.38
275.872	89.38
276.104	75.38
276.335	90.38
276.567	76.38
276.799	84.38
277.031	82.38
277.262	78.38
277.494	98.38
277.726	83.38
277.957	94.38
278.189	93.38
278.421	95.38
278.652	83.38
278.884	79.38
279.115	82.38
279.347	89.38
279.579	78.38
279.81	85.38
280.042	82.38
280.273	85.38
280.505	97.38
280.736	95.38
280.968	75.38
281.199	93.38
281.431	101.38
281.662	92.38
281.894	91.38
282.125	100.38
282.356	91.38
282.588	93.38
282.819	101.38
283.051	97.38
283.282	77.38
283.513	95.38
283.745	85.38
283.976	80.38
284.207	86.38
284.439	99.38
284.67	90.38
284.901	79.38
285.132	90.38
285.364	94.38
285.595	73.38
285.826	97.38
286.057	93.38
286.288	82.38
286.52	98.38
286.751	93.38
286.982	87.38
287.213	80.38
287.444	91.38
287.675	86.38
287.906	88.38
288.138	90.38
288.369	94.38
288.6	84.38
288.831	87.38
289.062	78.38
289.293	88.38
289.524	88.38
289.755	82.38
289.986	73.38
290.217	88.38
290.448	88.38
290.679	80.38
290.91	102.38
291.141	75.38
291.371	80.38
291.602	98.38
291.833	86.38
292.064	89.38
292.295	82.38
292.526	77.38
292.757	83.38
292.987	82.38
293.218	74.38
293.449	85.38
293.68	98.38
293.91	87.38
294.141	93.38
294.372	82.38
294.603	79.38
294.833	97.38
295.064	83.38
295.295	90.38
295.525	71.38
295.756	94.38
295.987	88.38
296.217	87.38
296.448	85.38
296.679	100.38
296.909	93.38
297.14	101.38
297.37	97.38
297.601	96.38
297.831	85.38
298.062	83.38
298.292	108.38
298.523	90.38
298.753	89.38
298.984	91.38
299.214	90.38
299.445	84.38
299.675	94.38
299.905	81.38
300.136	91.38
300.366	87.38
300.597	74.38
300.827	85.38
301.057	91.38
301.288	87.38
301.518	81.38
301.748	81.38
301.979	100.38
302.209	100.38
302.439	103.38
302.669	95.38
302.9	89.38
303.13	90.38
303.36	95.38
303.59	89.38
303.82	87.38
304.051	97.38
304.281	96.38
304.511	87.38
304.741	84.38
304.971	93.38
305.201	85.38
305.431	94.38
305.661	76.38
305.891	85.38
306.121	98.38
306.352	70.38
306.582	80.38
306.812	82.38
307.042	79.38
307.272	78.38
307.502	91.38
307.731	83.38
307.961	82.38
308.191	85.38
308.421	84.38
308.651	95.38
308.881	97.38
309.111	79.38
309.341	89.38
309.571	85.38
309.8	88.38
310.03	97.38
310.26	97.38
310.49	80.38
310.72	87.38
310.949	90.38
311.179	91.38
311.409	90.38
311.639	94.38
311.868	83.38
312.098	93.38
312.328	86.38
312.557	96.38
312.787	96.38
313.017	93.38
313.246	91.38
313.476	86.38
313.706	96.38
313.935	88.38
314.165	87.38
314.394	89.38
314.624	90.38
314.853	88.38
315.083	90.38
315.312	83.38
315.542	94.38
315.771	109.38
316.001	91.38
316.23	95.38
316.46	102.38
316.689	91.38
316.919	98.38
317.148	76.38
317.377	87.38
317.607	94.38
317.836	89.38
318.065	66.38
318.295	75.38
318.524	90.38
318.753	79.38
318.983	90.38
319.212	91.38
319.441	94.38
319.67	86.38
319.9	93.38
320.129	97.38
320.358	78.38
320.587	88.38
320.816	90.38
321.046	97.38
321.275	92.38
321.504	101.38
321.733	87.38
321.962	95.38
322.191	72.38
322.42	97.38
322.649	100.38
322.878	93.38
323.108	83.38
323.337	93.38
323.566	101.38
323.795	89.38
324.024	87.38
324.253	87.38
324.482	102.38
324.71	101.38
324.939	90.38
325.168	86.38
325.397	91.38
325.626	83.38
325.855	71.38
326.084	91.38
326.313	86.38
326.542	81.38
326.77	87.38
326.999	86.38
327.228	89.38
327.457	97.38
327.686	74.38
327.914	101.38
328.143	82.38
328.372	86.38
328.6	90.38
328.829	82.38
329.058	75.38
329.287	87.38
329.515	97.38
329.744	85.38
329.972	82.38
330.201	83.38
330.43	75.38
330.658	93.38
330.887	89.38
331.115	90.38
331.344	83.38
331.572	90.38
331.801	82.38
332.03	99.38
332.258	85.38
332.486	81.38
332.715	81.38
332.943	89.38
333.172	89.38
333.4	89.38
333.629	89.38
333.857	94.38
334.085	89.38
334.314	85.38
334.542	80.38
334.771	88.38
334.999	82.38
335.227	92.38
335.455	95.38
335.684	88.38
335.912	95.38
336.14	97.38
336.369	83.38
336.597	89.38
336.825	109.38
337.053	82.38
337.281	89.38
337.51	94.38
337.738	85.38
337.966	86.38
338.194	87.38
338.422	85.38
338.65	83.38
338.878	98.38
339.106	88.38
339.334	91.38
339.562	100.38
339.79	99.38
340.018	85.38
340.246	83.38
340.474	93.38
340.702	74.38
340.93	103.38
341.158	87.38
341.386	88.38
341.614	89.38
341.842	103.38
342.07	102.38
342.298	76.38
342.526	87.38
342.754	71.38
342.981	75.38
343.209	97.38
343.437	100.38
343.665	87.38
343.893	81.38
344.12	94.38
344.348	83.38
344.576	72.38
344.804	89.38
345.031	97.38
345.259	88.38
345.487	84.38
345.714	79.38
345.942	87.38
346.17	93.38
346.397	90.38
346.625	90.38
346.853	82.38
347.08	90.38
347.308	79.38
347.535	71.38
347.763	91.38
347.99	93.38
348.218	77.38
348.445	86.38
348.673	91.38
348.9	92.38
349.128	83.38
349.355	84.38
349.583	82.38
349.81	77.38
350.037	85.38
350.265	90.38
350.492	98.38
350.72	76.38
350.947	73.38
351.174	77.38
351.402	84.38
351.629	86.38
351.856	100.38
352.083	99.38
352.311	89.38
352.538	90.38
352.765	77.38
352.992	89.38
353.22	86.38
353.447	85.38
353.674	101.38
353.901	106.38
354.128	106.38
354.355	78.38
354.583	88.38
354.81	112.38
355.037	85.38
355.264	114.38
355.491	99.38
355.718	99.38
355.945	93.38
356.172	87.38
356.399	93.38
356.626	77.38
356.853	89.38
357.08	87.38
357.307	85.38
357.534	86.38
357.761	91.38
357.988	84.38
358.215	98.38
358.441	93.38
358.668	82.38
358.895	86.38
359.122	81.38
359.349	81.38
359.576	93.38
359.802	73.38
360.029	96.38
360.256	103.38
360.483	81.38
360.709	89.38
360.936	94.38
361.163	87.38
361.39	78.38
361.616	79.38
361.843	104.38
362.07	90.38
362.296	86.38
362.523	85.38
362.749	92.38
362.976	80.38
363.203	79.38
363.429	90.38
363.656	81.38
363.882	91.38
364.109	81.38
364.335	83.38
364.562	100.38
364.788	86.38
365.015	103.38
365.241	91.38
365.468	81.38
365.694	91.38
365.92	85.38
366.147	79.38
366.373	90.38
366.599	89.38
366.826	81.38
367.052	103.38
367.278	71.38
367.505	91.38
367.731	102.38
367.957	88.38
368.184	96.38
368.41	99.38
368.636	88.38
368.862	82.38
369.089	90.38
369.315	86.38
369.541	88.38
369.767	95.38
369.993	85.38
370.219	78.38
370.445	80.38
370.672	97.38
370.898	98.38
371.124	87.38
371.35	77.38
371.576	99.38
371.802	90.38
372.028	88.38
372.254	95.38
372.48	83.38
372.706	75.38
372.932	97.38
373.158	80.38
373.384	86.38
373.61	94.38
373.835	84.38
374.061	93.38
374.287	103.38
374.513	86.38
374.739	88.38
374.965	93.38
375.191	93.38
375.416	72.38
375.642	95.38
375.868	91.38
376.094	80.38
376.319	96.38
376.545	94.38
376.771	79.38
376.997	92.38
377.222	101.38
377.448	65.38
377.674	83.38
377.899	93.38
378.125	78.38
378.35	90.38
378.576	78.38
378.802	83.38
379.027	83.38
379.253	95.38
379.478	82.38
379.704	79.38
379.929	84.38
380.155	104.38
380.38	98.38
380.606	77.38
380.831	94.38
381.057	104.38
381.282	90.38
381.507	77.38
381.733	95.38
381.958	90.38
382.184	81.38
382.409	81.38
382.634	107.38
382.86	89.38
383.085	92.38
383.31	91.38
383.535	93.38
383.761	103.38
383.986	92.38
384.211	95.38
384.436	87.38
384.662	88.38
384.887	97.38
385.112	90.38
385.337	85.38
385.562	91.38
385.787	96.38
386.013	98.38
386.238	72.38
386.463	94.38
386.688	100.38
386.913	87.38
387.138	82.38
387.363	85.38
387.588	94.38
387.813	85.38
388.038	95.38
388.263	81.38
388.488	88.38
388.713	84.38
388.938	83.38
389.163	85.38
389.387	76.38
389.612	97.38
389.837	102.38
390.062	77.38
390.287	88.38
390.512	96.38
390.736	88.38
390.961	101.38
391.186	92.38
391.411	94.38
391.636	84.38
391.86	81.38
392.085	86.38
392.31	89.38
392.534	87.38
392.759	98.38
392.984	89.38
393.208	81.38
393.433	93.38
393.658	97.38
393.882	87.38
394.107	94.38
394.331	101.38
394.556	103.38
394.78	82.38
395.005	88.38
395.229	70.38
395.454	90.38
395.678	70.38
395.903	87.38
396.127	90.38
396.352	92.38
396.576	87.38
396.801	98.38
397.025	88.38
397.249	90.38
397.474	91.38
397.698	92.38
397.922	79.38
398.147	93.38
398.371	73.38
398.595	83.38
398.82	96.38
399.044	109.38
399.268	83.38
399.492	83.38
399.717	82.38
399.941	88.38
400.165	82.38
400.389	81.38
400.613	79.38
400.837	97.38
401.062	94.38
401.286	91.38
401.51	94.38
401.734	92.38
401.958	74.38
402.182	87.38
402.406	94.38
402.63	81.38
402.854	81.38
403.078	84.38
403.302	66.38
403.526	79.38
403.75	71.38
403.974	76.38
404.198	89.38
404.422	88.38
404.645	85.38
404.869	89.38
405.093	85.38
405.317	87.38
405.541	78.38
405.765	89.38
405.988	84.38
406.212	98.38
406.436	102.38
406.66	96.38
406.883	81.38
407.107	76.38
407.331	96.38
407.555	82.38
407.778	73.38
408.002	78.38
408.226	79.38
408.449	90.38
408.673	90.38
408.896	91.38
409.12	80.38
409.344	77.38
409.567	83.38
409.791	91.38
410.014	78.38
410.238	75.38
410.461	93.38
410.685	79.38
410.908	98.38
411.132	77.38
411.355	77.38
411.578	94.38
411.802	87.38
412.025	85.38
412.249	84.38
412.472	89.38
412.695	83.38
412.919	83.38
413.142	77.38
413.365	81.38
413.589	75.38
413.812	74.38
414.035	89.38
414.258	93.38
414.482	78.38
414.705	75.38
414.928	76.38
415.151	74.38
415.374	81.38
415.597	93.38
415.821	86.38
416.044	79.38
416.267	82.38
416.49	89.38
416.713	89.38
416.936	82.38
417.159	86.38
417.382	75.38
417.605	76.38
417.828	101.38
418.051	80.38
418.274	95.38
418.497	94.38
418.72	86.38
418.943	89.38
419.166	78.38
419.389	87.38
419.611	72.38
419.834	85.38
420.057	73.38
420.28	89.38
420.503	98.38
420.726	80.38
420.948	91.38
421.171	80.38
421.394	88.38
421.617	96.38
421.839	81.38
422.062	70.38
422.285	82.38
422.507	75.38
422.73	86.38
422.953	74.38
423.175	85.38
423.398	81.38
423.621	95.38
423.843	75.38
424.066	93.38
424.288	79.38
424.511	87.38
424.733	91.38
424.956	87.38
425.178	97.38
425.401	79.38
425.623	89.38
425.846	95.38
426.068	90.38
426.291	95.38
426.513	83.38
426.735	87.38
426.958	82.38
427.18	93.38
427.402	79.38
427.625	77.38
427.847	80.38
428.069	77.38
428.292	90.38
428.514	83.38
428.736	92.38
428.958	89.38
429.181	87.38
429.403	93.38
429.625	83.38
429.847	89.38
430.069	85.38
430.292	83.38
430.514	86.38
430.736	89.38
430.958	81.38
431.18	90.38
431.402	89.38
431.624	92.38
431.846	75.38
432.068	87.38
432.29	72.38
432.512	92.38
432.734	82.38
432.956	81.38
433.178	93.38
433.4	85.38
433.622	97.38
433.844	98.38
434.066	77.38
434.287	90.38
434.509	81.38
434.731	101.38
434.953	86.38
435.175	90.38
435.397	82.38
435.618	76.38
435.84	79.38
436.062	85.38
436.284	84.38
436.505	81.38
436.727	91.38
436.949	89.38
437.17	74.38
437.392	72.38
437.614	79.38
437.835	69.38
438.057	81.38
438.278	89.38
438.5	82.38
438.721	83.38
438.943	73.38
439.165	84.38
439.386	87.38
439.608	77.38
439.829	101.38
440.05	89.38
440.272	84.38
440.493	70.38
440.715	78.38
440.936	89.38
441.158	107.38
441.379	72.38
441.6	88.38
441.822	70.38
442.043	88.38
442.264	95.38
442.486	90.38
442.707	73.38
442.928	85.38
443.149	90.38
443.371	71.38
443.592	91.38
443.813	69.38
444.034	83.38
444.255	90.38
444.476	101.38
444.698	90.38
444.919	87.38
445.14	169.38
445.361	123.38
445.582	90.38
445.803	72.38
446.024	79.38
446.245	81.38
446.466	84.38
446.687	84.38
446.908	90.38
447.129	96.38
447.35	85.38
447.571	86.38
447.792	73.38
448.013	87.38
448.234	93.38
448.455	86.38
448.675	96.38
448.896	84.38
449.117	87.38
449.338	93.38
449.559	81.38
449.779	83.38
450	85.38
450.221	89.38
450.442	83.38
450.662	76.38
450.883	86.38
451.104	82.38
451.324	85.38
451.545	90.38
451.766	93.38
451.986	87.38
452.207	93.38
452.428	80.38
452.648	86.38
452.869	84.38
453.089	84.38
453.31	82.38
453.53	90.38
453.751	93.38
453.971	75.38
454.192	85.38
454.412	80.38
454.633	84.38
454.853	81.38
455.073	91.38
455.294	67.38
455.514	86.38
455.734	72.38
455.955	81.38
456.175	62.38
456.395	96.38
456.616	95.38
456.836	89.38
457.056	76.38
457.276	96.38
457.497	73.38
457.717	90.38
457.937	81.38
458.157	86.38
458.377	69.38
458.598	70.38
458.818	85.38
459.038	98.38
459.258	85.38
459.478	76.38
459.698	75.38
459.918	83.38
460.138	77.38
460.358	79.38
460.578	100.38
460.798	86.38
461.018	85.38
461.238	93.38
461.458	86.38
461.678	86.38
461.898	80.38
462.118	81.38
462.338	80.38
462.558	83.38
462.777	94.38
462.997	83.38
463.217	77.38
463.437	99.38
463.657	83.38
463.876	88.38
464.096	78.38
464.316	93.38
464.536	102.38
464.755	74.38
464.975	97.38
465.195	93.38
465.414	79.38
465.634	89.38
465.854	86.38
466.073	83.38
466.293	94.38
466.512	83.38
466.732	90.38
466.951	86.38
467.171	96.38
467.391	82.38
467.61	80.38
467.829	82.38
468.049	85.38
468.268	89.38
468.488	95.38
468.707	80.38
468.927	70.38
469.146	85.38
469.365	85.38
469.585	96.38
469.804	83.38
470.023	87.38
470.243	74.38
470.462	89.38
470.681	83.38
470.901	93.38
471.12	88.38
471.339	82.38
471.558	79.38
471.777	94.38
471.997	93.38
472.216	88.38
472.435	74.38
472.654	74.38
472.873	70.38
473.092	72.38
473.311	93.38
473.53	90.38
473.749	95.38
473.968	97.38
474.187	95.38
474.406	80.38
474.625	91.38
474.844	69.38
475.063	85.38
475.282	93.38
475.501	85.38
475.72	91.38
475.939	86.38
476.158	88.38
476.377	94.38
476.596	74.38
476.814	89.38
477.033	99.38
477.252	94.38
477.471	82.38
477.69	84.38
477.908	88.38
478.127	89.38
478.346	85.38
478.564	83.38
478.783	79.38
479.002	81.38
479.22	93.38
479.439	70.38
479.658	70.38
479.876	67.38
480.095	94.38
480.313	90.38
480.532	90.38
480.751	77.38
480.969	78.38
481.188	79.38
481.406	88.38
481.624	81.38
481.843	73.38
482.061	93.38
482.28	89.38
482.498	85.38
482.717	85.38
482.935	88.38
483.153	83.38
483.372	72.38
483.59	83.38
483.808	95.38
484.027	85.38
484.245	72.38
484.463	84.38
484.681	85.38
484.9	97.38
485.118	101.38
485.336	75.38
485.554	94.38
485.772	99.38
485.99	78.38
486.209	91.38
486.427	89.38
486.645	93.38
486.863	80.38
487.081	95.38
487.299	80.38
487.517	81.38
487.735	89.38
487.953	78.38
488.171	90.38
488.389	78.38
488.607	92.38
488.825	82.38
489.043	76.38
489.261	90.38
489.479	79.38
489.696	86.38
489.914	83.38
490.132	89.38
490.35	92.38
490.568	92.38
490.786	87.38
491.003	87.38
491.221	88.38
491.439	82.38
491.657	75.38
491.874	86.38
492.092	77.38
492.31	94.38
492.527	75.38
492.745	76.38
492.963	91.38
493.18	66.38
493.398	85.38
493.615	89.38
493.833	76.38
494.05	90.38
494.268	83.38
494.485	90.38
494.703	85.38
494.92	77.38
495.138	67.38
495.355	81.38
495.573	89.38
495.79	76.38
496.008	87.38
496.225	85.38
496.442	81.38
496.66	89.38
496.877	85.38
497.094	89.38
497.312	82.38
497.529	93.38
497.746	69.38
497.963	76.38
498.181	75.38
498.398	74.38
498.615	82.38
498.832	81.38
499.049	82.38
499.267	84.38
499.484	91.38
499.701	103.38
499.918	84.38
500.135	87.38
500.352	80.38
500.569	88.38
500.786	84.38
501.003	73.38
501.22	88.38
501.437	78.38
501.654	83.38
501.871	81.38
502.088	75.38
502.305	89.38
502.522	93.38
502.739	77.38
502.956	79.38
503.172	71.38
503.389	86.38
503.606	77.38
503.823	97.38
504.04	73.38
504.256	76.38
504.473	89.38
504.69	93.38
504.907	93.38
505.123	89.38
505.34	77.38
505.557	94.38
505.773	96.38
505.99	92.38
506.207	81.38
506.423	85.38
506.64	78.38
506.856	86.38
507.073	89.38
507.289	81.38
507.506	90.38
507.722	90.38
507.939	99.38
508.155	84.38
508.372	90.38
508.588	70.38
508.805	84.38
509.021	95.38
509.238	87.38
509.454	76.38
509.67	85.38
509.887	80.38
510.103	85.38
510.319	86.38
510.536	87.38
510.752	78.38
510.968	88.38
511.184	79.38
511.401	98.38
511.617	88.38
511.833	82.38
512.049	86.38
512.265	92.38
512.481	83.38
512.698	87.38
512.914	88.38
513.13	92.38
513.346	83.38
513.562	103.38
513.778	95.38
513.994	90.38
514.21	81.38
514.426	86.38
514.642	82.38
514.858	97.38
515.074	84.38
515.29	81.38
515.506	96.38
515.721	92.38
515.937	98.38
516.153	78.38
516.369	96.38
516.585	90.38
516.801	74.38
517.016	95.38
517.232	90.38
517.448	84.38
517.664	90.38
517.879	93.38
518.095	85.38
518.311	79.38
518.527	74.38
518.742	97.38
518.958	86.38
519.173	82.38
519.389	90.38
