Data from Background_2_HRD10591_00060.txt Node
Date: Wed Nov 05 14:47:26 EST 2025
User: Yrep
Spectrometer: HR+D1059
Trigger mode: 1
Integration Time (sec): 1.000000E-1
Scans to average: 1
Electric dark correction enabled: true
Nonlinearity correction enabled: false
Boxcar width: 0
XAxis mode: Wavelengths
Number of Pixels in Spectrum: 2048
>>>>>Begin Spectral Data<<<<<
223.165	-13.94
223.4	-13.94
223.635	-13.94
223.869	-20.94
224.104	-13.94
224.338	-15.94
224.573	-15.94
224.808	-28.94
225.042	-6.94
225.277	-4.94
225.511	-2.94
225.746	5.06
225.98	18.06
226.215	-1.94
226.449	24.06
226.683	21.06
226.918	21.06
227.152	37.06
227.387	37.06
227.621	47.06
227.856	49.06
228.09	36.06
228.324	36.06
228.559	45.06
228.793	71.06
229.027	73.06
229.262	57.06
229.496	69.06
229.73	56.06
229.964	62.06
230.199	74.06
230.433	82.06
230.667	77.06
230.901	77.06
231.136	91.06
231.37	73.06
231.604	90.06
231.838	89.06
232.072	78.06
232.306	78.06
232.541	83.06
232.775	73.06
233.009	85.06
233.243	78.06
233.477	94.06
233.711	82.06
233.945	77.06
234.179	104.06
234.413	78.06
234.647	71.06
234.881	61.06
235.115	88.06
235.349	66.06
235.583	77.06
235.817	84.06
236.051	80.06
236.285	82.06
236.519	95.06
236.753	98.06
236.987	81.06
237.221	75.06
237.455	74.06
237.689	74.06
237.922	79.06
238.156	81.06
238.39	74.06
238.624	72.06
238.858	84.06
239.091	88.06
239.325	75.06
239.559	71.06
239.793	82.06
240.027	88.06
240.26	70.06
240.494	78.06
240.728	79.06
240.961	85.06
241.195	65.06
241.429	74.06
241.662	56.06
241.896	77.06
242.13	78.06
242.363	86.06
242.597	73.06
242.83	84.06
243.064	80.06
243.298	78.06
243.531	73.06
243.765	76.06
243.998	82.06
244.232	73.06
244.465	68.06
244.699	80.06
244.932	70.06
245.166	82.06
245.399	76.06
245.633	74.06
245.866	68.06
246.099	81.06
246.333	81.06
246.566	80.06
246.8	65.06
247.033	74.06
247.266	78.06
247.5	82.06
247.733	89.06
247.966	79.06
248.2	82.06
248.433	87.06
248.666	73.06
248.899	89.06
249.133	71.06
249.366	85.06
249.599	84.06
249.832	82.06
250.066	79.06
250.299	76.06
250.532	68.06
250.765	56.06
250.998	93.06
251.231	85.06
251.465	73.06
251.698	76.06
251.931	83.06
252.164	81.06
252.397	93.06
252.63	83.06
252.863	80.06
253.096	79.06
253.329	86.06
253.562	74.06
253.795	77.06
254.028	76.06
254.261	86.06
254.494	74.06
254.727	82.06
254.96	90.06
255.193	77.06
255.426	64.06
255.659	84.06
255.892	92.06
256.124	72.06
256.357	73.06
256.59	84.06
256.823	79.06
257.056	74.06
257.289	78.06
257.521	92.06
257.754	82.06
257.987	74.06
258.22	82.06
258.452	76.06
258.685	87.06
258.918	84.06
259.151	72.06
259.383	86.06
259.616	91.06
259.849	80.06
260.081	81.06
260.314	80.06
260.547	74.06
260.779	69.06
261.012	85.06
261.244	83.06
261.477	101.06
261.71	79.06
261.942	85.06
262.175	93.06
262.407	91.06
262.64	84.06
262.872	75.06
263.105	66.06
263.337	76.06
263.57	81.06
263.802	94.06
264.035	85.06
264.267	88.06
264.499	84.06
264.732	79.06
264.964	69.06
265.197	73.06
265.429	84.06
265.661	82.06
265.894	81.06
266.126	69.06
266.358	81.06
266.591	84.06
266.823	81.06
267.055	82.06
267.287	74.06
267.52	96.06
267.752	74.06
267.984	89.06
268.216	85.06
268.448	99.06
268.681	89.06
268.913	70.06
269.145	79.06
269.377	76.06
269.609	80.06
269.841	77.06
270.073	90.06
270.306	90.06
270.538	84.06
270.77	81.06
271.002	73.06
271.234	102.06
271.466	82.06
271.698	70.06
271.93	85.06
272.162	79.06
272.394	81.06
272.626	76.06
272.858	88.06
273.09	70.06
273.322	80.06
273.553	81.06
273.785	79.06
274.017	98.06
274.249	86.06
274.481	77.06
274.713	69.06
274.945	70.06
275.176	74.06
275.408	88.06
275.64	84.06
275.872	85.06
276.104	75.06
276.335	65.06
276.567	82.06
276.799	82.06
277.031	83.06
277.262	83.06
277.494	76.06
277.726	87.06
277.957	82.06
278.189	84.06
278.421	74.06
278.652	92.06
278.884	88.06
279.115	79.06
279.347	80.06
279.579	92.06
279.81	70.06
280.042	84.06
280.273	76.06
280.505	84.06
280.736	86.06
280.968	82.06
281.199	95.06
281.431	68.06
281.662	85.06
281.894	107.06
282.125	77.06
282.356	87.06
282.588	71.06
282.819	71.06
283.051	71.06
283.282	96.06
283.513	95.06
283.745	84.06
283.976	73.06
284.207	80.06
284.439	84.06
284.67	82.06
284.901	68.06
285.132	78.06
285.364	80.06
285.595	70.06
285.826	77.06
286.057	85.06
286.288	71.06
286.52	94.06
286.751	85.06
286.982	84.06
287.213	83.06
287.444	67.06
287.675	75.06
287.906	86.06
288.138	66.06
288.369	93.06
288.6	84.06
288.831	82.06
289.062	81.06
289.293	79.06
289.524	84.06
289.755	76.06
289.986	85.06
290.217	79.06
290.448	81.06
290.679	93.06
290.91	92.06
291.141	76.06
291.371	80.06
291.602	82.06
291.833	83.06
292.064	88.06
292.295	82.06
292.526	81.06
292.757	81.06
292.987	90.06
293.218	81.06
293.449	74.06
293.68	77.06
293.91	69.06
294.141	76.06
294.372	93.06
294.603	92.06
294.833	100.06
295.064	80.06
295.295	80.06
295.525	83.06
295.756	99.06
295.987	88.06
296.217	93.06
296.448	95.06
296.679	73.06
296.909	76.06
297.14	100.06
297.37	84.06
297.601	81.06
297.831	81.06
298.062	85.06
298.292	89.06
298.523	90.06
298.753	86.06
298.984	80.06
299.214	80.06
299.445	88.06
299.675	81.06
299.905	86.06
300.136	93.06
300.366	79.06
300.597	76.06
300.827	79.06
301.057	90.06
301.288	94.06
301.518	73.06
301.748	90.06
301.979	88.06
302.209	93.06
302.439	68.06
302.669	84.06
302.9	85.06
303.13	98.06
303.36	77.06
303.59	84.06
303.82	69.06
304.051	94.06
304.281	78.06
304.511	88.06
304.741	92.06
304.971	93.06
305.201	84.06
305.431	84.06
305.661	87.06
305.891	91.06
306.121	105.06
306.352	62.06
306.582	79.06
306.812	88.06
307.042	89.06
307.272	68.06
307.502	78.06
307.731	68.06
307.961	83.06
308.191	81.06
308.421	86.06
308.651	79.06
308.881	85.06
309.111	71.06
309.341	70.06
309.571	71.06
309.8	85.06
310.03	81.06
310.26	77.06
310.49	79.06
310.72	89.06
310.949	90.06
311.179	79.06
311.409	76.06
311.639	70.06
311.868	86.06
312.098	95.06
312.328	95.06
312.557	77.06
312.787	86.06
313.017	86.06
313.246	83.06
313.476	78.06
313.706	82.06
313.935	90.06
314.165	73.06
314.394	83.06
314.624	82.06
314.853	83.06
315.083	89.06
315.312	83.06
315.542	91.06
315.771	95.06
316.001	77.06
316.23	88.06
316.46	92.06
316.689	88.06
316.919	90.06
317.148	89.06
317.377	81.06
317.607	82.06
317.836	81.06
318.065	83.06
318.295	79.06
318.524	79.06
318.753	66.06
318.983	74.06
319.212	67.06
319.441	93.06
319.67	89.06
319.9	96.06
320.129	92.06
320.358	82.06
320.587	88.06
320.816	86.06
321.046	79.06
321.275	92.06
321.504	87.06
321.733	74.06
321.962	91.06
322.191	93.06
322.42	82.06
322.649	85.06
322.878	77.06
323.108	88.06
323.337	84.06
323.566	76.06
323.795	88.06
324.024	84.06
324.253	84.06
324.482	82.06
324.71	80.06
324.939	66.06
325.168	92.06
325.397	82.06
325.626	89.06
325.855	82.06
326.084	87.06
326.313	79.06
326.542	91.06
326.77	86.06
326.999	99.06
327.228	68.06
327.457	80.06
327.686	82.06
327.914	79.06
328.143	82.06
328.372	82.06
328.6	78.06
328.829	83.06
329.058	83.06
329.287	85.06
329.515	81.06
329.744	84.06
329.972	75.06
330.201	75.06
330.43	88.06
330.658	60.06
330.887	74.06
331.115	82.06
331.344	97.06
331.572	93.06
331.801	78.06
332.03	86.06
332.258	96.06
332.486	91.06
332.715	90.06
332.943	85.06
333.172	97.06
333.4	82.06
333.629	89.06
333.857	72.06
334.085	90.06
334.314	82.06
334.542	71.06
334.771	78.06
334.999	83.06
335.227	86.06
335.455	85.06
335.684	88.06
335.912	80.06
336.14	85.06
336.369	86.06
336.597	75.06
336.825	83.06
337.053	82.06
337.281	78.06
337.51	69.06
337.738	89.06
337.966	84.06
338.194	82.06
338.422	88.06
338.65	88.06
338.878	72.06
339.106	87.06
339.334	66.06
339.562	81.06
339.79	78.06
340.018	78.06
340.246	91.06
340.474	81.06
340.702	84.06
340.93	94.06
341.158	80.06
341.386	88.06
341.614	99.06
341.842	81.06
342.07	73.06
342.298	70.06
342.526	85.06
342.754	80.06
342.981	76.06
343.209	83.06
343.437	88.06
343.665	84.06
343.893	85.06
344.12	79.06
344.348	80.06
344.576	82.06
344.804	84.06
345.031	85.06
345.259	89.06
345.487	94.06
345.714	92.06
345.942	86.06
346.17	80.06
346.397	90.06
346.625	73.06
346.853	71.06
347.08	71.06
347.308	69.06
347.535	82.06
347.763	69.06
347.99	81.06
348.218	78.06
348.445	90.06
348.673	74.06
348.9	92.06
349.128	95.06
349.355	78.06
349.583	73.06
349.81	78.06
350.037	73.06
350.265	79.06
350.492	87.06
350.72	77.06
350.947	84.06
351.174	89.06
351.402	78.06
351.629	66.06
351.856	88.06
352.083	64.06
352.311	91.06
352.538	91.06
352.765	80.06
352.992	70.06
353.22	83.06
353.447	92.06
353.674	83.06
353.901	70.06
354.128	83.06
354.355	79.06
354.583	90.06
354.81	100.06
355.037	89.06
355.264	82.06
355.491	83.06
355.718	91.06
355.945	89.06
356.172	80.06
356.399	82.06
356.626	78.06
356.853	79.06
357.08	82.06
357.307	84.06
357.534	94.06
357.761	82.06
357.988	90.06
358.215	93.06
358.441	93.06
358.668	81.06
358.895	83.06
359.122	81.06
359.349	92.06
359.576	72.06
359.802	74.06
360.029	68.06
360.256	70.06
360.483	95.06
360.709	76.06
360.936	94.06
361.163	83.06
361.39	79.06
361.616	81.06
361.843	84.06
362.07	97.06
362.296	79.06
362.523	70.06
362.749	90.06
362.976	86.06
363.203	87.06
363.429	76.06
363.656	79.06
363.882	92.06
364.109	96.06
364.335	81.06
364.562	86.06
364.788	67.06
365.015	88.06
365.241	87.06
365.468	79.06
365.694	83.06
365.92	77.06
366.147	80.06
366.373	84.06
366.599	87.06
366.826	82.06
367.052	79.06
367.278	93.06
367.505	92.06
367.731	84.06
367.957	71.06
368.184	90.06
368.41	88.06
368.636	71.06
368.862	90.06
369.089	78.06
369.315	80.06
369.541	76.06
369.767	83.06
369.993	80.06
370.219	70.06
370.445	77.06
370.672	87.06
370.898	80.06
371.124	87.06
371.35	85.06
371.576	84.06
371.802	86.06
372.028	77.06
372.254	86.06
372.48	75.06
372.706	80.06
372.932	89.06
373.158	81.06
373.384	87.06
373.61	82.06
373.835	86.06
374.061	65.06
374.287	70.06
374.513	81.06
374.739	70.06
374.965	78.06
375.191	84.06
375.416	91.06
375.642	79.06
375.868	86.06
376.094	77.06
376.319	79.06
376.545	77.06
376.771	77.06
376.997	78.06
377.222	78.06
377.448	79.06
377.674	81.06
377.899	79.06
378.125	85.06
378.35	82.06
378.576	81.06
378.802	73.06
379.027	92.06
379.253	79.06
379.478	93.06
379.704	98.06
379.929	85.06
380.155	78.06
380.38	83.06
380.606	82.06
380.831	82.06
381.057	96.06
381.282	72.06
381.507	85.06
381.733	87.06
381.958	76.06
382.184	83.06
382.409	96.06
382.634	79.06
382.86	80.06
383.085	96.06
383.31	89.06
383.535	85.06
383.761	86.06
383.986	81.06
384.211	80.06
384.436	79.06
384.662	85.06
384.887	86.06
385.112	84.06
385.337	83.06
385.562	82.06
385.787	87.06
386.013	87.06
386.238	97.06
386.463	88.06
386.688	98.06
386.913	77.06
387.138	88.06
387.363	76.06
387.588	90.06
387.813	85.06
388.038	85.06
388.263	87.06
388.488	63.06
388.713	71.06
388.938	62.06
389.163	82.06
389.387	88.06
389.612	81.06
389.837	80.06
390.062	85.06
390.287	76.06
390.512	83.06
390.736	82.06
390.961	85.06
391.186	77.06
391.411	94.06
391.636	95.06
391.86	76.06
392.085	88.06
392.31	72.06
392.534	73.06
392.759	81.06
392.984	85.06
393.208	82.06
393.433	71.06
393.658	85.06
393.882	78.06
394.107	84.06
394.331	90.06
394.556	80.06
394.78	71.06
395.005	77.06
395.229	86.06
395.454	92.06
395.678	73.06
395.903	80.06
396.127	85.06
396.352	78.06
396.576	80.06
396.801	80.06
397.025	69.06
397.249	81.06
397.474	88.06
397.698	76.06
397.922	92.06
398.147	80.06
398.371	84.06
398.595	87.06
398.82	73.06
399.044	73.06
399.268	96.06
399.492	86.06
399.717	69.06
399.941	77.06
400.165	78.06
400.389	84.06
400.613	83.06
400.837	82.06
401.062	84.06
401.286	79.06
401.51	81.06
401.734	61.06
401.958	87.06
402.182	83.06
402.406	85.06
402.63	77.06
402.854	85.06
403.078	89.06
403.302	88.06
403.526	89.06
403.75	81.06
403.974	75.06
404.198	70.06
404.422	88.06
404.645	77.06
404.869	78.06
405.093	75.06
405.317	93.06
405.541	78.06
405.765	63.06
405.988	67.06
406.212	76.06
406.436	81.06
406.66	86.06
406.883	92.06
407.107	71.06
407.331	82.06
407.555	74.06
407.778	71.06
408.002	76.06
408.226	68.06
408.449	77.06
408.673	70.06
408.896	81.06
409.12	66.06
409.344	68.06
409.567	89.06
409.791	85.06
410.014	72.06
410.238	88.06
410.461	82.06
410.685	64.06
410.908	69.06
411.132	88.06
411.355	98.06
411.578	70.06
411.802	94.06
412.025	88.06
412.249	90.06
412.472	78.06
412.695	72.06
412.919	66.06
413.142	84.06
413.365	85.06
413.589	70.06
413.812	66.06
414.035	86.06
414.258	78.06
414.482	81.06
414.705	69.06
414.928	88.06
415.151	80.06
415.374	91.06
415.597	75.06
415.821	86.06
416.044	78.06
416.267	71.06
416.49	58.06
416.713	78.06
416.936	71.06
417.159	77.06
417.382	84.06
417.605	72.06
417.828	77.06
418.051	93.06
418.274	78.06
418.497	77.06
418.72	76.06
418.943	88.06
419.166	102.06
419.389	87.06
419.611	89.06
419.834	82.06
420.057	85.06
420.28	73.06
420.503	85.06
420.726	90.06
420.948	95.06
421.171	83.06
421.394	74.06
421.617	77.06
421.839	75.06
422.062	68.06
422.285	77.06
422.507	81.06
422.73	73.06
422.953	79.06
423.175	84.06
423.398	57.06
423.621	94.06
423.843	74.06
424.066	77.06
424.288	77.06
424.511	70.06
424.733	70.06
424.956	84.06
425.178	76.06
425.401	83.06
425.623	68.06
425.846	80.06
426.068	84.06
426.291	68.06
426.513	74.06
426.735	75.06
426.958	72.06
427.18	77.06
427.402	99.06
427.625	66.06
427.847	85.06
428.069	66.06
428.292	77.06
428.514	71.06
428.736	83.06
428.958	80.06
429.181	82.06
429.403	78.06
429.625	88.06
429.847	71.06
430.069	76.06
430.292	75.06
430.514	79.06
430.736	77.06
430.958	78.06
431.18	72.06
431.402	69.06
431.624	70.06
431.846	81.06
432.068	100.06
432.29	83.06
432.512	84.06
432.734	71.06
432.956	79.06
433.178	84.06
433.4	99.06
433.622	75.06
433.844	70.06
434.066	68.06
434.287	77.06
434.509	77.06
434.731	96.06
434.953	82.06
435.175	79.06
435.397	80.06
435.618	78.06
435.84	91.06
436.062	75.06
436.284	83.06
436.505	85.06
436.727	92.06
436.949	92.06
437.17	81.06
437.392	72.06
437.614	70.06
437.835	80.06
438.057	80.06
438.278	87.06
438.5	85.06
438.721	75.06
438.943	68.06
439.165	88.06
439.386	90.06
439.608	77.06
439.829	80.06
440.05	76.06
440.272	78.06
440.493	74.06
440.715	75.06
440.936	72.06
441.158	80.06
441.379	85.06
441.6	69.06
441.822	68.06
442.043	92.06
442.264	77.06
442.486	60.06
442.707	71.06
442.928	81.06
443.149	76.06
443.371	101.06
443.592	78.06
443.813	77.06
444.034	81.06
444.255	83.06
444.476	67.06
444.698	85.06
444.919	68.06
445.14	144.06
445.361	122.06
445.582	80.06
445.803	79.06
446.024	72.06
446.245	70.06
446.466	65.06
446.687	82.06
446.908	77.06
447.129	89.06
447.35	74.06
447.571	87.06
447.792	76.06
448.013	64.06
448.234	91.06
448.455	79.06
448.675	61.06
448.896	68.06
449.117	82.06
449.338	85.06
449.559	74.06
449.779	78.06
450	91.06
450.221	90.06
450.442	78.06
450.662	75.06
450.883	76.06
451.104	85.06
451.324	84.06
451.545	72.06
451.766	65.06
451.986	79.06
452.207	88.06
452.428	79.06
452.648	83.06
452.869	74.06
453.089	71.06
453.31	77.06
453.53	64.06
453.751	77.06
453.971	84.06
454.192	85.06
454.412	73.06
454.633	98.06
454.853	94.06
455.073	71.06
455.294	81.06
455.514	78.06
455.734	88.06
455.955	107.06
456.175	70.06
456.395	85.06
456.616	70.06
456.836	75.06
457.056	80.06
457.276	83.06
457.497	87.06
457.717	72.06
457.937	85.06
458.157	88.06
458.377	74.06
458.598	74.06
458.818	85.06
459.038	79.06
459.258	87.06
459.478	84.06
459.698	89.06
459.918	64.06
460.138	88.06
460.358	86.06
460.578	82.06
460.798	76.06
461.018	84.06
461.238	91.06
461.458	79.06
461.678	73.06
461.898	85.06
462.118	83.06
462.338	74.06
462.558	87.06
462.777	80.06
462.997	75.06
463.217	80.06
463.437	92.06
463.657	74.06
463.876	84.06
464.096	77.06
464.316	72.06
464.536	83.06
464.755	86.06
464.975	88.06
465.195	77.06
465.414	81.06
465.634	84.06
465.854	81.06
466.073	73.06
466.293	83.06
466.512	75.06
466.732	78.06
466.951	88.06
467.171	87.06
467.391	68.06
467.61	83.06
467.829	79.06
468.049	77.06
468.268	76.06
468.488	63.06
468.707	84.06
468.927	88.06
469.146	75.06
469.365	80.06
469.585	70.06
469.804	81.06
470.023	73.06
470.243	83.06
470.462	69.06
470.681	75.06
470.901	77.06
471.12	85.06
471.339	82.06
471.558	74.06
471.777	77.06
471.997	94.06
472.216	75.06
472.435	65.06
472.654	79.06
472.873	86.06
473.092	74.06
473.311	80.06
473.53	64.06
473.749	89.06
473.968	91.06
474.187	73.06
474.406	74.06
474.625	84.06
474.844	67.06
475.063	83.06
475.282	90.06
475.501	84.06
475.72	104.06
475.939	83.06
476.158	74.06
476.377	77.06
476.596	71.06
476.814	65.06
477.033	74.06
477.252	72.06
477.471	77.06
477.69	86.06
477.908	77.06
478.127	66.06
478.346	83.06
478.564	72.06
478.783	78.06
479.002	77.06
479.22	82.06
479.439	73.06
479.658	74.06
479.876	76.06
480.095	69.06
480.313	76.06
480.532	69.06
480.751	80.06
480.969	80.06
481.188	80.06
481.406	83.06
481.624	90.06
481.843	74.06
482.061	68.06
482.28	66.06
482.498	78.06
482.717	65.06
482.935	86.06
483.153	74.06
483.372	97.06
483.59	84.06
483.808	74.06
484.027	70.06
484.245	87.06
484.463	82.06
484.681	72.06
484.9	77.06
485.118	66.06
485.336	80.06
485.554	90.06
485.772	79.06
485.99	78.06
486.209	83.06
486.427	74.06
486.645	77.06
486.863	81.06
487.081	88.06
487.299	83.06
487.517	74.06
487.735	78.06
487.953	79.06
488.171	90.06
488.389	76.06
488.607	75.06
488.825	88.06
489.043	91.06
489.261	82.06
489.479	70.06
489.696	88.06
489.914	77.06
490.132	88.06
490.35	77.06
490.568	88.06
490.786	76.06
491.003	83.06
491.221	76.06
491.439	104.06
491.657	70.06
491.874	80.06
492.092	76.06
492.31	80.06
492.527	76.06
492.745	75.06
492.963	85.06
493.18	73.06
493.398	80.06
493.615	67.06
493.833	72.06
494.05	80.06
494.268	80.06
494.485	74.06
494.703	83.06
494.92	89.06
495.138	96.06
495.355	73.06
495.573	74.06
495.79	82.06
496.008	95.06
496.225	77.06
496.442	80.06
496.66	94.06
496.877	62.06
497.094	75.06
497.312	84.06
497.529	90.06
497.746	85.06
497.963	93.06
498.181	84.06
498.398	90.06
498.615	70.06
498.832	71.06
499.049	72.06
499.267	90.06
499.484	82.06
499.701	81.06
499.918	86.06
500.135	83.06
500.352	93.06
500.569	88.06
500.786	82.06
501.003	76.06
501.22	82.06
501.437	97.06
501.654	87.06
501.871	84.06
502.088	95.06
502.305	81.06
502.522	97.06
502.739	94.06
502.956	78.06
503.172	71.06
503.389	84.06
503.606	73.06
503.823	96.06
504.04	79.06
504.256	80.06
504.473	89.06
504.69	70.06
504.907	84.06
505.123	90.06
505.34	90.06
505.557	75.06
505.773	81.06
505.99	87.06
506.207	79.06
506.423	75.06
506.64	70.06
506.856	72.06
507.073	78.06
507.289	85.06
507.506	91.06
507.722	88.06
507.939	77.06
508.155	62.06
508.372	91.06
508.588	86.06
508.805	93.06
509.021	77.06
509.238	83.06
509.454	68.06
509.67	88.06
509.887	74.06
510.103	79.06
510.319	88.06
510.536	82.06
510.752	74.06
510.968	87.06
511.184	85.06
511.401	80.06
511.617	61.06
511.833	88.06
512.049	85.06
512.265	79.06
512.481	85.06
512.698	63.06
512.914	89.06
513.13	84.06
513.346	69.06
513.562	74.06
513.778	79.06
513.994	91.06
514.21	98.06
514.426	90.06
514.642	90.06
514.858	87.06
515.074	79.06
515.29	76.06
515.506	77.06
515.721	87.06
515.937	92.06
516.153	84.06
516.369	78.06
516.585	85.06
516.801	94.06
517.016	93.06
517.232	81.06
517.448	84.06
517.664	87.06
517.879	78.06
518.095	101.06
518.311	83.06
518.527	92.06
518.742	73.06
518.958	83.06
519.173	60.06
519.389	76.06
519.605	87.06
519.82	81.06
520.036	100.06
