Data from Background_2_HRD10591_00031.txt Node
Date: Wed Nov 05 14:47:12 EST 2025
User: Yrep
Spectrometer: HR+D1059
Trigger mode: 1
Integration Time (sec): 1.000000E-1
Scans to average: 1
Electric dark correction enabled: true
Nonlinearity correction enabled: false
Boxcar width: 0
XAxis mode: Wavelengths
Number of Pixels in Spectrum: 2048
>>>>>Begin Spectral Data<<<<<
223.165	-14.06
223.4	-14.06
223.635	-14.06
223.869	-17.06
224.104	-19.06
224.338	-10.06
224.573	-8.06
224.808	-8.06
225.042	-11.06
225.277	-11.06
225.511	-22.06
225.746	2.94
225.98	11.94
226.215	2.94
226.449	20.94
226.683	24.94
226.918	21.94
227.152	34.94
227.387	25.94
227.621	40.94
227.856	47.94
228.09	38.94
228.324	47.94
228.559	51.94
228.793	47.94
229.027	66.94
229.262	52.94
229.496	66.94
229.73	70.94
229.964	79.94
230.199	72.94
230.433	74.94
230.667	75.94
230.901	78.94
231.136	82.94
231.37	82.94
231.604	78.94
231.838	90.94
232.072	76.94
232.306	87.94
232.541	81.94
232.775	82.94
233.009	90.94
233.243	84.94
233.477	87.94
233.711	68.94
233.945	95.94
234.179	88.94
234.413	78.94
234.647	85.94
234.881	81.94
235.115	67.94
235.349	78.94
235.583	81.94
235.817	70.94
236.051	81.94
236.285	78.94
236.519	68.94
236.753	86.94
236.987	68.94
237.221	61.94
237.455	74.94
237.689	74.94
237.922	84.94
238.156	78.94
238.39	73.94
238.624	67.94
238.858	73.94
239.091	86.94
239.325	76.94
239.559	67.94
239.793	75.94
240.027	67.94
240.26	86.94
240.494	63.94
240.728	88.94
240.961	60.94
241.195	80.94
241.429	88.94
241.662	68.94
241.896	80.94
242.13	78.94
242.363	84.94
242.597	72.94
242.83	60.94
243.064	71.94
243.298	77.94
243.531	76.94
243.765	78.94
243.998	77.94
244.232	67.94
244.465	69.94
244.699	75.94
244.932	67.94
245.166	78.94
245.399	76.94
245.633	80.94
245.866	72.94
246.099	87.94
246.333	76.94
246.566	80.94
246.8	84.94
247.033	64.94
247.266	63.94
247.5	83.94
247.733	91.94
247.966	94.94
248.2	79.94
248.433	60.94
248.666	76.94
248.899	87.94
249.133	73.94
249.366	82.94
249.599	76.94
249.832	84.94
250.066	87.94
250.299	78.94
250.532	68.94
250.765	75.94
250.998	76.94
251.231	80.94
251.465	81.94
251.698	83.94
251.931	86.94
252.164	74.94
252.397	82.94
252.63	69.94
252.863	74.94
253.096	74.94
253.329	68.94
253.562	88.94
253.795	78.94
254.028	66.94
254.261	78.94
254.494	66.94
254.727	76.94
254.96	83.94
255.193	68.94
255.426	81.94
255.659	64.94
255.892	92.94
256.124	88.94
256.357	68.94
256.59	74.94
256.823	78.94
257.056	63.94
257.289	82.94
257.521	62.94
257.754	82.94
257.987	86.94
258.22	88.94
258.452	78.94
258.685	76.94
258.918	71.94
259.151	74.94
259.383	84.94
259.616	77.94
259.849	66.94
260.081	74.94
260.314	73.94
260.547	72.94
260.779	88.94
261.012	78.94
261.244	80.94
261.477	82.94
261.71	70.94
261.942	73.94
262.175	79.94
262.407	64.94
262.64	88.94
262.872	87.94
263.105	84.94
263.337	84.94
263.57	71.94
263.802	80.94
264.035	79.94
264.267	82.94
264.499	72.94
264.732	91.94
264.964	79.94
265.197	56.94
265.429	91.94
265.661	81.94
265.894	82.94
266.126	75.94
266.358	73.94
266.591	72.94
266.823	81.94
267.055	75.94
267.287	66.94
267.52	81.94
267.752	65.94
267.984	78.94
268.216	74.94
268.448	90.94
268.681	82.94
268.913	86.94
269.145	91.94
269.377	81.94
269.609	84.94
269.841	79.94
270.073	93.94
270.306	78.94
270.538	83.94
270.77	70.94
271.002	90.94
271.234	86.94
271.466	94.94
271.698	67.94
271.93	80.94
272.162	87.94
272.394	82.94
272.626	70.94
272.858	72.94
273.09	80.94
273.322	92.94
273.553	78.94
273.785	74.94
274.017	74.94
274.249	88.94
274.481	76.94
274.713	76.94
274.945	91.94
275.176	79.94
275.408	97.94
275.64	92.94
275.872	77.94
276.104	82.94
276.335	82.94
276.567	73.94
276.799	83.94
277.031	79.94
277.262	91.94
277.494	90.94
277.726	72.94
277.957	79.94
278.189	83.94
278.421	68.94
278.652	74.94
278.884	75.94
279.115	76.94
279.347	79.94
279.579	102.94
279.81	94.94
280.042	73.94
280.273	87.94
280.505	84.94
280.736	69.94
280.968	74.94
281.199	85.94
281.431	85.94
281.662	90.94
281.894	78.94
282.125	82.94
282.356	78.94
282.588	86.94
282.819	89.94
283.051	84.94
283.282	76.94
283.513	94.94
283.745	85.94
283.976	75.94
284.207	91.94
284.439	86.94
284.67	68.94
284.901	93.94
285.132	72.94
285.364	78.94
285.595	78.94
285.826	79.94
286.057	72.94
286.288	82.94
286.52	81.94
286.751	88.94
286.982	72.94
287.213	86.94
287.444	81.94
287.675	87.94
287.906	76.94
288.138	82.94
288.369	99.94
288.6	89.94
288.831	78.94
289.062	84.94
289.293	82.94
289.524	85.94
289.755	73.94
289.986	91.94
290.217	89.94
290.448	79.94
290.679	75.94
290.91	81.94
291.141	86.94
291.371	104.94
291.602	80.94
291.833	75.94
292.064	68.94
292.295	73.94
292.526	70.94
292.757	79.94
292.987	64.94
293.218	74.94
293.449	73.94
293.68	77.94
293.91	80.94
294.141	88.94
294.372	68.94
294.603	85.94
294.833	86.94
295.064	81.94
295.295	90.94
295.525	88.94
295.756	98.94
295.987	82.94
296.217	87.94
296.448	80.94
296.679	69.94
296.909	80.94
297.14	75.94
297.37	84.94
297.601	82.94
297.831	82.94
298.062	87.94
298.292	86.94
298.523	54.94
298.753	66.94
298.984	80.94
299.214	92.94
299.445	89.94
299.675	84.94
299.905	72.94
300.136	79.94
300.366	79.94
300.597	83.94
300.827	82.94
301.057	64.94
301.288	84.94
301.518	67.94
301.748	72.94
301.979	102.94
302.209	82.94
302.439	82.94
302.669	76.94
302.9	94.94
303.13	80.94
303.36	94.94
303.59	75.94
303.82	88.94
304.051	90.94
304.281	82.94
304.511	86.94
304.741	81.94
304.971	84.94
305.201	86.94
305.431	93.94
305.661	90.94
305.891	90.94
306.121	92.94
306.352	83.94
306.582	74.94
306.812	69.94
307.042	80.94
307.272	78.94
307.502	92.94
307.731	87.94
307.961	80.94
308.191	76.94
308.421	89.94
308.651	73.94
308.881	90.94
309.111	88.94
309.341	73.94
309.571	74.94
309.8	69.94
310.03	90.94
310.26	64.94
310.49	95.94
310.72	85.94
310.949	83.94
311.179	97.94
311.409	70.94
311.639	86.94
311.868	88.94
312.098	80.94
312.328	74.94
312.557	78.94
312.787	90.94
313.017	92.94
313.246	83.94
313.476	91.94
313.706	88.94
313.935	82.94
314.165	89.94
314.394	89.94
314.624	86.94
314.853	99.94
315.083	77.94
315.312	89.94
315.542	74.94
315.771	82.94
316.001	102.94
316.23	88.94
316.46	79.94
316.689	91.94
316.919	81.94
317.148	79.94
317.377	92.94
317.607	97.94
317.836	83.94
318.065	81.94
318.295	71.94
318.524	69.94
318.753	74.94
318.983	76.94
319.212	88.94
319.441	82.94
319.67	95.94
319.9	79.94
320.129	84.94
320.358	83.94
320.587	86.94
320.816	82.94
321.046	94.94
321.275	72.94
321.504	78.94
321.733	85.94
321.962	82.94
322.191	83.94
322.42	92.94
322.649	77.94
322.878	70.94
323.108	85.94
323.337	74.94
323.566	83.94
323.795	77.94
324.024	86.94
324.253	94.94
324.482	96.94
324.71	89.94
324.939	78.94
325.168	81.94
325.397	82.94
325.626	61.94
325.855	100.94
326.084	87.94
326.313	91.94
326.542	88.94
326.77	71.94
326.999	92.94
327.228	83.94
327.457	78.94
327.686	84.94
327.914	84.94
328.143	99.94
328.372	99.94
328.6	80.94
328.829	70.94
329.058	84.94
329.287	74.94
329.515	82.94
329.744	74.94
329.972	87.94
330.201	82.94
330.43	93.94
330.658	93.94
330.887	79.94
331.115	86.94
331.344	87.94
331.572	91.94
331.801	82.94
332.03	74.94
332.258	82.94
332.486	77.94
332.715	82.94
332.943	88.94
333.172	83.94
333.4	78.94
333.629	93.94
333.857	79.94
334.085	75.94
334.314	79.94
334.542	84.94
334.771	68.94
334.999	89.94
335.227	82.94
335.455	94.94
335.684	86.94
335.912	80.94
336.14	88.94
336.369	81.94
336.597	82.94
336.825	76.94
337.053	83.94
337.281	73.94
337.51	79.94
337.738	83.94
337.966	88.94
338.194	86.94
338.422	80.94
338.65	89.94
338.878	99.94
339.106	76.94
339.334	88.94
339.562	79.94
339.79	68.94
340.018	81.94
340.246	79.94
340.474	85.94
340.702	77.94
340.93	90.94
341.158	74.94
341.386	92.94
341.614	89.94
341.842	66.94
342.07	100.94
342.298	91.94
342.526	84.94
342.754	80.94
342.981	82.94
343.209	89.94
343.437	107.94
343.665	80.94
343.893	77.94
344.12	84.94
344.348	84.94
344.576	71.94
344.804	78.94
345.031	87.94
345.259	88.94
345.487	83.94
345.714	82.94
345.942	82.94
346.17	93.94
346.397	91.94
346.625	74.94
346.853	83.94
347.08	98.94
347.308	80.94
347.535	88.94
347.763	90.94
347.99	81.94
348.218	76.94
348.445	92.94
348.673	75.94
348.9	77.94
349.128	72.94
349.355	76.94
349.583	87.94
349.81	90.94
350.037	81.94
350.265	83.94
350.492	82.94
350.72	82.94
350.947	88.94
351.174	78.94
351.402	79.94
351.629	78.94
351.856	74.94
352.083	84.94
352.311	77.94
352.538	84.94
352.765	86.94
352.992	86.94
353.22	77.94
353.447	86.94
353.674	97.94
353.901	93.94
354.128	80.94
354.355	87.94
354.583	75.94
354.81	80.94
355.037	89.94
355.264	76.94
355.491	90.94
355.718	94.94
355.945	85.94
356.172	67.94
356.399	75.94
356.626	67.94
356.853	83.94
357.08	87.94
357.307	82.94
357.534	80.94
357.761	71.94
357.988	81.94
358.215	83.94
358.441	97.94
358.668	96.94
358.895	82.94
359.122	74.94
359.349	89.94
359.576	85.94
359.802	80.94
360.029	77.94
360.256	80.94
360.483	87.94
360.709	88.94
360.936	80.94
361.163	80.94
361.39	86.94
361.616	79.94
361.843	81.94
362.07	81.94
362.296	83.94
362.523	83.94
362.749	86.94
362.976	89.94
363.203	92.94
363.429	86.94
363.656	82.94
363.882	80.94
364.109	75.94
364.335	77.94
364.562	80.94
364.788	87.94
365.015	84.94
365.241	76.94
365.468	79.94
365.694	81.94
365.92	98.94
366.147	75.94
366.373	68.94
366.599	84.94
366.826	81.94
367.052	86.94
367.278	93.94
367.505	90.94
367.731	75.94
367.957	86.94
368.184	90.94
368.41	91.94
368.636	79.94
368.862	58.94
369.089	89.94
369.315	84.94
369.541	87.94
369.767	82.94
369.993	80.94
370.219	65.94
370.445	83.94
370.672	89.94
370.898	92.94
371.124	75.94
371.35	83.94
371.576	96.94
371.802	78.94
372.028	84.94
372.254	85.94
372.48	82.94
372.706	82.94
372.932	83.94
373.158	95.94
373.384	76.94
373.61	93.94
373.835	90.94
374.061	80.94
374.287	87.94
374.513	72.94
374.739	77.94
374.965	78.94
375.191	79.94
375.416	81.94
375.642	79.94
375.868	77.94
376.094	97.94
376.319	76.94
376.545	75.94
376.771	87.94
376.997	76.94
377.222	78.94
377.448	82.94
377.674	93.94
377.899	96.94
378.125	75.94
378.35	92.94
378.576	79.94
378.802	80.94
379.027	84.94
379.253	81.94
379.478	90.94
379.704	77.94
379.929	78.94
380.155	85.94
380.38	94.94
380.606	77.94
380.831	80.94
381.057	84.94
381.282	93.94
381.507	90.94
381.733	95.94
381.958	89.94
382.184	86.94
382.409	75.94
382.634	80.94
382.86	66.94
383.085	88.94
383.31	78.94
383.535	73.94
383.761	89.94
383.986	82.94
384.211	84.94
384.436	83.94
384.662	68.94
384.887	88.94
385.112	69.94
385.337	86.94
385.562	75.94
385.787	82.94
386.013	81.94
386.238	87.94
386.463	77.94
386.688	84.94
386.913	79.94
387.138	91.94
387.363	64.94
387.588	87.94
387.813	94.94
388.038	86.94
388.263	81.94
388.488	86.94
388.713	85.94
388.938	71.94
389.163	80.94
389.387	60.94
389.612	68.94
389.837	89.94
390.062	95.94
390.287	73.94
390.512	88.94
390.736	90.94
390.961	94.94
391.186	79.94
391.411	96.94
391.636	78.94
391.86	78.94
392.085	83.94
392.31	75.94
392.534	77.94
392.759	76.94
392.984	75.94
393.208	89.94
393.433	88.94
393.658	83.94
393.882	76.94
394.107	68.94
394.331	80.94
394.556	76.94
394.78	78.94
395.005	81.94
395.229	77.94
395.454	86.94
395.678	86.94
395.903	79.94
396.127	85.94
396.352	72.94
396.576	68.94
396.801	80.94
397.025	69.94
397.249	85.94
397.474	86.94
397.698	71.94
397.922	82.94
398.147	64.94
398.371	60.94
398.595	78.94
398.82	78.94
399.044	94.94
399.268	86.94
399.492	79.94
399.717	75.94
399.941	69.94
400.165	69.94
400.389	91.94
400.613	74.94
400.837	76.94
401.062	80.94
401.286	81.94
401.51	87.94
401.734	95.94
401.958	90.94
402.182	78.94
402.406	88.94
402.63	58.94
402.854	73.94
403.078	74.94
403.302	68.94
403.526	83.94
403.75	83.94
403.974	91.94
404.198	65.94
404.422	86.94
404.645	73.94
404.869	61.94
405.093	95.94
405.317	79.94
405.541	79.94
405.765	76.94
405.988	74.94
406.212	75.94
406.436	81.94
406.66	75.94
406.883	81.94
407.107	72.94
407.331	96.94
407.555	83.94
407.778	74.94
408.002	78.94
408.226	73.94
408.449	82.94
408.673	82.94
408.896	67.94
409.12	62.94
409.344	84.94
409.567	69.94
409.791	74.94
410.014	86.94
410.238	76.94
410.461	81.94
410.685	82.94
410.908	77.94
411.132	73.94
411.355	63.94
411.578	81.94
411.802	88.94
412.025	82.94
412.249	92.94
412.472	94.94
412.695	84.94
412.919	74.94
413.142	79.94
413.365	77.94
413.589	76.94
413.812	68.94
414.035	81.94
414.258	80.94
414.482	82.94
414.705	84.94
414.928	72.94
415.151	68.94
415.374	76.94
415.597	78.94
415.821	86.94
416.044	72.94
416.267	80.94
416.49	78.94
416.713	90.94
416.936	82.94
417.159	90.94
417.382	95.94
417.605	85.94
417.828	78.94
418.051	78.94
418.274	81.94
418.497	70.94
418.72	76.94
418.943	74.94
419.166	74.94
419.389	83.94
419.611	69.94
419.834	86.94
420.057	79.94
420.28	81.94
420.503	89.94
420.726	76.94
420.948	78.94
421.171	79.94
421.394	85.94
421.617	71.94
421.839	90.94
422.062	76.94
422.285	80.94
422.507	83.94
422.73	81.94
422.953	84.94
423.175	77.94
423.398	76.94
423.621	84.94
423.843	86.94
424.066	62.94
424.288	96.94
424.511	77.94
424.733	82.94
424.956	91.94
425.178	78.94
425.401	75.94
425.623	78.94
425.846	79.94
426.068	68.94
426.291	71.94
426.513	76.94
426.735	79.94
426.958	74.94
427.18	70.94
427.402	93.94
427.625	93.94
427.847	88.94
428.069	76.94
428.292	76.94
428.514	89.94
428.736	81.94
428.958	101.94
429.181	75.94
429.403	87.94
429.625	79.94
429.847	76.94
430.069	71.94
430.292	99.94
430.514	81.94
430.736	72.94
430.958	76.94
431.18	82.94
431.402	78.94
431.624	73.94
431.846	64.94
432.068	94.94
432.29	80.94
432.512	74.94
432.734	78.94
432.956	79.94
433.178	89.94
433.4	80.94
433.622	78.94
433.844	72.94
434.066	89.94
434.287	63.94
434.509	59.94
434.731	79.94
434.953	74.94
435.175	76.94
435.397	89.94
435.618	82.94
435.84	84.94
436.062	83.94
436.284	83.94
436.505	77.94
436.727	83.94
436.949	82.94
437.17	77.94
437.392	78.94
437.614	67.94
437.835	72.94
438.057	79.94
438.278	69.94
438.5	78.94
438.721	74.94
438.943	70.94
439.165	76.94
439.386	94.94
439.608	86.94
439.829	82.94
440.05	85.94
440.272	76.94
440.493	74.94
440.715	90.94
440.936	73.94
441.158	86.94
441.379	76.94
441.6	60.94
441.822	68.94
442.043	74.94
442.264	74.94
442.486	81.94
442.707	74.94
442.928	80.94
443.149	72.94
443.371	88.94
443.592	91.94
443.813	84.94
444.034	79.94
444.255	86.94
444.476	72.94
444.698	86.94
444.919	63.94
445.14	159.94
445.361	112.94
445.582	94.94
445.803	82.94
446.024	84.94
446.245	82.94
446.466	102.94
446.687	82.94
446.908	90.94
447.129	94.94
447.35	66.94
447.571	82.94
447.792	82.94
448.013	87.94
448.234	66.94
448.455	93.94
448.675	87.94
448.896	84.94
449.117	60.94
449.338	76.94
449.559	74.94
449.779	76.94
450	87.94
450.221	73.94
450.442	69.94
450.662	72.94
450.883	80.94
451.104	80.94
451.324	80.94
451.545	89.94
451.766	99.94
451.986	82.94
452.207	96.94
452.428	67.94
452.648	64.94
452.869	72.94
453.089	70.94
453.31	79.94
453.53	67.94
453.751	78.94
453.971	81.94
454.192	72.94
454.412	68.94
454.633	79.94
454.853	82.94
455.073	88.94
455.294	73.94
455.514	79.94
455.734	73.94
455.955	83.94
456.175	87.94
456.395	75.94
456.616	82.94
456.836	75.94
457.056	80.94
457.276	81.94
457.497	81.94
457.717	89.94
457.937	94.94
458.157	72.94
458.377	92.94
458.598	81.94
458.818	81.94
459.038	72.94
459.258	83.94
459.478	77.94
459.698	75.94
459.918	92.94
460.138	79.94
460.358	94.94
460.578	84.94
460.798	73.94
461.018	81.94
461.238	75.94
461.458	76.94
461.678	98.94
461.898	86.94
462.118	76.94
462.338	88.94
462.558	88.94
462.777	87.94
462.997	69.94
463.217	80.94
463.437	82.94
463.657	83.94
463.876	75.94
464.096	81.94
464.316	71.94
464.536	82.94
464.755	70.94
464.975	72.94
465.195	79.94
465.414	67.94
465.634	79.94
465.854	88.94
466.073	67.94
466.293	88.94
466.512	77.94
466.732	79.94
466.951	93.94
467.171	86.94
467.391	75.94
467.61	87.94
467.829	88.94
468.049	90.94
468.268	76.94
468.488	68.94
468.707	72.94
468.927	69.94
469.146	83.94
469.365	82.94
469.585	78.94
469.804	79.94
470.023	74.94
470.243	80.94
470.462	82.94
470.681	69.94
470.901	65.94
471.12	85.94
471.339	78.94
471.558	94.94
471.777	71.94
471.997	83.94
472.216	82.94
472.435	70.94
472.654	72.94
472.873	83.94
473.092	76.94
473.311	84.94
473.53	84.94
473.749	94.94
473.968	80.94
474.187	75.94
474.406	67.94
474.625	78.94
474.844	74.94
475.063	81.94
475.282	63.94
475.501	72.94
475.72	85.94
475.939	85.94
476.158	86.94
476.377	104.94
476.596	75.94
476.814	70.94
477.033	78.94
477.252	79.94
477.471	90.94
477.69	70.94
477.908	76.94
478.127	73.94
478.346	79.94
478.564	72.94
478.783	81.94
479.002	88.94
479.22	81.94
479.439	99.94
479.658	87.94
479.876	76.94
480.095	94.94
480.313	82.94
480.532	87.94
480.751	84.94
480.969	76.94
481.188	81.94
481.406	77.94
481.624	79.94
481.843	86.94
482.061	80.94
482.28	82.94
482.498	83.94
482.717	90.94
482.935	70.94
483.153	81.94
483.372	77.94
483.59	84.94
483.808	90.94
484.027	81.94
484.245	81.94
484.463	89.94
484.681	84.94
484.9	74.94
485.118	87.94
485.336	78.94
485.554	70.94
485.772	83.94
485.99	78.94
486.209	87.94
486.427	78.94
486.645	85.94
486.863	81.94
487.081	64.94
487.299	78.94
487.517	83.94
487.735	87.94
487.953	92.94
488.171	84.94
488.389	88.94
488.607	88.94
488.825	78.94
489.043	88.94
489.261	88.94
489.479	81.94
489.696	67.94
489.914	80.94
490.132	88.94
490.35	82.94
490.568	75.94
490.786	72.94
491.003	71.94
491.221	83.94
491.439	77.94
491.657	80.94
491.874	80.94
492.092	76.94
492.31	84.94
492.527	67.94
492.745	69.94
492.963	72.94
493.18	90.94
493.398	93.94
493.615	84.94
493.833	76.94
494.05	88.94
494.268	82.94
494.485	69.94
494.703	84.94
494.92	95.94
495.138	76.94
495.355	95.94
495.573	82.94
495.79	72.94
496.008	77.94
496.225	73.94
496.442	88.94
496.66	91.94
496.877	82.94
497.094	83.94
497.312	82.94
497.529	84.94
497.746	87.94
497.963	79.94
498.181	78.94
498.398	81.94
498.615	66.94
498.832	84.94
499.049	70.94
499.267	80.94
499.484	83.94
499.701	84.94
499.918	77.94
500.135	73.94
500.352	82.94
500.569	89.94
500.786	88.94
501.003	78.94
501.22	79.94
501.437	75.94
501.654	81.94
501.871	76.94
502.088	78.94
502.305	83.94
502.522	79.94
502.739	67.94
502.956	74.94
503.172	68.94
503.389	72.94
503.606	90.94
503.823	80.94
504.04	72.94
504.256	88.94
504.473	73.94
504.69	79.94
504.907	75.94
505.123	67.94
505.34	60.94
505.557	90.94
505.773	87.94
505.99	74.94
506.207	84.94
506.423	80.94
506.64	85.94
506.856	78.94
507.073	76.94
507.289	92.94
507.506	85.94
507.722	81.94
507.939	56.94
508.155	88.94
508.372	69.94
508.588	77.94
508.805	77.94
509.021	72.94
509.238	83.94
509.454	96.94
509.67	85.94
509.887	78.94
510.103	73.94
510.319	86.94
510.536	87.94
510.752	88.94
510.968	89.94
511.184	74.94
511.401	83.94
511.617	80.94
511.833	86.94
512.049	84.94
512.265	82.94
512.481	86.94
512.698	80.94
512.914	80.94
513.13	82.94
513.346	83.94
513.562	75.94
513.778	87.94
513.994	90.94
514.21	76.94
514.426	76.94
514.642	80.94
514.858	74.94
515.074	79.94
515.29	76.94
515.506	67.94
515.721	87.94
515.937	78.94
516.153	82.94
516.369	87.94
516.585	76.94
516.801	69.94
517.016	90.94
517.232	80.94
517.448	74.94
517.664	80.94
517.879	78.94
518.095	84.94
518.311	75.94
518.527	92.94
518.742	76.94
518.958	82.94
519.173	82.94
519.389	82.94
519.605	83.94
519.82	80.94
520.036	74.94
