Data from Background_2_HRD10591_00061.txt Node
Date: Wed Nov 05 14:47:26 EST 2025
User: Yrep
Spectrometer: HR+D1059
Trigger mode: 1
Integration Time (sec): 1.000000E-1
Scans to average: 1
Electric dark correction enabled: true
Nonlinearity correction enabled: false
Boxcar width: 0
XAxis mode: Wavelengths
Number of Pixels in Spectrum: 2048
>>>>>Begin Spectral Data<<<<<
223.165	-27.19
223.4	-27.19
223.635	-27.19
223.869	-17.19
224.104	-22.19
224.338	-16.19
224.573	-14.19
224.808	-11.19
225.042	-19.19
225.277	-2.19
225.511	5.81
225.746	8.81
225.98	-1.19
226.215	16.81
226.449	11.81
226.683	19.81
226.918	21.81
227.152	45.81
227.387	39.81
227.621	42.81
227.856	51.81
228.09	45.81
228.324	56.81
228.559	51.81
228.793	43.81
229.027	68.81
229.262	69.81
229.496	55.81
229.73	60.81
229.964	68.81
230.199	75.81
230.433	63.81
230.667	62.81
230.901	61.81
231.136	81.81
231.37	72.81
231.604	70.81
231.838	86.81
232.072	77.81
232.306	88.81
232.541	79.81
232.775	69.81
233.009	83.81
233.243	82.81
233.477	80.81
233.711	94.81
233.945	100.81
234.179	77.81
234.413	80.81
234.647	81.81
234.881	77.81
235.115	85.81
235.349	77.81
235.583	75.81
235.817	70.81
236.051	76.81
236.285	70.81
236.519	61.81
236.753	70.81
236.987	87.81
237.221	80.81
237.455	71.81
237.689	77.81
237.922	75.81
238.156	65.81
238.39	81.81
238.624	81.81
238.858	87.81
239.091	84.81
239.325	70.81
239.559	75.81
239.793	88.81
240.027	61.81
240.26	84.81
240.494	69.81
240.728	92.81
240.961	75.81
241.195	62.81
241.429	76.81
241.662	82.81
241.896	75.81
242.13	72.81
242.363	88.81
242.597	89.81
242.83	67.81
243.064	66.81
243.298	62.81
243.531	72.81
243.765	76.81
243.998	84.81
244.232	64.81
244.465	83.81
244.699	81.81
244.932	64.81
245.166	65.81
245.399	73.81
245.633	64.81
245.866	64.81
246.099	80.81
246.333	83.81
246.566	64.81
246.8	62.81
247.033	74.81
247.266	73.81
247.5	79.81
247.733	81.81
247.966	80.81
248.2	88.81
248.433	78.81
248.666	80.81
248.899	78.81
249.133	74.81
249.366	84.81
249.599	68.81
249.832	70.81
250.066	81.81
250.299	81.81
250.532	82.81
250.765	70.81
250.998	91.81
251.231	73.81
251.465	71.81
251.698	81.81
251.931	80.81
252.164	86.81
252.397	80.81
252.63	71.81
252.863	66.81
253.096	75.81
253.329	80.81
253.562	70.81
253.795	78.81
254.028	74.81
254.261	65.81
254.494	74.81
254.727	84.81
254.96	77.81
255.193	79.81
255.426	70.81
255.659	90.81
255.892	88.81
256.124	77.81
256.357	82.81
256.59	77.81
256.823	78.81
257.056	64.81
257.289	91.81
257.521	68.81
257.754	81.81
257.987	81.81
258.22	71.81
258.452	75.81
258.685	74.81
258.918	71.81
259.151	84.81
259.383	88.81
259.616	74.81
259.849	91.81
260.081	78.81
260.314	78.81
260.547	94.81
260.779	80.81
261.012	67.81
261.244	74.81
261.477	81.81
261.71	81.81
261.942	79.81
262.175	87.81
262.407	71.81
262.64	86.81
262.872	77.81
263.105	84.81
263.337	82.81
263.57	88.81
263.802	83.81
264.035	75.81
264.267	90.81
264.499	88.81
264.732	62.81
264.964	65.81
265.197	73.81
265.429	95.81
265.661	84.81
265.894	64.81
266.126	93.81
266.358	76.81
266.591	68.81
266.823	74.81
267.055	68.81
267.287	76.81
267.52	59.81
267.752	82.81
267.984	83.81
268.216	78.81
268.448	91.81
268.681	80.81
268.913	88.81
269.145	70.81
269.377	91.81
269.609	80.81
269.841	82.81
270.073	93.81
270.306	77.81
270.538	69.81
270.77	78.81
271.002	69.81
271.234	65.81
271.466	90.81
271.698	73.81
271.93	74.81
272.162	78.81
272.394	88.81
272.626	84.81
272.858	93.81
273.09	93.81
273.322	82.81
273.553	63.81
273.785	76.81
274.017	80.81
274.249	93.81
274.481	81.81
274.713	74.81
274.945	85.81
275.176	89.81
275.408	89.81
275.64	83.81
275.872	81.81
276.104	88.81
276.335	92.81
276.567	93.81
276.799	76.81
277.031	78.81
277.262	80.81
277.494	78.81
277.726	85.81
277.957	78.81
278.189	87.81
278.421	84.81
278.652	77.81
278.884	77.81
279.115	75.81
279.347	85.81
279.579	96.81
279.81	76.81
280.042	80.81
280.273	85.81
280.505	74.81
280.736	80.81
280.968	86.81
281.199	96.81
281.431	93.81
281.662	101.81
281.894	75.81
282.125	101.81
282.356	87.81
282.588	79.81
282.819	76.81
283.051	85.81
283.282	77.81
283.513	92.81
283.745	76.81
283.976	82.81
284.207	81.81
284.439	81.81
284.67	92.81
284.901	76.81
285.132	84.81
285.364	79.81
285.595	81.81
285.826	79.81
286.057	80.81
286.288	94.81
286.52	85.81
286.751	79.81
286.982	83.81
287.213	76.81
287.444	85.81
287.675	72.81
287.906	80.81
288.138	94.81
288.369	104.81
288.6	93.81
288.831	74.81
289.062	84.81
289.293	94.81
289.524	77.81
289.755	77.81
289.986	78.81
290.217	76.81
290.448	70.81
290.679	89.81
290.91	73.81
291.141	81.81
291.371	80.81
291.602	83.81
291.833	100.81
292.064	80.81
292.295	98.81
292.526	89.81
292.757	83.81
292.987	94.81
293.218	93.81
293.449	78.81
293.68	70.81
293.91	81.81
294.141	71.81
294.372	90.81
294.603	96.81
294.833	79.81
295.064	80.81
295.295	82.81
295.525	80.81
295.756	90.81
295.987	95.81
296.217	89.81
296.448	68.81
296.679	89.81
296.909	83.81
297.14	80.81
297.37	88.81
297.601	84.81
297.831	88.81
298.062	84.81
298.292	81.81
298.523	85.81
298.753	79.81
298.984	96.81
299.214	80.81
299.445	84.81
299.675	82.81
299.905	100.81
300.136	75.81
300.366	75.81
300.597	80.81
300.827	75.81
301.057	70.81
301.288	92.81
301.518	83.81
301.748	78.81
301.979	88.81
302.209	76.81
302.439	73.81
302.669	82.81
302.9	86.81
303.13	79.81
303.36	82.81
303.59	84.81
303.82	80.81
304.051	78.81
304.281	90.81
304.511	83.81
304.741	80.81
304.971	85.81
305.201	73.81
305.431	84.81
305.661	94.81
305.891	91.81
306.121	76.81
306.352	91.81
306.582	82.81
306.812	80.81
307.042	100.81
307.272	86.81
307.502	83.81
307.731	86.81
307.961	88.81
308.191	93.81
308.421	61.81
308.651	80.81
308.881	70.81
309.111	82.81
309.341	88.81
309.571	75.81
309.8	86.81
310.03	93.81
310.26	93.81
310.49	78.81
310.72	63.81
310.949	93.81
311.179	88.81
311.409	92.81
311.639	78.81
311.868	82.81
312.098	87.81
312.328	73.81
312.557	94.81
312.787	76.81
313.017	86.81
313.246	76.81
313.476	82.81
313.706	68.81
313.935	88.81
314.165	84.81
314.394	69.81
314.624	68.81
314.853	84.81
315.083	76.81
315.312	84.81
315.542	85.81
315.771	81.81
316.001	82.81
316.23	82.81
316.46	84.81
316.689	73.81
316.919	81.81
317.148	91.81
317.377	101.81
317.607	74.81
317.836	76.81
318.065	83.81
318.295	80.81
318.524	79.81
318.753	85.81
318.983	88.81
319.212	83.81
319.441	81.81
319.67	78.81
319.9	75.81
320.129	88.81
320.358	80.81
320.587	85.81
320.816	75.81
321.046	80.81
321.275	85.81
321.504	93.81
321.733	97.81
321.962	94.81
322.191	95.81
322.42	76.81
322.649	87.81
322.878	93.81
323.108	82.81
323.337	104.81
323.566	81.81
323.795	100.81
324.024	94.81
324.253	76.81
324.482	71.81
324.71	88.81
324.939	76.81
325.168	81.81
325.397	78.81
325.626	96.81
325.855	86.81
326.084	88.81
326.313	92.81
326.542	86.81
326.77	89.81
326.999	74.81
327.228	81.81
327.457	81.81
327.686	86.81
327.914	93.81
328.143	91.81
328.372	69.81
328.6	94.81
328.829	86.81
329.058	83.81
329.287	74.81
329.515	75.81
329.744	86.81
329.972	85.81
330.201	96.81
330.43	82.81
330.658	93.81
330.887	84.81
331.115	84.81
331.344	81.81
331.572	92.81
331.801	79.81
332.03	76.81
332.258	88.81
332.486	76.81
332.715	84.81
332.943	82.81
333.172	77.81
333.4	68.81
333.629	69.81
333.857	98.81
334.085	88.81
334.314	84.81
334.542	95.81
334.771	74.81
334.999	92.81
335.227	71.81
335.455	77.81
335.684	75.81
335.912	79.81
336.14	70.81
336.369	83.81
336.597	77.81
336.825	79.81
337.053	74.81
337.281	83.81
337.51	60.81
337.738	84.81
337.966	80.81
338.194	75.81
338.422	79.81
338.65	88.81
338.878	90.81
339.106	87.81
339.334	83.81
339.562	69.81
339.79	90.81
340.018	92.81
340.246	86.81
340.474	89.81
340.702	96.81
340.93	77.81
341.158	91.81
341.386	77.81
341.614	80.81
341.842	88.81
342.07	69.81
342.298	83.81
342.526	90.81
342.754	73.81
342.981	76.81
343.209	79.81
343.437	97.81
343.665	100.81
343.893	84.81
344.12	83.81
344.348	91.81
344.576	72.81
344.804	71.81
345.031	83.81
345.259	73.81
345.487	79.81
345.714	74.81
345.942	77.81
346.17	69.81
346.397	79.81
346.625	85.81
346.853	61.81
347.08	77.81
347.308	85.81
347.535	82.81
347.763	92.81
347.99	86.81
348.218	80.81
348.445	88.81
348.673	77.81
348.9	91.81
349.128	86.81
349.355	82.81
349.583	85.81
349.81	86.81
350.037	69.81
350.265	75.81
350.492	86.81
350.72	91.81
350.947	76.81
351.174	86.81
351.402	75.81
351.629	99.81
351.856	95.81
352.083	75.81
352.311	52.81
352.538	75.81
352.765	68.81
352.992	79.81
353.22	92.81
353.447	65.81
353.674	98.81
353.901	78.81
354.128	92.81
354.355	76.81
354.583	82.81
354.81	78.81
355.037	99.81
355.264	80.81
355.491	77.81
355.718	74.81
355.945	77.81
356.172	95.81
356.399	80.81
356.626	84.81
356.853	90.81
357.08	85.81
357.307	71.81
357.534	75.81
357.761	82.81
357.988	78.81
358.215	82.81
358.441	69.81
358.668	80.81
358.895	83.81
359.122	82.81
359.349	70.81
359.576	78.81
359.802	90.81
360.029	89.81
360.256	82.81
360.483	88.81
360.709	90.81
360.936	97.81
361.163	75.81
361.39	90.81
361.616	83.81
361.843	82.81
362.07	78.81
362.296	93.81
362.523	90.81
362.749	83.81
362.976	83.81
363.203	81.81
363.429	84.81
363.656	86.81
363.882	78.81
364.109	84.81
364.335	86.81
364.562	88.81
364.788	83.81
365.015	88.81
365.241	92.81
365.468	79.81
365.694	85.81
365.92	83.81
366.147	94.81
366.373	67.81
366.599	80.81
366.826	81.81
367.052	81.81
367.278	93.81
367.505	95.81
367.731	76.81
367.957	78.81
368.184	71.81
368.41	84.81
368.636	88.81
368.862	89.81
369.089	78.81
369.315	95.81
369.541	86.81
369.767	90.81
369.993	83.81
370.219	60.81
370.445	79.81
370.672	83.81
370.898	75.81
371.124	81.81
371.35	81.81
371.576	79.81
371.802	75.81
372.028	79.81
372.254	77.81
372.48	77.81
372.706	81.81
372.932	93.81
373.158	82.81
373.384	76.81
373.61	83.81
373.835	77.81
374.061	81.81
374.287	70.81
374.513	82.81
374.739	81.81
374.965	85.81
375.191	70.81
375.416	83.81
375.642	70.81
375.868	89.81
376.094	78.81
376.319	85.81
376.545	87.81
376.771	81.81
376.997	90.81
377.222	86.81
377.448	90.81
377.674	86.81
377.899	82.81
378.125	91.81
378.35	82.81
378.576	81.81
378.802	81.81
379.027	93.81
379.253	73.81
379.478	97.81
379.704	81.81
379.929	88.81
380.155	75.81
380.38	81.81
380.606	76.81
380.831	84.81
381.057	90.81
381.282	93.81
381.507	77.81
381.733	78.81
381.958	76.81
382.184	86.81
382.409	75.81
382.634	70.81
382.86	99.81
383.085	81.81
383.31	75.81
383.535	89.81
383.761	85.81
383.986	80.81
384.211	83.81
384.436	68.81
384.662	77.81
384.887	78.81
385.112	81.81
385.337	88.81
385.562	65.81
385.787	81.81
386.013	79.81
386.238	75.81
386.463	67.81
386.688	99.81
386.913	81.81
387.138	84.81
387.363	77.81
387.588	80.81
387.813	101.81
388.038	86.81
388.263	76.81
388.488	73.81
388.713	65.81
388.938	85.81
389.163	83.81
389.387	83.81
389.612	102.81
389.837	83.81
390.062	94.81
390.287	94.81
390.512	81.81
390.736	68.81
390.961	77.81
391.186	76.81
391.411	78.81
391.636	77.81
391.86	68.81
392.085	72.81
392.31	78.81
392.534	74.81
392.759	76.81
392.984	83.81
393.208	75.81
393.433	70.81
393.658	86.81
393.882	64.81
394.107	80.81
394.331	66.81
394.556	69.81
394.78	60.81
395.005	80.81
395.229	82.81
395.454	75.81
395.678	84.81
395.903	79.81
396.127	79.81
396.352	87.81
396.576	86.81
396.801	91.81
397.025	80.81
397.249	83.81
397.474	70.81
397.698	83.81
397.922	79.81
398.147	69.81
398.371	71.81
398.595	79.81
398.82	80.81
399.044	82.81
399.268	69.81
399.492	80.81
399.717	92.81
399.941	79.81
400.165	71.81
400.389	94.81
400.613	66.81
400.837	78.81
401.062	83.81
401.286	85.81
401.51	81.81
401.734	82.81
401.958	85.81
402.182	87.81
402.406	88.81
402.63	88.81
402.854	69.81
403.078	80.81
403.302	78.81
403.526	80.81
403.75	78.81
403.974	84.81
404.198	85.81
404.422	80.81
404.645	70.81
404.869	93.81
405.093	78.81
405.317	90.81
405.541	87.81
405.765	88.81
405.988	84.81
406.212	76.81
406.436	78.81
406.66	71.81
406.883	83.81
407.107	83.81
407.331	80.81
407.555	87.81
407.778	78.81
408.002	86.81
408.226	78.81
408.449	58.81
408.673	67.81
408.896	76.81
409.12	78.81
409.344	88.81
409.567	94.81
409.791	77.81
410.014	77.81
410.238	80.81
410.461	92.81
410.685	83.81
410.908	78.81
411.132	73.81
411.355	76.81
411.578	76.81
411.802	80.81
412.025	81.81
412.249	64.81
412.472	93.81
412.695	78.81
412.919	82.81
413.142	82.81
413.365	84.81
413.589	76.81
413.812	82.81
414.035	86.81
414.258	80.81
414.482	78.81
414.705	77.81
414.928	81.81
415.151	77.81
415.374	78.81
415.597	83.81
415.821	86.81
416.044	72.81
416.267	76.81
416.49	78.81
416.713	68.81
416.936	87.81
417.159	74.81
417.382	79.81
417.605	75.81
417.828	87.81
418.051	79.81
418.274	79.81
418.497	78.81
418.72	86.81
418.943	98.81
419.166	76.81
419.389	80.81
419.611	85.81
419.834	81.81
420.057	74.81
420.28	70.81
420.503	71.81
420.726	82.81
420.948	77.81
421.171	93.81
421.394	74.81
421.617	88.81
421.839	80.81
422.062	71.81
422.285	78.81
422.507	92.81
422.73	76.81
422.953	73.81
423.175	91.81
423.398	76.81
423.621	71.81
423.843	88.81
424.066	84.81
424.288	78.81
424.511	87.81
424.733	82.81
424.956	79.81
425.178	77.81
425.401	66.81
425.623	74.81
425.846	79.81
426.068	72.81
426.291	88.81
426.513	75.81
426.735	83.81
426.958	77.81
427.18	91.81
427.402	81.81
427.625	84.81
427.847	92.81
428.069	77.81
428.292	88.81
428.514	79.81
428.736	76.81
428.958	67.81
429.181	71.81
429.403	83.81
429.625	81.81
429.847	80.81
430.069	68.81
430.292	81.81
430.514	68.81
430.736	71.81
430.958	76.81
431.18	88.81
431.402	78.81
431.624	90.81
431.846	79.81
432.068	82.81
432.29	69.81
432.512	73.81
432.734	68.81
432.956	90.81
433.178	95.81
433.4	75.81
433.622	73.81
433.844	86.81
434.066	80.81
434.287	72.81
434.509	88.81
434.731	75.81
434.953	81.81
435.175	87.81
435.397	88.81
435.618	71.81
435.84	96.81
436.062	69.81
436.284	81.81
436.505	80.81
436.727	73.81
436.949	90.81
437.17	83.81
437.392	73.81
437.614	83.81
437.835	88.81
438.057	91.81
438.278	84.81
438.5	76.81
438.721	79.81
438.943	84.81
439.165	76.81
439.386	76.81
439.608	71.81
439.829	76.81
440.05	86.81
440.272	88.81
440.493	74.81
440.715	85.81
440.936	92.81
441.158	75.81
441.379	76.81
441.6	83.81
441.822	78.81
442.043	71.81
442.264	76.81
442.486	86.81
442.707	79.81
442.928	66.81
443.149	75.81
443.371	84.81
443.592	71.81
443.813	84.81
444.034	78.81
444.255	84.81
444.476	79.81
444.698	74.81
444.919	80.81
445.14	133.81
445.361	104.81
445.582	76.81
445.803	99.81
446.024	79.81
446.245	82.81
446.466	69.81
446.687	80.81
446.908	76.81
447.129	70.81
447.35	67.81
447.571	76.81
447.792	99.81
448.013	67.81
448.234	81.81
448.455	79.81
448.675	86.81
448.896	88.81
449.117	82.81
449.338	71.81
449.559	90.81
449.779	78.81
450	79.81
450.221	94.81
450.442	76.81
450.662	71.81
450.883	74.81
451.104	75.81
451.324	69.81
451.545	100.81
451.766	78.81
451.986	80.81
452.207	83.81
452.428	82.81
452.648	84.81
452.869	81.81
453.089	61.81
453.31	81.81
453.53	80.81
453.751	77.81
453.971	84.81
454.192	83.81
454.412	76.81
454.633	83.81
454.853	81.81
455.073	76.81
455.294	85.81
455.514	90.81
455.734	84.81
455.955	82.81
456.175	82.81
456.395	86.81
456.616	75.81
456.836	75.81
457.056	89.81
457.276	89.81
457.497	80.81
457.717	83.81
457.937	81.81
458.157	75.81
458.377	80.81
458.598	85.81
458.818	67.81
459.038	89.81
459.258	74.81
459.478	89.81
459.698	80.81
459.918	68.81
460.138	68.81
460.358	70.81
460.578	71.81
460.798	77.81
461.018	77.81
461.238	69.81
461.458	80.81
461.678	99.81
461.898	89.81
462.118	85.81
462.338	88.81
462.558	77.81
462.777	93.81
462.997	76.81
463.217	64.81
463.437	68.81
463.657	83.81
463.876	94.81
464.096	76.81
464.316	74.81
464.536	72.81
464.755	75.81
464.975	88.81
465.195	98.81
465.414	74.81
465.634	72.81
465.854	71.81
466.073	77.81
466.293	89.81
466.512	70.81
466.732	76.81
466.951	86.81
467.171	77.81
467.391	85.81
467.61	81.81
467.829	89.81
468.049	85.81
468.268	96.81
468.488	85.81
468.707	72.81
468.927	62.81
469.146	76.81
469.365	89.81
469.585	76.81
469.804	71.81
470.023	68.81
470.243	80.81
470.462	78.81
470.681	74.81
470.901	85.81
471.12	82.81
471.339	80.81
471.558	81.81
471.777	78.81
471.997	86.81
472.216	107.81
472.435	79.81
472.654	83.81
472.873	64.81
473.092	84.81
473.311	77.81
473.53	78.81
473.749	82.81
473.968	74.81
474.187	76.81
474.406	82.81
474.625	77.81
474.844	80.81
475.063	83.81
475.282	82.81
475.501	80.81
475.72	90.81
475.939	73.81
476.158	80.81
476.377	96.81
476.596	77.81
476.814	91.81
477.033	57.81
477.252	75.81
477.471	86.81
477.69	85.81
477.908	80.81
478.127	77.81
478.346	86.81
478.564	74.81
478.783	87.81
479.002	83.81
479.22	67.81
479.439	84.81
479.658	84.81
479.876	69.81
480.095	74.81
480.313	83.81
480.532	95.81
480.751	88.81
480.969	81.81
481.188	92.81
481.406	79.81
481.624	95.81
481.843	92.81
482.061	70.81
482.28	79.81
482.498	79.81
482.717	84.81
482.935	69.81
483.153	81.81
483.372	93.81
483.59	76.81
483.808	86.81
484.027	88.81
484.245	95.81
484.463	74.81
484.681	89.81
484.9	86.81
485.118	79.81
485.336	87.81
485.554	76.81
485.772	75.81
485.99	73.81
486.209	86.81
486.427	96.81
486.645	80.81
486.863	73.81
487.081	90.81
487.299	99.81
487.517	86.81
487.735	82.81
487.953	65.81
488.171	79.81
488.389	72.81
488.607	63.81
488.825	82.81
489.043	74.81
489.261	88.81
489.479	78.81
489.696	78.81
489.914	68.81
490.132	74.81
490.35	82.81
490.568	74.81
490.786	71.81
491.003	100.81
491.221	96.81
491.439	77.81
491.657	83.81
491.874	86.81
492.092	74.81
492.31	82.81
492.527	74.81
492.745	69.81
492.963	88.81
493.18	91.81
493.398	76.81
493.615	71.81
493.833	87.81
494.05	78.81
494.268	66.81
494.485	80.81
494.703	75.81
494.92	81.81
495.138	92.81
495.355	78.81
495.573	75.81
495.79	85.81
496.008	80.81
496.225	90.81
496.442	82.81
496.66	84.81
496.877	66.81
497.094	90.81
497.312	70.81
497.529	71.81
497.746	84.81
497.963	77.81
498.181	80.81
498.398	88.81
498.615	81.81
498.832	78.81
499.049	81.81
499.267	88.81
499.484	92.81
499.701	81.81
499.918	84.81
500.135	84.81
500.352	85.81
500.569	83.81
500.786	79.81
501.003	77.81
501.22	81.81
501.437	70.81
501.654	86.81
501.871	70.81
502.088	101.81
502.305	94.81
502.522	82.81
502.739	70.81
502.956	90.81
503.172	93.81
503.389	84.81
503.606	83.81
503.823	74.81
504.04	70.81
504.256	80.81
504.473	88.81
504.69	79.81
504.907	90.81
505.123	70.81
505.34	93.81
505.557	84.81
505.773	80.81
505.99	85.81
506.207	88.81
506.423	73.81
506.64	83.81
506.856	98.81
507.073	96.81
507.289	77.81
507.506	84.81
507.722	79.81
507.939	85.81
508.155	76.81
508.372	80.81
508.588	88.81
508.805	98.81
509.021	73.81
509.238	70.81
509.454	70.81
509.67	70.81
509.887	89.81
510.103	82.81
510.319	84.81
510.536	84.81
510.752	80.81
510.968	79.81
511.184	89.81
511.401	82.81
511.617	96.81
511.833	81.81
512.049	73.81
512.265	78.81
512.481	76.81
512.698	78.81
512.914	79.81
513.13	82.81
513.346	90.81
513.562	78.81
513.778	81.81
513.994	82.81
514.21	76.81
514.426	74.81
514.642	68.81
514.858	75.81
515.074	90.81
515.29	96.81
515.506	93.81
515.721	80.81
515.937	76.81
516.153	89.81
516.369	83.81
516.585	87.81
516.801	82.81
517.016	80.81
517.232	78.81
517.448	95.81
517.664	69.81
517.879	68.81
518.095	76.81
518.311	94.81
518.527	89.81
518.742	80.81
518.958	83.81
519.173	91.81
519.389	84.81
519.605	85.81
519.82	76.81
520.036	86.81
