Data from Background_2_HRD10591_00080.txt Node
Date: Wed Nov 05 14:47:36 EST 2025
User: Yrep
Spectrometer: HR+D1059
Trigger mode: 1
Integration Time (sec): 1.000000E-1
Scans to average: 1
Electric dark correction enabled: true
Nonlinearity correction enabled: false
Boxcar width: 0
XAxis mode: Wavelengths
Number of Pixels in Spectrum: 2048
>>>>>Begin Spectral Data<<<<<
223.165	-21.06
223.4	-21.06
223.635	-21.06
223.869	-16.06
224.104	-28.06
224.338	-16.06
224.573	-14.06
224.808	-26.06
225.042	-2.06
225.277	-2.06
225.511	-8.06
225.746	24.94
225.98	7.94
226.215	12.94
226.449	20.94
226.683	20.94
226.918	11.94
227.152	33.94
227.387	34.94
227.621	29.94
227.856	42.94
228.09	34.94
228.324	45.94
228.559	52.94
228.793	58.94
229.027	62.94
229.262	57.94
229.496	50.94
229.73	79.94
229.964	64.94
230.199	67.94
230.433	73.94
230.667	68.94
230.901	74.94
231.136	66.94
231.37	74.94
231.604	76.94
231.838	76.94
232.072	64.94
232.306	85.94
232.541	76.94
232.775	82.94
233.009	69.94
233.243	87.94
233.477	66.94
233.711	95.94
233.945	65.94
234.179	79.94
234.413	75.94
234.647	78.94
234.881	77.94
235.115	73.94
235.349	78.94
235.583	84.94
235.817	78.94
236.051	67.94
236.285	70.94
236.519	81.94
236.753	74.94
236.987	66.94
237.221	78.94
237.455	88.94
237.689	67.94
237.922	56.94
238.156	64.94
238.39	75.94
238.624	75.94
238.858	60.94
239.091	69.94
239.325	64.94
239.559	83.94
239.793	80.94
240.027	79.94
240.26	77.94
240.494	69.94
240.728	72.94
240.961	86.94
241.195	73.94
241.429	77.94
241.662	80.94
241.896	67.94
242.13	72.94
242.363	88.94
242.597	67.94
242.83	83.94
243.064	77.94
243.298	83.94
243.531	64.94
243.765	83.94
243.998	76.94
244.232	88.94
244.465	82.94
244.699	82.94
244.932	65.94
245.166	78.94
245.399	69.94
245.633	84.94
245.866	61.94
246.099	64.94
246.333	80.94
246.566	86.94
246.8	65.94
247.033	80.94
247.266	78.94
247.5	75.94
247.733	65.94
247.966	88.94
248.2	67.94
248.433	77.94
248.666	78.94
248.899	57.94
249.133	61.94
249.366	63.94
249.599	67.94
249.832	68.94
250.066	77.94
250.299	81.94
250.532	65.94
250.765	61.94
250.998	76.94
251.231	86.94
251.465	79.94
251.698	88.94
251.931	94.94
252.164	76.94
252.397	84.94
252.63	78.94
252.863	70.94
253.096	81.94
253.329	80.94
253.562	69.94
253.795	51.94
254.028	88.94
254.261	68.94
254.494	72.94
254.727	73.94
254.96	72.94
255.193	83.94
255.426	83.94
255.659	81.94
255.892	82.94
256.124	59.94
256.357	82.94
256.59	74.94
256.823	81.94
257.056	73.94
257.289	72.94
257.521	73.94
257.754	73.94
257.987	77.94
258.22	76.94
258.452	72.94
258.685	74.94
258.918	78.94
259.151	79.94
259.383	78.94
259.616	62.94
259.849	79.94
260.081	83.94
260.314	73.94
260.547	73.94
260.779	72.94
261.012	76.94
261.244	80.94
261.477	78.94
261.71	67.94
261.942	72.94
262.175	88.94
262.407	84.94
262.64	86.94
262.872	74.94
263.105	81.94
263.337	87.94
263.57	82.94
263.802	100.94
264.035	77.94
264.267	69.94
264.499	78.94
264.732	80.94
264.964	80.94
265.197	81.94
265.429	79.94
265.661	68.94
265.894	66.94
266.126	64.94
266.358	79.94
266.591	78.94
266.823	80.94
267.055	90.94
267.287	75.94
267.52	79.94
267.752	90.94
267.984	86.94
268.216	77.94
268.448	74.94
268.681	76.94
268.913	73.94
269.145	86.94
269.377	90.94
269.609	72.94
269.841	79.94
270.073	73.94
270.306	79.94
270.538	84.94
270.77	83.94
271.002	79.94
271.234	80.94
271.466	78.94
271.698	90.94
271.93	86.94
272.162	83.94
272.394	74.94
272.626	91.94
272.858	82.94
273.09	83.94
273.322	81.94
273.553	72.94
273.785	73.94
274.017	79.94
274.249	74.94
274.481	71.94
274.713	79.94
274.945	78.94
275.176	91.94
275.408	75.94
275.64	68.94
275.872	74.94
276.104	75.94
276.335	91.94
276.567	92.94
276.799	91.94
277.031	65.94
277.262	72.94
277.494	67.94
277.726	91.94
277.957	79.94
278.189	80.94
278.421	79.94
278.652	77.94
278.884	68.94
279.115	86.94
279.347	80.94
279.579	69.94
279.81	79.94
280.042	85.94
280.273	83.94
280.505	86.94
280.736	89.94
280.968	88.94
281.199	62.94
281.431	64.94
281.662	92.94
281.894	83.94
282.125	76.94
282.356	81.94
282.588	91.94
282.819	86.94
283.051	87.94
283.282	79.94
283.513	79.94
283.745	80.94
283.976	79.94
284.207	79.94
284.439	88.94
284.67	80.94
284.901	92.94
285.132	74.94
285.364	79.94
285.595	82.94
285.826	72.94
286.057	77.94
286.288	74.94
286.52	88.94
286.751	72.94
286.982	81.94
287.213	66.94
287.444	86.94
287.675	81.94
287.906	71.94
288.138	83.94
288.369	72.94
288.6	66.94
288.831	94.94
289.062	72.94
289.293	75.94
289.524	77.94
289.755	80.94
289.986	69.94
290.217	84.94
290.448	67.94
290.679	88.94
290.91	80.94
291.141	83.94
291.371	90.94
291.602	67.94
291.833	80.94
292.064	72.94
292.295	81.94
292.526	78.94
292.757	86.94
292.987	80.94
293.218	87.94
293.449	89.94
293.68	80.94
293.91	83.94
294.141	95.94
294.372	88.94
294.603	51.94
294.833	73.94
295.064	76.94
295.295	80.94
295.525	76.94
295.756	83.94
295.987	79.94
296.217	84.94
296.448	61.94
296.679	78.94
296.909	99.94
297.14	75.94
297.37	83.94
297.601	82.94
297.831	84.94
298.062	85.94
298.292	88.94
298.523	75.94
298.753	79.94
298.984	78.94
299.214	76.94
299.445	79.94
299.675	77.94
299.905	87.94
300.136	106.94
300.366	88.94
300.597	94.94
300.827	67.94
301.057	89.94
301.288	90.94
301.518	88.94
301.748	83.94
301.979	80.94
302.209	83.94
302.439	85.94
302.669	80.94
302.9	84.94
303.13	85.94
303.36	90.94
303.59	79.94
303.82	86.94
304.051	80.94
304.281	74.94
304.511	82.94
304.741	55.94
304.971	72.94
305.201	76.94
305.431	77.94
305.661	70.94
305.891	67.94
306.121	80.94
306.352	70.94
306.582	80.94
306.812	81.94
307.042	84.94
307.272	91.94
307.502	80.94
307.731	78.94
307.961	85.94
308.191	79.94
308.421	76.94
308.651	73.94
308.881	88.94
309.111	91.94
309.341	83.94
309.571	71.94
309.8	76.94
310.03	83.94
310.26	78.94
310.49	86.94
310.72	91.94
310.949	88.94
311.179	90.94
311.409	74.94
311.639	88.94
311.868	88.94
312.098	97.94
312.328	79.94
312.557	82.94
312.787	67.94
313.017	73.94
313.246	80.94
313.476	89.94
313.706	87.94
313.935	62.94
314.165	82.94
314.394	68.94
314.624	75.94
314.853	72.94
315.083	68.94
315.312	95.94
315.542	75.94
315.771	80.94
316.001	85.94
316.23	81.94
316.46	84.94
316.689	80.94
316.919	81.94
317.148	86.94
317.377	88.94
317.607	87.94
317.836	71.94
318.065	76.94
318.295	83.94
318.524	73.94
318.753	82.94
318.983	71.94
319.212	75.94
319.441	81.94
319.67	70.94
319.9	81.94
320.129	83.94
320.358	78.94
320.587	65.94
320.816	68.94
321.046	79.94
321.275	87.94
321.504	90.94
321.733	90.94
321.962	94.94
322.191	94.94
322.42	85.94
322.649	74.94
322.878	72.94
323.108	78.94
323.337	73.94
323.566	61.94
323.795	75.94
324.024	81.94
324.253	82.94
324.482	75.94
324.71	68.94
324.939	85.94
325.168	81.94
325.397	70.94
325.626	68.94
325.855	77.94
326.084	87.94
326.313	83.94
326.542	87.94
326.77	71.94
326.999	73.94
327.228	83.94
327.457	82.94
327.686	73.94
327.914	80.94
328.143	83.94
328.372	78.94
328.6	63.94
328.829	66.94
329.058	66.94
329.287	67.94
329.515	67.94
329.744	79.94
329.972	63.94
330.201	89.94
330.43	76.94
330.658	84.94
330.887	76.94
331.115	82.94
331.344	72.94
331.572	77.94
331.801	79.94
332.03	71.94
332.258	79.94
332.486	63.94
332.715	80.94
332.943	67.94
333.172	66.94
333.4	86.94
333.629	93.94
333.857	74.94
334.085	83.94
334.314	92.94
334.542	90.94
334.771	81.94
334.999	74.94
335.227	64.94
335.455	89.94
335.684	77.94
335.912	78.94
336.14	73.94
336.369	69.94
336.597	95.94
336.825	65.94
337.053	82.94
337.281	80.94
337.51	74.94
337.738	77.94
337.966	73.94
338.194	72.94
338.422	78.94
338.65	90.94
338.878	87.94
339.106	71.94
339.334	94.94
339.562	81.94
339.79	86.94
340.018	80.94
340.246	82.94
340.474	88.94
340.702	80.94
340.93	95.94
341.158	75.94
341.386	65.94
341.614	78.94
341.842	74.94
342.07	72.94
342.298	79.94
342.526	96.94
342.754	72.94
342.981	86.94
343.209	78.94
343.437	80.94
343.665	85.94
343.893	82.94
344.12	74.94
344.348	70.94
344.576	92.94
344.804	79.94
345.031	79.94
345.259	82.94
345.487	70.94
345.714	69.94
345.942	86.94
346.17	83.94
346.397	78.94
346.625	92.94
346.853	86.94
347.08	86.94
347.308	77.94
347.535	82.94
347.763	90.94
347.99	81.94
348.218	77.94
348.445	80.94
348.673	79.94
348.9	68.94
349.128	90.94
349.355	69.94
349.583	79.94
349.81	76.94
350.037	86.94
350.265	76.94
350.492	97.94
350.72	85.94
350.947	72.94
351.174	68.94
351.402	91.94
351.629	93.94
351.856	72.94
352.083	80.94
352.311	68.94
352.538	69.94
352.765	69.94
352.992	75.94
353.22	87.94
353.447	74.94
353.674	82.94
353.901	87.94
354.128	94.94
354.355	78.94
354.583	79.94
354.81	75.94
355.037	79.94
355.264	76.94
355.491	77.94
355.718	86.94
355.945	86.94
356.172	97.94
356.399	80.94
356.626	71.94
356.853	79.94
357.08	72.94
357.307	76.94
357.534	68.94
357.761	82.94
357.988	80.94
358.215	86.94
358.441	86.94
358.668	90.94
358.895	84.94
359.122	83.94
359.349	65.94
359.576	80.94
359.802	78.94
360.029	77.94
360.256	74.94
360.483	90.94
360.709	89.94
360.936	84.94
361.163	75.94
361.39	83.94
361.616	88.94
361.843	72.94
362.07	84.94
362.296	71.94
362.523	74.94
362.749	92.94
362.976	74.94
363.203	91.94
363.429	93.94
363.656	75.94
363.882	74.94
364.109	73.94
364.335	75.94
364.562	87.94
364.788	84.94
365.015	80.94
365.241	84.94
365.468	75.94
365.694	74.94
365.92	85.94
366.147	92.94
366.373	88.94
366.599	81.94
366.826	93.94
367.052	86.94
367.278	67.94
367.505	80.94
367.731	64.94
367.957	91.94
368.184	90.94
368.41	92.94
368.636	77.94
368.862	80.94
369.089	78.94
369.315	85.94
369.541	84.94
369.767	86.94
369.993	79.94
370.219	65.94
370.445	82.94
370.672	86.94
370.898	80.94
371.124	83.94
371.35	72.94
371.576	78.94
371.802	83.94
372.028	81.94
372.254	74.94
372.48	74.94
372.706	76.94
372.932	88.94
373.158	69.94
373.384	75.94
373.61	95.94
373.835	82.94
374.061	78.94
374.287	84.94
374.513	73.94
374.739	90.94
374.965	72.94
375.191	76.94
375.416	87.94
375.642	76.94
375.868	83.94
376.094	90.94
376.319	86.94
376.545	70.94
376.771	74.94
376.997	77.94
377.222	91.94
377.448	76.94
377.674	94.94
377.899	81.94
378.125	75.94
378.35	92.94
378.576	86.94
378.802	94.94
379.027	92.94
379.253	80.94
379.478	68.94
379.704	73.94
379.929	85.94
380.155	89.94
380.38	81.94
380.606	87.94
380.831	85.94
381.057	92.94
381.282	87.94
381.507	71.94
381.733	84.94
381.958	80.94
382.184	71.94
382.409	82.94
382.634	86.94
382.86	78.94
383.085	88.94
383.31	87.94
383.535	83.94
383.761	74.94
383.986	77.94
384.211	65.94
384.436	76.94
384.662	73.94
384.887	90.94
385.112	79.94
385.337	82.94
385.562	72.94
385.787	82.94
386.013	82.94
386.238	53.94
386.463	80.94
386.688	82.94
386.913	84.94
387.138	87.94
387.363	71.94
387.588	94.94
387.813	74.94
388.038	75.94
388.263	76.94
388.488	74.94
388.713	65.94
388.938	75.94
389.163	73.94
389.387	83.94
389.612	79.94
389.837	90.94
390.062	83.94
390.287	81.94
390.512	89.94
390.736	75.94
390.961	74.94
391.186	82.94
391.411	86.94
391.636	91.94
391.86	78.94
392.085	64.94
392.31	67.94
392.534	88.94
392.759	85.94
392.984	78.94
393.208	90.94
393.433	82.94
393.658	72.94
393.882	85.94
394.107	83.94
394.331	84.94
394.556	77.94
394.78	86.94
395.005	77.94
395.229	76.94
395.454	68.94
395.678	76.94
395.903	78.94
396.127	81.94
396.352	65.94
396.576	80.94
396.801	76.94
397.025	74.94
397.249	76.94
397.474	95.94
397.698	72.94
397.922	89.94
398.147	90.94
398.371	86.94
398.595	91.94
398.82	73.94
399.044	88.94
399.268	68.94
399.492	80.94
399.717	82.94
399.941	67.94
400.165	68.94
400.389	79.94
400.613	77.94
400.837	68.94
401.062	90.94
401.286	75.94
401.51	76.94
401.734	76.94
401.958	68.94
402.182	90.94
402.406	85.94
402.63	78.94
402.854	66.94
403.078	72.94
403.302	73.94
403.526	77.94
403.75	80.94
403.974	81.94
404.198	75.94
404.422	82.94
404.645	79.94
404.869	67.94
405.093	76.94
405.317	81.94
405.541	81.94
405.765	91.94
405.988	90.94
406.212	77.94
406.436	96.94
406.66	79.94
406.883	72.94
407.107	73.94
407.331	79.94
407.555	82.94
407.778	77.94
408.002	69.94
408.226	60.94
408.449	86.94
408.673	66.94
408.896	73.94
409.12	91.94
409.344	84.94
409.567	77.94
409.791	90.94
410.014	78.94
410.238	76.94
410.461	79.94
410.685	80.94
410.908	72.94
411.132	91.94
411.355	82.94
411.578	87.94
411.802	86.94
412.025	91.94
412.249	82.94
412.472	79.94
412.695	77.94
412.919	69.94
413.142	80.94
413.365	79.94
413.589	64.94
413.812	64.94
414.035	83.94
414.258	78.94
414.482	89.94
414.705	78.94
414.928	68.94
415.151	78.94
415.374	78.94
415.597	80.94
415.821	88.94
416.044	68.94
416.267	76.94
416.49	87.94
416.713	77.94
416.936	78.94
417.159	81.94
417.382	79.94
417.605	76.94
417.828	86.94
418.051	81.94
418.274	79.94
418.497	88.94
418.72	78.94
418.943	68.94
419.166	71.94
419.389	87.94
419.611	79.94
419.834	73.94
420.057	75.94
420.28	76.94
420.503	85.94
420.726	81.94
420.948	80.94
421.171	70.94
421.394	83.94
421.617	67.94
421.839	79.94
422.062	78.94
422.285	75.94
422.507	87.94
422.73	71.94
422.953	83.94
423.175	86.94
423.398	86.94
423.621	71.94
423.843	78.94
424.066	82.94
424.288	65.94
424.511	85.94
424.733	79.94
424.956	80.94
425.178	85.94
425.401	68.94
425.623	70.94
425.846	58.94
426.068	70.94
426.291	79.94
426.513	70.94
426.735	75.94
426.958	78.94
427.18	72.94
427.402	67.94
427.625	88.94
427.847	72.94
428.069	88.94
428.292	67.94
428.514	76.94
428.736	76.94
428.958	82.94
429.181	75.94
429.403	76.94
429.625	80.94
429.847	72.94
430.069	67.94
430.292	65.94
430.514	90.94
430.736	88.94
430.958	68.94
431.18	76.94
431.402	99.94
431.624	63.94
431.846	78.94
432.068	68.94
432.29	82.94
432.512	90.94
432.734	86.94
432.956	79.94
433.178	79.94
433.4	79.94
433.622	82.94
433.844	81.94
434.066	82.94
434.287	65.94
434.509	66.94
434.731	81.94
434.953	66.94
435.175	73.94
435.397	78.94
435.618	69.94
435.84	87.94
436.062	77.94
436.284	85.94
436.505	66.94
436.727	82.94
436.949	88.94
437.17	84.94
437.392	82.94
437.614	74.94
437.835	74.94
438.057	71.94
438.278	67.94
438.5	76.94
438.721	84.94
438.943	76.94
439.165	100.94
439.386	67.94
439.608	83.94
439.829	86.94
440.05	91.94
440.272	67.94
440.493	83.94
440.715	82.94
440.936	69.94
441.158	84.94
441.379	85.94
441.6	66.94
441.822	81.94
442.043	75.94
442.264	80.94
442.486	74.94
442.707	73.94
442.928	63.94
443.149	72.94
443.371	80.94
443.592	84.94
443.813	81.94
444.034	79.94
444.255	78.94
444.476	59.94
444.698	88.94
444.919	79.94
445.14	147.94
445.361	108.94
445.582	68.94
445.803	79.94
446.024	72.94
446.245	83.94
446.466	68.94
446.687	64.94
446.908	73.94
447.129	82.94
447.35	72.94
447.571	78.94
447.792	86.94
448.013	67.94
448.234	69.94
448.455	80.94
448.675	67.94
448.896	88.94
449.117	79.94
449.338	83.94
449.559	78.94
449.779	79.94
450	71.94
450.221	81.94
450.442	72.94
450.662	84.94
450.883	91.94
451.104	86.94
451.324	68.94
451.545	76.94
451.766	77.94
451.986	68.94
452.207	71.94
452.428	66.94
452.648	67.94
452.869	73.94
453.089	83.94
453.31	90.94
453.53	74.94
453.751	87.94
453.971	76.94
454.192	69.94
454.412	82.94
454.633	75.94
454.853	86.94
455.073	90.94
455.294	70.94
455.514	84.94
455.734	97.94
455.955	89.94
456.175	72.94
456.395	83.94
456.616	81.94
456.836	77.94
457.056	98.94
457.276	80.94
457.497	84.94
457.717	86.94
457.937	77.94
458.157	78.94
458.377	86.94
458.598	77.94
458.818	92.94
459.038	90.94
459.258	68.94
459.478	76.94
459.698	63.94
459.918	88.94
460.138	75.94
460.358	73.94
460.578	81.94
460.798	73.94
461.018	88.94
461.238	90.94
461.458	77.94
461.678	91.94
461.898	73.94
462.118	72.94
462.338	83.94
462.558	66.94
462.777	78.94
462.997	91.94
463.217	79.94
463.437	87.94
463.657	71.94
463.876	82.94
464.096	78.94
464.316	78.94
464.536	71.94
464.755	85.94
464.975	89.94
465.195	79.94
465.414	72.94
465.634	88.94
465.854	73.94
466.073	76.94
466.293	83.94
466.512	66.94
466.732	72.94
466.951	85.94
467.171	85.94
467.391	74.94
467.61	81.94
467.829	80.94
468.049	82.94
468.268	82.94
468.488	74.94
468.707	78.94
468.927	80.94
469.146	80.94
469.365	84.94
469.585	80.94
469.804	77.94
470.023	65.94
470.243	68.94
470.462	80.94
470.681	87.94
470.901	68.94
471.12	72.94
471.339	81.94
471.558	84.94
471.777	68.94
471.997	77.94
472.216	78.94
472.435	89.94
472.654	70.94
472.873	78.94
473.092	67.94
473.311	75.94
473.53	66.94
473.749	75.94
473.968	73.94
474.187	84.94
474.406	80.94
474.625	80.94
474.844	73.94
475.063	66.94
475.282	78.94
475.501	82.94
475.72	86.94
475.939	74.94
476.158	90.94
476.377	69.94
476.596	86.94
476.814	89.94
477.033	79.94
477.252	77.94
477.471	74.94
477.69	80.94
477.908	86.94
478.127	71.94
478.346	70.94
478.564	81.94
478.783	79.94
479.002	88.94
479.22	82.94
479.439	84.94
479.658	80.94
479.876	68.94
480.095	82.94
480.313	79.94
480.532	75.94
480.751	88.94
480.969	81.94
481.188	77.94
481.406	78.94
481.624	83.94
481.843	68.94
482.061	77.94
482.28	77.94
482.498	94.94
482.717	69.94
482.935	103.94
483.153	78.94
483.372	74.94
483.59	63.94
483.808	74.94
484.027	76.94
484.245	65.94
484.463	74.94
484.681	76.94
484.9	68.94
485.118	73.94
485.336	83.94
485.554	71.94
485.772	80.94
485.99	78.94
486.209	82.94
486.427	67.94
486.645	56.94
486.863	74.94
487.081	73.94
487.299	77.94
487.517	68.94
487.735	88.94
487.953	81.94
488.171	92.94
488.389	80.94
488.607	81.94
488.825	77.94
489.043	75.94
489.261	89.94
489.479	88.94
489.696	86.94
489.914	73.94
490.132	88.94
490.35	74.94
490.568	79.94
490.786	83.94
491.003	97.94
491.221	90.94
491.439	63.94
491.657	73.94
491.874	84.94
492.092	73.94
492.31	95.94
492.527	75.94
492.745	82.94
492.963	67.94
493.18	83.94
493.398	88.94
493.615	76.94
493.833	68.94
494.05	71.94
494.268	86.94
494.485	68.94
494.703	75.94
494.92	88.94
495.138	83.94
495.355	89.94
495.573	89.94
495.79	80.94
496.008	78.94
496.225	85.94
496.442	73.94
496.66	102.94
496.877	73.94
497.094	80.94
497.312	79.94
497.529	89.94
497.746	68.94
497.963	64.94
498.181	76.94
498.398	81.94
498.615	83.94
498.832	69.94
499.049	80.94
499.267	79.94
499.484	67.94
499.701	84.94
499.918	83.94
500.135	87.94
500.352	84.94
500.569	77.94
500.786	95.94
501.003	74.94
501.22	82.94
501.437	68.94
501.654	68.94
501.871	87.94
502.088	78.94
502.305	75.94
502.522	81.94
502.739	73.94
502.956	91.94
503.172	76.94
503.389	60.94
503.606	79.94
503.823	84.94
504.04	79.94
504.256	79.94
504.473	84.94
504.69	77.94
504.907	90.94
505.123	82.94
505.34	77.94
505.557	73.94
505.773	76.94
505.99	82.94
506.207	82.94
506.423	67.94
506.64	79.94
506.856	78.94
507.073	73.94
507.289	81.94
507.506	91.94
507.722	83.94
507.939	80.94
508.155	67.94
508.372	78.94
508.588	76.94
508.805	73.94
509.021	64.94
509.238	88.94
509.454	71.94
509.67	90.94
509.887	82.94
510.103	70.94
510.319	81.94
510.536	78.94
510.752	77.94
510.968	74.94
511.184	91.94
511.401	91.94
511.617	88.94
511.833	73.94
512.049	79.94
512.265	84.94
512.481	80.94
512.698	80.94
512.914	85.94
513.13	84.94
513.346	79.94
513.562	75.94
513.778	66.94
513.994	77.94
514.21	88.94
514.426	86.94
514.642	88.94
514.858	65.94
515.074	80.94
515.29	87.94
515.506	77.94
515.721	69.94
515.937	78.94
516.153	84.94
516.369	92.94
516.585	91.94
516.801	96.94
517.016	90.94
517.232	93.94
517.448	83.94
517.664	72.94
517.879	84.94
518.095	83.94
518.311	68.94
518.527	82.94
518.742	75.94
518.958	84.94
519.173	78.94
519.389	76.94
519.605	68.94
519.82	72.94
520.036	85.94
