Data from Background_2_HRD10591_00005.txt Node
Date: Wed Nov 05 14:46:59 EST 2025
User: Yrep
Spectrometer: HR+D1059
Trigger mode: 1
Integration Time (sec): 1.000000E-1
Scans to average: 1
Electric dark correction enabled: true
Nonlinearity correction enabled: false
Boxcar width: 0
XAxis mode: Wavelengths
Number of Pixels in Spectrum: 2048
>>>>>Begin Spectral Data<<<<<
223.165	-17.25
223.4	-17.25
223.635	-17.25
223.869	-27.25
224.104	-26.25
224.338	-8.25
224.573	-3.25
224.808	-15.25
225.042	-10.25
225.277	6.75
225.511	8.75
225.746	3.75
225.98	12.75
226.215	-0.25
226.449	13.75
226.683	6.75
226.918	16.75
227.152	38.75
227.387	40.75
227.621	37.75
227.856	36.75
228.09	55.75
228.324	53.75
228.559	60.75
228.793	64.75
229.027	71.75
229.262	66.75
229.496	67.75
229.73	77.75
229.964	77.75
230.199	81.75
230.433	70.75
230.667	64.75
230.901	81.75
231.136	68.75
231.37	89.75
231.604	86.75
231.838	75.75
232.072	80.75
232.306	85.75
232.541	86.75
232.775	91.75
233.009	87.75
233.243	95.75
233.477	84.75
233.711	87.75
233.945	68.75
234.179	91.75
234.413	78.75
234.647	81.75
234.881	83.75
235.115	92.75
235.349	82.75
235.583	75.75
235.817	92.75
236.051	73.75
236.285	69.75
236.519	76.75
236.753	78.75
236.987	80.75
237.221	93.75
237.455	90.75
237.689	63.75
237.922	80.75
238.156	80.75
238.39	67.75
238.624	72.75
238.858	91.75
239.091	71.75
239.325	72.75
239.559	76.75
239.793	75.75
240.027	94.75
240.26	84.75
240.494	94.75
240.728	81.75
240.961	67.75
241.195	83.75
241.429	85.75
241.662	77.75
241.896	75.75
242.13	83.75
242.363	79.75
242.597	69.75
242.83	81.75
243.064	82.75
243.298	69.75
243.531	78.75
243.765	87.75
243.998	60.75
244.232	78.75
244.465	85.75
244.699	81.75
244.932	72.75
245.166	72.75
245.399	85.75
245.633	100.75
245.866	78.75
246.099	81.75
246.333	71.75
246.566	82.75
246.8	66.75
247.033	75.75
247.266	86.75
247.5	80.75
247.733	85.75
247.966	84.75
248.2	100.75
248.433	83.75
248.666	84.75
248.899	82.75
249.133	82.75
249.366	83.75
249.599	77.75
249.832	87.75
250.066	79.75
250.299	91.75
250.532	84.75
250.765	70.75
250.998	82.75
251.231	62.75
251.465	76.75
251.698	75.75
251.931	85.75
252.164	76.75
252.397	82.75
252.63	80.75
252.863	82.75
253.096	69.75
253.329	95.75
253.562	80.75
253.795	84.75
254.028	87.75
254.261	85.75
254.494	66.75
254.727	83.75
254.96	74.75
255.193	89.75
255.426	91.75
255.659	70.75
255.892	76.75
256.124	90.75
256.357	94.75
256.59	86.75
256.823	81.75
257.056	91.75
257.289	96.75
257.521	82.75
257.754	83.75
257.987	95.75
258.22	95.75
258.452	80.75
258.685	94.75
258.918	99.75
259.151	82.75
259.383	77.75
259.616	78.75
259.849	83.75
260.081	83.75
260.314	90.75
260.547	102.75
260.779	93.75
261.012	72.75
261.244	101.75
261.477	98.75
261.71	80.75
261.942	88.75
262.175	77.75
262.407	83.75
262.64	78.75
262.872	88.75
263.105	78.75
263.337	80.75
263.57	90.75
263.802	80.75
264.035	88.75
264.267	77.75
264.499	90.75
264.732	84.75
264.964	92.75
265.197	88.75
265.429	72.75
265.661	93.75
265.894	85.75
266.126	93.75
266.358	80.75
266.591	73.75
266.823	94.75
267.055	79.75
267.287	91.75
267.52	73.75
267.752	97.75
267.984	84.75
268.216	76.75
268.448	84.75
268.681	91.75
268.913	63.75
269.145	79.75
269.377	93.75
269.609	94.75
269.841	90.75
270.073	82.75
270.306	81.75
270.538	65.75
270.77	88.75
271.002	90.75
271.234	85.75
271.466	84.75
271.698	79.75
271.93	86.75
272.162	94.75
272.394	95.75
272.626	75.75
272.858	83.75
273.09	97.75
273.322	73.75
273.553	100.75
273.785	84.75
274.017	53.75
274.249	74.75
274.481	87.75
274.713	84.75
274.945	98.75
275.176	89.75
275.408	86.75
275.64	77.75
275.872	84.75
276.104	92.75
276.335	73.75
276.567	88.75
276.799	72.75
277.031	83.75
277.262	91.75
277.494	83.75
277.726	96.75
277.957	89.75
278.189	80.75
278.421	85.75
278.652	79.75
278.884	88.75
279.115	88.75
279.347	85.75
279.579	81.75
279.81	90.75
280.042	74.75
280.273	84.75
280.505	70.75
280.736	83.75
280.968	83.75
281.199	92.75
281.431	95.75
281.662	81.75
281.894	85.75
282.125	91.75
282.356	91.75
282.588	89.75
282.819	86.75
283.051	86.75
283.282	72.75
283.513	99.75
283.745	96.75
283.976	67.75
284.207	77.75
284.439	95.75
284.67	99.75
284.901	87.75
285.132	90.75
285.364	78.75
285.595	78.75
285.826	79.75
286.057	94.75
286.288	87.75
286.52	88.75
286.751	93.75
286.982	92.75
287.213	87.75
287.444	78.75
287.675	82.75
287.906	82.75
288.138	93.75
288.369	88.75
288.6	84.75
288.831	93.75
289.062	94.75
289.293	86.75
289.524	81.75
289.755	99.75
289.986	87.75
290.217	85.75
290.448	88.75
290.679	87.75
290.91	74.75
291.141	80.75
291.371	82.75
291.602	87.75
291.833	73.75
292.064	78.75
292.295	87.75
292.526	89.75
292.757	86.75
292.987	90.75
293.218	106.75
293.449	87.75
293.68	96.75
293.91	82.75
294.141	84.75
294.372	84.75
294.603	84.75
294.833	97.75
295.064	79.75
295.295	70.75
295.525	84.75
295.756	90.75
295.987	82.75
296.217	91.75
296.448	80.75
296.679	80.75
296.909	96.75
297.14	89.75
297.37	90.75
297.601	73.75
297.831	87.75
298.062	95.75
298.292	88.75
298.523	90.75
298.753	84.75
298.984	79.75
299.214	87.75
299.445	90.75
299.675	86.75
299.905	97.75
300.136	86.75
300.366	70.75
300.597	92.75
300.827	72.75
301.057	89.75
301.288	91.75
301.518	102.75
301.748	87.75
301.979	95.75
302.209	86.75
302.439	92.75
302.669	92.75
302.9	81.75
303.13	88.75
303.36	97.75
303.59	84.75
303.82	84.75
304.051	91.75
304.281	90.75
304.511	99.75
304.741	100.75
304.971	83.75
305.201	101.75
305.431	92.75
305.661	88.75
305.891	81.75
306.121	93.75
306.352	92.75
306.582	85.75
306.812	82.75
307.042	87.75
307.272	88.75
307.502	81.75
307.731	91.75
307.961	90.75
308.191	86.75
308.421	79.75
308.651	75.75
308.881	100.75
309.111	102.75
309.341	91.75
309.571	73.75
309.8	84.75
310.03	86.75
310.26	92.75
310.49	74.75
310.72	84.75
310.949	82.75
311.179	78.75
311.409	79.75
311.639	98.75
311.868	76.75
312.098	84.75
312.328	91.75
312.557	91.75
312.787	90.75
313.017	84.75
313.246	101.75
313.476	82.75
313.706	78.75
313.935	84.75
314.165	77.75
314.394	90.75
314.624	89.75
314.853	89.75
315.083	96.75
315.312	89.75
315.542	77.75
315.771	87.75
316.001	85.75
316.23	102.75
316.46	86.75
316.689	83.75
316.919	82.75
317.148	70.75
317.377	85.75
317.607	72.75
317.836	70.75
318.065	79.75
318.295	88.75
318.524	94.75
318.753	76.75
318.983	78.75
319.212	94.75
319.441	81.75
319.67	79.75
319.9	85.75
320.129	78.75
320.358	73.75
320.587	75.75
320.816	85.75
321.046	70.75
321.275	91.75
321.504	88.75
321.733	89.75
321.962	81.75
322.191	74.75
322.42	75.75
322.649	85.75
322.878	86.75
323.108	83.75
323.337	78.75
323.566	77.75
323.795	86.75
324.024	86.75
324.253	95.75
324.482	87.75
324.71	94.75
324.939	84.75
325.168	83.75
325.397	87.75
325.626	96.75
325.855	81.75
326.084	90.75
326.313	81.75
326.542	82.75
326.77	92.75
326.999	86.75
327.228	106.75
327.457	82.75
327.686	76.75
327.914	83.75
328.143	82.75
328.372	82.75
328.6	65.75
328.829	96.75
329.058	73.75
329.287	80.75
329.515	93.75
329.744	94.75
329.972	92.75
330.201	88.75
330.43	76.75
330.658	85.75
330.887	97.75
331.115	83.75
331.344	84.75
331.572	89.75
331.801	88.75
332.03	86.75
332.258	82.75
332.486	68.75
332.715	86.75
332.943	82.75
333.172	76.75
333.4	82.75
333.629	80.75
333.857	91.75
334.085	69.75
334.314	97.75
334.542	76.75
334.771	82.75
334.999	92.75
335.227	77.75
335.455	90.75
335.684	93.75
335.912	87.75
336.14	92.75
336.369	92.75
336.597	88.75
336.825	97.75
337.053	93.75
337.281	90.75
337.51	82.75
337.738	82.75
337.966	80.75
338.194	94.75
338.422	95.75
338.65	86.75
338.878	99.75
339.106	73.75
339.334	77.75
339.562	77.75
339.79	83.75
340.018	77.75
340.246	78.75
340.474	83.75
340.702	95.75
340.93	89.75
341.158	90.75
341.386	93.75
341.614	89.75
341.842	76.75
342.07	91.75
342.298	114.75
342.526	103.75
342.754	78.75
342.981	84.75
343.209	96.75
343.437	104.75
343.665	85.75
343.893	91.75
344.12	73.75
344.348	86.75
344.576	73.75
344.804	89.75
345.031	96.75
345.259	93.75
345.487	91.75
345.714	72.75
345.942	75.75
346.17	75.75
346.397	85.75
346.625	85.75
346.853	76.75
347.08	78.75
347.308	91.75
347.535	79.75
347.763	108.75
347.99	83.75
348.218	90.75
348.445	94.75
348.673	81.75
348.9	79.75
349.128	85.75
349.355	82.75
349.583	79.75
349.81	79.75
350.037	80.75
350.265	91.75
350.492	90.75
350.72	91.75
350.947	81.75
351.174	78.75
351.402	76.75
351.629	97.75
351.856	83.75
352.083	90.75
352.311	98.75
352.538	91.75
352.765	77.75
352.992	82.75
353.22	89.75
353.447	79.75
353.674	95.75
353.901	92.75
354.128	77.75
354.355	100.75
354.583	81.75
354.81	96.75
355.037	87.75
355.264	85.75
355.491	89.75
355.718	75.75
355.945	93.75
356.172	85.75
356.399	87.75
356.626	71.75
356.853	80.75
357.08	96.75
357.307	85.75
357.534	91.75
357.761	94.75
357.988	72.75
358.215	94.75
358.441	82.75
358.668	80.75
358.895	85.75
359.122	78.75
359.349	68.75
359.576	82.75
359.802	102.75
360.029	99.75
360.256	81.75
360.483	80.75
360.709	80.75
360.936	82.75
361.163	76.75
361.39	72.75
361.616	76.75
361.843	83.75
362.07	90.75
362.296	90.75
362.523	91.75
362.749	90.75
362.976	86.75
363.203	92.75
363.429	90.75
363.656	90.75
363.882	87.75
364.109	94.75
364.335	92.75
364.562	70.75
364.788	82.75
365.015	77.75
365.241	95.75
365.468	98.75
365.694	85.75
365.92	98.75
366.147	82.75
366.373	92.75
366.599	82.75
366.826	83.75
367.052	92.75
367.278	88.75
367.505	84.75
367.731	94.75
367.957	86.75
368.184	95.75
368.41	80.75
368.636	92.75
368.862	80.75
369.089	82.75
369.315	97.75
369.541	80.75
369.767	82.75
369.993	94.75
370.219	75.75
370.445	82.75
370.672	95.75
370.898	84.75
371.124	86.75
371.35	86.75
371.576	84.75
371.802	83.75
372.028	101.75
372.254	81.75
372.48	77.75
372.706	85.75
372.932	58.75
373.158	78.75
373.384	82.75
373.61	81.75
373.835	78.75
374.061	87.75
374.287	85.75
374.513	82.75
374.739	85.75
374.965	88.75
375.191	93.75
375.416	91.75
375.642	85.75
375.868	87.75
376.094	80.75
376.319	91.75
376.545	82.75
376.771	84.75
376.997	98.75
377.222	107.75
377.448	86.75
377.674	90.75
377.899	75.75
378.125	78.75
378.35	95.75
378.576	93.75
378.802	76.75
379.027	80.75
379.253	100.75
379.478	90.75
379.704	76.75
379.929	86.75
380.155	78.75
380.38	92.75
380.606	79.75
380.831	78.75
381.057	97.75
381.282	80.75
381.507	78.75
381.733	84.75
381.958	87.75
382.184	73.75
382.409	82.75
382.634	75.75
382.86	92.75
383.085	92.75
383.31	86.75
383.535	71.75
383.761	72.75
383.986	92.75
384.211	88.75
384.436	83.75
384.662	81.75
384.887	68.75
385.112	81.75
385.337	83.75
385.562	84.75
385.787	89.75
386.013	90.75
386.238	73.75
386.463	94.75
386.688	83.75
386.913	86.75
387.138	70.75
387.363	84.75
387.588	76.75
387.813	68.75
388.038	93.75
388.263	96.75
388.488	89.75
388.713	87.75
388.938	80.75
389.163	76.75
389.387	88.75
389.612	90.75
389.837	86.75
390.062	95.75
390.287	71.75
390.512	71.75
390.736	80.75
390.961	91.75
391.186	84.75
391.411	90.75
391.636	82.75
391.86	73.75
392.085	86.75
392.31	88.75
392.534	79.75
392.759	106.75
392.984	79.75
393.208	79.75
393.433	83.75
393.658	95.75
393.882	82.75
394.107	95.75
394.331	87.75
394.556	82.75
394.78	99.75
395.005	76.75
395.229	90.75
395.454	86.75
395.678	86.75
395.903	84.75
396.127	91.75
396.352	92.75
396.576	81.75
396.801	83.75
397.025	82.75
397.249	65.75
397.474	82.75
397.698	84.75
397.922	87.75
398.147	70.75
398.371	72.75
398.595	83.75
398.82	81.75
399.044	84.75
399.268	84.75
399.492	77.75
399.717	75.75
399.941	71.75
400.165	92.75
400.389	72.75
400.613	78.75
400.837	79.75
401.062	80.75
401.286	79.75
401.51	82.75
401.734	77.75
401.958	83.75
402.182	67.75
402.406	70.75
402.63	77.75
402.854	80.75
403.078	71.75
403.302	84.75
403.526	88.75
403.75	87.75
403.974	67.75
404.198	84.75
404.422	77.75
404.645	92.75
404.869	81.75
405.093	71.75
405.317	76.75
405.541	99.75
405.765	88.75
405.988	88.75
406.212	88.75
406.436	82.75
406.66	80.75
406.883	86.75
407.107	80.75
407.331	87.75
407.555	87.75
407.778	81.75
408.002	96.75
408.226	71.75
408.449	79.75
408.673	85.75
408.896	79.75
409.12	79.75
409.344	81.75
409.567	84.75
409.791	73.75
410.014	72.75
410.238	85.75
410.461	83.75
410.685	73.75
410.908	84.75
411.132	101.75
411.355	72.75
411.578	81.75
411.802	82.75
412.025	76.75
412.249	95.75
412.472	101.75
412.695	83.75
412.919	88.75
413.142	89.75
413.365	76.75
413.589	86.75
413.812	85.75
414.035	88.75
414.258	82.75
414.482	68.75
414.705	76.75
414.928	78.75
415.151	88.75
415.374	82.75
415.597	94.75
415.821	77.75
416.044	69.75
416.267	83.75
416.49	83.75
416.713	89.75
416.936	73.75
417.159	86.75
417.382	82.75
417.605	83.75
417.828	75.75
418.051	70.75
418.274	89.75
418.497	78.75
418.72	75.75
418.943	95.75
419.166	82.75
419.389	86.75
419.611	79.75
419.834	76.75
420.057	83.75
420.28	74.75
420.503	89.75
420.726	84.75
420.948	79.75
421.171	66.75
421.394	77.75
421.617	86.75
421.839	83.75
422.062	76.75
422.285	73.75
422.507	72.75
422.73	65.75
422.953	93.75
423.175	73.75
423.398	88.75
423.621	92.75
423.843	82.75
424.066	83.75
424.288	87.75
424.511	98.75
424.733	91.75
424.956	66.75
425.178	82.75
425.401	90.75
425.623	83.75
425.846	81.75
426.068	91.75
426.291	82.75
426.513	72.75
426.735	88.75
426.958	68.75
427.18	92.75
427.402	86.75
427.625	90.75
427.847	76.75
428.069	78.75
428.292	73.75
428.514	80.75
428.736	79.75
428.958	78.75
429.181	69.75
429.403	102.75
429.625	79.75
429.847	90.75
430.069	88.75
430.292	83.75
430.514	73.75
430.736	69.75
430.958	90.75
431.18	66.75
431.402	78.75
431.624	85.75
431.846	72.75
432.068	91.75
432.29	68.75
432.512	77.75
432.734	78.75
432.956	84.75
433.178	86.75
433.4	75.75
433.622	75.75
433.844	76.75
434.066	78.75
434.287	93.75
434.509	73.75
434.731	76.75
434.953	90.75
435.175	78.75
435.397	70.75
435.618	78.75
435.84	94.75
436.062	90.75
436.284	83.75
436.505	72.75
436.727	69.75
436.949	93.75
437.17	75.75
437.392	81.75
437.614	66.75
437.835	67.75
438.057	78.75
438.278	72.75
438.5	90.75
438.721	79.75
438.943	78.75
439.165	64.75
439.386	84.75
439.608	87.75
439.829	91.75
440.05	95.75
440.272	83.75
440.493	84.75
440.715	92.75
440.936	93.75
441.158	87.75
441.379	71.75
441.6	87.75
441.822	98.75
442.043	87.75
442.264	86.75
442.486	88.75
442.707	76.75
442.928	78.75
443.149	75.75
443.371	80.75
443.592	90.75
443.813	78.75
444.034	90.75
444.255	80.75
444.476	71.75
444.698	85.75
444.919	80.75
445.14	155.75
445.361	127.75
445.582	65.75
445.803	84.75
446.024	75.75
446.245	84.75
446.466	73.75
446.687	77.75
446.908	85.75
447.129	90.75
447.35	73.75
447.571	79.75
447.792	80.75
448.013	72.75
448.234	73.75
448.455	78.75
448.675	92.75
448.896	88.75
449.117	68.75
449.338	84.75
449.559	75.75
449.779	82.75
450	92.75
450.221	82.75
450.442	80.75
450.662	87.75
450.883	82.75
451.104	99.75
451.324	78.75
451.545	82.75
451.766	78.75
451.986	76.75
452.207	87.75
452.428	81.75
452.648	81.75
452.869	78.75
453.089	75.75
453.31	71.75
453.53	76.75
453.751	83.75
453.971	85.75
454.192	89.75
454.412	84.75
454.633	83.75
454.853	82.75
455.073	80.75
455.294	75.75
455.514	96.75
455.734	83.75
455.955	89.75
456.175	85.75
456.395	78.75
456.616	83.75
456.836	90.75
457.056	84.75
457.276	81.75
457.497	83.75
457.717	83.75
457.937	87.75
458.157	87.75
458.377	77.75
458.598	85.75
458.818	78.75
459.038	78.75
459.258	76.75
459.478	78.75
459.698	82.75
459.918	64.75
460.138	80.75
460.358	96.75
460.578	98.75
460.798	84.75
461.018	87.75
461.238	79.75
461.458	75.75
461.678	78.75
461.898	74.75
462.118	90.75
462.338	66.75
462.558	86.75
462.777	81.75
462.997	82.75
463.217	97.75
463.437	79.75
463.657	83.75
463.876	83.75
464.096	90.75
464.316	88.75
464.536	81.75
464.755	78.75
464.975	68.75
465.195	74.75
465.414	83.75
465.634	82.75
465.854	80.75
466.073	94.75
466.293	67.75
466.512	61.75
466.732	96.75
466.951	92.75
467.171	79.75
467.391	77.75
467.61	65.75
467.829	94.75
468.049	82.75
468.268	88.75
468.488	76.75
468.707	88.75
468.927	76.75
469.146	84.75
469.365	79.75
469.585	90.75
469.804	75.75
470.023	76.75
470.243	88.75
470.462	86.75
470.681	93.75
470.901	79.75
471.12	82.75
471.339	100.75
471.558	82.75
471.777	88.75
471.997	99.75
472.216	78.75
472.435	76.75
472.654	86.75
472.873	90.75
473.092	89.75
473.311	70.75
473.53	94.75
473.749	79.75
473.968	92.75
474.187	76.75
474.406	76.75
474.625	83.75
474.844	63.75
475.063	72.75
475.282	106.75
475.501	90.75
475.72	90.75
475.939	96.75
476.158	82.75
476.377	87.75
476.596	90.75
476.814	86.75
477.033	89.75
477.252	92.75
477.471	81.75
477.69	86.75
477.908	84.75
478.127	102.75
478.346	82.75
478.564	88.75
478.783	81.75
479.002	86.75
479.22	80.75
479.439	83.75
479.658	95.75
479.876	78.75
480.095	88.75
480.313	76.75
480.532	91.75
480.751	74.75
480.969	94.75
481.188	79.75
481.406	98.75
481.624	81.75
481.843	86.75
482.061	88.75
482.28	86.75
482.498	89.75
482.717	74.75
482.935	81.75
483.153	89.75
483.372	84.75
483.59	69.75
483.808	74.75
484.027	97.75
484.245	97.75
484.463	91.75
484.681	70.75
484.9	74.75
485.118	92.75
485.336	83.75
485.554	67.75
485.772	77.75
485.99	76.75
486.209	87.75
486.427	71.75
486.645	84.75
486.863	79.75
487.081	86.75
487.299	89.75
487.517	86.75
487.735	94.75
487.953	72.75
488.171	79.75
488.389	78.75
488.607	79.75
488.825	93.75
489.043	75.75
489.261	78.75
489.479	78.75
489.696	76.75
489.914	87.75
490.132	72.75
490.35	68.75
490.568	83.75
490.786	72.75
491.003	85.75
491.221	79.75
491.439	86.75
491.657	96.75
491.874	91.75
492.092	82.75
492.31	86.75
492.527	78.75
492.745	81.75
492.963	108.75
493.18	78.75
493.398	86.75
493.615	96.75
493.833	68.75
494.05	82.75
494.268	90.75
494.485	77.75
494.703	84.75
494.92	86.75
495.138	87.75
495.355	76.75
495.573	74.75
495.79	83.75
496.008	88.75
496.225	87.75
496.442	86.75
496.66	96.75
496.877	85.75
497.094	78.75
497.312	85.75
497.529	112.75
497.746	98.75
497.963	86.75
498.181	88.75
498.398	86.75
498.615	84.75
498.832	99.75
499.049	89.75
499.267	86.75
499.484	74.75
499.701	92.75
499.918	82.75
500.135	99.75
500.352	94.75
500.569	87.75
500.786	87.75
501.003	81.75
501.22	85.75
501.437	82.75
501.654	66.75
501.871	78.75
502.088	82.75
502.305	84.75
502.522	71.75
502.739	96.75
502.956	80.75
503.172	83.75
503.389	92.75
503.606	104.75
503.823	83.75
504.04	93.75
504.256	81.75
504.473	92.75
504.69	86.75
504.907	78.75
505.123	88.75
505.34	94.75
505.557	84.75
505.773	85.75
505.99	86.75
506.207	89.75
506.423	74.75
506.64	83.75
506.856	73.75
507.073	86.75
507.289	94.75
507.506	91.75
507.722	84.75
507.939	91.75
508.155	83.75
508.372	88.75
508.588	91.75
508.805	86.75
509.021	82.75
509.238	74.75
509.454	80.75
509.67	75.75
509.887	83.75
510.103	88.75
510.319	86.75
510.536	87.75
510.752	72.75
510.968	73.75
511.184	77.75
511.401	79.75
511.617	92.75
511.833	80.75
512.049	94.75
512.265	86.75
512.481	92.75
512.698	73.75
512.914	95.75
513.13	88.75
513.346	73.75
513.562	80.75
513.778	93.75
513.994	94.75
514.21	79.75
514.426	96.75
514.642	89.75
514.858	74.75
515.074	76.75
515.29	83.75
515.506	72.75
515.721	91.75
515.937	86.75
516.153	83.75
516.369	79.75
516.585	77.75
516.801	80.75
517.016	85.75
517.232	79.75
517.448	78.75
517.664	76.75
517.879	80.75
518.095	96.75
518.311	84.75
518.527	85.75
518.742	85.75
518.958	90.75
519.173	85.75
519.389	82.75
519.605	88.75
519.82	96.75
