Data from Background_2_HRD10591_00012.txt Node
Date: Wed Nov 05 14:47:03 EST 2025
User: Yrep
Spectrometer: HR+D1059
Trigger mode: 1
Integration Time (sec): 1.000000E-1
Scans to average: 1
Electric dark correction enabled: true
Nonlinearity correction enabled: false
Boxcar width: 0
XAxis mode: Wavelengths
Number of Pixels in Spectrum: 2048
>>>>>Begin Spectral Data<<<<<
223.165	-14.06
223.4	-14.06
223.635	-14.06
223.869	-21.06
224.104	-21.06
224.338	-19.06
224.573	-9.06
224.808	-6.06
225.042	-4.06
225.277	-0.06
225.511	-6.06
225.746	6.94
225.98	12.94
226.215	10.94
226.449	21.94
226.683	18.94
226.918	2.94
227.152	25.94
227.387	17.94
227.621	44.94
227.856	52.94
228.09	36.94
228.324	38.94
228.559	54.94
228.793	68.94
229.027	55.94
229.262	64.94
229.496	62.94
229.73	54.94
229.964	73.94
230.199	74.94
230.433	71.94
230.667	68.94
230.901	74.94
231.136	72.94
231.37	79.94
231.604	68.94
231.838	70.94
232.072	81.94
232.306	74.94
232.541	57.94
232.775	86.94
233.009	72.94
233.243	83.94
233.477	87.94
233.711	70.94
233.945	61.94
234.179	77.94
234.413	80.94
234.647	66.94
234.881	82.94
235.115	79.94
235.349	87.94
235.583	79.94
235.817	78.94
236.051	76.94
236.285	70.94
236.519	76.94
236.753	68.94
236.987	71.94
237.221	80.94
237.455	62.94
237.689	76.94
237.922	66.94
238.156	71.94
238.39	74.94
238.624	76.94
238.858	86.94
239.091	76.94
239.325	76.94
239.559	75.94
239.793	71.94
240.027	72.94
240.26	65.94
240.494	72.94
240.728	67.94
240.961	75.94
241.195	73.94
241.429	81.94
241.662	75.94
241.896	73.94
242.13	77.94
242.363	88.94
242.597	80.94
242.83	74.94
243.064	83.94
243.298	72.94
243.531	77.94
243.765	75.94
243.998	82.94
244.232	78.94
244.465	57.94
244.699	66.94
244.932	72.94
245.166	70.94
245.399	82.94
245.633	93.94
245.866	82.94
246.099	71.94
246.333	73.94
246.566	89.94
246.8	74.94
247.033	68.94
247.266	62.94
247.5	73.94
247.733	75.94
247.966	81.94
248.2	78.94
248.433	84.94
248.666	81.94
248.899	87.94
249.133	73.94
249.366	69.94
249.599	69.94
249.832	81.94
250.066	66.94
250.299	71.94
250.532	82.94
250.765	88.94
250.998	80.94
251.231	71.94
251.465	66.94
251.698	72.94
251.931	73.94
252.164	75.94
252.397	90.94
252.63	60.94
252.863	73.94
253.096	85.94
253.329	82.94
253.562	69.94
253.795	77.94
254.028	84.94
254.261	82.94
254.494	76.94
254.727	66.94
254.96	71.94
255.193	69.94
255.426	68.94
255.659	80.94
255.892	90.94
256.124	84.94
256.357	70.94
256.59	82.94
256.823	73.94
257.056	78.94
257.289	83.94
257.521	83.94
257.754	69.94
257.987	82.94
258.22	81.94
258.452	78.94
258.685	94.94
258.918	77.94
259.151	74.94
259.383	77.94
259.616	73.94
259.849	76.94
260.081	80.94
260.314	83.94
260.547	74.94
260.779	93.94
261.012	76.94
261.244	80.94
261.477	92.94
261.71	84.94
261.942	76.94
262.175	82.94
262.407	71.94
262.64	75.94
262.872	79.94
263.105	84.94
263.337	76.94
263.57	86.94
263.802	93.94
264.035	90.94
264.267	78.94
264.499	88.94
264.732	76.94
264.964	79.94
265.197	76.94
265.429	71.94
265.661	75.94
265.894	86.94
266.126	94.94
266.358	73.94
266.591	74.94
266.823	75.94
267.055	73.94
267.287	81.94
267.52	92.94
267.752	80.94
267.984	82.94
268.216	85.94
268.448	74.94
268.681	75.94
268.913	67.94
269.145	85.94
269.377	77.94
269.609	79.94
269.841	82.94
270.073	74.94
270.306	77.94
270.538	70.94
270.77	75.94
271.002	64.94
271.234	83.94
271.466	89.94
271.698	77.94
271.93	78.94
272.162	75.94
272.394	88.94
272.626	87.94
272.858	82.94
273.09	81.94
273.322	75.94
273.553	81.94
273.785	82.94
274.017	83.94
274.249	86.94
274.481	87.94
274.713	93.94
274.945	82.94
275.176	86.94
275.408	99.94
275.64	90.94
275.872	72.94
276.104	88.94
276.335	69.94
276.567	96.94
276.799	88.94
277.031	84.94
277.262	81.94
277.494	81.94
277.726	75.94
277.957	86.94
278.189	85.94
278.421	75.94
278.652	91.94
278.884	92.94
279.115	76.94
279.347	77.94
279.579	78.94
279.81	78.94
280.042	88.94
280.273	88.94
280.505	71.94
280.736	83.94
280.968	88.94
281.199	96.94
281.431	73.94
281.662	78.94
281.894	80.94
282.125	85.94
282.356	70.94
282.588	83.94
282.819	94.94
283.051	72.94
283.282	92.94
283.513	100.94
283.745	80.94
283.976	78.94
284.207	69.94
284.439	92.94
284.67	91.94
284.901	81.94
285.132	86.94
285.364	69.94
285.595	81.94
285.826	90.94
286.057	78.94
286.288	71.94
286.52	74.94
286.751	75.94
286.982	86.94
287.213	77.94
287.444	78.94
287.675	78.94
287.906	84.94
288.138	75.94
288.369	92.94
288.6	77.94
288.831	79.94
289.062	92.94
289.293	85.94
289.524	80.94
289.755	85.94
289.986	77.94
290.217	82.94
290.448	91.94
290.679	82.94
290.91	91.94
291.141	71.94
291.371	86.94
291.602	101.94
291.833	79.94
292.064	86.94
292.295	68.94
292.526	78.94
292.757	83.94
292.987	82.94
293.218	90.94
293.449	96.94
293.68	87.94
293.91	75.94
294.141	93.94
294.372	74.94
294.603	82.94
294.833	85.94
295.064	78.94
295.295	82.94
295.525	93.94
295.756	87.94
295.987	91.94
296.217	90.94
296.448	86.94
296.679	70.94
296.909	76.94
297.14	85.94
297.37	78.94
297.601	85.94
297.831	93.94
298.062	83.94
298.292	77.94
298.523	80.94
298.753	75.94
298.984	82.94
299.214	76.94
299.445	93.94
299.675	104.94
299.905	94.94
300.136	68.94
300.366	77.94
300.597	64.94
300.827	83.94
301.057	90.94
301.288	82.94
301.518	85.94
301.748	80.94
301.979	96.94
302.209	79.94
302.439	80.94
302.669	77.94
302.9	89.94
303.13	92.94
303.36	74.94
303.59	79.94
303.82	82.94
304.051	88.94
304.281	76.94
304.511	76.94
304.741	79.94
304.971	81.94
305.201	82.94
305.431	87.94
305.661	97.94
305.891	88.94
306.121	76.94
306.352	74.94
306.582	84.94
306.812	104.94
307.042	82.94
307.272	77.94
307.502	74.94
307.731	91.94
307.961	90.94
308.191	84.94
308.421	80.94
308.651	89.94
308.881	81.94
309.111	71.94
309.341	75.94
309.571	70.94
309.8	75.94
310.03	79.94
310.26	94.94
310.49	92.94
310.72	86.94
310.949	76.94
311.179	81.94
311.409	93.94
311.639	96.94
311.868	90.94
312.098	92.94
312.328	86.94
312.557	81.94
312.787	95.94
313.017	93.94
313.246	83.94
313.476	74.94
313.706	78.94
313.935	88.94
314.165	84.94
314.394	79.94
314.624	92.94
314.853	80.94
315.083	92.94
315.312	79.94
315.542	88.94
315.771	91.94
316.001	91.94
316.23	87.94
316.46	91.94
316.689	89.94
316.919	90.94
317.148	90.94
317.377	84.94
317.607	97.94
317.836	78.94
318.065	75.94
318.295	99.94
318.524	80.94
318.753	87.94
318.983	78.94
319.212	83.94
319.441	82.94
319.67	79.94
319.9	95.94
320.129	82.94
320.358	84.94
320.587	80.94
320.816	86.94
321.046	84.94
321.275	75.94
321.504	76.94
321.733	71.94
321.962	81.94
322.191	80.94
322.42	75.94
322.649	90.94
322.878	92.94
323.108	94.94
323.337	77.94
323.566	76.94
323.795	83.94
324.024	73.94
324.253	76.94
324.482	94.94
324.71	84.94
324.939	71.94
325.168	83.94
325.397	82.94
325.626	75.94
325.855	82.94
326.084	76.94
326.313	96.94
326.542	81.94
326.77	101.94
326.999	68.94
327.228	100.94
327.457	83.94
327.686	79.94
327.914	80.94
328.143	92.94
328.372	72.94
328.6	92.94
328.829	83.94
329.058	84.94
329.287	85.94
329.515	77.94
329.744	80.94
329.972	71.94
330.201	79.94
330.43	95.94
330.658	87.94
330.887	69.94
331.115	82.94
331.344	72.94
331.572	79.94
331.801	74.94
332.03	85.94
332.258	83.94
332.486	88.94
332.715	89.94
332.943	85.94
333.172	93.94
333.4	84.94
333.629	81.94
333.857	74.94
334.085	83.94
334.314	85.94
334.542	82.94
334.771	88.94
334.999	74.94
335.227	81.94
335.455	90.94
335.684	85.94
335.912	70.94
336.14	88.94
336.369	91.94
336.597	81.94
336.825	90.94
337.053	79.94
337.281	88.94
337.51	76.94
337.738	77.94
337.966	93.94
338.194	82.94
338.422	82.94
338.65	92.94
338.878	83.94
339.106	81.94
339.334	84.94
339.562	84.94
339.79	67.94
340.018	94.94
340.246	86.94
340.474	84.94
340.702	87.94
340.93	80.94
341.158	85.94
341.386	93.94
341.614	82.94
341.842	80.94
342.07	79.94
342.298	91.94
342.526	100.94
342.754	95.94
342.981	92.94
343.209	93.94
343.437	90.94
343.665	88.94
343.893	88.94
344.12	85.94
344.348	76.94
344.576	90.94
344.804	68.94
345.031	67.94
345.259	77.94
345.487	90.94
345.714	90.94
345.942	76.94
346.17	80.94
346.397	92.94
346.625	95.94
346.853	85.94
347.08	97.94
347.308	76.94
347.535	76.94
347.763	80.94
347.99	82.94
348.218	73.94
348.445	78.94
348.673	84.94
348.9	98.94
349.128	91.94
349.355	73.94
349.583	84.94
349.81	79.94
350.037	90.94
350.265	90.94
350.492	74.94
350.72	82.94
350.947	86.94
351.174	95.94
351.402	81.94
351.629	78.94
351.856	67.94
352.083	69.94
352.311	97.94
352.538	81.94
352.765	98.94
352.992	101.94
353.22	69.94
353.447	74.94
353.674	71.94
353.901	92.94
354.128	86.94
354.355	74.94
354.583	86.94
354.81	83.94
355.037	84.94
355.264	82.94
355.491	87.94
355.718	82.94
355.945	74.94
356.172	79.94
356.399	88.94
356.626	96.94
356.853	95.94
357.08	81.94
357.307	92.94
357.534	74.94
357.761	90.94
357.988	79.94
358.215	88.94
358.441	78.94
358.668	81.94
358.895	63.94
359.122	77.94
359.349	88.94
359.576	79.94
359.802	83.94
360.029	85.94
360.256	76.94
360.483	76.94
360.709	76.94
360.936	73.94
361.163	64.94
361.39	66.94
361.616	81.94
361.843	75.94
362.07	82.94
362.296	85.94
362.523	68.94
362.749	90.94
362.976	92.94
363.203	96.94
363.429	89.94
363.656	85.94
363.882	74.94
364.109	76.94
364.335	86.94
364.562	75.94
364.788	81.94
365.015	89.94
365.241	83.94
365.468	80.94
365.694	84.94
365.92	96.94
366.147	86.94
366.373	76.94
366.599	83.94
366.826	83.94
367.052	92.94
367.278	85.94
367.505	76.94
367.731	83.94
367.957	74.94
368.184	90.94
368.41	90.94
368.636	88.94
368.862	69.94
369.089	74.94
369.315	74.94
369.541	100.94
369.767	89.94
369.993	83.94
370.219	84.94
370.445	88.94
370.672	83.94
370.898	91.94
371.124	80.94
371.35	93.94
371.576	79.94
371.802	73.94
372.028	70.94
372.254	93.94
372.48	74.94
372.706	76.94
372.932	89.94
373.158	94.94
373.384	89.94
373.61	80.94
373.835	79.94
374.061	95.94
374.287	70.94
374.513	83.94
374.739	80.94
374.965	79.94
375.191	80.94
375.416	82.94
375.642	83.94
375.868	82.94
376.094	82.94
376.319	101.94
376.545	96.94
376.771	74.94
376.997	69.94
377.222	78.94
377.448	63.94
377.674	79.94
377.899	66.94
378.125	76.94
378.35	88.94
378.576	85.94
378.802	84.94
379.027	84.94
379.253	72.94
379.478	77.94
379.704	92.94
379.929	68.94
380.155	76.94
380.38	80.94
380.606	76.94
380.831	74.94
381.057	87.94
381.282	64.94
381.507	86.94
381.733	76.94
381.958	78.94
382.184	80.94
382.409	94.94
382.634	76.94
382.86	86.94
383.085	89.94
383.31	66.94
383.535	85.94
383.761	77.94
383.986	70.94
384.211	64.94
384.436	74.94
384.662	82.94
384.887	89.94
385.112	85.94
385.337	74.94
385.562	74.94
385.787	84.94
386.013	96.94
386.238	87.94
386.463	79.94
386.688	90.94
386.913	81.94
387.138	72.94
387.363	88.94
387.588	78.94
387.813	99.94
388.038	62.94
388.263	88.94
388.488	86.94
388.713	78.94
388.938	77.94
389.163	92.94
389.387	84.94
389.612	78.94
389.837	73.94
390.062	85.94
390.287	81.94
390.512	87.94
390.736	68.94
390.961	73.94
391.186	87.94
391.411	93.94
391.636	77.94
391.86	89.94
392.085	84.94
392.31	80.94
392.534	90.94
392.759	78.94
392.984	79.94
393.208	68.94
393.433	92.94
393.658	84.94
393.882	89.94
394.107	65.94
394.331	66.94
394.556	83.94
394.78	76.94
395.005	77.94
395.229	74.94
395.454	76.94
395.678	68.94
395.903	100.94
396.127	74.94
396.352	71.94
396.576	85.94
396.801	76.94
397.025	70.94
397.249	82.94
397.474	76.94
397.698	82.94
397.922	81.94
398.147	88.94
398.371	94.94
398.595	99.94
398.82	90.94
399.044	76.94
399.268	76.94
399.492	68.94
399.717	94.94
399.941	97.94
400.165	80.94
400.389	84.94
400.613	80.94
400.837	78.94
401.062	76.94
401.286	76.94
401.51	88.94
401.734	73.94
401.958	96.94
402.182	78.94
402.406	96.94
402.63	72.94
402.854	78.94
403.078	75.94
403.302	85.94
403.526	82.94
403.75	82.94
403.974	93.94
404.198	74.94
404.422	66.94
404.645	77.94
404.869	74.94
405.093	88.94
405.317	70.94
405.541	80.94
405.765	73.94
405.988	81.94
406.212	91.94
406.436	70.94
406.66	85.94
406.883	74.94
407.107	82.94
407.331	73.94
407.555	86.94
407.778	88.94
408.002	70.94
408.226	79.94
408.449	74.94
408.673	70.94
408.896	83.94
409.12	85.94
409.344	82.94
409.567	88.94
409.791	77.94
410.014	95.94
410.238	74.94
410.461	77.94
410.685	72.94
410.908	74.94
411.132	67.94
411.355	78.94
411.578	70.94
411.802	75.94
412.025	87.94
412.249	84.94
412.472	81.94
412.695	80.94
412.919	74.94
413.142	85.94
413.365	86.94
413.589	77.94
413.812	79.94
414.035	92.94
414.258	81.94
414.482	80.94
414.705	78.94
414.928	93.94
415.151	77.94
415.374	79.94
415.597	61.94
415.821	77.94
416.044	65.94
416.267	84.94
416.49	64.94
416.713	75.94
416.936	96.94
417.159	76.94
417.382	77.94
417.605	79.94
417.828	77.94
418.051	79.94
418.274	86.94
418.497	66.94
418.72	88.94
418.943	76.94
419.166	76.94
419.389	82.94
419.611	78.94
419.834	78.94
420.057	81.94
420.28	79.94
420.503	66.94
420.726	84.94
420.948	70.94
421.171	89.94
421.394	88.94
421.617	66.94
421.839	86.94
422.062	77.94
422.285	78.94
422.507	85.94
422.73	82.94
422.953	70.94
423.175	74.94
423.398	94.94
423.621	92.94
423.843	81.94
424.066	88.94
424.288	77.94
424.511	72.94
424.733	81.94
424.956	78.94
425.178	77.94
425.401	75.94
425.623	74.94
425.846	65.94
426.068	80.94
426.291	78.94
426.513	92.94
426.735	82.94
426.958	72.94
427.18	78.94
427.402	68.94
427.625	80.94
427.847	80.94
428.069	75.94
428.292	72.94
428.514	91.94
428.736	71.94
428.958	78.94
429.181	92.94
429.403	76.94
429.625	80.94
429.847	82.94
430.069	85.94
430.292	93.94
430.514	66.94
430.736	70.94
430.958	77.94
431.18	61.94
431.402	73.94
431.624	86.94
431.846	90.94
432.068	73.94
432.29	77.94
432.512	92.94
432.734	85.94
432.956	70.94
433.178	74.94
433.4	68.94
433.622	82.94
433.844	82.94
434.066	91.94
434.287	78.94
434.509	64.94
434.731	80.94
434.953	86.94
435.175	75.94
435.397	86.94
435.618	76.94
435.84	89.94
436.062	78.94
436.284	84.94
436.505	80.94
436.727	68.94
436.949	78.94
437.17	74.94
437.392	81.94
437.614	77.94
437.835	73.94
438.057	74.94
438.278	61.94
438.5	70.94
438.721	80.94
438.943	78.94
439.165	70.94
439.386	81.94
439.608	81.94
439.829	104.94
440.05	92.94
440.272	74.94
440.493	74.94
440.715	94.94
440.936	77.94
441.158	63.94
441.379	74.94
441.6	74.94
441.822	76.94
442.043	81.94
442.264	75.94
442.486	74.94
442.707	80.94
442.928	78.94
443.149	79.94
443.371	68.94
443.592	80.94
443.813	66.94
444.034	82.94
444.255	78.94
444.476	70.94
444.698	84.94
444.919	80.94
445.14	157.94
445.361	110.94
445.582	77.94
445.803	73.94
446.024	78.94
446.245	78.94
446.466	87.94
446.687	80.94
446.908	60.94
447.129	74.94
447.35	82.94
447.571	88.94
447.792	85.94
448.013	90.94
448.234	75.94
448.455	76.94
448.675	83.94
448.896	82.94
449.117	73.94
449.338	70.94
449.559	82.94
449.779	84.94
450	89.94
450.221	78.94
450.442	84.94
450.662	71.94
450.883	77.94
451.104	84.94
451.324	100.94
451.545	86.94
451.766	85.94
451.986	81.94
452.207	81.94
452.428	73.94
452.648	68.94
452.869	88.94
453.089	69.94
453.31	96.94
453.53	90.94
453.751	72.94
453.971	81.94
454.192	89.94
454.412	72.94
454.633	73.94
454.853	68.94
455.073	76.94
455.294	82.94
455.514	69.94
455.734	78.94
455.955	86.94
456.175	86.94
456.395	78.94
456.616	65.94
456.836	88.94
457.056	83.94
457.276	75.94
457.497	74.94
457.717	78.94
457.937	105.94
458.157	84.94
458.377	72.94
458.598	78.94
458.818	66.94
459.038	74.94
459.258	76.94
459.478	84.94
459.698	78.94
459.918	66.94
460.138	84.94
460.358	73.94
460.578	91.94
460.798	82.94
461.018	93.94
461.238	86.94
461.458	76.94
461.678	82.94
461.898	76.94
462.118	85.94
462.338	94.94
462.558	85.94
462.777	62.94
462.997	66.94
463.217	73.94
463.437	88.94
463.657	98.94
463.876	88.94
464.096	73.94
464.316	76.94
464.536	74.94
464.755	84.94
464.975	82.94
465.195	82.94
465.414	69.94
465.634	87.94
465.854	78.94
466.073	82.94
466.293	76.94
466.512	79.94
466.732	88.94
466.951	77.94
467.171	88.94
467.391	83.94
467.61	79.94
467.829	79.94
468.049	76.94
468.268	81.94
468.488	84.94
468.707	82.94
468.927	74.94
469.146	86.94
469.365	79.94
469.585	62.94
469.804	71.94
470.023	80.94
470.243	73.94
470.462	69.94
470.681	74.94
470.901	79.94
471.12	77.94
471.339	96.94
471.558	81.94
471.777	76.94
471.997	74.94
472.216	89.94
472.435	86.94
472.654	85.94
472.873	81.94
473.092	87.94
473.311	75.94
473.53	77.94
473.749	79.94
473.968	91.94
474.187	78.94
474.406	88.94
474.625	65.94
474.844	83.94
475.063	90.94
475.282	72.94
475.501	85.94
475.72	77.94
475.939	78.94
476.158	71.94
476.377	77.94
476.596	73.94
476.814	80.94
477.033	82.94
477.252	79.94
477.471	76.94
477.69	74.94
477.908	66.94
478.127	70.94
478.346	81.94
478.564	72.94
478.783	86.94
479.002	71.94
479.22	77.94
479.439	89.94
479.658	84.94
479.876	77.94
480.095	74.94
480.313	73.94
480.532	71.94
480.751	68.94
480.969	84.94
481.188	82.94
481.406	75.94
481.624	93.94
481.843	94.94
482.061	86.94
482.28	80.94
482.498	78.94
482.717	84.94
482.935	85.94
483.153	85.94
483.372	84.94
483.59	84.94
483.808	79.94
484.027	89.94
484.245	73.94
484.463	68.94
484.681	81.94
484.9	78.94
485.118	79.94
485.336	79.94
485.554	88.94
485.772	96.94
485.99	80.94
486.209	84.94
486.427	74.94
486.645	78.94
486.863	63.94
487.081	76.94
487.299	82.94
487.517	91.94
487.735	92.94
487.953	60.94
488.171	76.94
488.389	83.94
488.607	76.94
488.825	87.94
489.043	69.94
489.261	76.94
489.479	90.94
489.696	101.94
489.914	78.94
490.132	80.94
490.35	85.94
490.568	81.94
490.786	83.94
491.003	73.94
491.221	86.94
491.439	74.94
491.657	83.94
491.874	74.94
492.092	88.94
492.31	95.94
492.527	67.94
492.745	88.94
492.963	69.94
493.18	66.94
493.398	84.94
493.615	84.94
493.833	82.94
494.05	64.94
494.268	63.94
494.485	83.94
494.703	88.94
494.92	72.94
495.138	84.94
495.355	90.94
495.573	88.94
495.79	77.94
496.008	90.94
496.225	73.94
496.442	77.94
496.66	77.94
496.877	77.94
497.094	93.94
497.312	78.94
497.529	74.94
497.746	80.94
497.963	97.94
498.181	77.94
498.398	74.94
498.615	82.94
498.832	77.94
499.049	75.94
499.267	91.94
499.484	89.94
499.701	78.94
499.918	92.94
500.135	70.94
500.352	67.94
500.569	84.94
500.786	93.94
501.003	66.94
501.22	88.94
501.437	89.94
501.654	80.94
501.871	75.94
502.088	67.94
502.305	83.94
502.522	79.94
502.739	73.94
502.956	79.94
503.172	88.94
503.389	73.94
503.606	81.94
503.823	83.94
504.04	89.94
504.256	76.94
504.473	76.94
504.69	81.94
504.907	76.94
505.123	79.94
505.34	83.94
505.557	81.94
505.773	96.94
505.99	70.94
506.207	87.94
506.423	80.94
506.64	76.94
506.856	90.94
507.073	87.94
507.289	81.94
507.506	75.94
507.722	88.94
507.939	92.94
508.155	84.94
508.372	83.94
508.588	77.94
508.805	77.94
509.021	95.94
509.238	84.94
509.454	78.94
509.67	86.94
509.887	73.94
510.103	79.94
510.319	69.94
510.536	92.94
510.752	93.94
510.968	89.94
511.184	77.94
511.401	76.94
511.617	80.94
511.833	77.94
512.049	88.94
512.265	86.94
512.481	84.94
512.698	74.94
512.914	79.94
513.13	77.94
513.346	76.94
513.562	84.94
513.778	76.94
513.994	77.94
514.21	71.94
514.426	86.94
514.642	88.94
514.858	84.94
515.074	93.94
515.29	94.94
515.506	82.94
515.721	90.94
515.937	82.94
516.153	88.94
516.369	74.94
516.585	87.94
516.801	94.94
517.016	86.94
517.232	83.94
517.448	83.94
517.664	73.94
517.879	87.94
518.095	85.94
518.311	92.94
518.527	78.94
518.742	74.94
518.958	69.94
519.173	78.94
519.389	91.94
519.605	68.94
519.82	68.94
520.036	75.94
