Data from Background_2_HRD10591_00013.txt Node
Date: Wed Nov 05 14:47:03 EST 2025
User: Yrep
Spectrometer: HR+D1059
Trigger mode: 1
Integration Time (sec): 1.000000E-1
Scans to average: 1
Electric dark correction enabled: true
Nonlinearity correction enabled: false
Boxcar width: 0
XAxis mode: Wavelengths
Number of Pixels in Spectrum: 2048
>>>>>Begin Spectral Data<<<<<
223.165	-8.88
223.4	-8.88
223.635	-8.88
223.869	-34.88
224.104	-30.88
224.338	-13.88
224.573	-9.88
224.808	-15.88
225.042	-16.88
225.277	-8.88
225.511	2.12
225.746	21.12
225.98	12.12
226.215	2.12
226.449	19.12
226.683	14.12
226.918	28.12
227.152	41.12
227.387	20.12
227.621	32.12
227.856	31.12
228.09	35.12
228.324	40.12
228.559	57.12
228.793	59.12
229.027	66.12
229.262	75.12
229.496	68.12
229.73	63.12
229.964	87.12
230.199	79.12
230.433	63.12
230.667	82.12
230.901	85.12
231.136	76.12
231.37	76.12
231.604	77.12
231.838	92.12
232.072	76.12
232.306	83.12
232.541	81.12
232.775	77.12
233.009	79.12
233.243	83.12
233.477	68.12
233.711	76.12
233.945	77.12
234.179	71.12
234.413	89.12
234.647	75.12
234.881	82.12
235.115	84.12
235.349	86.12
235.583	75.12
235.817	77.12
236.051	67.12
236.285	85.12
236.519	66.12
236.753	80.12
236.987	73.12
237.221	80.12
237.455	80.12
237.689	92.12
237.922	75.12
238.156	71.12
238.39	65.12
238.624	53.12
238.858	67.12
239.091	74.12
239.325	79.12
239.559	69.12
239.793	77.12
240.027	79.12
240.26	67.12
240.494	100.12
240.728	66.12
240.961	82.12
241.195	74.12
241.429	75.12
241.662	79.12
241.896	72.12
242.13	67.12
242.363	82.12
242.597	87.12
242.83	82.12
243.064	76.12
243.298	75.12
243.531	88.12
243.765	87.12
243.998	88.12
244.232	86.12
244.465	67.12
244.699	82.12
244.932	76.12
245.166	67.12
245.399	97.12
245.633	80.12
245.866	75.12
246.099	72.12
246.333	84.12
246.566	84.12
246.8	80.12
247.033	66.12
247.266	72.12
247.5	69.12
247.733	71.12
247.966	82.12
248.2	65.12
248.433	79.12
248.666	79.12
248.899	68.12
249.133	69.12
249.366	68.12
249.599	76.12
249.832	81.12
250.066	79.12
250.299	84.12
250.532	79.12
250.765	79.12
250.998	74.12
251.231	83.12
251.465	73.12
251.698	99.12
251.931	76.12
252.164	69.12
252.397	80.12
252.63	81.12
252.863	84.12
253.096	75.12
253.329	68.12
253.562	75.12
253.795	78.12
254.028	73.12
254.261	74.12
254.494	71.12
254.727	79.12
254.96	91.12
255.193	82.12
255.426	68.12
255.659	82.12
255.892	84.12
256.124	79.12
256.357	101.12
256.59	84.12
256.823	65.12
257.056	81.12
257.289	74.12
257.521	66.12
257.754	69.12
257.987	66.12
258.22	83.12
258.452	76.12
258.685	85.12
258.918	91.12
259.151	83.12
259.383	82.12
259.616	78.12
259.849	75.12
260.081	83.12
260.314	85.12
260.547	84.12
260.779	87.12
261.012	67.12
261.244	86.12
261.477	79.12
261.71	89.12
261.942	81.12
262.175	87.12
262.407	80.12
262.64	79.12
262.872	92.12
263.105	82.12
263.337	84.12
263.57	85.12
263.802	78.12
264.035	65.12
264.267	75.12
264.499	87.12
264.732	87.12
264.964	84.12
265.197	81.12
265.429	90.12
265.661	93.12
265.894	72.12
266.126	74.12
266.358	88.12
266.591	79.12
266.823	87.12
267.055	75.12
267.287	73.12
267.52	90.12
267.752	84.12
267.984	76.12
268.216	85.12
268.448	79.12
268.681	79.12
268.913	83.12
269.145	81.12
269.377	75.12
269.609	89.12
269.841	77.12
270.073	70.12
270.306	73.12
270.538	68.12
270.77	88.12
271.002	89.12
271.234	76.12
271.466	75.12
271.698	96.12
271.93	84.12
272.162	81.12
272.394	85.12
272.626	90.12
272.858	75.12
273.09	83.12
273.322	78.12
273.553	81.12
273.785	88.12
274.017	77.12
274.249	73.12
274.481	92.12
274.713	79.12
274.945	87.12
275.176	93.12
275.408	80.12
275.64	77.12
275.872	79.12
276.104	81.12
276.335	83.12
276.567	84.12
276.799	85.12
277.031	73.12
277.262	79.12
277.494	90.12
277.726	81.12
277.957	85.12
278.189	85.12
278.421	83.12
278.652	93.12
278.884	89.12
279.115	72.12
279.347	89.12
279.579	81.12
279.81	78.12
280.042	76.12
280.273	89.12
280.505	75.12
280.736	83.12
280.968	80.12
281.199	87.12
281.431	75.12
281.662	100.12
281.894	94.12
282.125	80.12
282.356	86.12
282.588	75.12
282.819	82.12
283.051	76.12
283.282	92.12
283.513	94.12
283.745	80.12
283.976	74.12
284.207	75.12
284.439	85.12
284.67	84.12
284.901	98.12
285.132	84.12
285.364	90.12
285.595	96.12
285.826	84.12
286.057	97.12
286.288	79.12
286.52	79.12
286.751	84.12
286.982	87.12
287.213	82.12
287.444	77.12
287.675	72.12
287.906	90.12
288.138	80.12
288.369	70.12
288.6	79.12
288.831	85.12
289.062	84.12
289.293	91.12
289.524	78.12
289.755	96.12
289.986	79.12
290.217	80.12
290.448	88.12
290.679	88.12
290.91	88.12
291.141	81.12
291.371	77.12
291.602	92.12
291.833	84.12
292.064	71.12
292.295	81.12
292.526	86.12
292.757	69.12
292.987	82.12
293.218	86.12
293.449	81.12
293.68	85.12
293.91	89.12
294.141	89.12
294.372	97.12
294.603	86.12
294.833	83.12
295.064	74.12
295.295	85.12
295.525	82.12
295.756	90.12
295.987	83.12
296.217	101.12
296.448	88.12
296.679	76.12
296.909	84.12
297.14	88.12
297.37	81.12
297.601	80.12
297.831	76.12
298.062	83.12
298.292	93.12
298.523	85.12
298.753	99.12
298.984	77.12
299.214	83.12
299.445	89.12
299.675	68.12
299.905	98.12
300.136	84.12
300.366	77.12
300.597	83.12
300.827	81.12
301.057	70.12
301.288	81.12
301.518	89.12
301.748	90.12
301.979	93.12
302.209	89.12
302.439	73.12
302.669	89.12
302.9	74.12
303.13	78.12
303.36	83.12
303.59	74.12
303.82	84.12
304.051	84.12
304.281	77.12
304.511	87.12
304.741	83.12
304.971	76.12
305.201	95.12
305.431	97.12
305.661	65.12
305.891	76.12
306.121	87.12
306.352	73.12
306.582	87.12
306.812	75.12
307.042	105.12
307.272	77.12
307.502	81.12
307.731	69.12
307.961	74.12
308.191	87.12
308.421	103.12
308.651	78.12
308.881	71.12
309.111	82.12
309.341	89.12
309.571	101.12
309.8	83.12
310.03	92.12
310.26	74.12
310.49	88.12
310.72	88.12
310.949	90.12
311.179	81.12
311.409	77.12
311.639	84.12
311.868	81.12
312.098	88.12
312.328	87.12
312.557	95.12
312.787	79.12
313.017	87.12
313.246	94.12
313.476	84.12
313.706	82.12
313.935	75.12
314.165	93.12
314.394	80.12
314.624	85.12
314.853	101.12
315.083	74.12
315.312	88.12
315.542	86.12
315.771	73.12
316.001	81.12
316.23	69.12
316.46	87.12
316.689	79.12
316.919	75.12
317.148	92.12
317.377	87.12
317.607	72.12
317.836	65.12
318.065	75.12
318.295	81.12
318.524	64.12
318.753	72.12
318.983	96.12
319.212	76.12
319.441	72.12
319.67	90.12
319.9	77.12
320.129	87.12
320.358	71.12
320.587	80.12
320.816	93.12
321.046	80.12
321.275	72.12
321.504	89.12
321.733	73.12
321.962	92.12
322.191	74.12
322.42	81.12
322.649	82.12
322.878	91.12
323.108	77.12
323.337	84.12
323.566	98.12
323.795	82.12
324.024	68.12
324.253	88.12
324.482	69.12
324.71	92.12
324.939	91.12
325.168	81.12
325.397	81.12
325.626	88.12
325.855	77.12
326.084	92.12
326.313	71.12
326.542	86.12
326.77	90.12
326.999	79.12
327.228	94.12
327.457	86.12
327.686	77.12
327.914	81.12
328.143	83.12
328.372	84.12
328.6	85.12
328.829	91.12
329.058	75.12
329.287	81.12
329.515	98.12
329.744	81.12
329.972	90.12
330.201	80.12
330.43	92.12
330.658	83.12
330.887	89.12
331.115	83.12
331.344	77.12
331.572	86.12
331.801	81.12
332.03	88.12
332.258	89.12
332.486	79.12
332.715	68.12
332.943	83.12
333.172	90.12
333.4	68.12
333.629	74.12
333.857	72.12
334.085	97.12
334.314	73.12
334.542	80.12
334.771	90.12
334.999	69.12
335.227	96.12
335.455	82.12
335.684	90.12
335.912	78.12
336.14	92.12
336.369	92.12
336.597	69.12
336.825	78.12
337.053	89.12
337.281	83.12
337.51	72.12
337.738	93.12
337.966	82.12
338.194	83.12
338.422	82.12
338.65	82.12
338.878	85.12
339.106	76.12
339.334	79.12
339.562	83.12
339.79	83.12
340.018	84.12
340.246	94.12
340.474	69.12
340.702	79.12
340.93	79.12
341.158	75.12
341.386	86.12
341.614	92.12
341.842	86.12
342.07	102.12
342.298	67.12
342.526	79.12
342.754	89.12
342.981	90.12
343.209	85.12
343.437	96.12
343.665	84.12
343.893	87.12
344.12	83.12
344.348	92.12
344.576	81.12
344.804	86.12
345.031	89.12
345.259	77.12
345.487	77.12
345.714	88.12
345.942	91.12
346.17	74.12
346.397	93.12
346.625	73.12
346.853	63.12
347.08	84.12
347.308	87.12
347.535	85.12
347.763	91.12
347.99	99.12
348.218	87.12
348.445	80.12
348.673	75.12
348.9	75.12
349.128	71.12
349.355	79.12
349.583	81.12
349.81	93.12
350.037	79.12
350.265	79.12
350.492	88.12
350.72	82.12
350.947	93.12
351.174	92.12
351.402	87.12
351.629	89.12
351.856	74.12
352.083	83.12
352.311	73.12
352.538	76.12
352.765	71.12
352.992	90.12
353.22	82.12
353.447	82.12
353.674	88.12
353.901	77.12
354.128	79.12
354.355	86.12
354.583	87.12
354.81	68.12
355.037	75.12
355.264	85.12
355.491	88.12
355.718	86.12
355.945	74.12
356.172	84.12
356.399	92.12
356.626	89.12
356.853	97.12
357.08	85.12
357.307	90.12
357.534	85.12
357.761	86.12
357.988	70.12
358.215	76.12
358.441	80.12
358.668	86.12
358.895	80.12
359.122	85.12
359.349	80.12
359.576	73.12
359.802	90.12
360.029	75.12
360.256	81.12
360.483	78.12
360.709	83.12
360.936	74.12
361.163	78.12
361.39	86.12
361.616	83.12
361.843	81.12
362.07	93.12
362.296	77.12
362.523	93.12
362.749	58.12
362.976	79.12
363.203	85.12
363.429	81.12
363.656	80.12
363.882	91.12
364.109	85.12
364.335	93.12
364.562	80.12
364.788	77.12
365.015	72.12
365.241	72.12
365.468	81.12
365.694	84.12
365.92	84.12
366.147	76.12
366.373	81.12
366.599	75.12
366.826	88.12
367.052	83.12
367.278	71.12
367.505	85.12
367.731	97.12
367.957	90.12
368.184	68.12
368.41	83.12
368.636	89.12
368.862	77.12
369.089	62.12
369.315	73.12
369.541	74.12
369.767	75.12
369.993	79.12
370.219	98.12
370.445	92.12
370.672	82.12
370.898	76.12
371.124	76.12
371.35	91.12
371.576	79.12
371.802	83.12
372.028	84.12
372.254	79.12
372.48	87.12
372.706	90.12
372.932	82.12
373.158	87.12
373.384	82.12
373.61	86.12
373.835	87.12
374.061	82.12
374.287	87.12
374.513	84.12
374.739	82.12
374.965	97.12
375.191	79.12
375.416	80.12
375.642	81.12
375.868	80.12
376.094	87.12
376.319	79.12
376.545	77.12
376.771	92.12
376.997	70.12
377.222	92.12
377.448	78.12
377.674	77.12
377.899	79.12
378.125	73.12
378.35	83.12
378.576	83.12
378.802	86.12
379.027	86.12
379.253	81.12
379.478	89.12
379.704	75.12
379.929	69.12
380.155	97.12
380.38	88.12
380.606	88.12
380.831	85.12
381.057	89.12
381.282	97.12
381.507	86.12
381.733	61.12
381.958	71.12
382.184	76.12
382.409	74.12
382.634	88.12
382.86	79.12
383.085	77.12
383.31	78.12
383.535	96.12
383.761	83.12
383.986	83.12
384.211	88.12
384.436	78.12
384.662	73.12
384.887	85.12
385.112	73.12
385.337	78.12
385.562	79.12
385.787	91.12
386.013	94.12
386.238	95.12
386.463	91.12
386.688	84.12
386.913	76.12
387.138	88.12
387.363	75.12
387.588	99.12
387.813	85.12
388.038	81.12
388.263	77.12
388.488	89.12
388.713	81.12
388.938	73.12
389.163	79.12
389.387	67.12
389.612	80.12
389.837	72.12
390.062	82.12
390.287	91.12
390.512	86.12
390.736	85.12
390.961	88.12
391.186	85.12
391.411	79.12
391.636	72.12
391.86	68.12
392.085	81.12
392.31	87.12
392.534	72.12
392.759	84.12
392.984	84.12
393.208	97.12
393.433	83.12
393.658	84.12
393.882	75.12
394.107	85.12
394.331	85.12
394.556	79.12
394.78	77.12
395.005	71.12
395.229	85.12
395.454	80.12
395.678	78.12
395.903	73.12
396.127	72.12
396.352	89.12
396.576	77.12
396.801	75.12
397.025	76.12
397.249	84.12
397.474	84.12
397.698	77.12
397.922	64.12
398.147	93.12
398.371	77.12
398.595	89.12
398.82	79.12
399.044	75.12
399.268	94.12
399.492	83.12
399.717	85.12
399.941	81.12
400.165	78.12
400.389	84.12
400.613	79.12
400.837	83.12
401.062	78.12
401.286	80.12
401.51	74.12
401.734	99.12
401.958	77.12
402.182	63.12
402.406	75.12
402.63	76.12
402.854	71.12
403.078	90.12
403.302	83.12
403.526	76.12
403.75	78.12
403.974	84.12
404.198	71.12
404.422	81.12
404.645	86.12
404.869	80.12
405.093	88.12
405.317	91.12
405.541	89.12
405.765	75.12
405.988	92.12
406.212	79.12
406.436	75.12
406.66	79.12
406.883	85.12
407.107	86.12
407.331	80.12
407.555	82.12
407.778	83.12
408.002	84.12
408.226	85.12
408.449	86.12
408.673	79.12
408.896	75.12
409.12	82.12
409.344	76.12
409.567	82.12
409.791	79.12
410.014	87.12
410.238	73.12
410.461	56.12
410.685	79.12
410.908	70.12
411.132	82.12
411.355	76.12
411.578	78.12
411.802	76.12
412.025	76.12
412.249	77.12
412.472	86.12
412.695	82.12
412.919	73.12
413.142	81.12
413.365	77.12
413.589	81.12
413.812	76.12
414.035	93.12
414.258	79.12
414.482	92.12
414.705	76.12
414.928	90.12
415.151	71.12
415.374	87.12
415.597	72.12
415.821	81.12
416.044	80.12
416.267	77.12
416.49	77.12
416.713	79.12
416.936	85.12
417.159	83.12
417.382	82.12
417.605	80.12
417.828	87.12
418.051	89.12
418.274	74.12
418.497	75.12
418.72	89.12
418.943	82.12
419.166	75.12
419.389	73.12
419.611	82.12
419.834	83.12
420.057	89.12
420.28	75.12
420.503	87.12
420.726	87.12
420.948	76.12
421.171	67.12
421.394	77.12
421.617	74.12
421.839	74.12
422.062	82.12
422.285	83.12
422.507	75.12
422.73	74.12
422.953	73.12
423.175	83.12
423.398	81.12
423.621	79.12
423.843	78.12
424.066	83.12
424.288	80.12
424.511	89.12
424.733	99.12
424.956	67.12
425.178	84.12
425.401	89.12
425.623	89.12
425.846	85.12
426.068	95.12
426.291	75.12
426.513	76.12
426.735	81.12
426.958	60.12
427.18	79.12
427.402	81.12
427.625	71.12
427.847	78.12
428.069	74.12
428.292	67.12
428.514	84.12
428.736	68.12
428.958	77.12
429.181	71.12
429.403	89.12
429.625	75.12
429.847	64.12
430.069	80.12
430.292	83.12
430.514	83.12
430.736	90.12
430.958	80.12
431.18	78.12
431.402	62.12
431.624	60.12
431.846	81.12
432.068	70.12
432.29	83.12
432.512	104.12
432.734	76.12
432.956	83.12
433.178	85.12
433.4	89.12
433.622	75.12
433.844	86.12
434.066	78.12
434.287	86.12
434.509	75.12
434.731	80.12
434.953	67.12
435.175	73.12
435.397	79.12
435.618	67.12
435.84	86.12
436.062	90.12
436.284	70.12
436.505	87.12
436.727	64.12
436.949	93.12
437.17	86.12
437.392	73.12
437.614	94.12
437.835	64.12
438.057	76.12
438.278	79.12
438.5	94.12
438.721	79.12
438.943	81.12
439.165	95.12
439.386	62.12
439.608	87.12
439.829	75.12
440.05	89.12
440.272	83.12
440.493	83.12
440.715	78.12
440.936	83.12
441.158	96.12
441.379	84.12
441.6	81.12
441.822	72.12
442.043	68.12
442.264	96.12
442.486	74.12
442.707	73.12
442.928	76.12
443.149	84.12
443.371	96.12
443.592	75.12
443.813	79.12
444.034	83.12
444.255	86.12
444.476	74.12
444.698	80.12
444.919	74.12
445.14	149.12
445.361	112.12
445.582	80.12
445.803	78.12
446.024	88.12
446.245	73.12
446.466	92.12
446.687	70.12
446.908	87.12
447.129	94.12
447.35	86.12
447.571	76.12
447.792	85.12
448.013	75.12
448.234	76.12
448.455	75.12
448.675	84.12
448.896	84.12
449.117	71.12
449.338	84.12
449.559	60.12
449.779	75.12
450	76.12
450.221	94.12
450.442	80.12
450.662	81.12
450.883	69.12
451.104	94.12
451.324	89.12
451.545	88.12
451.766	76.12
451.986	67.12
452.207	91.12
452.428	92.12
452.648	83.12
452.869	81.12
453.089	88.12
453.31	79.12
453.53	81.12
453.751	67.12
453.971	73.12
454.192	73.12
454.412	72.12
454.633	91.12
454.853	81.12
455.073	79.12
455.294	83.12
455.514	72.12
455.734	79.12
455.955	89.12
456.175	77.12
456.395	75.12
456.616	90.12
456.836	87.12
457.056	78.12
457.276	82.12
457.497	75.12
457.717	67.12
457.937	74.12
458.157	68.12
458.377	93.12
458.598	78.12
458.818	85.12
459.038	75.12
459.258	82.12
459.478	82.12
459.698	78.12
459.918	77.12
460.138	82.12
460.358	107.12
460.578	79.12
460.798	73.12
461.018	74.12
461.238	81.12
461.458	68.12
461.678	85.12
461.898	81.12
462.118	76.12
462.338	79.12
462.558	81.12
462.777	81.12
462.997	83.12
463.217	76.12
463.437	81.12
463.657	80.12
463.876	71.12
464.096	69.12
464.316	84.12
464.536	80.12
464.755	92.12
464.975	71.12
465.195	88.12
465.414	82.12
465.634	93.12
465.854	75.12
466.073	98.12
466.293	75.12
466.512	81.12
466.732	81.12
466.951	76.12
467.171	73.12
467.391	84.12
467.61	83.12
467.829	75.12
468.049	89.12
468.268	94.12
468.488	66.12
468.707	66.12
468.927	69.12
469.146	86.12
469.365	91.12
469.585	64.12
469.804	65.12
470.023	79.12
470.243	71.12
470.462	81.12
470.681	84.12
470.901	77.12
471.12	71.12
471.339	73.12
471.558	73.12
471.777	70.12
471.997	91.12
472.216	84.12
472.435	93.12
472.654	85.12
472.873	84.12
473.092	80.12
473.311	88.12
473.53	81.12
473.749	79.12
473.968	91.12
474.187	74.12
474.406	83.12
474.625	74.12
474.844	65.12
475.063	70.12
475.282	81.12
475.501	79.12
475.72	85.12
475.939	78.12
476.158	83.12
476.377	84.12
476.596	83.12
476.814	84.12
477.033	82.12
477.252	69.12
477.471	87.12
477.69	80.12
477.908	81.12
478.127	87.12
478.346	78.12
478.564	79.12
478.783	76.12
479.002	83.12
479.22	90.12
479.439	90.12
479.658	81.12
479.876	65.12
480.095	74.12
480.313	77.12
480.532	66.12
480.751	80.12
480.969	81.12
481.188	95.12
481.406	76.12
481.624	83.12
481.843	69.12
482.061	71.12
482.28	89.12
482.498	80.12
482.717	82.12
482.935	96.12
483.153	89.12
483.372	80.12
483.59	83.12
483.808	84.12
484.027	72.12
484.245	97.12
484.463	87.12
484.681	87.12
484.9	79.12
485.118	84.12
485.336	69.12
485.554	74.12
485.772	85.12
485.99	81.12
486.209	84.12
486.427	74.12
486.645	83.12
486.863	83.12
487.081	75.12
487.299	81.12
487.517	75.12
487.735	81.12
487.953	84.12
488.171	84.12
488.389	94.12
488.607	77.12
488.825	79.12
489.043	73.12
489.261	103.12
489.479	85.12
489.696	81.12
489.914	81.12
490.132	81.12
490.35	75.12
490.568	73.12
490.786	73.12
491.003	83.12
491.221	78.12
491.439	74.12
491.657	79.12
491.874	82.12
492.092	97.12
492.31	95.12
492.527	84.12
492.745	66.12
492.963	80.12
493.18	71.12
493.398	79.12
493.615	81.12
493.833	87.12
494.05	74.12
494.268	87.12
494.485	92.12
494.703	84.12
494.92	80.12
495.138	87.12
495.355	99.12
495.573	92.12
495.79	79.12
496.008	73.12
496.225	82.12
496.442	90.12
496.66	77.12
496.877	92.12
497.094	85.12
497.312	67.12
497.529	83.12
497.746	93.12
497.963	82.12
498.181	91.12
498.398	83.12
498.615	72.12
498.832	79.12
499.049	75.12
499.267	81.12
499.484	87.12
499.701	83.12
499.918	70.12
500.135	82.12
500.352	78.12
500.569	84.12
500.786	77.12
501.003	82.12
501.22	79.12
501.437	77.12
501.654	88.12
501.871	89.12
502.088	85.12
502.305	74.12
502.522	83.12
502.739	79.12
502.956	96.12
503.172	87.12
503.389	80.12
503.606	89.12
503.823	76.12
504.04	86.12
504.256	81.12
504.473	78.12
504.69	81.12
504.907	76.12
505.123	84.12
505.34	77.12
505.557	80.12
505.773	92.12
505.99	80.12
506.207	75.12
506.423	91.12
506.64	87.12
506.856	90.12
507.073	85.12
507.289	83.12
507.506	82.12
507.722	88.12
507.939	77.12
508.155	99.12
508.372	76.12
508.588	63.12
508.805	77.12
509.021	84.12
509.238	90.12
509.454	79.12
509.67	63.12
509.887	87.12
510.103	79.12
510.319	91.12
510.536	87.12
510.752	80.12
510.968	88.12
511.184	87.12
511.401	103.12
511.617	94.12
511.833	73.12
512.049	93.12
512.265	75.12
512.481	67.12
512.698	81.12
512.914	75.12
513.13	85.12
513.346	89.12
513.562	82.12
513.778	72.12
513.994	87.12
514.21	88.12
514.426	61.12
514.642	92.12
514.858	77.12
515.074	95.12
515.29	75.12
515.506	75.12
515.721	100.12
515.937	95.12
516.153	82.12
516.369	77.12
516.585	85.12
516.801	84.12
517.016	85.12
517.232	88.12
517.448	88.12
517.664	86.12
517.879	87.12
518.095	90.12
518.311	67.12
518.527	78.12
518.742	79.12
518.958	61.12
519.173	85.12
519.389	84.12
519.605	93.12
519.82	84.12
520.036	86.12
