Data from Background_2_HRD10591_00078.txt Node
Date: Wed Nov 05 14:47:35 EST 2025
User: Yrep
Spectrometer: HR+D1059
Trigger mode: 1
Integration Time (sec): 1.000000E-1
Scans to average: 1
Electric dark correction enabled: true
Nonlinearity correction enabled: false
Boxcar width: 0
XAxis mode: Wavelengths
Number of Pixels in Spectrum: 2048
>>>>>Begin Spectral Data<<<<<
223.165	-1.81
223.4	-1.81
223.635	-1.81
223.869	-16.81
224.104	-28.81
224.338	-23.81
224.573	-15.81
224.808	-20.81
225.042	-21.81
225.277	-2.81
225.511	-4.81
225.746	18.19
225.98	-3.81
226.215	13.19
226.449	15.19
226.683	19.19
226.918	31.19
227.152	44.19
227.387	43.19
227.621	42.19
227.856	44.19
228.09	37.19
228.324	52.19
228.559	50.19
228.793	67.19
229.027	69.19
229.262	66.19
229.496	76.19
229.73	52.19
229.964	83.19
230.199	77.19
230.433	66.19
230.667	69.19
230.901	76.19
231.136	88.19
231.37	62.19
231.604	89.19
231.838	73.19
232.072	82.19
232.306	85.19
232.541	85.19
232.775	86.19
233.009	78.19
233.243	77.19
233.477	81.19
233.711	86.19
233.945	70.19
234.179	83.19
234.413	82.19
234.647	73.19
234.881	94.19
235.115	77.19
235.349	80.19
235.583	86.19
235.817	65.19
236.051	87.19
236.285	89.19
236.519	77.19
236.753	76.19
236.987	76.19
237.221	76.19
237.455	106.19
237.689	74.19
237.922	77.19
238.156	77.19
238.39	86.19
238.624	72.19
238.858	66.19
239.091	81.19
239.325	83.19
239.559	82.19
239.793	77.19
240.027	84.19
240.26	67.19
240.494	71.19
240.728	78.19
240.961	72.19
241.195	73.19
241.429	70.19
241.662	72.19
241.896	72.19
242.13	76.19
242.363	68.19
242.597	80.19
242.83	86.19
243.064	79.19
243.298	78.19
243.531	69.19
243.765	83.19
243.998	82.19
244.232	75.19
244.465	89.19
244.699	65.19
244.932	69.19
245.166	74.19
245.399	77.19
245.633	64.19
245.866	66.19
246.099	83.19
246.333	69.19
246.566	77.19
246.8	64.19
247.033	76.19
247.266	64.19
247.5	76.19
247.733	85.19
247.966	81.19
248.2	60.19
248.433	78.19
248.666	78.19
248.899	78.19
249.133	74.19
249.366	83.19
249.599	99.19
249.832	82.19
250.066	90.19
250.299	80.19
250.532	85.19
250.765	74.19
250.998	88.19
251.231	80.19
251.465	86.19
251.698	70.19
251.931	69.19
252.164	67.19
252.397	83.19
252.63	81.19
252.863	79.19
253.096	88.19
253.329	97.19
253.562	76.19
253.795	86.19
254.028	80.19
254.261	74.19
254.494	85.19
254.727	85.19
254.96	83.19
255.193	78.19
255.426	78.19
255.659	86.19
255.892	83.19
256.124	73.19
256.357	68.19
256.59	74.19
256.823	56.19
257.056	70.19
257.289	77.19
257.521	79.19
257.754	84.19
257.987	76.19
258.22	86.19
258.452	86.19
258.685	76.19
258.918	82.19
259.151	90.19
259.383	91.19
259.616	88.19
259.849	78.19
260.081	62.19
260.314	71.19
260.547	76.19
260.779	74.19
261.012	81.19
261.244	67.19
261.477	85.19
261.71	81.19
261.942	75.19
262.175	82.19
262.407	70.19
262.64	77.19
262.872	99.19
263.105	92.19
263.337	81.19
263.57	80.19
263.802	77.19
264.035	83.19
264.267	93.19
264.499	86.19
264.732	93.19
264.964	91.19
265.197	76.19
265.429	69.19
265.661	84.19
265.894	77.19
266.126	108.19
266.358	79.19
266.591	82.19
266.823	73.19
267.055	84.19
267.287	82.19
267.52	80.19
267.752	81.19
267.984	80.19
268.216	83.19
268.448	69.19
268.681	84.19
268.913	68.19
269.145	96.19
269.377	68.19
269.609	100.19
269.841	92.19
270.073	79.19
270.306	94.19
270.538	76.19
270.77	84.19
271.002	74.19
271.234	82.19
271.466	70.19
271.698	85.19
271.93	78.19
272.162	75.19
272.394	86.19
272.626	77.19
272.858	91.19
273.09	93.19
273.322	87.19
273.553	81.19
273.785	98.19
274.017	83.19
274.249	81.19
274.481	87.19
274.713	101.19
274.945	84.19
275.176	72.19
275.408	93.19
275.64	82.19
275.872	74.19
276.104	75.19
276.335	88.19
276.567	84.19
276.799	86.19
277.031	74.19
277.262	90.19
277.494	85.19
277.726	73.19
277.957	84.19
278.189	85.19
278.421	78.19
278.652	84.19
278.884	72.19
279.115	72.19
279.347	85.19
279.579	89.19
279.81	83.19
280.042	81.19
280.273	97.19
280.505	91.19
280.736	68.19
280.968	88.19
281.199	85.19
281.431	83.19
281.662	91.19
281.894	73.19
282.125	81.19
282.356	91.19
282.588	75.19
282.819	82.19
283.051	84.19
283.282	86.19
283.513	78.19
283.745	71.19
283.976	78.19
284.207	82.19
284.439	86.19
284.67	91.19
284.901	84.19
285.132	90.19
285.364	86.19
285.595	70.19
285.826	99.19
286.057	75.19
286.288	78.19
286.52	93.19
286.751	89.19
286.982	88.19
287.213	95.19
287.444	79.19
287.675	81.19
287.906	96.19
288.138	92.19
288.369	82.19
288.6	76.19
288.831	68.19
289.062	69.19
289.293	89.19
289.524	85.19
289.755	94.19
289.986	84.19
290.217	76.19
290.448	86.19
290.679	90.19
290.91	77.19
291.141	73.19
291.371	92.19
291.602	92.19
291.833	101.19
292.064	82.19
292.295	84.19
292.526	67.19
292.757	67.19
292.987	88.19
293.218	99.19
293.449	82.19
293.68	84.19
293.91	85.19
294.141	98.19
294.372	87.19
294.603	105.19
294.833	86.19
295.064	80.19
295.295	97.19
295.525	74.19
295.756	84.19
295.987	97.19
296.217	96.19
296.448	86.19
296.679	86.19
296.909	77.19
297.14	97.19
297.37	87.19
297.601	82.19
297.831	81.19
298.062	73.19
298.292	72.19
298.523	83.19
298.753	76.19
298.984	81.19
299.214	74.19
299.445	91.19
299.675	76.19
299.905	82.19
300.136	77.19
300.366	83.19
300.597	89.19
300.827	90.19
301.057	79.19
301.288	77.19
301.518	75.19
301.748	91.19
301.979	98.19
302.209	83.19
302.439	83.19
302.669	84.19
302.9	80.19
303.13	88.19
303.36	83.19
303.59	84.19
303.82	92.19
304.051	68.19
304.281	85.19
304.511	89.19
304.741	80.19
304.971	85.19
305.201	83.19
305.431	83.19
305.661	84.19
305.891	90.19
306.121	82.19
306.352	85.19
306.582	102.19
306.812	79.19
307.042	88.19
307.272	78.19
307.502	69.19
307.731	88.19
307.961	91.19
308.191	82.19
308.421	77.19
308.651	76.19
308.881	86.19
309.111	76.19
309.341	79.19
309.571	76.19
309.8	82.19
310.03	73.19
310.26	85.19
310.49	77.19
310.72	79.19
310.949	76.19
311.179	98.19
311.409	76.19
311.639	78.19
311.868	86.19
312.098	101.19
312.328	97.19
312.557	76.19
312.787	73.19
313.017	101.19
313.246	82.19
313.476	92.19
313.706	80.19
313.935	93.19
314.165	76.19
314.394	89.19
314.624	81.19
314.853	74.19
315.083	73.19
315.312	89.19
315.542	91.19
315.771	78.19
316.001	90.19
316.23	78.19
316.46	96.19
316.689	101.19
316.919	90.19
317.148	90.19
317.377	83.19
317.607	91.19
317.836	87.19
318.065	80.19
318.295	80.19
318.524	70.19
318.753	91.19
318.983	88.19
319.212	84.19
319.441	86.19
319.67	69.19
319.9	88.19
320.129	91.19
320.358	99.19
320.587	84.19
320.816	76.19
321.046	98.19
321.275	92.19
321.504	75.19
321.733	89.19
321.962	88.19
322.191	80.19
322.42	88.19
322.649	80.19
322.878	96.19
323.108	104.19
323.337	104.19
323.566	84.19
323.795	68.19
324.024	80.19
324.253	76.19
324.482	83.19
324.71	84.19
324.939	96.19
325.168	86.19
325.397	86.19
325.626	90.19
325.855	92.19
326.084	85.19
326.313	85.19
326.542	80.19
326.77	78.19
326.999	99.19
327.228	91.19
327.457	76.19
327.686	89.19
327.914	92.19
328.143	93.19
328.372	93.19
328.6	75.19
328.829	90.19
329.058	80.19
329.287	84.19
329.515	77.19
329.744	98.19
329.972	96.19
330.201	76.19
330.43	93.19
330.658	81.19
330.887	77.19
331.115	97.19
331.344	89.19
331.572	86.19
331.801	82.19
332.03	95.19
332.258	78.19
332.486	92.19
332.715	99.19
332.943	73.19
333.172	85.19
333.4	82.19
333.629	96.19
333.857	89.19
334.085	91.19
334.314	81.19
334.542	92.19
334.771	78.19
334.999	84.19
335.227	81.19
335.455	87.19
335.684	94.19
335.912	96.19
336.14	88.19
336.369	86.19
336.597	74.19
336.825	84.19
337.053	87.19
337.281	96.19
337.51	67.19
337.738	80.19
337.966	74.19
338.194	77.19
338.422	81.19
338.65	88.19
338.878	79.19
339.106	91.19
339.334	93.19
339.562	76.19
339.79	82.19
340.018	76.19
340.246	96.19
340.474	78.19
340.702	90.19
340.93	94.19
341.158	79.19
341.386	67.19
341.614	85.19
341.842	93.19
342.07	72.19
342.298	68.19
342.526	75.19
342.754	82.19
342.981	84.19
343.209	76.19
343.437	102.19
343.665	78.19
343.893	83.19
344.12	82.19
344.348	82.19
344.576	71.19
344.804	81.19
345.031	80.19
345.259	86.19
345.487	80.19
345.714	73.19
345.942	100.19
346.17	84.19
346.397	80.19
346.625	97.19
346.853	78.19
347.08	82.19
347.308	78.19
347.535	88.19
347.763	93.19
347.99	86.19
348.218	82.19
348.445	88.19
348.673	84.19
348.9	74.19
349.128	80.19
349.355	86.19
349.583	84.19
349.81	90.19
350.037	80.19
350.265	83.19
350.492	88.19
350.72	87.19
350.947	76.19
351.174	86.19
351.402	86.19
351.629	90.19
351.856	66.19
352.083	91.19
352.311	87.19
352.538	76.19
352.765	87.19
352.992	92.19
353.22	86.19
353.447	85.19
353.674	84.19
353.901	89.19
354.128	76.19
354.355	83.19
354.583	88.19
354.81	88.19
355.037	86.19
355.264	97.19
355.491	84.19
355.718	80.19
355.945	86.19
356.172	85.19
356.399	96.19
356.626	65.19
356.853	94.19
357.08	94.19
357.307	104.19
357.534	100.19
357.761	89.19
357.988	93.19
358.215	65.19
358.441	82.19
358.668	89.19
358.895	80.19
359.122	95.19
359.349	83.19
359.576	81.19
359.802	77.19
360.029	87.19
360.256	69.19
360.483	80.19
360.709	82.19
360.936	70.19
361.163	77.19
361.39	85.19
361.616	65.19
361.843	75.19
362.07	85.19
362.296	95.19
362.523	88.19
362.749	93.19
362.976	76.19
363.203	95.19
363.429	80.19
363.656	93.19
363.882	74.19
364.109	74.19
364.335	91.19
364.562	81.19
364.788	88.19
365.015	79.19
365.241	77.19
365.468	81.19
365.694	76.19
365.92	79.19
366.147	72.19
366.373	76.19
366.599	86.19
366.826	71.19
367.052	68.19
367.278	82.19
367.505	93.19
367.731	92.19
367.957	90.19
368.184	95.19
368.41	112.19
368.636	76.19
368.862	101.19
369.089	76.19
369.315	85.19
369.541	72.19
369.767	69.19
369.993	76.19
370.219	78.19
370.445	85.19
370.672	62.19
370.898	96.19
371.124	74.19
371.35	74.19
371.576	81.19
371.802	83.19
372.028	69.19
372.254	62.19
372.48	73.19
372.706	94.19
372.932	78.19
373.158	84.19
373.384	92.19
373.61	84.19
373.835	90.19
374.061	86.19
374.287	85.19
374.513	81.19
374.739	86.19
374.965	75.19
375.191	90.19
375.416	82.19
375.642	80.19
375.868	84.19
376.094	75.19
376.319	76.19
376.545	79.19
376.771	89.19
376.997	86.19
377.222	76.19
377.448	75.19
377.674	71.19
377.899	61.19
378.125	90.19
378.35	78.19
378.576	84.19
378.802	82.19
379.027	82.19
379.253	85.19
379.478	70.19
379.704	71.19
379.929	72.19
380.155	72.19
380.38	74.19
380.606	86.19
380.831	106.19
381.057	89.19
381.282	78.19
381.507	73.19
381.733	93.19
381.958	76.19
382.184	76.19
382.409	94.19
382.634	86.19
382.86	95.19
383.085	90.19
383.31	78.19
383.535	81.19
383.761	95.19
383.986	80.19
384.211	90.19
384.436	71.19
384.662	78.19
384.887	84.19
385.112	74.19
385.337	85.19
385.562	78.19
385.787	96.19
386.013	77.19
386.238	79.19
386.463	88.19
386.688	84.19
386.913	85.19
387.138	88.19
387.363	88.19
387.588	82.19
387.813	73.19
388.038	80.19
388.263	88.19
388.488	101.19
388.713	74.19
388.938	78.19
389.163	92.19
389.387	76.19
389.612	77.19
389.837	81.19
390.062	96.19
390.287	72.19
390.512	80.19
390.736	93.19
390.961	82.19
391.186	84.19
391.411	82.19
391.636	77.19
391.86	74.19
392.085	80.19
392.31	74.19
392.534	83.19
392.759	67.19
392.984	75.19
393.208	81.19
393.433	82.19
393.658	73.19
393.882	66.19
394.107	90.19
394.331	90.19
394.556	63.19
394.78	76.19
395.005	89.19
395.229	86.19
395.454	95.19
395.678	74.19
395.903	92.19
396.127	94.19
396.352	63.19
396.576	77.19
396.801	83.19
397.025	81.19
397.249	85.19
397.474	75.19
397.698	80.19
397.922	72.19
398.147	68.19
398.371	64.19
398.595	90.19
398.82	84.19
399.044	68.19
399.268	87.19
399.492	74.19
399.717	87.19
399.941	90.19
400.165	89.19
400.389	76.19
400.613	88.19
400.837	63.19
401.062	80.19
401.286	88.19
401.51	83.19
401.734	99.19
401.958	78.19
402.182	66.19
402.406	78.19
402.63	76.19
402.854	85.19
403.078	64.19
403.302	84.19
403.526	86.19
403.75	94.19
403.974	70.19
404.198	68.19
404.422	73.19
404.645	71.19
404.869	79.19
405.093	80.19
405.317	83.19
405.541	78.19
405.765	74.19
405.988	87.19
406.212	83.19
406.436	78.19
406.66	84.19
406.883	78.19
407.107	85.19
407.331	79.19
407.555	91.19
407.778	76.19
408.002	89.19
408.226	85.19
408.449	72.19
408.673	96.19
408.896	86.19
409.12	82.19
409.344	85.19
409.567	81.19
409.791	88.19
410.014	84.19
410.238	76.19
410.461	87.19
410.685	81.19
410.908	79.19
411.132	81.19
411.355	89.19
411.578	79.19
411.802	86.19
412.025	83.19
412.249	83.19
412.472	90.19
412.695	83.19
412.919	76.19
413.142	90.19
413.365	72.19
413.589	87.19
413.812	80.19
414.035	88.19
414.258	88.19
414.482	65.19
414.705	84.19
414.928	91.19
415.151	85.19
415.374	90.19
415.597	74.19
415.821	85.19
416.044	80.19
416.267	66.19
416.49	85.19
416.713	80.19
416.936	88.19
417.159	77.19
417.382	96.19
417.605	85.19
417.828	86.19
418.051	84.19
418.274	72.19
418.497	69.19
418.72	78.19
418.943	87.19
419.166	90.19
419.389	79.19
419.611	90.19
419.834	76.19
420.057	76.19
420.28	77.19
420.503	70.19
420.726	76.19
420.948	64.19
421.171	78.19
421.394	80.19
421.617	91.19
421.839	70.19
422.062	82.19
422.285	76.19
422.507	74.19
422.73	79.19
422.953	95.19
423.175	83.19
423.398	91.19
423.621	102.19
423.843	72.19
424.066	72.19
424.288	79.19
424.511	76.19
424.733	85.19
424.956	89.19
425.178	80.19
425.401	78.19
425.623	77.19
425.846	79.19
426.068	76.19
426.291	86.19
426.513	72.19
426.735	78.19
426.958	69.19
427.18	78.19
427.402	80.19
427.625	80.19
427.847	78.19
428.069	80.19
428.292	77.19
428.514	86.19
428.736	88.19
428.958	88.19
429.181	73.19
429.403	81.19
429.625	79.19
429.847	80.19
430.069	93.19
430.292	79.19
430.514	89.19
430.736	91.19
430.958	82.19
431.18	75.19
431.402	72.19
431.624	66.19
431.846	68.19
432.068	91.19
432.29	83.19
432.512	73.19
432.734	75.19
432.956	82.19
433.178	89.19
433.4	70.19
433.622	76.19
433.844	77.19
434.066	77.19
434.287	76.19
434.509	78.19
434.731	61.19
434.953	62.19
435.175	71.19
435.397	80.19
435.618	69.19
435.84	84.19
436.062	83.19
436.284	79.19
436.505	85.19
436.727	83.19
436.949	91.19
437.17	84.19
437.392	81.19
437.614	75.19
437.835	91.19
438.057	80.19
438.278	88.19
438.5	70.19
438.721	85.19
438.943	77.19
439.165	81.19
439.386	94.19
439.608	81.19
439.829	76.19
440.05	72.19
440.272	86.19
440.493	85.19
440.715	64.19
440.936	85.19
441.158	98.19
441.379	84.19
441.6	77.19
441.822	71.19
442.043	85.19
442.264	82.19
442.486	68.19
442.707	92.19
442.928	75.19
443.149	80.19
443.371	94.19
443.592	66.19
443.813	79.19
444.034	70.19
444.255	72.19
444.476	83.19
444.698	81.19
444.919	80.19
445.14	164.19
445.361	131.19
445.582	65.19
445.803	85.19
446.024	90.19
446.245	83.19
446.466	80.19
446.687	72.19
446.908	72.19
447.129	85.19
447.35	66.19
447.571	73.19
447.792	84.19
448.013	75.19
448.234	75.19
448.455	93.19
448.675	76.19
448.896	85.19
449.117	75.19
449.338	91.19
449.559	70.19
449.779	84.19
450	64.19
450.221	67.19
450.442	70.19
450.662	75.19
450.883	92.19
451.104	84.19
451.324	92.19
451.545	85.19
451.766	79.19
451.986	81.19
452.207	76.19
452.428	72.19
452.648	76.19
452.869	81.19
453.089	82.19
453.31	95.19
453.53	77.19
453.751	90.19
453.971	67.19
454.192	78.19
454.412	76.19
454.633	87.19
454.853	86.19
455.073	83.19
455.294	92.19
455.514	83.19
455.734	93.19
455.955	80.19
456.175	84.19
456.395	96.19
456.616	87.19
456.836	91.19
457.056	76.19
457.276	81.19
457.497	78.19
457.717	70.19
457.937	89.19
458.157	82.19
458.377	92.19
458.598	90.19
458.818	82.19
459.038	79.19
459.258	80.19
459.478	80.19
459.698	79.19
459.918	85.19
460.138	77.19
460.358	85.19
460.578	92.19
460.798	76.19
461.018	85.19
461.238	86.19
461.458	77.19
461.678	81.19
461.898	82.19
462.118	86.19
462.338	89.19
462.558	80.19
462.777	89.19
462.997	73.19
463.217	80.19
463.437	92.19
463.657	81.19
463.876	86.19
464.096	83.19
464.316	87.19
464.536	68.19
464.755	78.19
464.975	78.19
465.195	91.19
465.414	90.19
465.634	91.19
465.854	82.19
466.073	80.19
466.293	89.19
466.512	92.19
466.732	77.19
466.951	81.19
467.171	77.19
467.391	73.19
467.61	70.19
467.829	81.19
468.049	76.19
468.268	80.19
468.488	77.19
468.707	77.19
468.927	75.19
469.146	76.19
469.365	84.19
469.585	82.19
469.804	72.19
470.023	81.19
470.243	89.19
470.462	94.19
470.681	77.19
470.901	85.19
471.12	88.19
471.339	88.19
471.558	89.19
471.777	85.19
471.997	74.19
472.216	83.19
472.435	87.19
472.654	80.19
472.873	85.19
473.092	87.19
473.311	102.19
473.53	86.19
473.749	78.19
473.968	85.19
474.187	80.19
474.406	86.19
474.625	87.19
474.844	78.19
475.063	90.19
475.282	83.19
475.501	80.19
475.72	86.19
475.939	72.19
476.158	79.19
476.377	87.19
476.596	83.19
476.814	77.19
477.033	101.19
477.252	72.19
477.471	86.19
477.69	74.19
477.908	77.19
478.127	75.19
478.346	78.19
478.564	82.19
478.783	90.19
479.002	85.19
479.22	93.19
479.439	79.19
479.658	76.19
479.876	80.19
480.095	78.19
480.313	75.19
480.532	86.19
480.751	85.19
480.969	85.19
481.188	75.19
481.406	106.19
481.624	79.19
481.843	69.19
482.061	86.19
482.28	78.19
482.498	78.19
482.717	79.19
482.935	84.19
483.153	87.19
483.372	69.19
483.59	83.19
483.808	74.19
484.027	80.19
484.245	83.19
484.463	88.19
484.681	85.19
484.9	76.19
485.118	88.19
485.336	76.19
485.554	88.19
485.772	93.19
485.99	84.19
486.209	90.19
486.427	86.19
486.645	82.19
486.863	88.19
487.081	74.19
487.299	85.19
487.517	73.19
487.735	63.19
487.953	79.19
488.171	92.19
488.389	73.19
488.607	79.19
488.825	86.19
489.043	73.19
489.261	94.19
489.479	88.19
489.696	79.19
489.914	84.19
490.132	81.19
490.35	80.19
490.568	83.19
490.786	94.19
491.003	79.19
491.221	73.19
491.439	84.19
491.657	66.19
491.874	83.19
492.092	88.19
492.31	94.19
492.527	71.19
492.745	86.19
492.963	80.19
493.18	80.19
493.398	76.19
493.615	87.19
493.833	68.19
494.05	81.19
494.268	71.19
494.485	93.19
494.703	83.19
494.92	92.19
495.138	86.19
495.355	80.19
495.573	63.19
495.79	72.19
496.008	78.19
496.225	72.19
496.442	89.19
496.66	88.19
496.877	89.19
497.094	74.19
497.312	70.19
497.529	82.19
497.746	90.19
497.963	89.19
498.181	90.19
498.398	87.19
498.615	75.19
498.832	87.19
499.049	82.19
499.267	81.19
499.484	74.19
499.701	83.19
499.918	87.19
500.135	86.19
500.352	85.19
500.569	70.19
500.786	78.19
501.003	81.19
501.22	88.19
501.437	75.19
501.654	92.19
501.871	69.19
502.088	62.19
502.305	78.19
502.522	75.19
502.739	93.19
502.956	84.19
503.172	86.19
503.389	81.19
503.606	99.19
503.823	79.19
504.04	91.19
504.256	88.19
504.473	80.19
504.69	77.19
504.907	87.19
505.123	85.19
505.34	77.19
505.557	89.19
505.773	73.19
505.99	70.19
506.207	87.19
506.423	92.19
506.64	92.19
506.856	90.19
507.073	72.19
507.289	81.19
507.506	92.19
507.722	88.19
507.939	92.19
508.155	84.19
508.372	80.19
508.588	85.19
508.805	82.19
509.021	79.19
509.238	81.19
509.454	80.19
509.67	74.19
509.887	74.19
510.103	96.19
510.319	82.19
510.536	81.19
510.752	86.19
510.968	86.19
511.184	80.19
511.401	73.19
511.617	81.19
511.833	75.19
512.049	104.19
512.265	84.19
512.481	81.19
512.698	88.19
512.914	76.19
513.13	89.19
513.346	84.19
513.562	75.19
513.778	79.19
513.994	76.19
514.21	82.19
514.426	76.19
514.642	68.19
514.858	85.19
515.074	56.19
515.29	86.19
515.506	88.19
515.721	73.19
515.937	84.19
516.153	89.19
516.369	76.19
516.585	76.19
516.801	81.19
517.016	74.19
517.232	84.19
517.448	64.19
517.664	81.19
517.879	80.19
518.095	90.19
518.311	79.19
518.527	70.19
518.742	86.19
518.958	81.19
519.173	84.19
519.389	81.19
519.605	82.19
519.82	93.19
