Data from Background_2_HRD10591_00087.txt Node
Date: Wed Nov 05 14:47:39 EST 2025
User: Yrep
Spectrometer: HR+D1059
Trigger mode: 1
Integration Time (sec): 1.000000E-1
Scans to average: 1
Electric dark correction enabled: true
Nonlinearity correction enabled: false
Boxcar width: 0
XAxis mode: Wavelengths
Number of Pixels in Spectrum: 2048
>>>>>Begin Spectral Data<<<<<
223.165	-19.25
223.4	-19.25
223.635	-19.25
223.869	-12.25
224.104	-23.25
224.338	-5.25
224.573	-19.25
224.808	-12.25
225.042	-13.25
225.277	-9.25
225.511	3.75
225.746	21.75
225.98	5.75
226.215	11.75
226.449	16.75
226.683	25.75
226.918	23.75
227.152	4.75
227.387	29.75
227.621	38.75
227.856	41.75
228.09	50.75
228.324	44.75
228.559	66.75
228.793	68.75
229.027	53.75
229.262	61.75
229.496	65.75
229.73	68.75
229.964	74.75
230.199	70.75
230.433	86.75
230.667	77.75
230.901	82.75
231.136	82.75
231.37	78.75
231.604	86.75
231.838	80.75
232.072	95.75
232.306	89.75
232.541	82.75
232.775	91.75
233.009	80.75
233.243	84.75
233.477	80.75
233.711	86.75
233.945	86.75
234.179	82.75
234.413	97.75
234.647	78.75
234.881	86.75
235.115	70.75
235.349	81.75
235.583	77.75
235.817	82.75
236.051	85.75
236.285	89.75
236.519	82.75
236.753	79.75
236.987	94.75
237.221	84.75
237.455	84.75
237.689	77.75
237.922	78.75
238.156	87.75
238.39	74.75
238.624	88.75
238.858	84.75
239.091	74.75
239.325	81.75
239.559	89.75
239.793	66.75
240.027	81.75
240.26	69.75
240.494	74.75
240.728	83.75
240.961	88.75
241.195	73.75
241.429	72.75
241.662	80.75
241.896	85.75
242.13	78.75
242.363	83.75
242.597	82.75
242.83	69.75
243.064	80.75
243.298	75.75
243.531	75.75
243.765	76.75
243.998	73.75
244.232	92.75
244.465	76.75
244.699	80.75
244.932	76.75
245.166	70.75
245.399	60.75
245.633	80.75
245.866	62.75
246.099	77.75
246.333	66.75
246.566	84.75
246.8	75.75
247.033	87.75
247.266	69.75
247.5	88.75
247.733	71.75
247.966	87.75
248.2	85.75
248.433	75.75
248.666	91.75
248.899	96.75
249.133	85.75
249.366	72.75
249.599	74.75
249.832	70.75
250.066	80.75
250.299	78.75
250.532	85.75
250.765	69.75
250.998	76.75
251.231	80.75
251.465	73.75
251.698	84.75
251.931	78.75
252.164	72.75
252.397	86.75
252.63	76.75
252.863	85.75
253.096	90.75
253.329	81.75
253.562	73.75
253.795	68.75
254.028	81.75
254.261	65.75
254.494	79.75
254.727	73.75
254.96	72.75
255.193	78.75
255.426	83.75
255.659	67.75
255.892	86.75
256.124	78.75
256.357	92.75
256.59	73.75
256.823	70.75
257.056	83.75
257.289	87.75
257.521	88.75
257.754	86.75
257.987	84.75
258.22	96.75
258.452	83.75
258.685	91.75
258.918	72.75
259.151	82.75
259.383	75.75
259.616	78.75
259.849	85.75
260.081	69.75
260.314	89.75
260.547	77.75
260.779	70.75
261.012	89.75
261.244	77.75
261.477	79.75
261.71	94.75
261.942	78.75
262.175	86.75
262.407	80.75
262.64	90.75
262.872	85.75
263.105	82.75
263.337	81.75
263.57	77.75
263.802	88.75
264.035	76.75
264.267	93.75
264.499	80.75
264.732	66.75
264.964	74.75
265.197	76.75
265.429	80.75
265.661	76.75
265.894	89.75
266.126	77.75
266.358	84.75
266.591	89.75
266.823	80.75
267.055	85.75
267.287	88.75
267.52	78.75
267.752	90.75
267.984	81.75
268.216	77.75
268.448	93.75
268.681	83.75
268.913	68.75
269.145	73.75
269.377	82.75
269.609	77.75
269.841	96.75
270.073	89.75
270.306	80.75
270.538	80.75
270.77	84.75
271.002	78.75
271.234	83.75
271.466	74.75
271.698	74.75
271.93	89.75
272.162	93.75
272.394	82.75
272.626	80.75
272.858	97.75
273.09	87.75
273.322	84.75
273.553	82.75
273.785	82.75
274.017	79.75
274.249	88.75
274.481	81.75
274.713	70.75
274.945	80.75
275.176	78.75
275.408	97.75
275.64	102.75
275.872	74.75
276.104	90.75
276.335	81.75
276.567	91.75
276.799	86.75
277.031	72.75
277.262	83.75
277.494	87.75
277.726	78.75
277.957	80.75
278.189	85.75
278.421	82.75
278.652	97.75
278.884	77.75
279.115	78.75
279.347	94.75
279.579	75.75
279.81	78.75
280.042	91.75
280.273	78.75
280.505	95.75
280.736	91.75
280.968	73.75
281.199	71.75
281.431	66.75
281.662	92.75
281.894	86.75
282.125	70.75
282.356	84.75
282.588	98.75
282.819	81.75
283.051	75.75
283.282	93.75
283.513	78.75
283.745	83.75
283.976	71.75
284.207	94.75
284.439	85.75
284.67	83.75
284.901	70.75
285.132	86.75
285.364	76.75
285.595	93.75
285.826	92.75
286.057	71.75
286.288	85.75
286.52	77.75
286.751	84.75
286.982	82.75
287.213	79.75
287.444	91.75
287.675	81.75
287.906	72.75
288.138	76.75
288.369	77.75
288.6	77.75
288.831	78.75
289.062	84.75
289.293	82.75
289.524	97.75
289.755	69.75
289.986	74.75
290.217	80.75
290.448	92.75
290.679	72.75
290.91	99.75
291.141	81.75
291.371	90.75
291.602	88.75
291.833	82.75
292.064	81.75
292.295	81.75
292.526	76.75
292.757	87.75
292.987	90.75
293.218	79.75
293.449	84.75
293.68	93.75
293.91	81.75
294.141	83.75
294.372	73.75
294.603	78.75
294.833	84.75
295.064	84.75
295.295	87.75
295.525	83.75
295.756	68.75
295.987	80.75
296.217	78.75
296.448	81.75
296.679	91.75
296.909	76.75
297.14	84.75
297.37	84.75
297.601	85.75
297.831	85.75
298.062	76.75
298.292	88.75
298.523	72.75
298.753	79.75
298.984	84.75
299.214	83.75
299.445	77.75
299.675	81.75
299.905	82.75
300.136	91.75
300.366	74.75
300.597	89.75
300.827	85.75
301.057	80.75
301.288	71.75
301.518	78.75
301.748	69.75
301.979	97.75
302.209	81.75
302.439	77.75
302.669	81.75
302.9	74.75
303.13	84.75
303.36	91.75
303.59	74.75
303.82	86.75
304.051	84.75
304.281	83.75
304.511	93.75
304.741	90.75
304.971	78.75
305.201	73.75
305.431	88.75
305.661	91.75
305.891	74.75
306.121	77.75
306.352	98.75
306.582	84.75
306.812	93.75
307.042	102.75
307.272	91.75
307.502	95.75
307.731	79.75
307.961	78.75
308.191	84.75
308.421	84.75
308.651	96.75
308.881	91.75
309.111	93.75
309.341	84.75
309.571	76.75
309.8	84.75
310.03	75.75
310.26	79.75
310.49	80.75
310.72	89.75
310.949	84.75
311.179	79.75
311.409	97.75
311.639	89.75
311.868	84.75
312.098	87.75
312.328	96.75
312.557	86.75
312.787	86.75
313.017	79.75
313.246	89.75
313.476	84.75
313.706	83.75
313.935	89.75
314.165	72.75
314.394	72.75
314.624	76.75
314.853	71.75
315.083	94.75
315.312	84.75
315.542	84.75
315.771	90.75
316.001	81.75
316.23	82.75
316.46	87.75
316.689	96.75
316.919	92.75
317.148	80.75
317.377	85.75
317.607	88.75
317.836	78.75
318.065	84.75
318.295	79.75
318.524	83.75
318.753	73.75
318.983	78.75
319.212	75.75
319.441	86.75
319.67	90.75
319.9	91.75
320.129	80.75
320.358	81.75
320.587	81.75
320.816	80.75
321.046	89.75
321.275	84.75
321.504	76.75
321.733	81.75
321.962	68.75
322.191	82.75
322.42	86.75
322.649	85.75
322.878	83.75
323.108	86.75
323.337	90.75
323.566	103.75
323.795	91.75
324.024	84.75
324.253	76.75
324.482	79.75
324.71	93.75
324.939	96.75
325.168	89.75
325.397	86.75
325.626	79.75
325.855	84.75
326.084	89.75
326.313	85.75
326.542	84.75
326.77	77.75
326.999	88.75
327.228	81.75
327.457	82.75
327.686	86.75
327.914	93.75
328.143	98.75
328.372	93.75
328.6	82.75
328.829	92.75
329.058	82.75
329.287	73.75
329.515	76.75
329.744	89.75
329.972	75.75
330.201	88.75
330.43	88.75
330.658	99.75
330.887	89.75
331.115	92.75
331.344	93.75
331.572	76.75
331.801	88.75
332.03	96.75
332.258	89.75
332.486	79.75
332.715	82.75
332.943	87.75
333.172	89.75
333.4	92.75
333.629	82.75
333.857	96.75
334.085	85.75
334.314	92.75
334.542	78.75
334.771	88.75
334.999	89.75
335.227	96.75
335.455	79.75
335.684	85.75
335.912	85.75
336.14	78.75
336.369	86.75
336.597	89.75
336.825	92.75
337.053	85.75
337.281	92.75
337.51	87.75
337.738	89.75
337.966	89.75
338.194	76.75
338.422	77.75
338.65	77.75
338.878	90.75
339.106	97.75
339.334	85.75
339.562	83.75
339.79	84.75
340.018	86.75
340.246	80.75
340.474	79.75
340.702	100.75
340.93	88.75
341.158	68.75
341.386	88.75
341.614	77.75
341.842	76.75
342.07	89.75
342.298	75.75
342.526	90.75
342.754	83.75
342.981	72.75
343.209	78.75
343.437	94.75
343.665	73.75
343.893	82.75
344.12	88.75
344.348	89.75
344.576	92.75
344.804	78.75
345.031	77.75
345.259	84.75
345.487	84.75
345.714	89.75
345.942	80.75
346.17	80.75
346.397	81.75
346.625	86.75
346.853	88.75
347.08	86.75
347.308	97.75
347.535	80.75
347.763	81.75
347.99	76.75
348.218	71.75
348.445	65.75
348.673	85.75
348.9	89.75
349.128	94.75
349.355	85.75
349.583	84.75
349.81	80.75
350.037	87.75
350.265	68.75
350.492	89.75
350.72	79.75
350.947	97.75
351.174	92.75
351.402	92.75
351.629	82.75
351.856	84.75
352.083	88.75
352.311	76.75
352.538	81.75
352.765	83.75
352.992	83.75
353.22	88.75
353.447	78.75
353.674	80.75
353.901	95.75
354.128	98.75
354.355	82.75
354.583	83.75
354.81	83.75
355.037	83.75
355.264	97.75
355.491	91.75
355.718	74.75
355.945	82.75
356.172	70.75
356.399	84.75
356.626	82.75
356.853	82.75
357.08	87.75
357.307	82.75
357.534	102.75
357.761	88.75
357.988	85.75
358.215	84.75
358.441	75.75
358.668	82.75
358.895	71.75
359.122	84.75
359.349	81.75
359.576	84.75
359.802	78.75
360.029	90.75
360.256	68.75
360.483	82.75
360.709	84.75
360.936	74.75
361.163	82.75
361.39	83.75
361.616	84.75
361.843	80.75
362.07	90.75
362.296	92.75
362.523	77.75
362.749	85.75
362.976	79.75
363.203	95.75
363.429	76.75
363.656	80.75
363.882	75.75
364.109	74.75
364.335	77.75
364.562	91.75
364.788	85.75
365.015	84.75
365.241	79.75
365.468	79.75
365.694	77.75
365.92	83.75
366.147	71.75
366.373	90.75
366.599	76.75
366.826	75.75
367.052	80.75
367.278	87.75
367.505	82.75
367.731	88.75
367.957	69.75
368.184	72.75
368.41	88.75
368.636	81.75
368.862	88.75
369.089	97.75
369.315	79.75
369.541	74.75
369.767	92.75
369.993	82.75
370.219	95.75
370.445	79.75
370.672	86.75
370.898	85.75
371.124	86.75
371.35	87.75
371.576	90.75
371.802	56.75
372.028	86.75
372.254	79.75
372.48	80.75
372.706	78.75
372.932	86.75
373.158	98.75
373.384	86.75
373.61	61.75
373.835	76.75
374.061	71.75
374.287	75.75
374.513	80.75
374.739	77.75
374.965	65.75
375.191	88.75
375.416	106.75
375.642	74.75
375.868	92.75
376.094	88.75
376.319	83.75
376.545	76.75
376.771	85.75
376.997	76.75
377.222	79.75
377.448	79.75
377.674	82.75
377.899	81.75
378.125	74.75
378.35	89.75
378.576	97.75
378.802	78.75
379.027	81.75
379.253	76.75
379.478	79.75
379.704	69.75
379.929	82.75
380.155	72.75
380.38	91.75
380.606	79.75
380.831	103.75
381.057	89.75
381.282	86.75
381.507	84.75
381.733	94.75
381.958	81.75
382.184	78.75
382.409	92.75
382.634	84.75
382.86	89.75
383.085	81.75
383.31	63.75
383.535	75.75
383.761	85.75
383.986	97.75
384.211	86.75
384.436	79.75
384.662	91.75
384.887	82.75
385.112	87.75
385.337	66.75
385.562	78.75
385.787	70.75
386.013	79.75
386.238	78.75
386.463	75.75
386.688	77.75
386.913	80.75
387.138	80.75
387.363	68.75
387.588	91.75
387.813	90.75
388.038	91.75
388.263	82.75
388.488	76.75
388.713	91.75
388.938	92.75
389.163	90.75
389.387	93.75
389.612	78.75
389.837	88.75
390.062	93.75
390.287	67.75
390.512	74.75
390.736	68.75
390.961	82.75
391.186	76.75
391.411	84.75
391.636	91.75
391.86	86.75
392.085	88.75
392.31	82.75
392.534	77.75
392.759	83.75
392.984	81.75
393.208	82.75
393.433	73.75
393.658	90.75
393.882	83.75
394.107	86.75
394.331	85.75
394.556	85.75
394.78	93.75
395.005	97.75
395.229	88.75
395.454	78.75
395.678	85.75
395.903	90.75
396.127	68.75
396.352	74.75
396.576	80.75
396.801	100.75
397.025	90.75
397.249	80.75
397.474	80.75
397.698	89.75
397.922	86.75
398.147	72.75
398.371	90.75
398.595	86.75
398.82	69.75
399.044	82.75
399.268	78.75
399.492	76.75
399.717	81.75
399.941	67.75
400.165	71.75
400.389	84.75
400.613	94.75
400.837	82.75
401.062	74.75
401.286	77.75
401.51	76.75
401.734	77.75
401.958	88.75
402.182	81.75
402.406	76.75
402.63	77.75
402.854	101.75
403.078	80.75
403.302	68.75
403.526	85.75
403.75	81.75
403.974	70.75
404.198	68.75
404.422	88.75
404.645	88.75
404.869	79.75
405.093	78.75
405.317	93.75
405.541	74.75
405.765	75.75
405.988	70.75
406.212	79.75
406.436	67.75
406.66	83.75
406.883	90.75
407.107	68.75
407.331	77.75
407.555	97.75
407.778	97.75
408.002	80.75
408.226	76.75
408.449	82.75
408.673	74.75
408.896	75.75
409.12	80.75
409.344	88.75
409.567	70.75
409.791	89.75
410.014	88.75
410.238	83.75
410.461	82.75
410.685	92.75
410.908	82.75
411.132	71.75
411.355	77.75
411.578	92.75
411.802	98.75
412.025	78.75
412.249	77.75
412.472	77.75
412.695	69.75
412.919	74.75
413.142	69.75
413.365	78.75
413.589	83.75
413.812	79.75
414.035	76.75
414.258	79.75
414.482	86.75
414.705	62.75
414.928	87.75
415.151	82.75
415.374	74.75
415.597	81.75
415.821	94.75
416.044	92.75
416.267	76.75
416.49	80.75
416.713	85.75
416.936	78.75
417.159	73.75
417.382	71.75
417.605	110.75
417.828	108.75
418.051	78.75
418.274	93.75
418.497	80.75
418.72	86.75
418.943	100.75
419.166	85.75
419.389	80.75
419.611	68.75
419.834	84.75
420.057	71.75
420.28	83.75
420.503	78.75
420.726	75.75
420.948	70.75
421.171	69.75
421.394	80.75
421.617	91.75
421.839	71.75
422.062	76.75
422.285	96.75
422.507	85.75
422.73	78.75
422.953	79.75
423.175	86.75
423.398	84.75
423.621	100.75
423.843	93.75
424.066	88.75
424.288	82.75
424.511	92.75
424.733	98.75
424.956	96.75
425.178	86.75
425.401	93.75
425.623	67.75
425.846	75.75
426.068	88.75
426.291	80.75
426.513	92.75
426.735	72.75
426.958	93.75
427.18	84.75
427.402	88.75
427.625	82.75
427.847	73.75
428.069	73.75
428.292	73.75
428.514	71.75
428.736	89.75
428.958	74.75
429.181	75.75
429.403	92.75
429.625	85.75
429.847	82.75
430.069	88.75
430.292	88.75
430.514	83.75
430.736	81.75
430.958	81.75
431.18	78.75
431.402	93.75
431.624	85.75
431.846	89.75
432.068	92.75
432.29	91.75
432.512	82.75
432.734	76.75
432.956	80.75
433.178	78.75
433.4	92.75
433.622	83.75
433.844	75.75
434.066	80.75
434.287	83.75
434.509	70.75
434.731	91.75
434.953	80.75
435.175	79.75
435.397	84.75
435.618	82.75
435.84	87.75
436.062	78.75
436.284	84.75
436.505	80.75
436.727	81.75
436.949	88.75
437.17	88.75
437.392	82.75
437.614	80.75
437.835	92.75
438.057	76.75
438.278	83.75
438.5	65.75
438.721	74.75
438.943	88.75
439.165	82.75
439.386	87.75
439.608	75.75
439.829	70.75
440.05	70.75
440.272	76.75
440.493	84.75
440.715	86.75
440.936	76.75
441.158	76.75
441.379	88.75
441.6	81.75
441.822	76.75
442.043	86.75
442.264	87.75
442.486	76.75
442.707	84.75
442.928	98.75
443.149	79.75
443.371	89.75
443.592	78.75
443.813	67.75
444.034	80.75
444.255	78.75
444.476	88.75
444.698	80.75
444.919	74.75
445.14	149.75
445.361	115.75
445.582	82.75
445.803	80.75
446.024	87.75
446.245	92.75
446.466	78.75
446.687	86.75
446.908	82.75
447.129	82.75
447.35	70.75
447.571	78.75
447.792	67.75
448.013	85.75
448.234	80.75
448.455	78.75
448.675	68.75
448.896	89.75
449.117	82.75
449.338	84.75
449.559	87.75
449.779	94.75
450	86.75
450.221	77.75
450.442	64.75
450.662	76.75
450.883	79.75
451.104	91.75
451.324	80.75
451.545	76.75
451.766	92.75
451.986	74.75
452.207	70.75
452.428	89.75
452.648	80.75
452.869	81.75
453.089	77.75
453.31	87.75
453.53	93.75
453.751	84.75
453.971	77.75
454.192	85.75
454.412	60.75
454.633	78.75
454.853	74.75
455.073	80.75
455.294	78.75
455.514	91.75
455.734	77.75
455.955	99.75
456.175	91.75
456.395	72.75
456.616	74.75
456.836	78.75
457.056	80.75
457.276	80.75
457.497	75.75
457.717	78.75
457.937	80.75
458.157	87.75
458.377	86.75
458.598	78.75
458.818	87.75
459.038	76.75
459.258	72.75
459.478	70.75
459.698	86.75
459.918	89.75
460.138	84.75
460.358	80.75
460.578	74.75
460.798	83.75
461.018	76.75
461.238	74.75
461.458	78.75
461.678	80.75
461.898	86.75
462.118	78.75
462.338	88.75
462.558	78.75
462.777	88.75
462.997	89.75
463.217	72.75
463.437	84.75
463.657	97.75
463.876	90.75
464.096	76.75
464.316	81.75
464.536	69.75
464.755	84.75
464.975	78.75
465.195	88.75
465.414	85.75
465.634	78.75
465.854	80.75
466.073	67.75
466.293	88.75
466.512	84.75
466.732	79.75
466.951	71.75
467.171	71.75
467.391	77.75
467.61	80.75
467.829	81.75
468.049	94.75
468.268	90.75
468.488	70.75
468.707	79.75
468.927	82.75
469.146	98.75
469.365	90.75
469.585	67.75
469.804	96.75
470.023	88.75
470.243	88.75
470.462	91.75
470.681	77.75
470.901	73.75
471.12	88.75
471.339	72.75
471.558	70.75
471.777	85.75
471.997	83.75
472.216	90.75
472.435	88.75
472.654	73.75
472.873	82.75
473.092	72.75
473.311	81.75
473.53	87.75
473.749	104.75
473.968	91.75
474.187	86.75
474.406	68.75
474.625	91.75
474.844	76.75
475.063	82.75
475.282	90.75
475.501	65.75
475.72	78.75
475.939	93.75
476.158	89.75
476.377	77.75
476.596	84.75
476.814	74.75
477.033	80.75
477.252	80.75
477.471	81.75
477.69	85.75
477.908	79.75
478.127	72.75
478.346	78.75
478.564	93.75
478.783	74.75
479.002	77.75
479.22	76.75
479.439	92.75
479.658	74.75
479.876	92.75
480.095	77.75
480.313	76.75
480.532	85.75
480.751	81.75
480.969	70.75
481.188	94.75
481.406	88.75
481.624	92.75
481.843	79.75
482.061	87.75
482.28	80.75
482.498	79.75
482.717	70.75
482.935	86.75
483.153	91.75
483.372	81.75
483.59	88.75
483.808	85.75
484.027	92.75
484.245	85.75
484.463	78.75
484.681	86.75
484.9	78.75
485.118	86.75
485.336	73.75
485.554	78.75
485.772	74.75
485.99	74.75
486.209	77.75
486.427	82.75
486.645	81.75
486.863	90.75
487.081	74.75
487.299	75.75
487.517	90.75
487.735	88.75
487.953	79.75
488.171	84.75
488.389	97.75
488.607	83.75
488.825	80.75
489.043	72.75
489.261	89.75
489.479	75.75
489.696	76.75
489.914	76.75
490.132	91.75
490.35	90.75
490.568	85.75
490.786	66.75
491.003	71.75
491.221	88.75
491.439	81.75
491.657	83.75
491.874	91.75
492.092	83.75
492.31	79.75
492.527	78.75
492.745	74.75
492.963	78.75
493.18	85.75
493.398	69.75
493.615	81.75
493.833	85.75
494.05	77.75
494.268	90.75
494.485	100.75
494.703	84.75
494.92	83.75
495.138	89.75
495.355	89.75
495.573	84.75
495.79	78.75
496.008	86.75
496.225	83.75
496.442	90.75
496.66	92.75
496.877	78.75
497.094	69.75
497.312	69.75
497.529	83.75
497.746	80.75
497.963	86.75
498.181	77.75
498.398	80.75
498.615	78.75
498.832	76.75
499.049	81.75
499.267	83.75
499.484	89.75
499.701	94.75
499.918	78.75
500.135	84.75
500.352	93.75
500.569	84.75
500.786	92.75
501.003	91.75
501.22	74.75
501.437	82.75
501.654	80.75
501.871	79.75
502.088	84.75
502.305	73.75
502.522	71.75
502.739	85.75
502.956	82.75
503.172	77.75
503.389	90.75
503.606	85.75
503.823	85.75
504.04	83.75
504.256	83.75
504.473	78.75
504.69	101.75
504.907	86.75
505.123	75.75
505.34	86.75
505.557	83.75
505.773	94.75
505.99	84.75
506.207	93.75
506.423	86.75
506.64	83.75
506.856	89.75
507.073	68.75
507.289	81.75
507.506	82.75
507.722	77.75
507.939	79.75
508.155	83.75
508.372	83.75
508.588	102.75
508.805	88.75
509.021	76.75
509.238	91.75
509.454	84.75
509.67	75.75
509.887	80.75
510.103	84.75
510.319	85.75
510.536	67.75
510.752	74.75
510.968	68.75
511.184	86.75
511.401	86.75
511.617	69.75
511.833	76.75
512.049	86.75
512.265	100.75
512.481	86.75
512.698	86.75
512.914	76.75
513.13	93.75
513.346	82.75
513.562	92.75
513.778	84.75
513.994	93.75
514.21	84.75
514.426	84.75
514.642	90.75
514.858	78.75
515.074	86.75
515.29	79.75
515.506	73.75
515.721	85.75
515.937	86.75
516.153	80.75
516.369	85.75
516.585	96.75
516.801	87.75
517.016	75.75
517.232	78.75
517.448	79.75
517.664	82.75
517.879	92.75
518.095	76.75
518.311	86.75
518.527	83.75
518.742	86.75
518.958	79.75
519.173	80.75
519.389	88.75
519.605	80.75
519.82	83.75
520.036	86.75
