Data from Background_2_HRD10591_00040.txt Node
Date: Wed Nov 05 14:47:17 EST 2025
User: Yrep
Spectrometer: HR+D1059
Trigger mode: 1
Integration Time (sec): 1.000000E-1
Scans to average: 1
Electric dark correction enabled: true
Nonlinearity correction enabled: false
Boxcar width: 0
XAxis mode: Wavelengths
Number of Pixels in Spectrum: 2048
>>>>>Begin Spectral Data<<<<<
223.165	-16.94
223.4	-16.94
223.635	-16.94
223.869	-22.94
224.104	-10.94
224.338	-9.94
224.573	-6.94
224.808	-10.94
225.042	0.06
225.277	-6.94
225.511	-9.94
225.746	1.06
225.98	6.06
226.215	18.06
226.449	25.06
226.683	22.06
226.918	6.06
227.152	17.06
227.387	32.06
227.621	49.06
227.856	44.06
228.09	36.06
228.324	43.06
228.559	57.06
228.793	52.06
229.027	64.06
229.262	56.06
229.496	64.06
229.73	58.06
229.964	69.06
230.199	68.06
230.433	77.06
230.667	65.06
230.901	94.06
231.136	74.06
231.37	96.06
231.604	73.06
231.838	77.06
232.072	82.06
232.306	74.06
232.541	83.06
232.775	77.06
233.009	87.06
233.243	90.06
233.477	71.06
233.711	72.06
233.945	70.06
234.179	79.06
234.413	74.06
234.647	90.06
234.881	85.06
235.115	81.06
235.349	87.06
235.583	78.06
235.817	73.06
236.051	71.06
236.285	88.06
236.519	83.06
236.753	61.06
236.987	79.06
237.221	78.06
237.455	76.06
237.689	80.06
237.922	73.06
238.156	66.06
238.39	76.06
238.624	66.06
238.858	65.06
239.091	80.06
239.325	78.06
239.559	66.06
239.793	78.06
240.027	74.06
240.26	85.06
240.494	69.06
240.728	86.06
240.961	80.06
241.195	88.06
241.429	73.06
241.662	81.06
241.896	91.06
242.13	69.06
242.363	84.06
242.597	74.06
242.83	81.06
243.064	69.06
243.298	91.06
243.531	74.06
243.765	63.06
243.998	74.06
244.232	84.06
244.465	65.06
244.699	76.06
244.932	78.06
245.166	82.06
245.399	74.06
245.633	78.06
245.866	73.06
246.099	77.06
246.333	86.06
246.566	69.06
246.8	89.06
247.033	73.06
247.266	84.06
247.5	86.06
247.733	81.06
247.966	77.06
248.2	75.06
248.433	69.06
248.666	80.06
248.899	81.06
249.133	87.06
249.366	60.06
249.599	72.06
249.832	69.06
250.066	90.06
250.299	74.06
250.532	85.06
250.765	76.06
250.998	68.06
251.231	73.06
251.465	74.06
251.698	71.06
251.931	77.06
252.164	81.06
252.397	64.06
252.63	75.06
252.863	66.06
253.096	78.06
253.329	74.06
253.562	78.06
253.795	82.06
254.028	81.06
254.261	85.06
254.494	95.06
254.727	90.06
254.96	78.06
255.193	79.06
255.426	83.06
255.659	83.06
255.892	84.06
256.124	77.06
256.357	89.06
256.59	91.06
256.823	81.06
257.056	70.06
257.289	80.06
257.521	79.06
257.754	79.06
257.987	75.06
258.22	81.06
258.452	85.06
258.685	73.06
258.918	63.06
259.151	84.06
259.383	81.06
259.616	81.06
259.849	86.06
260.081	88.06
260.314	78.06
260.547	80.06
260.779	83.06
261.012	90.06
261.244	80.06
261.477	78.06
261.71	64.06
261.942	88.06
262.175	74.06
262.407	83.06
262.64	82.06
262.872	89.06
263.105	69.06
263.337	87.06
263.57	72.06
263.802	84.06
264.035	84.06
264.267	74.06
264.499	76.06
264.732	78.06
264.964	84.06
265.197	82.06
265.429	76.06
265.661	91.06
265.894	88.06
266.126	76.06
266.358	88.06
266.591	86.06
266.823	82.06
267.055	78.06
267.287	93.06
267.52	83.06
267.752	82.06
267.984	73.06
268.216	77.06
268.448	96.06
268.681	73.06
268.913	88.06
269.145	85.06
269.377	96.06
269.609	76.06
269.841	76.06
270.073	76.06
270.306	81.06
270.538	86.06
270.77	82.06
271.002	83.06
271.234	80.06
271.466	92.06
271.698	85.06
271.93	84.06
272.162	89.06
272.394	81.06
272.626	83.06
272.858	74.06
273.09	70.06
273.322	75.06
273.553	84.06
273.785	79.06
274.017	70.06
274.249	67.06
274.481	75.06
274.713	93.06
274.945	82.06
275.176	83.06
275.408	100.06
275.64	92.06
275.872	90.06
276.104	75.06
276.335	80.06
276.567	76.06
276.799	92.06
277.031	75.06
277.262	77.06
277.494	71.06
277.726	71.06
277.957	73.06
278.189	80.06
278.421	65.06
278.652	82.06
278.884	70.06
279.115	83.06
279.347	70.06
279.579	90.06
279.81	80.06
280.042	85.06
280.273	101.06
280.505	78.06
280.736	78.06
280.968	72.06
281.199	80.06
281.431	71.06
281.662	92.06
281.894	98.06
282.125	80.06
282.356	93.06
282.588	91.06
282.819	86.06
283.051	85.06
283.282	81.06
283.513	85.06
283.745	83.06
283.976	75.06
284.207	77.06
284.439	76.06
284.67	90.06
284.901	81.06
285.132	90.06
285.364	90.06
285.595	93.06
285.826	87.06
286.057	85.06
286.288	79.06
286.52	83.06
286.751	80.06
286.982	96.06
287.213	89.06
287.444	84.06
287.675	88.06
287.906	92.06
288.138	86.06
288.369	82.06
288.6	80.06
288.831	89.06
289.062	72.06
289.293	68.06
289.524	78.06
289.755	85.06
289.986	71.06
290.217	84.06
290.448	76.06
290.679	81.06
290.91	86.06
291.141	89.06
291.371	90.06
291.602	99.06
291.833	89.06
292.064	77.06
292.295	82.06
292.526	84.06
292.757	87.06
292.987	91.06
293.218	90.06
293.449	93.06
293.68	82.06
293.91	83.06
294.141	90.06
294.372	82.06
294.603	89.06
294.833	70.06
295.064	75.06
295.295	96.06
295.525	80.06
295.756	84.06
295.987	82.06
296.217	90.06
296.448	82.06
296.679	85.06
296.909	76.06
297.14	96.06
297.37	80.06
297.601	93.06
297.831	72.06
298.062	82.06
298.292	80.06
298.523	92.06
298.753	85.06
298.984	89.06
299.214	86.06
299.445	80.06
299.675	75.06
299.905	86.06
300.136	91.06
300.366	90.06
300.597	74.06
300.827	85.06
301.057	101.06
301.288	98.06
301.518	80.06
301.748	93.06
301.979	104.06
302.209	76.06
302.439	81.06
302.669	90.06
302.9	86.06
303.13	90.06
303.36	86.06
303.59	80.06
303.82	91.06
304.051	84.06
304.281	90.06
304.511	95.06
304.741	81.06
304.971	83.06
305.201	104.06
305.431	80.06
305.661	88.06
305.891	75.06
306.121	80.06
306.352	79.06
306.582	98.06
306.812	89.06
307.042	78.06
307.272	80.06
307.502	84.06
307.731	75.06
307.961	96.06
308.191	78.06
308.421	82.06
308.651	88.06
308.881	81.06
309.111	75.06
309.341	90.06
309.571	71.06
309.8	86.06
310.03	96.06
310.26	71.06
310.49	79.06
310.72	93.06
310.949	78.06
311.179	79.06
311.409	73.06
311.639	76.06
311.868	77.06
312.098	82.06
312.328	84.06
312.557	89.06
312.787	86.06
313.017	79.06
313.246	88.06
313.476	76.06
313.706	87.06
313.935	93.06
314.165	81.06
314.394	71.06
314.624	71.06
314.853	83.06
315.083	86.06
315.312	77.06
315.542	76.06
315.771	82.06
316.001	69.06
316.23	81.06
316.46	81.06
316.689	69.06
316.919	81.06
317.148	91.06
317.377	83.06
317.607	90.06
317.836	81.06
318.065	86.06
318.295	81.06
318.524	78.06
318.753	80.06
318.983	86.06
319.212	83.06
319.441	96.06
319.67	99.06
319.9	75.06
320.129	76.06
320.358	80.06
320.587	86.06
320.816	98.06
321.046	81.06
321.275	86.06
321.504	75.06
321.733	88.06
321.962	72.06
322.191	85.06
322.42	84.06
322.649	75.06
322.878	86.06
323.108	96.06
323.337	80.06
323.566	83.06
323.795	77.06
324.024	77.06
324.253	89.06
324.482	76.06
324.71	89.06
324.939	90.06
325.168	83.06
325.397	64.06
325.626	76.06
325.855	93.06
326.084	65.06
326.313	72.06
326.542	78.06
326.77	92.06
326.999	91.06
327.228	88.06
327.457	69.06
327.686	82.06
327.914	84.06
328.143	83.06
328.372	76.06
328.6	91.06
328.829	94.06
329.058	85.06
329.287	86.06
329.515	89.06
329.744	77.06
329.972	66.06
330.201	75.06
330.43	93.06
330.658	82.06
330.887	68.06
331.115	69.06
331.344	76.06
331.572	92.06
331.801	80.06
332.03	81.06
332.258	86.06
332.486	83.06
332.715	76.06
332.943	79.06
333.172	83.06
333.4	84.06
333.629	64.06
333.857	82.06
334.085	83.06
334.314	93.06
334.542	93.06
334.771	74.06
334.999	88.06
335.227	94.06
335.455	93.06
335.684	89.06
335.912	89.06
336.14	86.06
336.369	74.06
336.597	81.06
336.825	86.06
337.053	70.06
337.281	78.06
337.51	90.06
337.738	74.06
337.966	75.06
338.194	67.06
338.422	74.06
338.65	76.06
338.878	82.06
339.106	85.06
339.334	88.06
339.562	90.06
339.79	81.06
340.018	76.06
340.246	82.06
340.474	75.06
340.702	76.06
340.93	83.06
341.158	73.06
341.386	76.06
341.614	82.06
341.842	84.06
342.07	81.06
342.298	81.06
342.526	94.06
342.754	94.06
342.981	85.06
343.209	86.06
343.437	94.06
343.665	85.06
343.893	78.06
344.12	86.06
344.348	75.06
344.576	65.06
344.804	89.06
345.031	70.06
345.259	78.06
345.487	87.06
345.714	86.06
345.942	93.06
346.17	86.06
346.397	74.06
346.625	81.06
346.853	84.06
347.08	66.06
347.308	76.06
347.535	76.06
347.763	80.06
347.99	93.06
348.218	76.06
348.445	73.06
348.673	71.06
348.9	86.06
349.128	81.06
349.355	85.06
349.583	72.06
349.81	85.06
350.037	91.06
350.265	81.06
350.492	96.06
350.72	80.06
350.947	87.06
351.174	82.06
351.402	74.06
351.629	78.06
351.856	80.06
352.083	79.06
352.311	75.06
352.538	83.06
352.765	80.06
352.992	90.06
353.22	92.06
353.447	88.06
353.674	84.06
353.901	80.06
354.128	89.06
354.355	87.06
354.583	81.06
354.81	84.06
355.037	75.06
355.264	83.06
355.491	84.06
355.718	79.06
355.945	80.06
356.172	91.06
356.399	80.06
356.626	73.06
356.853	69.06
357.08	84.06
357.307	87.06
357.534	84.06
357.761	85.06
357.988	84.06
358.215	72.06
358.441	91.06
358.668	78.06
358.895	67.06
359.122	66.06
359.349	84.06
359.576	86.06
359.802	77.06
360.029	81.06
360.256	68.06
360.483	81.06
360.709	84.06
360.936	83.06
361.163	84.06
361.39	74.06
361.616	88.06
361.843	88.06
362.07	67.06
362.296	69.06
362.523	88.06
362.749	83.06
362.976	93.06
363.203	82.06
363.429	80.06
363.656	86.06
363.882	87.06
364.109	76.06
364.335	89.06
364.562	85.06
364.788	79.06
365.015	74.06
365.241	79.06
365.468	85.06
365.694	74.06
365.92	83.06
366.147	85.06
366.373	86.06
366.599	78.06
366.826	86.06
367.052	65.06
367.278	82.06
367.505	82.06
367.731	96.06
367.957	94.06
368.184	73.06
368.41	85.06
368.636	77.06
368.862	84.06
369.089	60.06
369.315	86.06
369.541	80.06
369.767	75.06
369.993	82.06
370.219	82.06
370.445	85.06
370.672	81.06
370.898	93.06
371.124	85.06
371.35	88.06
371.576	89.06
371.802	79.06
372.028	82.06
372.254	79.06
372.48	78.06
372.706	87.06
372.932	88.06
373.158	70.06
373.384	89.06
373.61	77.06
373.835	80.06
374.061	86.06
374.287	72.06
374.513	87.06
374.739	88.06
374.965	79.06
375.191	91.06
375.416	80.06
375.642	66.06
375.868	77.06
376.094	80.06
376.319	89.06
376.545	72.06
376.771	79.06
376.997	69.06
377.222	79.06
377.448	82.06
377.674	69.06
377.899	82.06
378.125	93.06
378.35	74.06
378.576	82.06
378.802	59.06
379.027	87.06
379.253	83.06
379.478	88.06
379.704	84.06
379.929	88.06
380.155	85.06
380.38	89.06
380.606	76.06
380.831	88.06
381.057	91.06
381.282	80.06
381.507	69.06
381.733	75.06
381.958	86.06
382.184	71.06
382.409	81.06
382.634	79.06
382.86	78.06
383.085	82.06
383.31	90.06
383.535	85.06
383.761	69.06
383.986	82.06
384.211	84.06
384.436	74.06
384.662	78.06
384.887	82.06
385.112	79.06
385.337	69.06
385.562	86.06
385.787	76.06
386.013	82.06
386.238	88.06
386.463	91.06
386.688	89.06
386.913	81.06
387.138	76.06
387.363	68.06
387.588	80.06
387.813	88.06
388.038	83.06
388.263	88.06
388.488	85.06
388.713	84.06
388.938	77.06
389.163	77.06
389.387	72.06
389.612	73.06
389.837	79.06
390.062	83.06
390.287	91.06
390.512	64.06
390.736	76.06
390.961	72.06
391.186	74.06
391.411	78.06
391.636	97.06
391.86	79.06
392.085	82.06
392.31	69.06
392.534	73.06
392.759	81.06
392.984	76.06
393.208	81.06
393.433	67.06
393.658	89.06
393.882	79.06
394.107	73.06
394.331	86.06
394.556	81.06
394.78	82.06
395.005	96.06
395.229	84.06
395.454	80.06
395.678	82.06
395.903	74.06
396.127	84.06
396.352	88.06
396.576	85.06
396.801	74.06
397.025	82.06
397.249	75.06
397.474	74.06
397.698	84.06
397.922	80.06
398.147	76.06
398.371	79.06
398.595	68.06
398.82	68.06
399.044	61.06
399.268	83.06
399.492	82.06
399.717	86.06
399.941	76.06
400.165	67.06
400.389	83.06
400.613	77.06
400.837	86.06
401.062	88.06
401.286	76.06
401.51	66.06
401.734	83.06
401.958	85.06
402.182	67.06
402.406	66.06
402.63	88.06
402.854	79.06
403.078	81.06
403.302	95.06
403.526	89.06
403.75	78.06
403.974	85.06
404.198	81.06
404.422	76.06
404.645	62.06
404.869	89.06
405.093	69.06
405.317	83.06
405.541	80.06
405.765	71.06
405.988	82.06
406.212	86.06
406.436	76.06
406.66	83.06
406.883	60.06
407.107	81.06
407.331	77.06
407.555	81.06
407.778	71.06
408.002	86.06
408.226	85.06
408.449	79.06
408.673	87.06
408.896	95.06
409.12	73.06
409.344	75.06
409.567	66.06
409.791	89.06
410.014	95.06
410.238	88.06
410.461	74.06
410.685	74.06
410.908	69.06
411.132	76.06
411.355	90.06
411.578	89.06
411.802	80.06
412.025	78.06
412.249	68.06
412.472	76.06
412.695	88.06
412.919	84.06
413.142	81.06
413.365	83.06
413.589	77.06
413.812	64.06
414.035	68.06
414.258	82.06
414.482	80.06
414.705	83.06
414.928	79.06
415.151	91.06
415.374	84.06
415.597	88.06
415.821	85.06
416.044	86.06
416.267	73.06
416.49	69.06
416.713	80.06
416.936	74.06
417.159	93.06
417.382	86.06
417.605	75.06
417.828	69.06
418.051	80.06
418.274	65.06
418.497	76.06
418.72	79.06
418.943	85.06
419.166	78.06
419.389	85.06
419.611	66.06
419.834	79.06
420.057	85.06
420.28	63.06
420.503	80.06
420.726	83.06
420.948	78.06
421.171	89.06
421.394	73.06
421.617	81.06
421.839	70.06
422.062	88.06
422.285	88.06
422.507	58.06
422.73	89.06
422.953	82.06
423.175	85.06
423.398	68.06
423.621	88.06
423.843	70.06
424.066	77.06
424.288	76.06
424.511	78.06
424.733	75.06
424.956	95.06
425.178	92.06
425.401	93.06
425.623	74.06
425.846	76.06
426.068	97.06
426.291	90.06
426.513	77.06
426.735	68.06
426.958	62.06
427.18	89.06
427.402	94.06
427.625	70.06
427.847	79.06
428.069	73.06
428.292	80.06
428.514	88.06
428.736	88.06
428.958	85.06
429.181	87.06
429.403	95.06
429.625	84.06
429.847	92.06
430.069	77.06
430.292	87.06
430.514	79.06
430.736	75.06
430.958	83.06
431.18	69.06
431.402	73.06
431.624	92.06
431.846	75.06
432.068	81.06
432.29	85.06
432.512	89.06
432.734	76.06
432.956	86.06
433.178	80.06
433.4	76.06
433.622	75.06
433.844	74.06
434.066	76.06
434.287	84.06
434.509	72.06
434.731	74.06
434.953	90.06
435.175	76.06
435.397	80.06
435.618	78.06
435.84	91.06
436.062	72.06
436.284	81.06
436.505	85.06
436.727	88.06
436.949	90.06
437.17	94.06
437.392	83.06
437.614	56.06
437.835	79.06
438.057	76.06
438.278	73.06
438.5	83.06
438.721	81.06
438.943	83.06
439.165	83.06
439.386	79.06
439.608	88.06
439.829	71.06
440.05	84.06
440.272	79.06
440.493	94.06
440.715	68.06
440.936	68.06
441.158	76.06
441.379	87.06
441.6	63.06
441.822	81.06
442.043	73.06
442.264	83.06
442.486	85.06
442.707	87.06
442.928	77.06
443.149	56.06
443.371	86.06
443.592	74.06
443.813	93.06
444.034	89.06
444.255	70.06
444.476	71.06
444.698	76.06
444.919	82.06
445.14	163.06
445.361	120.06
445.582	79.06
445.803	76.06
446.024	77.06
446.245	91.06
446.466	77.06
446.687	73.06
446.908	64.06
447.129	82.06
447.35	71.06
447.571	79.06
447.792	74.06
448.013	70.06
448.234	87.06
448.455	74.06
448.675	85.06
448.896	79.06
449.117	83.06
449.338	73.06
449.559	78.06
449.779	88.06
450	84.06
450.221	76.06
450.442	72.06
450.662	77.06
450.883	66.06
451.104	80.06
451.324	85.06
451.545	70.06
451.766	82.06
451.986	80.06
452.207	74.06
452.428	77.06
452.648	69.06
452.869	65.06
453.089	75.06
453.31	92.06
453.53	79.06
453.751	86.06
453.971	71.06
454.192	68.06
454.412	73.06
454.633	81.06
454.853	73.06
455.073	94.06
455.294	82.06
455.514	82.06
455.734	81.06
455.955	77.06
456.175	86.06
456.395	89.06
456.616	91.06
456.836	77.06
457.056	74.06
457.276	73.06
457.497	77.06
457.717	88.06
457.937	72.06
458.157	93.06
458.377	92.06
458.598	76.06
458.818	71.06
459.038	75.06
459.258	57.06
459.478	78.06
459.698	76.06
459.918	74.06
460.138	71.06
460.358	93.06
460.578	97.06
460.798	74.06
461.018	67.06
461.238	83.06
461.458	90.06
461.678	84.06
461.898	93.06
462.118	96.06
462.338	88.06
462.558	84.06
462.777	85.06
462.997	73.06
463.217	85.06
463.437	69.06
463.657	83.06
463.876	81.06
464.096	80.06
464.316	90.06
464.536	77.06
464.755	85.06
464.975	80.06
465.195	77.06
465.414	84.06
465.634	70.06
465.854	85.06
466.073	70.06
466.293	86.06
466.512	91.06
466.732	74.06
466.951	72.06
467.171	83.06
467.391	69.06
467.61	92.06
467.829	74.06
468.049	70.06
468.268	74.06
468.488	72.06
468.707	79.06
468.927	84.06
469.146	92.06
469.365	88.06
469.585	67.06
469.804	77.06
470.023	76.06
470.243	80.06
470.462	81.06
470.681	86.06
470.901	86.06
471.12	83.06
471.339	78.06
471.558	78.06
471.777	68.06
471.997	77.06
472.216	85.06
472.435	86.06
472.654	87.06
472.873	93.06
473.092	70.06
473.311	84.06
473.53	80.06
473.749	68.06
473.968	74.06
474.187	85.06
474.406	89.06
474.625	86.06
474.844	78.06
475.063	81.06
475.282	72.06
475.501	76.06
475.72	77.06
475.939	77.06
476.158	94.06
476.377	78.06
476.596	69.06
476.814	82.06
477.033	80.06
477.252	66.06
477.471	75.06
477.69	68.06
477.908	73.06
478.127	81.06
478.346	76.06
478.564	70.06
478.783	82.06
479.002	77.06
479.22	70.06
479.439	83.06
479.658	80.06
479.876	81.06
480.095	93.06
480.313	87.06
480.532	83.06
480.751	99.06
480.969	84.06
481.188	85.06
481.406	80.06
481.624	73.06
481.843	84.06
482.061	78.06
482.28	81.06
482.498	85.06
482.717	70.06
482.935	82.06
483.153	96.06
483.372	83.06
483.59	94.06
483.808	89.06
484.027	84.06
484.245	78.06
484.463	88.06
484.681	84.06
484.9	88.06
485.118	78.06
485.336	88.06
485.554	84.06
485.772	85.06
485.99	83.06
486.209	92.06
486.427	77.06
486.645	81.06
486.863	83.06
487.081	78.06
487.299	76.06
487.517	81.06
487.735	75.06
487.953	82.06
488.171	92.06
488.389	81.06
488.607	94.06
488.825	91.06
489.043	66.06
489.261	90.06
489.479	89.06
489.696	84.06
489.914	76.06
490.132	84.06
490.35	82.06
490.568	80.06
490.786	81.06
491.003	82.06
491.221	68.06
491.439	75.06
491.657	85.06
491.874	89.06
492.092	84.06
492.31	82.06
492.527	74.06
492.745	79.06
492.963	77.06
493.18	87.06
493.398	82.06
493.615	76.06
493.833	84.06
494.05	91.06
494.268	76.06
494.485	95.06
494.703	83.06
494.92	81.06
495.138	83.06
495.355	84.06
495.573	76.06
495.79	70.06
496.008	79.06
496.225	78.06
496.442	80.06
496.66	89.06
496.877	85.06
497.094	93.06
497.312	76.06
497.529	82.06
497.746	71.06
497.963	88.06
498.181	75.06
498.398	74.06
498.615	80.06
498.832	70.06
499.049	87.06
499.267	90.06
499.484	77.06
499.701	73.06
499.918	78.06
500.135	81.06
500.352	82.06
500.569	76.06
500.786	68.06
501.003	72.06
501.22	74.06
501.437	76.06
501.654	76.06
501.871	77.06
502.088	64.06
502.305	71.06
502.522	80.06
502.739	91.06
502.956	78.06
503.172	80.06
503.389	85.06
503.606	78.06
503.823	85.06
504.04	84.06
504.256	79.06
504.473	91.06
504.69	74.06
504.907	89.06
505.123	70.06
505.34	82.06
505.557	73.06
505.773	76.06
505.99	76.06
506.207	60.06
506.423	70.06
506.64	74.06
506.856	96.06
507.073	79.06
507.289	75.06
507.506	89.06
507.722	84.06
507.939	76.06
508.155	83.06
508.372	92.06
508.588	82.06
508.805	73.06
509.021	77.06
509.238	63.06
509.454	82.06
509.67	74.06
509.887	75.06
510.103	91.06
510.319	90.06
510.536	82.06
510.752	88.06
510.968	79.06
511.184	78.06
511.401	70.06
511.617	89.06
511.833	78.06
512.049	73.06
512.265	71.06
512.481	71.06
512.698	75.06
512.914	88.06
513.13	84.06
513.346	90.06
513.562	76.06
513.778	91.06
513.994	83.06
514.21	80.06
514.426	82.06
514.642	71.06
514.858	59.06
515.074	91.06
515.29	94.06
515.506	88.06
515.721	101.06
515.937	85.06
516.153	84.06
516.369	78.06
516.585	83.06
516.801	85.06
517.016	88.06
517.232	82.06
517.448	90.06
517.664	69.06
517.879	85.06
518.095	79.06
518.311	93.06
518.527	70.06
518.742	73.06
518.958	70.06
519.173	88.06
519.389	82.06
519.605	67.06
519.82	82.06
520.036	73.06
520.251	82.06
