Data from Background_2_HRD10591_00016.txt Node
Date: Wed Nov 05 14:47:05 EST 2025
User: Yrep
Spectrometer: HR+D1059
Trigger mode: 1
Integration Time (sec): 1.000000E-1
Scans to average: 1
Electric dark correction enabled: true
Nonlinearity correction enabled: false
Boxcar width: 0
XAxis mode: Wavelengths
Number of Pixels in Spectrum: 2048
>>>>>Begin Spectral Data<<<<<
223.165	-17.5
223.4	-17.5
223.635	-17.5
223.869	-18.5
224.104	-19.5
224.338	-14.5
224.573	-17.5
224.808	2.5
225.042	-3.5
225.277	-13.5
225.511	2.5
225.746	1.5
225.98	6.5
226.215	18.5
226.449	10.5
226.683	20.5
226.918	21.5
227.152	20.5
227.387	36.5
227.621	42.5
227.856	37.5
228.09	56.5
228.324	53.5
228.559	46.5
228.793	51.5
229.027	61.5
229.262	55.5
229.496	76.5
229.73	60.5
229.964	73.5
230.199	58.5
230.433	62.5
230.667	74.5
230.901	82.5
231.136	78.5
231.37	73.5
231.604	76.5
231.838	70.5
232.072	81.5
232.306	80.5
232.541	74.5
232.775	68.5
233.009	74.5
233.243	92.5
233.477	92.5
233.711	91.5
233.945	82.5
234.179	71.5
234.413	72.5
234.647	84.5
234.881	80.5
235.115	76.5
235.349	85.5
235.583	70.5
235.817	65.5
236.051	84.5
236.285	75.5
236.519	84.5
236.753	83.5
236.987	69.5
237.221	69.5
237.455	67.5
237.689	68.5
237.922	72.5
238.156	78.5
238.39	71.5
238.624	85.5
238.858	74.5
239.091	69.5
239.325	63.5
239.559	80.5
239.793	65.5
240.027	78.5
240.26	76.5
240.494	85.5
240.728	91.5
240.961	86.5
241.195	66.5
241.429	60.5
241.662	74.5
241.896	75.5
242.13	91.5
242.363	76.5
242.597	74.5
242.83	83.5
243.064	68.5
243.298	67.5
243.531	84.5
243.765	78.5
243.998	75.5
244.232	85.5
244.465	74.5
244.699	68.5
244.932	80.5
245.166	66.5
245.399	79.5
245.633	80.5
245.866	85.5
246.099	64.5
246.333	60.5
246.566	84.5
246.8	79.5
247.033	81.5
247.266	76.5
247.5	76.5
247.733	75.5
247.966	80.5
248.2	68.5
248.433	77.5
248.666	68.5
248.899	91.5
249.133	76.5
249.366	77.5
249.599	77.5
249.832	71.5
250.066	84.5
250.299	85.5
250.532	85.5
250.765	84.5
250.998	76.5
251.231	71.5
251.465	70.5
251.698	72.5
251.931	83.5
252.164	68.5
252.397	75.5
252.63	86.5
252.863	79.5
253.096	72.5
253.329	79.5
253.562	84.5
253.795	70.5
254.028	90.5
254.261	92.5
254.494	79.5
254.727	67.5
254.96	75.5
255.193	72.5
255.426	80.5
255.659	83.5
255.892	88.5
256.124	82.5
256.357	60.5
256.59	71.5
256.823	79.5
257.056	74.5
257.289	68.5
257.521	72.5
257.754	77.5
257.987	94.5
258.22	68.5
258.452	80.5
258.685	84.5
258.918	67.5
259.151	80.5
259.383	82.5
259.616	99.5
259.849	88.5
260.081	92.5
260.314	80.5
260.547	62.5
260.779	91.5
261.012	86.5
261.244	85.5
261.477	85.5
261.71	86.5
261.942	80.5
262.175	86.5
262.407	80.5
262.64	85.5
262.872	85.5
263.105	96.5
263.337	78.5
263.57	84.5
263.802	77.5
264.035	75.5
264.267	71.5
264.499	81.5
264.732	82.5
264.964	82.5
265.197	84.5
265.429	81.5
265.661	88.5
265.894	67.5
266.126	73.5
266.358	81.5
266.591	71.5
266.823	79.5
267.055	77.5
267.287	78.5
267.52	75.5
267.752	85.5
267.984	92.5
268.216	72.5
268.448	79.5
268.681	79.5
268.913	83.5
269.145	78.5
269.377	77.5
269.609	83.5
269.841	82.5
270.073	82.5
270.306	82.5
270.538	77.5
270.77	82.5
271.002	76.5
271.234	80.5
271.466	78.5
271.698	88.5
271.93	81.5
272.162	90.5
272.394	83.5
272.626	81.5
272.858	90.5
273.09	76.5
273.322	75.5
273.553	81.5
273.785	84.5
274.017	74.5
274.249	89.5
274.481	78.5
274.713	82.5
274.945	78.5
275.176	69.5
275.408	89.5
275.64	86.5
275.872	86.5
276.104	92.5
276.335	79.5
276.567	85.5
276.799	99.5
277.031	83.5
277.262	80.5
277.494	81.5
277.726	87.5
277.957	90.5
278.189	74.5
278.421	74.5
278.652	63.5
278.884	86.5
279.115	76.5
279.347	81.5
279.579	93.5
279.81	89.5
280.042	93.5
280.273	71.5
280.505	65.5
280.736	96.5
280.968	93.5
281.199	80.5
281.431	78.5
281.662	75.5
281.894	78.5
282.125	77.5
282.356	81.5
282.588	89.5
282.819	71.5
283.051	77.5
283.282	81.5
283.513	87.5
283.745	92.5
283.976	85.5
284.207	82.5
284.439	84.5
284.67	90.5
284.901	82.5
285.132	86.5
285.364	77.5
285.595	78.5
285.826	77.5
286.057	66.5
286.288	70.5
286.52	88.5
286.751	88.5
286.982	86.5
287.213	87.5
287.444	80.5
287.675	68.5
287.906	84.5
288.138	81.5
288.369	76.5
288.6	90.5
288.831	98.5
289.062	78.5
289.293	77.5
289.524	85.5
289.755	78.5
289.986	79.5
290.217	85.5
290.448	88.5
290.679	86.5
290.91	91.5
291.141	93.5
291.371	88.5
291.602	80.5
291.833	76.5
292.064	85.5
292.295	85.5
292.526	77.5
292.757	91.5
292.987	81.5
293.218	84.5
293.449	70.5
293.68	74.5
293.91	81.5
294.141	79.5
294.372	82.5
294.603	87.5
294.833	91.5
295.064	76.5
295.295	93.5
295.525	89.5
295.756	78.5
295.987	80.5
296.217	83.5
296.448	90.5
296.679	94.5
296.909	75.5
297.14	92.5
297.37	90.5
297.601	80.5
297.831	92.5
298.062	74.5
298.292	104.5
298.523	97.5
298.753	94.5
298.984	85.5
299.214	79.5
299.445	79.5
299.675	80.5
299.905	75.5
300.136	75.5
300.366	73.5
300.597	86.5
300.827	78.5
301.057	88.5
301.288	89.5
301.518	82.5
301.748	76.5
301.979	106.5
302.209	84.5
302.439	84.5
302.669	81.5
302.9	74.5
303.13	71.5
303.36	94.5
303.59	78.5
303.82	77.5
304.051	81.5
304.281	87.5
304.511	105.5
304.741	74.5
304.971	66.5
305.201	79.5
305.431	88.5
305.661	80.5
305.891	79.5
306.121	76.5
306.352	94.5
306.582	99.5
306.812	78.5
307.042	81.5
307.272	79.5
307.502	76.5
307.731	92.5
307.961	86.5
308.191	93.5
308.421	86.5
308.651	93.5
308.881	97.5
309.111	80.5
309.341	91.5
309.571	82.5
309.8	82.5
310.03	91.5
310.26	91.5
310.49	76.5
310.72	70.5
310.949	79.5
311.179	85.5
311.409	87.5
311.639	90.5
311.868	97.5
312.098	90.5
312.328	86.5
312.557	87.5
312.787	92.5
313.017	89.5
313.246	78.5
313.476	88.5
313.706	88.5
313.935	89.5
314.165	82.5
314.394	78.5
314.624	86.5
314.853	84.5
315.083	81.5
315.312	84.5
315.542	93.5
315.771	86.5
316.001	77.5
316.23	87.5
316.46	78.5
316.689	66.5
316.919	81.5
317.148	87.5
317.377	78.5
317.607	67.5
317.836	95.5
318.065	74.5
318.295	69.5
318.524	92.5
318.753	67.5
318.983	88.5
319.212	91.5
319.441	85.5
319.67	81.5
319.9	77.5
320.129	77.5
320.358	94.5
320.587	88.5
320.816	68.5
321.046	80.5
321.275	85.5
321.504	104.5
321.733	82.5
321.962	80.5
322.191	73.5
322.42	80.5
322.649	88.5
322.878	88.5
323.108	87.5
323.337	84.5
323.566	96.5
323.795	72.5
324.024	83.5
324.253	76.5
324.482	97.5
324.71	103.5
324.939	105.5
325.168	83.5
325.397	68.5
325.626	86.5
325.855	84.5
326.084	83.5
326.313	86.5
326.542	89.5
326.77	99.5
326.999	86.5
327.228	79.5
327.457	89.5
327.686	84.5
327.914	94.5
328.143	74.5
328.372	84.5
328.6	90.5
328.829	86.5
329.058	89.5
329.287	76.5
329.515	80.5
329.744	83.5
329.972	85.5
330.201	90.5
330.43	80.5
330.658	86.5
330.887	81.5
331.115	89.5
331.344	71.5
331.572	91.5
331.801	83.5
332.03	71.5
332.258	97.5
332.486	84.5
332.715	78.5
332.943	78.5
333.172	71.5
333.4	77.5
333.629	78.5
333.857	85.5
334.085	81.5
334.314	92.5
334.542	81.5
334.771	78.5
334.999	80.5
335.227	82.5
335.455	86.5
335.684	86.5
335.912	96.5
336.14	77.5
336.369	82.5
336.597	89.5
336.825	96.5
337.053	79.5
337.281	77.5
337.51	89.5
337.738	71.5
337.966	98.5
338.194	83.5
338.422	82.5
338.65	85.5
338.878	85.5
339.106	78.5
339.334	85.5
339.562	79.5
339.79	92.5
340.018	87.5
340.246	83.5
340.474	100.5
340.702	81.5
340.93	75.5
341.158	66.5
341.386	72.5
341.614	94.5
341.842	74.5
342.07	86.5
342.298	86.5
342.526	86.5
342.754	74.5
342.981	75.5
343.209	72.5
343.437	91.5
343.665	87.5
343.893	93.5
344.12	79.5
344.348	88.5
344.576	88.5
344.804	81.5
345.031	86.5
345.259	90.5
345.487	81.5
345.714	70.5
345.942	81.5
346.17	84.5
346.397	80.5
346.625	80.5
346.853	84.5
347.08	78.5
347.308	70.5
347.535	78.5
347.763	86.5
347.99	80.5
348.218	85.5
348.445	82.5
348.673	80.5
348.9	74.5
349.128	88.5
349.355	88.5
349.583	89.5
349.81	78.5
350.037	81.5
350.265	91.5
350.492	81.5
350.72	92.5
350.947	87.5
351.174	76.5
351.402	91.5
351.629	89.5
351.856	104.5
352.083	73.5
352.311	81.5
352.538	74.5
352.765	76.5
352.992	81.5
353.22	72.5
353.447	81.5
353.674	78.5
353.901	90.5
354.128	92.5
354.355	82.5
354.583	66.5
354.81	78.5
355.037	81.5
355.264	78.5
355.491	86.5
355.718	85.5
355.945	86.5
356.172	88.5
356.399	79.5
356.626	79.5
356.853	78.5
357.08	82.5
357.307	88.5
357.534	78.5
357.761	96.5
357.988	82.5
358.215	82.5
358.441	89.5
358.668	88.5
358.895	74.5
359.122	73.5
359.349	101.5
359.576	91.5
359.802	78.5
360.029	89.5
360.256	83.5
360.483	80.5
360.709	74.5
360.936	71.5
361.163	84.5
361.39	89.5
361.616	82.5
361.843	89.5
362.07	76.5
362.296	96.5
362.523	75.5
362.749	84.5
362.976	82.5
363.203	94.5
363.429	88.5
363.656	77.5
363.882	77.5
364.109	76.5
364.335	82.5
364.562	88.5
364.788	84.5
365.015	69.5
365.241	80.5
365.468	74.5
365.694	78.5
365.92	89.5
366.147	82.5
366.373	79.5
366.599	74.5
366.826	79.5
367.052	80.5
367.278	90.5
367.505	93.5
367.731	84.5
367.957	78.5
368.184	70.5
368.41	64.5
368.636	80.5
368.862	84.5
369.089	77.5
369.315	90.5
369.541	88.5
369.767	90.5
369.993	81.5
370.219	73.5
370.445	82.5
370.672	86.5
370.898	99.5
371.124	95.5
371.35	69.5
371.576	79.5
371.802	78.5
372.028	70.5
372.254	77.5
372.48	90.5
372.706	72.5
372.932	66.5
373.158	85.5
373.384	84.5
373.61	84.5
373.835	95.5
374.061	87.5
374.287	82.5
374.513	79.5
374.739	96.5
374.965	80.5
375.191	75.5
375.416	90.5
375.642	75.5
375.868	83.5
376.094	88.5
376.319	76.5
376.545	90.5
376.771	91.5
376.997	76.5
377.222	68.5
377.448	70.5
377.674	80.5
377.899	76.5
378.125	83.5
378.35	93.5
378.576	94.5
378.802	82.5
379.027	84.5
379.253	76.5
379.478	72.5
379.704	67.5
379.929	95.5
380.155	89.5
380.38	80.5
380.606	72.5
380.831	81.5
381.057	83.5
381.282	78.5
381.507	92.5
381.733	80.5
381.958	77.5
382.184	79.5
382.409	78.5
382.634	101.5
382.86	76.5
383.085	84.5
383.31	72.5
383.535	78.5
383.761	94.5
383.986	73.5
384.211	75.5
384.436	85.5
384.662	80.5
384.887	82.5
385.112	71.5
385.337	95.5
385.562	72.5
385.787	85.5
386.013	69.5
386.238	76.5
386.463	86.5
386.688	86.5
386.913	75.5
387.138	88.5
387.363	87.5
387.588	85.5
387.813	64.5
388.038	75.5
388.263	67.5
388.488	87.5
388.713	80.5
388.938	71.5
389.163	85.5
389.387	71.5
389.612	82.5
389.837	91.5
390.062	94.5
390.287	88.5
390.512	79.5
390.736	58.5
390.961	97.5
391.186	86.5
391.411	73.5
391.636	68.5
391.86	71.5
392.085	80.5
392.31	90.5
392.534	78.5
392.759	88.5
392.984	80.5
393.208	83.5
393.433	78.5
393.658	59.5
393.882	70.5
394.107	86.5
394.331	80.5
394.556	84.5
394.78	82.5
395.005	84.5
395.229	85.5
395.454	90.5
395.678	76.5
395.903	88.5
396.127	86.5
396.352	83.5
396.576	66.5
396.801	82.5
397.025	93.5
397.249	82.5
397.474	85.5
397.698	86.5
397.922	77.5
398.147	84.5
398.371	81.5
398.595	77.5
398.82	75.5
399.044	86.5
399.268	90.5
399.492	94.5
399.717	95.5
399.941	82.5
400.165	91.5
400.389	88.5
400.613	85.5
400.837	77.5
401.062	86.5
401.286	81.5
401.51	101.5
401.734	79.5
401.958	86.5
402.182	78.5
402.406	83.5
402.63	80.5
402.854	67.5
403.078	80.5
403.302	84.5
403.526	76.5
403.75	83.5
403.974	71.5
404.198	68.5
404.422	73.5
404.645	72.5
404.869	83.5
405.093	86.5
405.317	64.5
405.541	88.5
405.765	78.5
405.988	77.5
406.212	74.5
406.436	83.5
406.66	80.5
406.883	70.5
407.107	77.5
407.331	94.5
407.555	84.5
407.778	90.5
408.002	78.5
408.226	77.5
408.449	92.5
408.673	88.5
408.896	81.5
409.12	90.5
409.344	89.5
409.567	94.5
409.791	72.5
410.014	71.5
410.238	69.5
410.461	78.5
410.685	84.5
410.908	71.5
411.132	86.5
411.355	78.5
411.578	80.5
411.802	78.5
412.025	79.5
412.249	91.5
412.472	88.5
412.695	83.5
412.919	73.5
413.142	86.5
413.365	92.5
413.589	72.5
413.812	80.5
414.035	81.5
414.258	79.5
414.482	72.5
414.705	79.5
414.928	87.5
415.151	89.5
415.374	67.5
415.597	88.5
415.821	79.5
416.044	84.5
416.267	88.5
416.49	80.5
416.713	91.5
416.936	85.5
417.159	76.5
417.382	74.5
417.605	84.5
417.828	80.5
418.051	84.5
418.274	79.5
418.497	76.5
418.72	77.5
418.943	78.5
419.166	77.5
419.389	80.5
419.611	78.5
419.834	85.5
420.057	82.5
420.28	78.5
420.503	81.5
420.726	76.5
420.948	73.5
421.171	78.5
421.394	79.5
421.617	78.5
421.839	77.5
422.062	86.5
422.285	95.5
422.507	83.5
422.73	93.5
422.953	83.5
423.175	81.5
423.398	82.5
423.621	86.5
423.843	76.5
424.066	74.5
424.288	86.5
424.511	81.5
424.733	78.5
424.956	81.5
425.178	98.5
425.401	61.5
425.623	72.5
425.846	71.5
426.068	74.5
426.291	65.5
426.513	78.5
426.735	92.5
426.958	75.5
427.18	72.5
427.402	91.5
427.625	93.5
427.847	83.5
428.069	70.5
428.292	81.5
428.514	65.5
428.736	60.5
428.958	83.5
429.181	83.5
429.403	79.5
429.625	75.5
429.847	79.5
430.069	89.5
430.292	80.5
430.514	68.5
430.736	78.5
430.958	90.5
431.18	84.5
431.402	78.5
431.624	85.5
431.846	75.5
432.068	75.5
432.29	89.5
432.512	80.5
432.734	72.5
432.956	88.5
433.178	85.5
433.4	84.5
433.622	82.5
433.844	72.5
434.066	76.5
434.287	85.5
434.509	71.5
434.731	80.5
434.953	81.5
435.175	78.5
435.397	78.5
435.618	83.5
435.84	78.5
436.062	84.5
436.284	78.5
436.505	78.5
436.727	81.5
436.949	76.5
437.17	65.5
437.392	75.5
437.614	70.5
437.835	80.5
438.057	80.5
438.278	78.5
438.5	85.5
438.721	89.5
438.943	83.5
439.165	80.5
439.386	66.5
439.608	85.5
439.829	60.5
440.05	82.5
440.272	78.5
440.493	78.5
440.715	89.5
440.936	76.5
441.158	70.5
441.379	74.5
441.6	70.5
441.822	70.5
442.043	85.5
442.264	79.5
442.486	84.5
442.707	78.5
442.928	86.5
443.149	74.5
443.371	86.5
443.592	78.5
443.813	77.5
444.034	70.5
444.255	86.5
444.476	68.5
444.698	71.5
444.919	74.5
445.14	164.5
445.361	117.5
445.582	90.5
445.803	87.5
446.024	76.5
446.245	92.5
446.466	82.5
446.687	75.5
446.908	83.5
447.129	87.5
447.35	67.5
447.571	75.5
447.792	85.5
448.013	84.5
448.234	86.5
448.455	75.5
448.675	78.5
448.896	71.5
449.117	82.5
449.338	76.5
449.559	78.5
449.779	81.5
450	72.5
450.221	77.5
450.442	77.5
450.662	95.5
450.883	77.5
451.104	78.5
451.324	88.5
451.545	90.5
451.766	78.5
451.986	73.5
452.207	77.5
452.428	71.5
452.648	91.5
452.869	78.5
453.089	84.5
453.31	63.5
453.53	84.5
453.751	78.5
453.971	76.5
454.192	85.5
454.412	76.5
454.633	85.5
454.853	85.5
455.073	81.5
455.294	77.5
455.514	78.5
455.734	96.5
455.955	83.5
456.175	88.5
456.395	74.5
456.616	77.5
456.836	78.5
457.056	81.5
457.276	95.5
457.497	66.5
457.717	73.5
457.937	79.5
458.157	81.5
458.377	88.5
458.598	78.5
458.818	67.5
459.038	80.5
459.258	80.5
459.478	86.5
459.698	93.5
459.918	70.5
460.138	77.5
460.358	86.5
460.578	68.5
460.798	69.5
461.018	89.5
461.238	90.5
461.458	82.5
461.678	84.5
461.898	86.5
462.118	68.5
462.338	78.5
462.558	79.5
462.777	97.5
462.997	86.5
463.217	89.5
463.437	77.5
463.657	80.5
463.876	88.5
464.096	79.5
464.316	80.5
464.536	82.5
464.755	77.5
464.975	85.5
465.195	87.5
465.414	88.5
465.634	91.5
465.854	92.5
466.073	69.5
466.293	69.5
466.512	83.5
466.732	83.5
466.951	89.5
467.171	84.5
467.391	72.5
467.61	84.5
467.829	75.5
468.049	64.5
468.268	73.5
468.488	77.5
468.707	78.5
468.927	83.5
469.146	84.5
469.365	89.5
469.585	68.5
469.804	79.5
470.023	78.5
470.243	88.5
470.462	79.5
470.681	81.5
470.901	83.5
471.12	78.5
471.339	90.5
471.558	81.5
471.777	83.5
471.997	84.5
472.216	75.5
472.435	79.5
472.654	85.5
472.873	87.5
473.092	70.5
473.311	85.5
473.53	90.5
473.749	87.5
473.968	87.5
474.187	84.5
474.406	73.5
474.625	82.5
474.844	83.5
475.063	83.5
475.282	77.5
475.501	67.5
475.72	85.5
475.939	76.5
476.158	75.5
476.377	73.5
476.596	90.5
476.814	82.5
477.033	81.5
477.252	84.5
477.471	76.5
477.69	76.5
477.908	81.5
478.127	80.5
478.346	85.5
478.564	71.5
478.783	77.5
479.002	82.5
479.22	83.5
479.439	81.5
479.658	83.5
479.876	82.5
480.095	75.5
480.313	75.5
480.532	80.5
480.751	79.5
480.969	74.5
481.188	82.5
481.406	86.5
481.624	83.5
481.843	76.5
482.061	83.5
482.28	91.5
482.498	95.5
482.717	95.5
482.935	90.5
483.153	93.5
483.372	80.5
483.59	79.5
483.808	82.5
484.027	83.5
484.245	87.5
484.463	88.5
484.681	73.5
484.9	82.5
485.118	98.5
485.336	72.5
485.554	80.5
485.772	95.5
485.99	70.5
486.209	73.5
486.427	81.5
486.645	99.5
486.863	100.5
487.081	78.5
487.299	80.5
487.517	81.5
487.735	84.5
487.953	75.5
488.171	74.5
488.389	85.5
488.607	74.5
488.825	77.5
489.043	77.5
489.261	87.5
489.479	87.5
489.696	91.5
489.914	73.5
490.132	84.5
490.35	76.5
490.568	85.5
490.786	89.5
491.003	89.5
491.221	86.5
491.439	80.5
491.657	80.5
491.874	77.5
492.092	80.5
492.31	91.5
492.527	80.5
492.745	83.5
492.963	94.5
493.18	91.5
493.398	78.5
493.615	77.5
493.833	97.5
494.05	60.5
494.268	69.5
494.485	85.5
494.703	86.5
494.92	72.5
495.138	75.5
495.355	86.5
495.573	78.5
495.79	81.5
496.008	70.5
496.225	86.5
496.442	95.5
496.66	74.5
496.877	81.5
497.094	102.5
497.312	75.5
497.529	83.5
497.746	89.5
497.963	77.5
498.181	91.5
498.398	80.5
498.615	93.5
498.832	82.5
499.049	75.5
499.267	76.5
499.484	73.5
499.701	77.5
499.918	83.5
500.135	76.5
500.352	80.5
500.569	80.5
500.786	92.5
501.003	96.5
501.22	83.5
501.437	70.5
501.654	68.5
501.871	79.5
502.088	81.5
502.305	93.5
502.522	105.5
502.739	77.5
502.956	90.5
503.172	76.5
503.389	78.5
503.606	79.5
503.823	83.5
504.04	84.5
504.256	104.5
504.473	75.5
504.69	81.5
504.907	93.5
505.123	85.5
505.34	86.5
505.557	80.5
505.773	79.5
505.99	77.5
506.207	73.5
506.423	80.5
506.64	78.5
506.856	90.5
507.073	83.5
507.289	85.5
507.506	71.5
507.722	72.5
507.939	82.5
508.155	84.5
508.372	77.5
508.588	80.5
508.805	89.5
509.021	72.5
509.238	77.5
509.454	80.5
509.67	73.5
509.887	82.5
510.103	84.5
510.319	94.5
510.536	83.5
510.752	65.5
510.968	67.5
511.184	87.5
511.401	78.5
511.617	79.5
511.833	93.5
512.049	81.5
512.265	81.5
512.481	90.5
512.698	81.5
512.914	79.5
513.13	82.5
513.346	82.5
513.562	82.5
513.778	87.5
513.994	76.5
514.21	100.5
514.426	88.5
514.642	80.5
514.858	82.5
515.074	85.5
515.29	76.5
515.506	89.5
515.721	82.5
515.937	78.5
516.153	87.5
516.369	80.5
516.585	95.5
516.801	58.5
517.016	88.5
517.232	81.5
517.448	92.5
517.664	76.5
517.879	82.5
518.095	84.5
518.311	88.5
518.527	78.5
518.742	90.5
518.958	93.5
519.173	76.5
519.389	85.5
519.605	75.5
519.82	78.5
520.036	79.5
520.251	94.5
520.467	83.5
520.682	79.5
520.898	81.5
521.113	86.5
521.329	94.5
521.544	89.5
521.76	89.5
521.975	73.5
522.19	100.5
522.406	82.5
522.621	90.5
522.836	77.5
523.052	96.5
523.267	84.5
523.482	98.5
523.698	83.5
523.913	81.5
524.128	83.5
524.343	76.5
524.559	79.5
524.774	92.5
524.989	81.5
525.204	88.5
525.419	77.5
525.634	83.5
525.849	81.5
526.064	92.5
526.28	88.5
526.495	77.5
526.71	76.5
526.925	76.5
527.14	79.5
527.355	87.5
527.57	80.5
527.785	86.5
527.999	79.5
528.214	88.5
528.429	85.5
528.644	83.5
528.859	82.5
529.074	98.5
529.289	75.5
529.503	98.5
529.718	90.5
529.933	77.5
530.148	82.5
530.363	82.5
530.577	86.5
530.792	84.5
531.007	78.5
531.221	96.5
531.436	78.5
531.651	90.5
531.865	92.5
532.08	94.5
532.295	81.5
532.509	88.5
532.724	80.5
532.938	83.5
533.153	78.5
533.367	89.5
533.582	85.5
533.796	81.5
534.011	80.5
534.225	67.5
534.44	90.5
534.654	86.5
534.868	82.5
535.083	86.5
535.297	76.5
535.511	76.5
535.726	86.5
535.94	102.5
536.154	68.5
536.369	80.5
536.583	77.5
536.797	82.5
537.011	77.5
537.225	74.5
537.44	82.5
537.654	89.5
537.868	79.5
538.082	77.5
538.296	91.5
538.51	68.5
538.724	86.5
538.938	90.5
539.153	79.5
539.367	79.5
539.581	79.5
539.795	93.5
540.009	82.5
540.222	81.5
540.436	89.5
