Data from Background_2_HRD10591_00083.txt Node
Date: Wed Nov 05 14:47:37 EST 2025
User: Yrep
Spectrometer: HR+D1059
Trigger mode: 1
Integration Time (sec): 1.000000E-1
Scans to average: 1
Electric dark correction enabled: true
Nonlinearity correction enabled: false
Boxcar width: 0
XAxis mode: Wavelengths
Number of Pixels in Spectrum: 2048
>>>>>Begin Spectral Data<<<<<
223.165	-6.12
223.4	-6.12
223.635	-6.12
223.869	-30.12
224.104	-20.12
224.338	-16.12
224.573	-21.12
224.808	-18.12
225.042	-5.12
225.277	-8.12
225.511	-4.12
225.746	13.88
225.98	12.88
226.215	8.88
226.449	5.88
226.683	33.88
226.918	16.88
227.152	36.88
227.387	33.88
227.621	36.88
227.856	43.88
228.09	34.88
228.324	51.88
228.559	62.88
228.793	67.88
229.027	61.88
229.262	60.88
229.496	70.88
229.73	66.88
229.964	57.88
230.199	68.88
230.433	73.88
230.667	64.88
230.901	92.88
231.136	73.88
231.37	72.88
231.604	80.88
231.838	81.88
232.072	84.88
232.306	90.88
232.541	67.88
232.775	79.88
233.009	68.88
233.243	88.88
233.477	79.88
233.711	88.88
233.945	69.88
234.179	77.88
234.413	84.88
234.647	86.88
234.881	75.88
235.115	71.88
235.349	82.88
235.583	83.88
235.817	75.88
236.051	71.88
236.285	68.88
236.519	84.88
236.753	75.88
236.987	72.88
237.221	76.88
237.455	75.88
237.689	76.88
237.922	75.88
238.156	80.88
238.39	75.88
238.624	71.88
238.858	80.88
239.091	64.88
239.325	67.88
239.559	70.88
239.793	79.88
240.027	81.88
240.26	83.88
240.494	75.88
240.728	87.88
240.961	78.88
241.195	84.88
241.429	64.88
241.662	82.88
241.896	69.88
242.13	73.88
242.363	52.88
242.597	74.88
242.83	80.88
243.064	87.88
243.298	83.88
243.531	86.88
243.765	75.88
243.998	83.88
244.232	73.88
244.465	77.88
244.699	67.88
244.932	79.88
245.166	84.88
245.399	81.88
245.633	75.88
245.866	82.88
246.099	76.88
246.333	77.88
246.566	58.88
246.8	73.88
247.033	79.88
247.266	68.88
247.5	90.88
247.733	75.88
247.966	70.88
248.2	60.88
248.433	79.88
248.666	61.88
248.899	79.88
249.133	91.88
249.366	78.88
249.599	67.88
249.832	73.88
250.066	88.88
250.299	73.88
250.532	90.88
250.765	76.88
250.998	68.88
251.231	73.88
251.465	75.88
251.698	79.88
251.931	80.88
252.164	69.88
252.397	73.88
252.63	68.88
252.863	62.88
253.096	64.88
253.329	69.88
253.562	64.88
253.795	77.88
254.028	81.88
254.261	74.88
254.494	76.88
254.727	85.88
254.96	75.88
255.193	87.88
255.426	61.88
255.659	78.88
255.892	79.88
256.124	81.88
256.357	69.88
256.59	89.88
256.823	72.88
257.056	90.88
257.289	83.88
257.521	92.88
257.754	75.88
257.987	77.88
258.22	81.88
258.452	83.88
258.685	84.88
258.918	83.88
259.151	71.88
259.383	83.88
259.616	76.88
259.849	75.88
260.081	77.88
260.314	95.88
260.547	81.88
260.779	80.88
261.012	77.88
261.244	86.88
261.477	92.88
261.71	79.88
261.942	79.88
262.175	74.88
262.407	75.88
262.64	86.88
262.872	80.88
263.105	82.88
263.337	85.88
263.57	83.88
263.802	82.88
264.035	84.88
264.267	89.88
264.499	89.88
264.732	89.88
264.964	90.88
265.197	73.88
265.429	76.88
265.661	96.88
265.894	88.88
266.126	85.88
266.358	88.88
266.591	88.88
266.823	70.88
267.055	78.88
267.287	87.88
267.52	73.88
267.752	87.88
267.984	86.88
268.216	84.88
268.448	80.88
268.681	78.88
268.913	87.88
269.145	66.88
269.377	75.88
269.609	75.88
269.841	99.88
270.073	85.88
270.306	85.88
270.538	80.88
270.77	84.88
271.002	86.88
271.234	88.88
271.466	83.88
271.698	72.88
271.93	82.88
272.162	90.88
272.394	90.88
272.626	82.88
272.858	84.88
273.09	82.88
273.322	95.88
273.553	77.88
273.785	63.88
274.017	78.88
274.249	84.88
274.481	75.88
274.713	82.88
274.945	96.88
275.176	87.88
275.408	67.88
275.64	69.88
275.872	71.88
276.104	75.88
276.335	76.88
276.567	75.88
276.799	85.88
277.031	88.88
277.262	96.88
277.494	81.88
277.726	96.88
277.957	73.88
278.189	79.88
278.421	85.88
278.652	82.88
278.884	78.88
279.115	83.88
279.347	75.88
279.579	69.88
279.81	76.88
280.042	94.88
280.273	94.88
280.505	79.88
280.736	93.88
280.968	83.88
281.199	79.88
281.431	68.88
281.662	85.88
281.894	79.88
282.125	75.88
282.356	74.88
282.588	76.88
282.819	75.88
283.051	83.88
283.282	73.88
283.513	83.88
283.745	91.88
283.976	75.88
284.207	75.88
284.439	84.88
284.67	84.88
284.901	79.88
285.132	79.88
285.364	76.88
285.595	87.88
285.826	81.88
286.057	88.88
286.288	66.88
286.52	83.88
286.751	84.88
286.982	81.88
287.213	90.88
287.444	78.88
287.675	75.88
287.906	89.88
288.138	91.88
288.369	71.88
288.6	74.88
288.831	87.88
289.062	81.88
289.293	79.88
289.524	87.88
289.755	77.88
289.986	81.88
290.217	73.88
290.448	69.88
290.679	93.88
290.91	64.88
291.141	72.88
291.371	99.88
291.602	75.88
291.833	78.88
292.064	79.88
292.295	88.88
292.526	84.88
292.757	85.88
292.987	67.88
293.218	90.88
293.449	76.88
293.68	89.88
293.91	79.88
294.141	100.88
294.372	77.88
294.603	89.88
294.833	82.88
295.064	92.88
295.295	91.88
295.525	70.88
295.756	68.88
295.987	89.88
296.217	87.88
296.448	91.88
296.679	81.88
296.909	87.88
297.14	86.88
297.37	91.88
297.601	77.88
297.831	88.88
298.062	89.88
298.292	69.88
298.523	80.88
298.753	66.88
298.984	84.88
299.214	77.88
299.445	69.88
299.675	77.88
299.905	94.88
300.136	86.88
300.366	82.88
300.597	95.88
300.827	89.88
301.057	86.88
301.288	79.88
301.518	82.88
301.748	80.88
301.979	86.88
302.209	87.88
302.439	81.88
302.669	83.88
302.9	98.88
303.13	88.88
303.36	98.88
303.59	83.88
303.82	92.88
304.051	81.88
304.281	92.88
304.511	88.88
304.741	82.88
304.971	61.88
305.201	76.88
305.431	89.88
305.661	88.88
305.891	76.88
306.121	81.88
306.352	87.88
306.582	86.88
306.812	80.88
307.042	89.88
307.272	88.88
307.502	89.88
307.731	70.88
307.961	86.88
308.191	83.88
308.421	94.88
308.651	87.88
308.881	82.88
309.111	99.88
309.341	70.88
309.571	74.88
309.8	84.88
310.03	81.88
310.26	82.88
310.49	83.88
310.72	90.88
310.949	87.88
311.179	90.88
311.409	84.88
311.639	91.88
311.868	89.88
312.098	92.88
312.328	80.88
312.557	84.88
312.787	88.88
313.017	80.88
313.246	73.88
313.476	95.88
313.706	88.88
313.935	83.88
314.165	68.88
314.394	97.88
314.624	95.88
314.853	82.88
315.083	80.88
315.312	73.88
315.542	95.88
315.771	81.88
316.001	79.88
316.23	88.88
316.46	84.88
316.689	87.88
316.919	79.88
317.148	83.88
317.377	102.88
317.607	69.88
317.836	75.88
318.065	92.88
318.295	75.88
318.524	93.88
318.753	84.88
318.983	85.88
319.212	93.88
319.441	86.88
319.67	89.88
319.9	68.88
320.129	77.88
320.358	80.88
320.587	95.88
320.816	93.88
321.046	82.88
321.275	87.88
321.504	77.88
321.733	74.88
321.962	89.88
322.191	80.88
322.42	85.88
322.649	83.88
322.878	83.88
323.108	92.88
323.337	82.88
323.566	82.88
323.795	88.88
324.024	82.88
324.253	87.88
324.482	80.88
324.71	76.88
324.939	101.88
325.168	88.88
325.397	87.88
325.626	84.88
325.855	74.88
326.084	61.88
326.313	91.88
326.542	89.88
326.77	77.88
326.999	84.88
327.228	88.88
327.457	81.88
327.686	81.88
327.914	85.88
328.143	76.88
328.372	84.88
328.6	80.88
328.829	91.88
329.058	71.88
329.287	79.88
329.515	90.88
329.744	75.88
329.972	92.88
330.201	90.88
330.43	90.88
330.658	94.88
330.887	87.88
331.115	79.88
331.344	80.88
331.572	75.88
331.801	89.88
332.03	84.88
332.258	99.88
332.486	83.88
332.715	88.88
332.943	80.88
333.172	69.88
333.4	83.88
333.629	97.88
333.857	68.88
334.085	77.88
334.314	77.88
334.542	92.88
334.771	70.88
334.999	88.88
335.227	85.88
335.455	83.88
335.684	87.88
335.912	69.88
336.14	75.88
336.369	88.88
336.597	80.88
336.825	96.88
337.053	89.88
337.281	98.88
337.51	70.88
337.738	95.88
337.966	96.88
338.194	78.88
338.422	94.88
338.65	90.88
338.878	88.88
339.106	90.88
339.334	90.88
339.562	76.88
339.79	78.88
340.018	77.88
340.246	85.88
340.474	90.88
340.702	86.88
340.93	91.88
341.158	71.88
341.386	76.88
341.614	74.88
341.842	89.88
342.07	89.88
342.298	68.88
342.526	91.88
342.754	80.88
342.981	90.88
343.209	83.88
343.437	98.88
343.665	84.88
343.893	85.88
344.12	84.88
344.348	90.88
344.576	78.88
344.804	90.88
345.031	94.88
345.259	75.88
345.487	75.88
345.714	91.88
345.942	87.88
346.17	80.88
346.397	75.88
346.625	75.88
346.853	73.88
347.08	88.88
347.308	79.88
347.535	73.88
347.763	87.88
347.99	90.88
348.218	88.88
348.445	97.88
348.673	77.88
348.9	83.88
349.128	90.88
349.355	84.88
349.583	83.88
349.81	77.88
350.037	82.88
350.265	75.88
350.492	75.88
350.72	91.88
350.947	81.88
351.174	82.88
351.402	78.88
351.629	76.88
351.856	88.88
352.083	79.88
352.311	89.88
352.538	69.88
352.765	77.88
352.992	96.88
353.22	103.88
353.447	87.88
353.674	88.88
353.901	87.88
354.128	83.88
354.355	78.88
354.583	82.88
354.81	88.88
355.037	87.88
355.264	89.88
355.491	87.88
355.718	76.88
355.945	89.88
356.172	82.88
356.399	81.88
356.626	86.88
356.853	77.88
357.08	87.88
357.307	79.88
357.534	98.88
357.761	86.88
357.988	96.88
358.215	87.88
358.441	80.88
358.668	79.88
358.895	80.88
359.122	87.88
359.349	80.88
359.576	85.88
359.802	79.88
360.029	89.88
360.256	90.88
360.483	79.88
360.709	77.88
360.936	87.88
361.163	83.88
361.39	98.88
361.616	96.88
361.843	80.88
362.07	102.88
362.296	77.88
362.523	66.88
362.749	81.88
362.976	75.88
363.203	80.88
363.429	79.88
363.656	78.88
363.882	89.88
364.109	81.88
364.335	81.88
364.562	71.88
364.788	71.88
365.015	91.88
365.241	89.88
365.468	95.88
365.694	85.88
365.92	83.88
366.147	77.88
366.373	82.88
366.599	83.88
366.826	81.88
367.052	68.88
367.278	103.88
367.505	76.88
367.731	93.88
367.957	95.88
368.184	80.88
368.41	70.88
368.636	100.88
368.862	84.88
369.089	94.88
369.315	94.88
369.541	92.88
369.767	78.88
369.993	91.88
370.219	87.88
370.445	71.88
370.672	81.88
370.898	83.88
371.124	84.88
371.35	68.88
371.576	72.88
371.802	79.88
372.028	82.88
372.254	81.88
372.48	76.88
372.706	75.88
372.932	78.88
373.158	88.88
373.384	74.88
373.61	89.88
373.835	83.88
374.061	79.88
374.287	65.88
374.513	78.88
374.739	85.88
374.965	96.88
375.191	72.88
375.416	95.88
375.642	80.88
375.868	89.88
376.094	85.88
376.319	88.88
376.545	81.88
376.771	88.88
376.997	82.88
377.222	85.88
377.448	88.88
377.674	85.88
377.899	83.88
378.125	67.88
378.35	89.88
378.576	71.88
378.802	84.88
379.027	82.88
379.253	69.88
379.478	73.88
379.704	84.88
379.929	76.88
380.155	85.88
380.38	84.88
380.606	80.88
380.831	104.88
381.057	95.88
381.282	83.88
381.507	81.88
381.733	84.88
381.958	84.88
382.184	76.88
382.409	96.88
382.634	85.88
382.86	69.88
383.085	88.88
383.31	84.88
383.535	68.88
383.761	81.88
383.986	75.88
384.211	92.88
384.436	82.88
384.662	69.88
384.887	65.88
385.112	88.88
385.337	93.88
385.562	76.88
385.787	75.88
386.013	83.88
386.238	85.88
386.463	80.88
386.688	96.88
386.913	79.88
387.138	89.88
387.363	89.88
387.588	84.88
387.813	90.88
388.038	73.88
388.263	91.88
388.488	79.88
388.713	88.88
388.938	84.88
389.163	78.88
389.387	90.88
389.612	72.88
389.837	88.88
390.062	85.88
390.287	77.88
390.512	87.88
390.736	80.88
390.961	88.88
391.186	88.88
391.411	78.88
391.636	80.88
391.86	93.88
392.085	93.88
392.31	83.88
392.534	93.88
392.759	77.88
392.984	77.88
393.208	90.88
393.433	82.88
393.658	73.88
393.882	75.88
394.107	90.88
394.331	94.88
394.556	91.88
394.78	71.88
395.005	77.88
395.229	75.88
395.454	91.88
395.678	75.88
395.903	78.88
396.127	82.88
396.352	84.88
396.576	77.88
396.801	85.88
397.025	76.88
397.249	79.88
397.474	105.88
397.698	73.88
397.922	93.88
398.147	99.88
398.371	91.88
398.595	83.88
398.82	78.88
399.044	70.88
399.268	76.88
399.492	80.88
399.717	85.88
399.941	77.88
400.165	73.88
400.389	79.88
400.613	84.88
400.837	77.88
401.062	82.88
401.286	73.88
401.51	95.88
401.734	86.88
401.958	88.88
402.182	80.88
402.406	84.88
402.63	90.88
402.854	78.88
403.078	75.88
403.302	79.88
403.526	68.88
403.75	81.88
403.974	79.88
404.198	76.88
404.422	89.88
404.645	80.88
404.869	66.88
405.093	79.88
405.317	93.88
405.541	80.88
405.765	93.88
405.988	75.88
406.212	77.88
406.436	88.88
406.66	86.88
406.883	85.88
407.107	92.88
407.331	83.88
407.555	79.88
407.778	78.88
408.002	78.88
408.226	71.88
408.449	79.88
408.673	74.88
408.896	87.88
409.12	87.88
409.344	79.88
409.567	65.88
409.791	84.88
410.014	84.88
410.238	92.88
410.461	77.88
410.685	90.88
410.908	72.88
411.132	67.88
411.355	71.88
411.578	75.88
411.802	72.88
412.025	84.88
412.249	87.88
412.472	73.88
412.695	85.88
412.919	86.88
413.142	93.88
413.365	83.88
413.589	73.88
413.812	80.88
414.035	101.88
414.258	74.88
414.482	73.88
414.705	79.88
414.928	90.88
415.151	82.88
415.374	77.88
415.597	94.88
415.821	83.88
416.044	84.88
416.267	94.88
416.49	76.88
416.713	90.88
416.936	92.88
417.159	84.88
417.382	74.88
417.605	79.88
417.828	87.88
418.051	79.88
418.274	87.88
418.497	90.88
418.72	91.88
418.943	81.88
419.166	75.88
419.389	82.88
419.611	81.88
419.834	88.88
420.057	71.88
420.28	92.88
420.503	73.88
420.726	82.88
420.948	68.88
421.171	60.88
421.394	59.88
421.617	68.88
421.839	84.88
422.062	69.88
422.285	92.88
422.507	84.88
422.73	86.88
422.953	69.88
423.175	64.88
423.398	79.88
423.621	87.88
423.843	85.88
424.066	73.88
424.288	85.88
424.511	77.88
424.733	79.88
424.956	75.88
425.178	70.88
425.401	63.88
425.623	82.88
425.846	85.88
426.068	77.88
426.291	84.88
426.513	92.88
426.735	95.88
426.958	88.88
427.18	85.88
427.402	77.88
427.625	74.88
427.847	91.88
428.069	86.88
428.292	71.88
428.514	91.88
428.736	85.88
428.958	81.88
429.181	88.88
429.403	71.88
429.625	74.88
429.847	84.88
430.069	87.88
430.292	77.88
430.514	75.88
430.736	79.88
430.958	73.88
431.18	75.88
431.402	78.88
431.624	77.88
431.846	88.88
432.068	79.88
432.29	81.88
432.512	64.88
432.734	76.88
432.956	81.88
433.178	88.88
433.4	87.88
433.622	76.88
433.844	83.88
434.066	77.88
434.287	77.88
434.509	68.88
434.731	71.88
434.953	79.88
435.175	66.88
435.397	91.88
435.618	84.88
435.84	83.88
436.062	80.88
436.284	74.88
436.505	83.88
436.727	64.88
436.949	78.88
437.17	86.88
437.392	91.88
437.614	77.88
437.835	77.88
438.057	72.88
438.278	85.88
438.5	80.88
438.721	77.88
438.943	87.88
439.165	83.88
439.386	88.88
439.608	83.88
439.829	86.88
440.05	81.88
440.272	76.88
440.493	71.88
440.715	70.88
440.936	93.88
441.158	79.88
441.379	89.88
441.6	77.88
441.822	75.88
442.043	82.88
442.264	84.88
442.486	75.88
442.707	88.88
442.928	82.88
443.149	82.88
443.371	74.88
443.592	89.88
443.813	78.88
444.034	83.88
444.255	83.88
444.476	88.88
444.698	83.88
444.919	81.88
445.14	161.88
445.361	120.88
445.582	100.88
445.803	75.88
446.024	81.88
446.245	75.88
446.466	89.88
446.687	69.88
446.908	75.88
447.129	60.88
447.35	84.88
447.571	82.88
447.792	82.88
448.013	83.88
448.234	81.88
448.455	81.88
448.675	70.88
448.896	80.88
449.117	80.88
449.338	83.88
449.559	87.88
449.779	69.88
450	79.88
450.221	71.88
450.442	95.88
450.662	88.88
450.883	82.88
451.104	81.88
451.324	75.88
451.545	85.88
451.766	71.88
451.986	85.88
452.207	68.88
452.428	79.88
452.648	88.88
452.869	89.88
453.089	85.88
453.31	82.88
453.53	83.88
453.751	79.88
453.971	72.88
454.192	82.88
454.412	69.88
454.633	81.88
454.853	62.88
455.073	77.88
455.294	89.88
455.514	80.88
455.734	79.88
455.955	75.88
456.175	88.88
456.395	89.88
456.616	84.88
456.836	79.88
457.056	89.88
457.276	79.88
457.497	80.88
457.717	72.88
457.937	83.88
458.157	84.88
458.377	75.88
458.598	81.88
458.818	81.88
459.038	83.88
459.258	88.88
459.478	89.88
459.698	75.88
459.918	92.88
460.138	95.88
460.358	87.88
460.578	82.88
460.798	77.88
461.018	76.88
461.238	83.88
461.458	87.88
461.678	77.88
461.898	90.88
462.118	93.88
462.338	93.88
462.558	89.88
462.777	70.88
462.997	80.88
463.217	89.88
463.437	83.88
463.657	84.88
463.876	80.88
464.096	64.88
464.316	77.88
464.536	78.88
464.755	71.88
464.975	82.88
465.195	77.88
465.414	77.88
465.634	80.88
465.854	77.88
466.073	73.88
466.293	75.88
466.512	79.88
466.732	78.88
466.951	64.88
467.171	80.88
467.391	73.88
467.61	70.88
467.829	86.88
468.049	80.88
468.268	87.88
468.488	84.88
468.707	81.88
468.927	84.88
469.146	77.88
469.365	84.88
469.585	82.88
469.804	88.88
470.023	80.88
470.243	87.88
470.462	71.88
470.681	79.88
470.901	84.88
471.12	75.88
471.339	96.88
471.558	70.88
471.777	70.88
471.997	85.88
472.216	83.88
472.435	72.88
472.654	82.88
472.873	94.88
473.092	75.88
473.311	79.88
473.53	82.88
473.749	84.88
473.968	80.88
474.187	81.88
474.406	83.88
474.625	87.88
474.844	77.88
475.063	72.88
475.282	65.88
475.501	73.88
475.72	81.88
475.939	77.88
476.158	89.88
476.377	85.88
476.596	68.88
476.814	91.88
477.033	69.88
477.252	81.88
477.471	73.88
477.69	93.88
477.908	85.88
478.127	94.88
478.346	91.88
478.564	80.88
478.783	65.88
479.002	77.88
479.22	81.88
479.439	79.88
479.658	79.88
479.876	70.88
480.095	70.88
480.313	79.88
480.532	81.88
480.751	77.88
480.969	95.88
481.188	72.88
481.406	76.88
481.624	78.88
481.843	89.88
482.061	85.88
482.28	88.88
482.498	84.88
482.717	83.88
482.935	82.88
483.153	79.88
483.372	75.88
483.59	77.88
483.808	84.88
484.027	88.88
484.245	91.88
484.463	73.88
484.681	95.88
484.9	70.88
485.118	92.88
485.336	83.88
485.554	83.88
485.772	74.88
485.99	87.88
486.209	92.88
486.427	79.88
486.645	84.88
486.863	75.88
487.081	77.88
487.299	89.88
487.517	89.88
487.735	76.88
487.953	81.88
488.171	84.88
488.389	94.88
488.607	76.88
488.825	91.88
489.043	82.88
489.261	79.88
489.479	84.88
489.696	84.88
489.914	84.88
490.132	75.88
490.35	76.88
490.568	83.88
490.786	80.88
491.003	70.88
491.221	78.88
491.439	80.88
491.657	88.88
491.874	90.88
492.092	90.88
492.31	84.88
492.527	88.88
492.745	92.88
492.963	79.88
493.18	80.88
493.398	71.88
493.615	74.88
493.833	85.88
494.05	88.88
494.268	84.88
494.485	83.88
494.703	89.88
494.92	69.88
495.138	79.88
495.355	84.88
495.573	92.88
495.79	76.88
496.008	85.88
496.225	78.88
496.442	69.88
496.66	83.88
496.877	72.88
497.094	74.88
497.312	89.88
497.529	85.88
497.746	64.88
497.963	79.88
498.181	80.88
498.398	88.88
498.615	82.88
498.832	89.88
499.049	92.88
499.267	91.88
499.484	83.88
499.701	84.88
499.918	73.88
500.135	68.88
500.352	89.88
500.569	80.88
500.786	79.88
501.003	93.88
501.22	79.88
501.437	79.88
501.654	81.88
501.871	90.88
502.088	92.88
502.305	83.88
502.522	80.88
502.739	79.88
502.956	75.88
503.172	85.88
503.389	72.88
503.606	82.88
503.823	84.88
504.04	105.88
504.256	89.88
504.473	82.88
504.69	74.88
504.907	89.88
505.123	76.88
505.34	90.88
505.557	68.88
505.773	87.88
505.99	71.88
506.207	78.88
506.423	80.88
506.64	81.88
506.856	87.88
507.073	81.88
507.289	71.88
507.506	88.88
507.722	68.88
507.939	84.88
508.155	85.88
508.372	75.88
508.588	95.88
508.805	86.88
509.021	66.88
509.238	91.88
509.454	83.88
509.67	96.88
509.887	83.88
510.103	76.88
510.319	70.88
510.536	80.88
510.752	81.88
510.968	72.88
511.184	74.88
511.401	77.88
511.617	82.88
511.833	84.88
512.049	97.88
512.265	99.88
512.481	103.88
512.698	77.88
512.914	88.88
513.13	75.88
513.346	77.88
513.562	82.88
513.778	91.88
513.994	75.88
514.21	91.88
514.426	82.88
514.642	87.88
514.858	68.88
515.074	83.88
515.29	71.88
515.506	73.88
515.721	75.88
515.937	71.88
516.153	84.88
516.369	68.88
516.585	75.88
516.801	89.88
517.016	97.88
517.232	88.88
517.448	86.88
517.664	79.88
517.879	75.88
518.095	78.88
518.311	71.88
518.527	90.88
518.742	89.88
518.958	75.88
519.173	66.88
519.389	79.88
519.605	79.88
519.82	81.88
520.036	82.88
