Data from Background_2_HRD10591_00029.txt Node
Date: Wed Nov 05 14:47:11 EST 2025
User: Yrep
Spectrometer: HR+D1059
Trigger mode: 1
Integration Time (sec): 1.000000E-1
Scans to average: 1
Electric dark correction enabled: true
Nonlinearity correction enabled: false
Boxcar width: 0
XAxis mode: Wavelengths
Number of Pixels in Spectrum: 2048
>>>>>Begin Spectral Data<<<<<
223.165	-23.69
223.4	-23.69
223.635	-23.69
223.869	-11.69
224.104	-13.69
224.338	-6.69
224.573	-21.69
224.808	-14.69
225.042	-10.69
225.277	-1.69
225.511	-10.69
225.746	-0.69
225.98	-5.69
226.215	8.31
226.449	12.31
226.683	31.31
226.918	33.31
227.152	36.31
227.387	40.31
227.621	35.31
227.856	46.31
228.09	57.31
228.324	51.31
228.559	58.31
228.793	60.31
229.027	72.31
229.262	54.31
229.496	64.31
229.73	61.31
229.964	51.31
230.199	67.31
230.433	82.31
230.667	83.31
230.901	92.31
231.136	79.31
231.37	87.31
231.604	82.31
231.838	78.31
232.072	80.31
232.306	93.31
232.541	76.31
232.775	75.31
233.009	88.31
233.243	70.31
233.477	80.31
233.711	83.31
233.945	79.31
234.179	79.31
234.413	76.31
234.647	67.31
234.881	69.31
235.115	66.31
235.349	62.31
235.583	87.31
235.817	86.31
236.051	72.31
236.285	78.31
236.519	71.31
236.753	86.31
236.987	70.31
237.221	69.31
237.455	73.31
237.689	76.31
237.922	67.31
238.156	72.31
238.39	63.31
238.624	82.31
238.858	70.31
239.091	68.31
239.325	91.31
239.559	88.31
239.793	61.31
240.027	68.31
240.26	74.31
240.494	69.31
240.728	75.31
240.961	54.31
241.195	78.31
241.429	85.31
241.662	80.31
241.896	80.31
242.13	82.31
242.363	70.31
242.597	86.31
242.83	81.31
243.064	74.31
243.298	80.31
243.531	72.31
243.765	67.31
243.998	78.31
244.232	89.31
244.465	79.31
244.699	80.31
244.932	72.31
245.166	86.31
245.399	80.31
245.633	80.31
245.866	79.31
246.099	64.31
246.333	77.31
246.566	74.31
246.8	75.31
247.033	74.31
247.266	82.31
247.5	75.31
247.733	86.31
247.966	92.31
248.2	84.31
248.433	93.31
248.666	74.31
248.899	72.31
249.133	86.31
249.366	86.31
249.599	75.31
249.832	86.31
250.066	88.31
250.299	68.31
250.532	79.31
250.765	72.31
250.998	85.31
251.231	74.31
251.465	94.31
251.698	82.31
251.931	79.31
252.164	78.31
252.397	78.31
252.63	77.31
252.863	68.31
253.096	62.31
253.329	78.31
253.562	86.31
253.795	69.31
254.028	79.31
254.261	62.31
254.494	73.31
254.727	68.31
254.96	78.31
255.193	73.31
255.426	66.31
255.659	77.31
255.892	76.31
256.124	67.31
256.357	87.31
256.59	71.31
256.823	80.31
257.056	83.31
257.289	65.31
257.521	80.31
257.754	78.31
257.987	70.31
258.22	87.31
258.452	79.31
258.685	67.31
258.918	72.31
259.151	72.31
259.383	86.31
259.616	103.31
259.849	69.31
260.081	74.31
260.314	78.31
260.547	70.31
260.779	88.31
261.012	78.31
261.244	73.31
261.477	73.31
261.71	80.31
261.942	72.31
262.175	80.31
262.407	91.31
262.64	75.31
262.872	62.31
263.105	85.31
263.337	78.31
263.57	76.31
263.802	84.31
264.035	86.31
264.267	78.31
264.499	80.31
264.732	83.31
264.964	80.31
265.197	88.31
265.429	88.31
265.661	89.31
265.894	91.31
266.126	74.31
266.358	79.31
266.591	80.31
266.823	74.31
267.055	70.31
267.287	105.31
267.52	84.31
267.752	85.31
267.984	68.31
268.216	75.31
268.448	94.31
268.681	73.31
268.913	86.31
269.145	77.31
269.377	75.31
269.609	99.31
269.841	88.31
270.073	90.31
270.306	86.31
270.538	71.31
270.77	81.31
271.002	89.31
271.234	76.31
271.466	84.31
271.698	90.31
271.93	75.31
272.162	67.31
272.394	84.31
272.626	74.31
272.858	64.31
273.09	83.31
273.322	72.31
273.553	74.31
273.785	75.31
274.017	81.31
274.249	74.31
274.481	75.31
274.713	76.31
274.945	98.31
275.176	75.31
275.408	84.31
275.64	93.31
275.872	79.31
276.104	72.31
276.335	89.31
276.567	71.31
276.799	77.31
277.031	74.31
277.262	74.31
277.494	81.31
277.726	68.31
277.957	83.31
278.189	77.31
278.421	87.31
278.652	60.31
278.884	82.31
279.115	71.31
279.347	77.31
279.579	77.31
279.81	77.31
280.042	67.31
280.273	80.31
280.505	86.31
280.736	78.31
280.968	74.31
281.199	76.31
281.431	72.31
281.662	81.31
281.894	82.31
282.125	92.31
282.356	84.31
282.588	81.31
282.819	91.31
283.051	83.31
283.282	84.31
283.513	84.31
283.745	77.31
283.976	74.31
284.207	77.31
284.439	78.31
284.67	95.31
284.901	87.31
285.132	71.31
285.364	76.31
285.595	89.31
285.826	81.31
286.057	92.31
286.288	79.31
286.52	83.31
286.751	86.31
286.982	81.31
287.213	73.31
287.444	77.31
287.675	91.31
287.906	84.31
288.138	91.31
288.369	75.31
288.6	73.31
288.831	96.31
289.062	91.31
289.293	82.31
289.524	89.31
289.755	74.31
289.986	65.31
290.217	89.31
290.448	88.31
290.679	77.31
290.91	81.31
291.141	66.31
291.371	78.31
291.602	83.31
291.833	84.31
292.064	80.31
292.295	85.31
292.526	70.31
292.757	72.31
292.987	86.31
293.218	75.31
293.449	74.31
293.68	86.31
293.91	90.31
294.141	93.31
294.372	80.31
294.603	66.31
294.833	79.31
295.064	80.31
295.295	77.31
295.525	81.31
295.756	84.31
295.987	78.31
296.217	68.31
296.448	82.31
296.679	73.31
296.909	76.31
297.14	80.31
297.37	81.31
297.601	88.31
297.831	85.31
298.062	82.31
298.292	75.31
298.523	79.31
298.753	83.31
298.984	78.31
299.214	79.31
299.445	86.31
299.675	88.31
299.905	76.31
300.136	73.31
300.366	73.31
300.597	72.31
300.827	90.31
301.057	93.31
301.288	91.31
301.518	93.31
301.748	82.31
301.979	86.31
302.209	76.31
302.439	87.31
302.669	74.31
302.9	82.31
303.13	68.31
303.36	88.31
303.59	69.31
303.82	83.31
304.051	88.31
304.281	90.31
304.511	79.31
304.741	96.31
304.971	69.31
305.201	79.31
305.431	70.31
305.661	72.31
305.891	83.31
306.121	103.31
306.352	85.31
306.582	78.31
306.812	81.31
307.042	62.31
307.272	81.31
307.502	88.31
307.731	82.31
307.961	81.31
308.191	82.31
308.421	88.31
308.651	77.31
308.881	88.31
309.111	72.31
309.341	81.31
309.571	81.31
309.8	62.31
310.03	68.31
310.26	88.31
310.49	67.31
310.72	72.31
310.949	86.31
311.179	70.31
311.409	84.31
311.639	81.31
311.868	78.31
312.098	76.31
312.328	93.31
312.557	91.31
312.787	61.31
313.017	91.31
313.246	79.31
313.476	71.31
313.706	94.31
313.935	81.31
314.165	75.31
314.394	67.31
314.624	71.31
314.853	90.31
315.083	98.31
315.312	68.31
315.542	68.31
315.771	77.31
316.001	78.31
316.23	98.31
316.46	86.31
316.689	83.31
316.919	74.31
317.148	86.31
317.377	80.31
317.607	88.31
317.836	80.31
318.065	79.31
318.295	86.31
318.524	84.31
318.753	80.31
318.983	92.31
319.212	86.31
319.441	73.31
319.67	91.31
319.9	77.31
320.129	84.31
320.358	87.31
320.587	96.31
320.816	80.31
321.046	71.31
321.275	92.31
321.504	78.31
321.733	77.31
321.962	73.31
322.191	92.31
322.42	77.31
322.649	72.31
322.878	69.31
323.108	85.31
323.337	86.31
323.566	79.31
323.795	82.31
324.024	68.31
324.253	76.31
324.482	62.31
324.71	77.31
324.939	92.31
325.168	70.31
325.397	72.31
325.626	77.31
325.855	80.31
326.084	67.31
326.313	80.31
326.542	86.31
326.77	78.31
326.999	75.31
327.228	71.31
327.457	91.31
327.686	87.31
327.914	62.31
328.143	84.31
328.372	73.31
328.6	87.31
328.829	95.31
329.058	79.31
329.287	75.31
329.515	81.31
329.744	83.31
329.972	84.31
330.201	86.31
330.43	84.31
330.658	74.31
330.887	72.31
331.115	90.31
331.344	63.31
331.572	71.31
331.801	71.31
332.03	87.31
332.258	88.31
332.486	74.31
332.715	68.31
332.943	88.31
333.172	67.31
333.4	75.31
333.629	69.31
333.857	80.31
334.085	77.31
334.314	79.31
334.542	81.31
334.771	82.31
334.999	91.31
335.227	72.31
335.455	80.31
335.684	80.31
335.912	82.31
336.14	72.31
336.369	88.31
336.597	83.31
336.825	94.31
337.053	86.31
337.281	74.31
337.51	69.31
337.738	80.31
337.966	83.31
338.194	68.31
338.422	82.31
338.65	88.31
338.878	84.31
339.106	80.31
339.334	82.31
339.562	79.31
339.79	71.31
340.018	71.31
340.246	79.31
340.474	81.31
340.702	78.31
340.93	76.31
341.158	88.31
341.386	75.31
341.614	65.31
341.842	66.31
342.07	80.31
342.298	82.31
342.526	74.31
342.754	78.31
342.981	66.31
343.209	79.31
343.437	93.31
343.665	72.31
343.893	70.31
344.12	82.31
344.348	77.31
344.576	78.31
344.804	87.31
345.031	66.31
345.259	81.31
345.487	91.31
345.714	66.31
345.942	88.31
346.17	81.31
346.397	84.31
346.625	69.31
346.853	82.31
347.08	71.31
347.308	74.31
347.535	94.31
347.763	85.31
347.99	84.31
348.218	82.31
348.445	73.31
348.673	81.31
348.9	84.31
349.128	78.31
349.355	68.31
349.583	80.31
349.81	84.31
350.037	90.31
350.265	60.31
350.492	71.31
350.72	70.31
350.947	78.31
351.174	80.31
351.402	87.31
351.629	87.31
351.856	69.31
352.083	68.31
352.311	73.31
352.538	78.31
352.765	70.31
352.992	91.31
353.22	78.31
353.447	79.31
353.674	65.31
353.901	74.31
354.128	81.31
354.355	67.31
354.583	81.31
354.81	81.31
355.037	86.31
355.264	87.31
355.491	88.31
355.718	66.31
355.945	79.31
356.172	94.31
356.399	57.31
356.626	68.31
356.853	81.31
357.08	66.31
357.307	75.31
357.534	97.31
357.761	76.31
357.988	79.31
358.215	78.31
358.441	77.31
358.668	73.31
358.895	85.31
359.122	76.31
359.349	96.31
359.576	69.31
359.802	82.31
360.029	72.31
360.256	74.31
360.483	79.31
360.709	76.31
360.936	95.31
361.163	72.31
361.39	77.31
361.616	92.31
361.843	91.31
362.07	81.31
362.296	79.31
362.523	78.31
362.749	76.31
362.976	81.31
363.203	79.31
363.429	85.31
363.656	82.31
363.882	70.31
364.109	76.31
364.335	80.31
364.562	78.31
364.788	68.31
365.015	76.31
365.241	86.31
365.468	92.31
365.694	77.31
365.92	76.31
366.147	84.31
366.373	92.31
366.599	84.31
366.826	83.31
367.052	64.31
367.278	79.31
367.505	71.31
367.731	78.31
367.957	77.31
368.184	82.31
368.41	73.31
368.636	80.31
368.862	92.31
369.089	78.31
369.315	86.31
369.541	74.31
369.767	84.31
369.993	83.31
370.219	70.31
370.445	73.31
370.672	72.31
370.898	72.31
371.124	79.31
371.35	80.31
371.576	71.31
371.802	73.31
372.028	72.31
372.254	66.31
372.48	80.31
372.706	71.31
372.932	80.31
373.158	78.31
373.384	86.31
373.61	81.31
373.835	78.31
374.061	75.31
374.287	84.31
374.513	93.31
374.739	90.31
374.965	94.31
375.191	90.31
375.416	80.31
375.642	98.31
375.868	75.31
376.094	90.31
376.319	68.31
376.545	63.31
376.771	60.31
376.997	80.31
377.222	85.31
377.448	87.31
377.674	77.31
377.899	89.31
378.125	72.31
378.35	83.31
378.576	86.31
378.802	75.31
379.027	69.31
379.253	74.31
379.478	66.31
379.704	78.31
379.929	83.31
380.155	86.31
380.38	82.31
380.606	73.31
380.831	78.31
381.057	78.31
381.282	84.31
381.507	70.31
381.733	78.31
381.958	68.31
382.184	80.31
382.409	68.31
382.634	80.31
382.86	72.31
383.085	94.31
383.31	80.31
383.535	64.31
383.761	72.31
383.986	75.31
384.211	82.31
384.436	73.31
384.662	75.31
384.887	76.31
385.112	83.31
385.337	86.31
385.562	83.31
385.787	77.31
386.013	86.31
386.238	88.31
386.463	77.31
386.688	89.31
386.913	71.31
387.138	73.31
387.363	76.31
387.588	94.31
387.813	77.31
388.038	78.31
388.263	84.31
388.488	74.31
388.713	68.31
388.938	80.31
389.163	77.31
389.387	72.31
389.612	72.31
389.837	81.31
390.062	69.31
390.287	74.31
390.512	76.31
390.736	83.31
390.961	83.31
391.186	90.31
391.411	88.31
391.636	91.31
391.86	74.31
392.085	81.31
392.31	73.31
392.534	63.31
392.759	73.31
392.984	74.31
393.208	68.31
393.433	72.31
393.658	87.31
393.882	85.31
394.107	84.31
394.331	86.31
394.556	74.31
394.78	93.31
395.005	69.31
395.229	69.31
395.454	80.31
395.678	68.31
395.903	77.31
396.127	101.31
396.352	79.31
396.576	54.31
396.801	74.31
397.025	77.31
397.249	75.31
397.474	79.31
397.698	83.31
397.922	76.31
398.147	81.31
398.371	72.31
398.595	83.31
398.82	79.31
399.044	84.31
399.268	76.31
399.492	81.31
399.717	85.31
399.941	71.31
400.165	83.31
400.389	81.31
400.613	89.31
400.837	78.31
401.062	79.31
401.286	82.31
401.51	84.31
401.734	75.31
401.958	83.31
402.182	66.31
402.406	74.31
402.63	71.31
402.854	64.31
403.078	77.31
403.302	69.31
403.526	69.31
403.75	76.31
403.974	83.31
404.198	80.31
404.422	84.31
404.645	76.31
404.869	67.31
405.093	82.31
405.317	79.31
405.541	73.31
405.765	84.31
405.988	71.31
406.212	73.31
406.436	74.31
406.66	74.31
406.883	81.31
407.107	84.31
407.331	74.31
407.555	91.31
407.778	79.31
408.002	84.31
408.226	85.31
408.449	88.31
408.673	88.31
408.896	66.31
409.12	74.31
409.344	80.31
409.567	84.31
409.791	84.31
410.014	77.31
410.238	61.31
410.461	77.31
410.685	76.31
410.908	81.31
411.132	72.31
411.355	90.31
411.578	71.31
411.802	69.31
412.025	79.31
412.249	76.31
412.472	71.31
412.695	75.31
412.919	76.31
413.142	79.31
413.365	74.31
413.589	91.31
413.812	83.31
414.035	85.31
414.258	93.31
414.482	83.31
414.705	76.31
414.928	73.31
415.151	67.31
415.374	65.31
415.597	78.31
415.821	75.31
416.044	74.31
416.267	77.31
416.49	83.31
416.713	75.31
416.936	80.31
417.159	73.31
417.382	87.31
417.605	88.31
417.828	72.31
418.051	72.31
418.274	77.31
418.497	66.31
418.72	73.31
418.943	68.31
419.166	82.31
419.389	78.31
419.611	80.31
419.834	101.31
420.057	68.31
420.28	74.31
420.503	80.31
420.726	78.31
420.948	97.31
421.171	88.31
421.394	79.31
421.617	74.31
421.839	68.31
422.062	75.31
422.285	80.31
422.507	69.31
422.73	71.31
422.953	74.31
423.175	67.31
423.398	68.31
423.621	91.31
423.843	73.31
424.066	79.31
424.288	74.31
424.511	69.31
424.733	70.31
424.956	85.31
425.178	76.31
425.401	80.31
425.623	75.31
425.846	72.31
426.068	72.31
426.291	76.31
426.513	83.31
426.735	72.31
426.958	86.31
427.18	70.31
427.402	82.31
427.625	82.31
427.847	76.31
428.069	72.31
428.292	87.31
428.514	78.31
428.736	82.31
428.958	66.31
429.181	84.31
429.403	67.31
429.625	83.31
429.847	69.31
430.069	74.31
430.292	84.31
430.514	79.31
430.736	87.31
430.958	78.31
431.18	80.31
431.402	74.31
431.624	83.31
431.846	78.31
432.068	88.31
432.29	94.31
432.512	77.31
432.734	75.31
432.956	73.31
433.178	66.31
433.4	66.31
433.622	81.31
433.844	91.31
434.066	81.31
434.287	78.31
434.509	68.31
434.731	80.31
434.953	79.31
435.175	69.31
435.397	80.31
435.618	78.31
435.84	68.31
436.062	82.31
436.284	79.31
436.505	79.31
436.727	75.31
436.949	83.31
437.17	76.31
437.392	74.31
437.614	72.31
437.835	84.31
438.057	72.31
438.278	87.31
438.5	66.31
438.721	86.31
438.943	83.31
439.165	79.31
439.386	74.31
439.608	76.31
439.829	57.31
440.05	80.31
440.272	86.31
440.493	71.31
440.715	77.31
440.936	74.31
441.158	70.31
441.379	80.31
441.6	73.31
441.822	72.31
442.043	75.31
442.264	82.31
442.486	78.31
442.707	78.31
442.928	87.31
443.149	74.31
443.371	86.31
443.592	75.31
443.813	72.31
444.034	79.31
444.255	78.31
444.476	73.31
444.698	75.31
444.919	82.31
445.14	148.31
445.361	102.31
445.582	75.31
445.803	65.31
446.024	79.31
446.245	82.31
446.466	72.31
446.687	81.31
446.908	65.31
447.129	67.31
447.35	63.31
447.571	80.31
447.792	86.31
448.013	90.31
448.234	69.31
448.455	75.31
448.675	83.31
448.896	68.31
449.117	68.31
449.338	79.31
449.559	79.31
449.779	92.31
450	79.31
450.221	66.31
450.442	60.31
450.662	84.31
450.883	77.31
451.104	83.31
451.324	58.31
451.545	71.31
451.766	68.31
451.986	75.31
452.207	77.31
452.428	86.31
452.648	79.31
452.869	79.31
453.089	69.31
453.31	80.31
453.53	80.31
453.751	72.31
453.971	67.31
454.192	76.31
454.412	91.31
454.633	80.31
454.853	81.31
455.073	74.31
455.294	88.31
455.514	80.31
455.734	71.31
455.955	70.31
456.175	78.31
456.395	79.31
456.616	72.31
456.836	78.31
457.056	78.31
457.276	76.31
457.497	69.31
457.717	77.31
457.937	77.31
458.157	77.31
458.377	71.31
458.598	66.31
458.818	68.31
459.038	84.31
459.258	79.31
459.478	84.31
459.698	86.31
459.918	82.31
460.138	74.31
460.358	79.31
460.578	69.31
460.798	68.31
461.018	73.31
461.238	77.31
461.458	78.31
461.678	58.31
461.898	78.31
462.118	74.31
462.338	72.31
462.558	78.31
462.777	74.31
462.997	72.31
463.217	75.31
463.437	74.31
463.657	69.31
463.876	80.31
464.096	89.31
464.316	82.31
464.536	70.31
464.755	85.31
464.975	91.31
465.195	82.31
465.414	79.31
465.634	86.31
465.854	84.31
466.073	91.31
466.293	83.31
466.512	89.31
466.732	88.31
466.951	83.31
467.171	74.31
467.391	63.31
467.61	58.31
467.829	69.31
468.049	80.31
468.268	76.31
468.488	75.31
468.707	76.31
468.927	81.31
469.146	88.31
469.365	70.31
469.585	67.31
469.804	70.31
470.023	79.31
470.243	72.31
470.462	78.31
470.681	75.31
470.901	70.31
471.12	82.31
471.339	79.31
471.558	85.31
471.777	74.31
471.997	79.31
472.216	75.31
472.435	72.31
472.654	67.31
472.873	85.31
473.092	79.31
473.311	75.31
473.53	90.31
473.749	69.31
473.968	91.31
474.187	59.31
474.406	69.31
474.625	89.31
474.844	89.31
475.063	90.31
475.282	86.31
475.501	67.31
475.72	83.31
475.939	92.31
476.158	78.31
476.377	76.31
476.596	63.31
476.814	64.31
477.033	83.31
477.252	79.31
477.471	85.31
477.69	92.31
477.908	87.31
478.127	86.31
478.346	69.31
478.564	79.31
478.783	73.31
479.002	80.31
479.22	78.31
479.439	81.31
479.658	72.31
479.876	78.31
480.095	74.31
480.313	74.31
480.532	83.31
480.751	72.31
480.969	69.31
481.188	68.31
481.406	86.31
481.624	76.31
481.843	87.31
482.061	89.31
482.28	84.31
482.498	74.31
482.717	80.31
482.935	79.31
483.153	75.31
483.372	74.31
483.59	78.31
483.808	81.31
484.027	89.31
484.245	86.31
484.463	84.31
484.681	72.31
484.9	69.31
485.118	86.31
485.336	73.31
485.554	67.31
485.772	84.31
485.99	72.31
486.209	59.31
486.427	86.31
486.645	78.31
486.863	77.31
487.081	67.31
487.299	74.31
487.517	80.31
487.735	75.31
487.953	73.31
488.171	67.31
488.389	81.31
488.607	64.31
488.825	70.31
489.043	77.31
489.261	83.31
489.479	80.31
489.696	88.31
489.914	62.31
490.132	93.31
490.35	80.31
490.568	58.31
490.786	77.31
491.003	80.31
491.221	87.31
491.439	80.31
491.657	64.31
491.874	78.31
492.092	95.31
492.31	92.31
492.527	73.31
492.745	82.31
492.963	78.31
493.18	68.31
493.398	79.31
493.615	74.31
493.833	83.31
494.05	77.31
494.268	72.31
494.485	85.31
494.703	82.31
494.92	90.31
495.138	82.31
495.355	88.31
495.573	67.31
495.79	69.31
496.008	88.31
496.225	74.31
496.442	66.31
496.66	84.31
496.877	91.31
497.094	91.31
497.312	85.31
497.529	79.31
497.746	87.31
497.963	88.31
498.181	90.31
498.398	73.31
498.615	95.31
498.832	72.31
499.049	65.31
499.267	83.31
499.484	79.31
499.701	83.31
499.918	71.31
500.135	93.31
500.352	78.31
500.569	80.31
500.786	93.31
501.003	75.31
501.22	67.31
501.437	74.31
501.654	80.31
501.871	78.31
502.088	85.31
502.305	73.31
502.522	78.31
502.739	68.31
502.956	99.31
503.172	71.31
503.389	75.31
503.606	76.31
503.823	65.31
504.04	80.31
504.256	67.31
504.473	75.31
504.69	84.31
504.907	83.31
505.123	74.31
505.34	74.31
505.557	81.31
505.773	87.31
505.99	75.31
506.207	72.31
506.423	77.31
506.64	93.31
506.856	90.31
507.073	88.31
507.289	96.31
507.506	87.31
507.722	92.31
507.939	83.31
508.155	81.31
508.372	69.31
508.588	68.31
508.805	83.31
509.021	79.31
509.238	77.31
509.454	84.31
509.67	78.31
509.887	77.31
510.103	81.31
510.319	80.31
510.536	74.31
510.752	74.31
510.968	75.31
511.184	90.31
511.401	88.31
511.617	77.31
511.833	68.31
512.049	71.31
512.265	66.31
512.481	81.31
512.698	74.31
512.914	75.31
513.13	70.31
513.346	75.31
513.562	69.31
513.778	68.31
513.994	92.31
514.21	81.31
514.426	83.31
514.642	73.31
514.858	66.31
515.074	73.31
515.29	86.31
515.506	76.31
515.721	73.31
515.937	73.31
516.153	80.31
516.369	91.31
516.585	96.31
516.801	78.31
517.016	72.31
517.232	70.31
517.448	90.31
517.664	82.31
517.879	84.31
518.095	85.31
518.311	86.31
518.527	75.31
518.742	87.31
518.958	90.31
519.173	82.31
519.389	74.31
519.605	72.31
519.82	63.31
520.036	86.31
