Data from Background_2_HRD10591_00046.txt Node
Date: Wed Nov 05 14:47:19 EST 2025
User: Yrep
Spectrometer: HR+D1059
Trigger mode: 1
Integration Time (sec): 1.000000E-1
Scans to average: 1
Electric dark correction enabled: true
Nonlinearity correction enabled: false
Boxcar width: 0
XAxis mode: Wavelengths
Number of Pixels in Spectrum: 2048
>>>>>Begin Spectral Data<<<<<
223.165	-20.56
223.4	-20.56
223.635	-20.56
223.869	-27.56
224.104	-25.56
224.338	-28.56
224.573	-15.56
224.808	-10.56
225.042	3.44
225.277	-2.56
225.511	-3.56
225.746	10.44
225.98	-3.56
226.215	7.44
226.449	26.44
226.683	16.44
226.918	29.44
227.152	44.44
227.387	36.44
227.621	29.44
227.856	44.44
228.09	36.44
228.324	43.44
228.559	55.44
228.793	58.44
229.027	49.44
229.262	63.44
229.496	57.44
229.73	70.44
229.964	84.44
230.199	77.44
230.433	71.44
230.667	73.44
230.901	72.44
231.136	77.44
231.37	75.44
231.604	75.44
231.838	96.44
232.072	91.44
232.306	71.44
232.541	63.44
232.775	85.44
233.009	85.44
233.243	76.44
233.477	82.44
233.711	73.44
233.945	75.44
234.179	84.44
234.413	71.44
234.647	66.44
234.881	91.44
235.115	75.44
235.349	88.44
235.583	78.44
235.817	79.44
236.051	84.44
236.285	76.44
236.519	85.44
236.753	84.44
236.987	77.44
237.221	80.44
237.455	83.44
237.689	78.44
237.922	74.44
238.156	73.44
238.39	72.44
238.624	63.44
238.858	78.44
239.091	73.44
239.325	84.44
239.559	87.44
239.793	88.44
240.027	91.44
240.26	73.44
240.494	65.44
240.728	65.44
240.961	74.44
241.195	71.44
241.429	77.44
241.662	77.44
241.896	83.44
242.13	74.44
242.363	69.44
242.597	77.44
242.83	74.44
243.064	67.44
243.298	69.44
243.531	65.44
243.765	75.44
243.998	83.44
244.232	79.44
244.465	88.44
244.699	89.44
244.932	80.44
245.166	95.44
245.399	75.44
245.633	68.44
245.866	63.44
246.099	86.44
246.333	86.44
246.566	88.44
246.8	72.44
247.033	65.44
247.266	81.44
247.5	73.44
247.733	65.44
247.966	82.44
248.2	75.44
248.433	78.44
248.666	78.44
248.899	74.44
249.133	69.44
249.366	88.44
249.599	83.44
249.832	80.44
250.066	75.44
250.299	74.44
250.532	87.44
250.765	80.44
250.998	71.44
251.231	70.44
251.465	84.44
251.698	67.44
251.931	83.44
252.164	84.44
252.397	83.44
252.63	81.44
252.863	78.44
253.096	68.44
253.329	70.44
253.562	83.44
253.795	96.44
254.028	83.44
254.261	79.44
254.494	67.44
254.727	75.44
254.96	67.44
255.193	79.44
255.426	80.44
255.659	75.44
255.892	71.44
256.124	82.44
256.357	96.44
256.59	70.44
256.823	77.44
257.056	82.44
257.289	88.44
257.521	85.44
257.754	83.44
257.987	86.44
258.22	82.44
258.452	76.44
258.685	73.44
258.918	90.44
259.151	89.44
259.383	67.44
259.616	88.44
259.849	80.44
260.081	96.44
260.314	69.44
260.547	85.44
260.779	85.44
261.012	81.44
261.244	70.44
261.477	84.44
261.71	86.44
261.942	79.44
262.175	92.44
262.407	74.44
262.64	80.44
262.872	76.44
263.105	63.44
263.337	83.44
263.57	87.44
263.802	81.44
264.035	81.44
264.267	81.44
264.499	81.44
264.732	95.44
264.964	74.44
265.197	81.44
265.429	76.44
265.661	92.44
265.894	85.44
266.126	81.44
266.358	87.44
266.591	86.44
266.823	88.44
267.055	74.44
267.287	78.44
267.52	84.44
267.752	82.44
267.984	83.44
268.216	84.44
268.448	76.44
268.681	70.44
268.913	77.44
269.145	87.44
269.377	88.44
269.609	76.44
269.841	63.44
270.073	69.44
270.306	69.44
270.538	75.44
270.77	81.44
271.002	81.44
271.234	73.44
271.466	105.44
271.698	91.44
271.93	74.44
272.162	79.44
272.394	98.44
272.626	83.44
272.858	85.44
273.09	92.44
273.322	79.44
273.553	88.44
273.785	80.44
274.017	71.44
274.249	82.44
274.481	83.44
274.713	76.44
274.945	78.44
275.176	76.44
275.408	88.44
275.64	83.44
275.872	83.44
276.104	83.44
276.335	78.44
276.567	76.44
276.799	70.44
277.031	79.44
277.262	96.44
277.494	92.44
277.726	90.44
277.957	93.44
278.189	91.44
278.421	82.44
278.652	92.44
278.884	81.44
279.115	85.44
279.347	69.44
279.579	85.44
279.81	78.44
280.042	65.44
280.273	79.44
280.505	93.44
280.736	73.44
280.968	76.44
281.199	76.44
281.431	87.44
281.662	81.44
281.894	66.44
282.125	73.44
282.356	75.44
282.588	89.44
282.819	79.44
283.051	83.44
283.282	77.44
283.513	82.44
283.745	95.44
283.976	82.44
284.207	82.44
284.439	77.44
284.67	68.44
284.901	81.44
285.132	87.44
285.364	77.44
285.595	77.44
285.826	76.44
286.057	101.44
286.288	85.44
286.52	84.44
286.751	81.44
286.982	83.44
287.213	79.44
287.444	87.44
287.675	72.44
287.906	88.44
288.138	91.44
288.369	70.44
288.6	74.44
288.831	88.44
289.062	87.44
289.293	101.44
289.524	107.44
289.755	83.44
289.986	81.44
290.217	85.44
290.448	77.44
290.679	85.44
290.91	81.44
291.141	105.44
291.371	83.44
291.602	79.44
291.833	84.44
292.064	93.44
292.295	78.44
292.526	95.44
292.757	86.44
292.987	80.44
293.218	83.44
293.449	75.44
293.68	91.44
293.91	78.44
294.141	78.44
294.372	91.44
294.603	91.44
294.833	88.44
295.064	79.44
295.295	91.44
295.525	85.44
295.756	89.44
295.987	94.44
296.217	94.44
296.448	88.44
296.679	86.44
296.909	96.44
297.14	83.44
297.37	86.44
297.601	87.44
297.831	80.44
298.062	73.44
298.292	77.44
298.523	71.44
298.753	88.44
298.984	75.44
299.214	87.44
299.445	95.44
299.675	73.44
299.905	79.44
300.136	86.44
300.366	91.44
300.597	77.44
300.827	79.44
301.057	80.44
301.288	89.44
301.518	85.44
301.748	68.44
301.979	92.44
302.209	84.44
302.439	69.44
302.669	76.44
302.9	96.44
303.13	83.44
303.36	87.44
303.59	89.44
303.82	83.44
304.051	75.44
304.281	91.44
304.511	88.44
304.741	91.44
304.971	86.44
305.201	83.44
305.431	79.44
305.661	101.44
305.891	72.44
306.121	89.44
306.352	78.44
306.582	83.44
306.812	77.44
307.042	81.44
307.272	93.44
307.502	80.44
307.731	80.44
307.961	88.44
308.191	63.44
308.421	82.44
308.651	82.44
308.881	79.44
309.111	80.44
309.341	72.44
309.571	89.44
309.8	80.44
310.03	98.44
310.26	67.44
310.49	93.44
310.72	74.44
310.949	93.44
311.179	83.44
311.409	87.44
311.639	66.44
311.868	87.44
312.098	83.44
312.328	84.44
312.557	77.44
312.787	93.44
313.017	72.44
313.246	81.44
313.476	87.44
313.706	80.44
313.935	88.44
314.165	83.44
314.394	85.44
314.624	77.44
314.853	87.44
315.083	82.44
315.312	83.44
315.542	76.44
315.771	89.44
316.001	84.44
316.23	79.44
316.46	80.44
316.689	80.44
316.919	92.44
317.148	77.44
317.377	69.44
317.607	86.44
317.836	86.44
318.065	70.44
318.295	89.44
318.524	84.44
318.753	77.44
318.983	68.44
319.212	76.44
319.441	91.44
319.67	86.44
319.9	92.44
320.129	87.44
320.358	88.44
320.587	73.44
320.816	91.44
321.046	80.44
321.275	90.44
321.504	105.44
321.733	94.44
321.962	71.44
322.191	84.44
322.42	78.44
322.649	79.44
322.878	75.44
323.108	89.44
323.337	93.44
323.566	72.44
323.795	92.44
324.024	91.44
324.253	74.44
324.482	91.44
324.71	94.44
324.939	79.44
325.168	82.44
325.397	91.44
325.626	88.44
325.855	88.44
326.084	82.44
326.313	85.44
326.542	71.44
326.77	68.44
326.999	86.44
327.228	85.44
327.457	71.44
327.686	84.44
327.914	83.44
328.143	76.44
328.372	81.44
328.6	81.44
328.829	81.44
329.058	81.44
329.287	78.44
329.515	76.44
329.744	89.44
329.972	85.44
330.201	84.44
330.43	88.44
330.658	90.44
330.887	74.44
331.115	76.44
331.344	85.44
331.572	84.44
331.801	85.44
332.03	95.44
332.258	88.44
332.486	84.44
332.715	87.44
332.943	83.44
333.172	87.44
333.4	77.44
333.629	76.44
333.857	84.44
334.085	79.44
334.314	84.44
334.542	76.44
334.771	69.44
334.999	89.44
335.227	81.44
335.455	90.44
335.684	73.44
335.912	96.44
336.14	87.44
336.369	84.44
336.597	92.44
336.825	83.44
337.053	82.44
337.281	78.44
337.51	77.44
337.738	82.44
337.966	97.44
338.194	89.44
338.422	81.44
338.65	74.44
338.878	92.44
339.106	94.44
339.334	91.44
339.562	89.44
339.79	85.44
340.018	95.44
340.246	91.44
340.474	80.44
340.702	63.44
340.93	79.44
341.158	85.44
341.386	89.44
341.614	70.44
341.842	84.44
342.07	81.44
342.298	68.44
342.526	73.44
342.754	87.44
342.981	84.44
343.209	77.44
343.437	92.44
343.665	83.44
343.893	80.44
344.12	75.44
344.348	72.44
344.576	83.44
344.804	91.44
345.031	80.44
345.259	75.44
345.487	90.44
345.714	79.44
345.942	84.44
346.17	67.44
346.397	91.44
346.625	85.44
346.853	77.44
347.08	68.44
347.308	89.44
347.535	87.44
347.763	70.44
347.99	92.44
348.218	82.44
348.445	89.44
348.673	78.44
348.9	75.44
349.128	69.44
349.355	87.44
349.583	90.44
349.81	95.44
350.037	82.44
350.265	81.44
350.492	89.44
350.72	87.44
350.947	79.44
351.174	95.44
351.402	70.44
351.629	70.44
351.856	90.44
352.083	71.44
352.311	68.44
352.538	73.44
352.765	87.44
352.992	90.44
353.22	76.44
353.447	90.44
353.674	92.44
353.901	92.44
354.128	83.44
354.355	84.44
354.583	83.44
354.81	76.44
355.037	94.44
355.264	91.44
355.491	89.44
355.718	92.44
355.945	97.44
356.172	96.44
356.399	72.44
356.626	76.44
356.853	82.44
357.08	88.44
357.307	76.44
357.534	82.44
357.761	81.44
357.988	67.44
358.215	83.44
358.441	70.44
358.668	68.44
358.895	67.44
359.122	79.44
359.349	98.44
359.576	71.44
359.802	88.44
360.029	83.44
360.256	85.44
360.483	88.44
360.709	79.44
360.936	84.44
361.163	71.44
361.39	72.44
361.616	88.44
361.843	94.44
362.07	88.44
362.296	92.44
362.523	75.44
362.749	75.44
362.976	91.44
363.203	100.44
363.429	56.44
363.656	80.44
363.882	89.44
364.109	94.44
364.335	85.44
364.562	89.44
364.788	81.44
365.015	79.44
365.241	92.44
365.468	79.44
365.694	85.44
365.92	75.44
366.147	85.44
366.373	82.44
366.599	82.44
366.826	96.44
367.052	87.44
367.278	76.44
367.505	75.44
367.731	76.44
367.957	67.44
368.184	72.44
368.41	101.44
368.636	91.44
368.862	82.44
369.089	90.44
369.315	89.44
369.541	85.44
369.767	90.44
369.993	82.44
370.219	84.44
370.445	77.44
370.672	87.44
370.898	87.44
371.124	91.44
371.35	85.44
371.576	79.44
371.802	78.44
372.028	72.44
372.254	89.44
372.48	91.44
372.706	82.44
372.932	77.44
373.158	86.44
373.384	87.44
373.61	86.44
373.835	88.44
374.061	81.44
374.287	77.44
374.513	77.44
374.739	84.44
374.965	87.44
375.191	89.44
375.416	78.44
375.642	84.44
375.868	80.44
376.094	82.44
376.319	89.44
376.545	89.44
376.771	79.44
376.997	88.44
377.222	82.44
377.448	93.44
377.674	80.44
377.899	72.44
378.125	91.44
378.35	81.44
378.576	89.44
378.802	90.44
379.027	88.44
379.253	89.44
379.478	87.44
379.704	76.44
379.929	81.44
380.155	81.44
380.38	82.44
380.606	87.44
380.831	84.44
381.057	66.44
381.282	76.44
381.507	79.44
381.733	73.44
381.958	76.44
382.184	83.44
382.409	81.44
382.634	83.44
382.86	70.44
383.085	93.44
383.31	82.44
383.535	83.44
383.761	92.44
383.986	92.44
384.211	81.44
384.436	79.44
384.662	96.44
384.887	67.44
385.112	83.44
385.337	81.44
385.562	74.44
385.787	90.44
386.013	84.44
386.238	73.44
386.463	92.44
386.688	89.44
386.913	105.44
387.138	76.44
387.363	77.44
387.588	73.44
387.813	83.44
388.038	99.44
388.263	80.44
388.488	83.44
388.713	79.44
388.938	93.44
389.163	85.44
389.387	80.44
389.612	98.44
389.837	83.44
390.062	83.44
390.287	81.44
390.512	88.44
390.736	79.44
390.961	63.44
391.186	88.44
391.411	75.44
391.636	68.44
391.86	88.44
392.085	80.44
392.31	74.44
392.534	82.44
392.759	85.44
392.984	72.44
393.208	85.44
393.433	82.44
393.658	72.44
393.882	67.44
394.107	79.44
394.331	80.44
394.556	77.44
394.78	78.44
395.005	75.44
395.229	85.44
395.454	91.44
395.678	84.44
395.903	94.44
396.127	77.44
396.352	80.44
396.576	83.44
396.801	81.44
397.025	75.44
397.249	81.44
397.474	88.44
397.698	97.44
397.922	74.44
398.147	84.44
398.371	61.44
398.595	80.44
398.82	75.44
399.044	80.44
399.268	69.44
399.492	82.44
399.717	68.44
399.941	78.44
400.165	87.44
400.389	78.44
400.613	90.44
400.837	79.44
401.062	87.44
401.286	69.44
401.51	82.44
401.734	81.44
401.958	71.44
402.182	67.44
402.406	71.44
402.63	83.44
402.854	81.44
403.078	85.44
403.302	81.44
403.526	81.44
403.75	76.44
403.974	68.44
404.198	88.44
404.422	91.44
404.645	83.44
404.869	77.44
405.093	77.44
405.317	78.44
405.541	91.44
405.765	95.44
405.988	77.44
406.212	77.44
406.436	90.44
406.66	73.44
406.883	91.44
407.107	91.44
407.331	86.44
407.555	90.44
407.778	77.44
408.002	73.44
408.226	75.44
408.449	70.44
408.673	83.44
408.896	93.44
409.12	83.44
409.344	84.44
409.567	80.44
409.791	68.44
410.014	86.44
410.238	94.44
410.461	105.44
410.685	87.44
410.908	90.44
411.132	92.44
411.355	90.44
411.578	76.44
411.802	72.44
412.025	88.44
412.249	84.44
412.472	81.44
412.695	81.44
412.919	91.44
413.142	77.44
413.365	76.44
413.589	72.44
413.812	78.44
414.035	72.44
414.258	88.44
414.482	66.44
414.705	84.44
414.928	68.44
415.151	72.44
415.374	85.44
415.597	75.44
415.821	94.44
416.044	69.44
416.267	90.44
416.49	86.44
416.713	81.44
416.936	78.44
417.159	79.44
417.382	79.44
417.605	80.44
417.828	82.44
418.051	74.44
418.274	80.44
418.497	75.44
418.72	71.44
418.943	79.44
419.166	82.44
419.389	81.44
419.611	81.44
419.834	82.44
420.057	80.44
420.28	68.44
420.503	77.44
420.726	70.44
420.948	84.44
421.171	76.44
421.394	88.44
421.617	77.44
421.839	91.44
422.062	77.44
422.285	76.44
422.507	87.44
422.73	79.44
422.953	84.44
423.175	85.44
423.398	83.44
423.621	96.44
423.843	75.44
424.066	75.44
424.288	89.44
424.511	87.44
424.733	79.44
424.956	83.44
425.178	78.44
425.401	75.44
425.623	82.44
425.846	80.44
426.068	82.44
426.291	81.44
426.513	86.44
426.735	86.44
426.958	93.44
427.18	97.44
427.402	86.44
427.625	70.44
427.847	79.44
428.069	83.44
428.292	74.44
428.514	83.44
428.736	75.44
428.958	80.44
429.181	92.44
429.403	88.44
429.625	78.44
429.847	89.44
430.069	88.44
430.292	70.44
430.514	92.44
430.736	86.44
430.958	81.44
431.18	89.44
431.402	83.44
431.624	91.44
431.846	90.44
432.068	83.44
432.29	83.44
432.512	81.44
432.734	65.44
432.956	72.44
433.178	76.44
433.4	78.44
433.622	73.44
433.844	81.44
434.066	67.44
434.287	70.44
434.509	70.44
434.731	77.44
434.953	90.44
435.175	73.44
435.397	84.44
435.618	69.44
435.84	82.44
436.062	80.44
436.284	68.44
436.505	85.44
436.727	76.44
436.949	74.44
437.17	87.44
437.392	77.44
437.614	85.44
437.835	82.44
438.057	80.44
438.278	71.44
438.5	75.44
438.721	77.44
438.943	74.44
439.165	88.44
439.386	84.44
439.608	77.44
439.829	65.44
440.05	82.44
440.272	67.44
440.493	81.44
440.715	80.44
440.936	68.44
441.158	77.44
441.379	68.44
441.6	76.44
441.822	86.44
442.043	68.44
442.264	78.44
442.486	81.44
442.707	64.44
442.928	94.44
443.149	80.44
443.371	76.44
443.592	88.44
443.813	79.44
444.034	77.44
444.255	67.44
444.476	79.44
444.698	94.44
444.919	79.44
445.14	159.44
445.361	96.44
445.582	75.44
445.803	75.44
446.024	88.44
446.245	78.44
446.466	73.44
446.687	77.44
446.908	86.44
447.129	100.44
447.35	74.44
447.571	77.44
447.792	80.44
448.013	73.44
448.234	82.44
448.455	79.44
448.675	90.44
448.896	75.44
449.117	82.44
449.338	71.44
449.559	85.44
449.779	92.44
450	86.44
450.221	67.44
450.442	82.44
450.662	95.44
450.883	90.44
451.104	88.44
451.324	71.44
451.545	71.44
451.766	82.44
451.986	81.44
452.207	70.44
452.428	71.44
452.648	83.44
452.869	87.44
453.089	74.44
453.31	73.44
453.53	72.44
453.751	74.44
453.971	80.44
454.192	75.44
454.412	91.44
454.633	85.44
454.853	72.44
455.073	68.44
455.294	86.44
455.514	69.44
455.734	80.44
455.955	81.44
456.175	89.44
456.395	80.44
456.616	73.44
456.836	83.44
457.056	89.44
457.276	81.44
457.497	79.44
457.717	80.44
457.937	82.44
458.157	75.44
458.377	76.44
458.598	86.44
458.818	85.44
459.038	88.44
459.258	78.44
459.478	78.44
459.698	86.44
459.918	70.44
460.138	83.44
460.358	82.44
460.578	68.44
460.798	86.44
461.018	73.44
461.238	69.44
461.458	76.44
461.678	79.44
461.898	86.44
462.118	71.44
462.338	71.44
462.558	76.44
462.777	70.44
462.997	81.44
463.217	81.44
463.437	71.44
463.657	77.44
463.876	73.44
464.096	83.44
464.316	94.44
464.536	68.44
464.755	96.44
464.975	80.44
465.195	68.44
465.414	87.44
465.634	80.44
465.854	86.44
466.073	77.44
466.293	81.44
466.512	72.44
466.732	60.44
466.951	87.44
467.171	91.44
467.391	62.44
467.61	80.44
467.829	75.44
468.049	84.44
468.268	59.44
468.488	67.44
468.707	83.44
468.927	84.44
469.146	84.44
469.365	79.44
469.585	74.44
469.804	84.44
470.023	75.44
470.243	75.44
470.462	83.44
470.681	85.44
470.901	84.44
471.12	87.44
471.339	87.44
471.558	81.44
471.777	71.44
471.997	75.44
472.216	84.44
472.435	78.44
472.654	83.44
472.873	71.44
473.092	84.44
473.311	88.44
473.53	73.44
473.749	81.44
473.968	92.44
474.187	86.44
474.406	67.44
474.625	80.44
474.844	91.44
475.063	90.44
475.282	91.44
475.501	88.44
475.72	88.44
475.939	82.44
476.158	80.44
476.377	82.44
476.596	79.44
476.814	79.44
477.033	84.44
477.252	81.44
477.471	84.44
477.69	71.44
477.908	79.44
478.127	70.44
478.346	73.44
478.564	66.44
478.783	73.44
479.002	77.44
479.22	73.44
479.439	84.44
479.658	77.44
479.876	80.44
480.095	73.44
480.313	81.44
480.532	79.44
480.751	82.44
480.969	64.44
481.188	84.44
481.406	74.44
481.624	76.44
481.843	76.44
482.061	87.44
482.28	81.44
482.498	81.44
482.717	81.44
482.935	87.44
483.153	94.44
483.372	74.44
483.59	87.44
483.808	84.44
484.027	89.44
484.245	75.44
484.463	88.44
484.681	87.44
484.9	95.44
485.118	86.44
485.336	83.44
485.554	82.44
485.772	70.44
485.99	83.44
486.209	72.44
486.427	78.44
486.645	69.44
486.863	82.44
487.081	81.44
487.299	69.44
487.517	77.44
487.735	86.44
487.953	95.44
488.171	93.44
488.389	88.44
488.607	83.44
488.825	90.44
489.043	92.44
489.261	72.44
489.479	81.44
489.696	92.44
489.914	92.44
490.132	88.44
490.35	88.44
490.568	87.44
490.786	76.44
491.003	69.44
491.221	85.44
491.439	77.44
491.657	72.44
491.874	80.44
492.092	82.44
492.31	79.44
492.527	74.44
492.745	75.44
492.963	82.44
493.18	79.44
493.398	87.44
493.615	74.44
493.833	81.44
494.05	83.44
494.268	83.44
494.485	88.44
494.703	75.44
494.92	81.44
495.138	86.44
495.355	75.44
495.573	89.44
495.79	85.44
496.008	80.44
496.225	77.44
496.442	67.44
496.66	87.44
496.877	85.44
497.094	95.44
497.312	91.44
497.529	76.44
497.746	84.44
497.963	74.44
498.181	81.44
498.398	75.44
498.615	73.44
498.832	75.44
499.049	74.44
499.267	84.44
499.484	81.44
499.701	82.44
499.918	74.44
500.135	89.44
500.352	88.44
500.569	74.44
500.786	74.44
501.003	82.44
501.22	76.44
501.437	77.44
501.654	74.44
501.871	80.44
502.088	74.44
502.305	81.44
502.522	86.44
502.739	85.44
502.956	71.44
503.172	75.44
503.389	73.44
503.606	69.44
503.823	70.44
504.04	94.44
504.256	81.44
504.473	88.44
504.69	86.44
504.907	99.44
505.123	77.44
505.34	85.44
505.557	68.44
505.773	94.44
505.99	75.44
506.207	78.44
506.423	79.44
506.64	84.44
506.856	84.44
507.073	77.44
507.289	80.44
507.506	73.44
507.722	75.44
507.939	89.44
508.155	96.44
508.372	80.44
508.588	79.44
508.805	85.44
509.021	79.44
509.238	85.44
509.454	77.44
509.67	79.44
509.887	81.44
510.103	98.44
510.319	83.44
510.536	93.44
510.752	89.44
510.968	77.44
511.184	78.44
511.401	67.44
511.617	89.44
511.833	80.44
512.049	84.44
512.265	87.44
512.481	73.44
512.698	83.44
512.914	62.44
513.13	88.44
513.346	85.44
513.562	82.44
513.778	68.44
513.994	77.44
514.21	67.44
514.426	70.44
514.642	82.44
514.858	75.44
515.074	81.44
515.29	87.44
515.506	76.44
515.721	91.44
515.937	84.44
516.153	81.44
516.369	87.44
516.585	75.44
516.801	78.44
517.016	81.44
517.232	89.44
517.448	88.44
517.664	87.44
517.879	86.44
518.095	90.44
518.311	80.44
518.527	79.44
518.742	84.44
518.958	79.44
519.173	90.44
519.389	64.44
519.605	79.44
519.82	86.44
520.036	63.44
