Data from Background_2_HRD10591_00022.txt Node
Date: Wed Nov 05 14:47:08 EST 2025
User: Yrep
Spectrometer: HR+D1059
Trigger mode: 1
Integration Time (sec): 1.000000E-1
Scans to average: 1
Electric dark correction enabled: true
Nonlinearity correction enabled: false
Boxcar width: 0
XAxis mode: Wavelengths
Number of Pixels in Spectrum: 2048
>>>>>Begin Spectral Data<<<<<
223.165	-18.25
223.4	-18.25
223.635	-18.25
223.869	-12.25
224.104	-7.25
224.338	-10.25
224.573	-14.25
224.808	-13.25
225.042	-1.25
225.277	5.75
225.511	-4.25
225.746	-0.25
225.98	-5.25
226.215	28.75
226.449	10.75
226.683	11.75
226.918	18.75
227.152	10.75
227.387	31.75
227.621	39.75
227.856	49.75
228.09	34.75
228.324	55.75
228.559	63.75
228.793	55.75
229.027	46.75
229.262	53.75
229.496	51.75
229.73	65.75
229.964	72.75
230.199	56.75
230.433	72.75
230.667	72.75
230.901	74.75
231.136	76.75
231.37	76.75
231.604	82.75
231.838	66.75
232.072	66.75
232.306	91.75
232.541	82.75
232.775	74.75
233.009	84.75
233.243	84.75
233.477	86.75
233.711	77.75
233.945	80.75
234.179	67.75
234.413	74.75
234.647	70.75
234.881	85.75
235.115	69.75
235.349	69.75
235.583	68.75
235.817	93.75
236.051	79.75
236.285	80.75
236.519	70.75
236.753	85.75
236.987	65.75
237.221	79.75
237.455	83.75
237.689	74.75
237.922	81.75
238.156	67.75
238.39	75.75
238.624	83.75
238.858	70.75
239.091	65.75
239.325	65.75
239.559	68.75
239.793	67.75
240.027	71.75
240.26	79.75
240.494	67.75
240.728	73.75
240.961	67.75
241.195	77.75
241.429	95.75
241.662	70.75
241.896	65.75
242.13	70.75
242.363	69.75
242.597	69.75
242.83	68.75
243.064	65.75
243.298	75.75
243.531	81.75
243.765	82.75
243.998	67.75
244.232	83.75
244.465	62.75
244.699	88.75
244.932	80.75
245.166	83.75
245.399	83.75
245.633	78.75
245.866	72.75
246.099	78.75
246.333	74.75
246.566	68.75
246.8	65.75
247.033	76.75
247.266	72.75
247.5	73.75
247.733	83.75
247.966	79.75
248.2	72.75
248.433	83.75
248.666	73.75
248.899	72.75
249.133	81.75
249.366	72.75
249.599	70.75
249.832	83.75
250.066	76.75
250.299	95.75
250.532	77.75
250.765	89.75
250.998	76.75
251.231	79.75
251.465	75.75
251.698	64.75
251.931	73.75
252.164	78.75
252.397	80.75
252.63	83.75
252.863	76.75
253.096	85.75
253.329	77.75
253.562	78.75
253.795	76.75
254.028	70.75
254.261	48.75
254.494	76.75
254.727	82.75
254.96	73.75
255.193	71.75
255.426	75.75
255.659	74.75
255.892	66.75
256.124	84.75
256.357	81.75
256.59	77.75
256.823	68.75
257.056	88.75
257.289	67.75
257.521	76.75
257.754	73.75
257.987	72.75
258.22	85.75
258.452	88.75
258.685	91.75
258.918	72.75
259.151	77.75
259.383	79.75
259.616	83.75
259.849	72.75
260.081	74.75
260.314	73.75
260.547	75.75
260.779	67.75
261.012	75.75
261.244	74.75
261.477	82.75
261.71	75.75
261.942	78.75
262.175	83.75
262.407	81.75
262.64	73.75
262.872	94.75
263.105	88.75
263.337	74.75
263.57	81.75
263.802	80.75
264.035	76.75
264.267	81.75
264.499	92.75
264.732	75.75
264.964	74.75
265.197	85.75
265.429	67.75
265.661	85.75
265.894	84.75
266.126	67.75
266.358	75.75
266.591	89.75
266.823	80.75
267.055	84.75
267.287	77.75
267.52	92.75
267.752	84.75
267.984	89.75
268.216	89.75
268.448	64.75
268.681	70.75
268.913	71.75
269.145	78.75
269.377	82.75
269.609	83.75
269.841	79.75
270.073	88.75
270.306	84.75
270.538	71.75
270.77	77.75
271.002	87.75
271.234	76.75
271.466	79.75
271.698	69.75
271.93	69.75
272.162	85.75
272.394	72.75
272.626	86.75
272.858	93.75
273.09	84.75
273.322	76.75
273.553	85.75
273.785	77.75
274.017	77.75
274.249	90.75
274.481	73.75
274.713	91.75
274.945	98.75
275.176	83.75
275.408	66.75
275.64	66.75
275.872	75.75
276.104	85.75
276.335	93.75
276.567	85.75
276.799	75.75
277.031	83.75
277.262	93.75
277.494	81.75
277.726	83.75
277.957	75.75
278.189	67.75
278.421	72.75
278.652	79.75
278.884	69.75
279.115	100.75
279.347	80.75
279.579	81.75
279.81	75.75
280.042	79.75
280.273	79.75
280.505	61.75
280.736	89.75
280.968	67.75
281.199	81.75
281.431	81.75
281.662	70.75
281.894	87.75
282.125	79.75
282.356	83.75
282.588	88.75
282.819	84.75
283.051	73.75
283.282	91.75
283.513	74.75
283.745	83.75
283.976	91.75
284.207	82.75
284.439	63.75
284.67	79.75
284.901	83.75
285.132	85.75
285.364	85.75
285.595	77.75
285.826	97.75
286.057	92.75
286.288	83.75
286.52	83.75
286.751	91.75
286.982	78.75
287.213	72.75
287.444	64.75
287.675	81.75
287.906	87.75
288.138	73.75
288.369	81.75
288.6	73.75
288.831	66.75
289.062	80.75
289.293	82.75
289.524	89.75
289.755	71.75
289.986	67.75
290.217	77.75
290.448	76.75
290.679	78.75
290.91	76.75
291.141	88.75
291.371	68.75
291.602	78.75
291.833	97.75
292.064	87.75
292.295	81.75
292.526	69.75
292.757	77.75
292.987	84.75
293.218	68.75
293.449	88.75
293.68	71.75
293.91	60.75
294.141	63.75
294.372	82.75
294.603	89.75
294.833	89.75
295.064	95.75
295.295	88.75
295.525	71.75
295.756	83.75
295.987	75.75
296.217	78.75
296.448	87.75
296.679	88.75
296.909	84.75
297.14	94.75
297.37	85.75
297.601	91.75
297.831	67.75
298.062	94.75
298.292	81.75
298.523	79.75
298.753	91.75
298.984	74.75
299.214	78.75
299.445	75.75
299.675	88.75
299.905	71.75
300.136	83.75
300.366	95.75
300.597	80.75
300.827	87.75
301.057	75.75
301.288	80.75
301.518	81.75
301.748	79.75
301.979	81.75
302.209	81.75
302.439	83.75
302.669	80.75
302.9	65.75
303.13	79.75
303.36	75.75
303.59	94.75
303.82	86.75
304.051	87.75
304.281	97.75
304.511	82.75
304.741	77.75
304.971	79.75
305.201	90.75
305.431	84.75
305.661	87.75
305.891	83.75
306.121	99.75
306.352	78.75
306.582	75.75
306.812	80.75
307.042	69.75
307.272	81.75
307.502	72.75
307.731	79.75
307.961	92.75
308.191	64.75
308.421	98.75
308.651	87.75
308.881	84.75
309.111	87.75
309.341	82.75
309.571	81.75
309.8	78.75
310.03	87.75
310.26	87.75
310.49	81.75
310.72	85.75
310.949	73.75
311.179	86.75
311.409	69.75
311.639	77.75
311.868	81.75
312.098	86.75
312.328	90.75
312.557	91.75
312.787	83.75
313.017	87.75
313.246	76.75
313.476	77.75
313.706	81.75
313.935	81.75
314.165	87.75
314.394	82.75
314.624	84.75
314.853	87.75
315.083	88.75
315.312	91.75
315.542	77.75
315.771	80.75
316.001	92.75
316.23	79.75
316.46	87.75
316.689	91.75
316.919	80.75
317.148	84.75
317.377	86.75
317.607	84.75
317.836	74.75
318.065	81.75
318.295	79.75
318.524	80.75
318.753	85.75
318.983	85.75
319.212	76.75
319.441	82.75
319.67	83.75
319.9	81.75
320.129	77.75
320.358	85.75
320.587	76.75
320.816	86.75
321.046	82.75
321.275	63.75
321.504	75.75
321.733	68.75
321.962	72.75
322.191	81.75
322.42	72.75
322.649	82.75
322.878	79.75
323.108	80.75
323.337	87.75
323.566	59.75
323.795	84.75
324.024	80.75
324.253	78.75
324.482	91.75
324.71	84.75
324.939	70.75
325.168	71.75
325.397	93.75
325.626	76.75
325.855	63.75
326.084	87.75
326.313	76.75
326.542	76.75
326.77	70.75
326.999	73.75
327.228	88.75
327.457	74.75
327.686	87.75
327.914	90.75
328.143	89.75
328.372	80.75
328.6	65.75
328.829	86.75
329.058	73.75
329.287	78.75
329.515	81.75
329.744	68.75
329.972	91.75
330.201	93.75
330.43	83.75
330.658	66.75
330.887	80.75
331.115	89.75
331.344	73.75
331.572	98.75
331.801	81.75
332.03	75.75
332.258	77.75
332.486	68.75
332.715	76.75
332.943	73.75
333.172	77.75
333.4	89.75
333.629	96.75
333.857	85.75
334.085	89.75
334.314	76.75
334.542	97.75
334.771	81.75
334.999	92.75
335.227	75.75
335.455	80.75
335.684	88.75
335.912	92.75
336.14	84.75
336.369	77.75
336.597	88.75
336.825	83.75
337.053	73.75
337.281	75.75
337.51	97.75
337.738	91.75
337.966	80.75
338.194	77.75
338.422	74.75
338.65	88.75
338.878	89.75
339.106	82.75
339.334	91.75
339.562	69.75
339.79	77.75
340.018	77.75
340.246	86.75
340.474	77.75
340.702	92.75
340.93	71.75
341.158	78.75
341.386	86.75
341.614	69.75
341.842	76.75
342.07	75.75
342.298	74.75
342.526	75.75
342.754	73.75
342.981	78.75
343.209	81.75
343.437	89.75
343.665	85.75
343.893	72.75
344.12	85.75
344.348	71.75
344.576	74.75
344.804	79.75
345.031	78.75
345.259	79.75
345.487	77.75
345.714	76.75
345.942	92.75
346.17	88.75
346.397	77.75
346.625	76.75
346.853	84.75
347.08	91.75
347.308	82.75
347.535	82.75
347.763	80.75
347.99	90.75
348.218	74.75
348.445	69.75
348.673	79.75
348.9	81.75
349.128	72.75
349.355	88.75
349.583	84.75
349.81	86.75
350.037	92.75
350.265	79.75
350.492	81.75
350.72	77.75
350.947	77.75
351.174	94.75
351.402	90.75
351.629	73.75
351.856	68.75
352.083	70.75
352.311	69.75
352.538	64.75
352.765	83.75
352.992	69.75
353.22	80.75
353.447	79.75
353.674	75.75
353.901	86.75
354.128	80.75
354.355	69.75
354.583	83.75
354.81	84.75
355.037	77.75
355.264	78.75
355.491	82.75
355.718	82.75
355.945	84.75
356.172	102.75
356.399	84.75
356.626	71.75
356.853	89.75
357.08	99.75
357.307	88.75
357.534	79.75
357.761	69.75
357.988	93.75
358.215	79.75
358.441	83.75
358.668	71.75
358.895	78.75
359.122	85.75
359.349	86.75
359.576	65.75
359.802	87.75
360.029	77.75
360.256	88.75
360.483	70.75
360.709	75.75
360.936	89.75
361.163	74.75
361.39	81.75
361.616	74.75
361.843	82.75
362.07	94.75
362.296	88.75
362.523	74.75
362.749	80.75
362.976	75.75
363.203	83.75
363.429	78.75
363.656	105.75
363.882	69.75
364.109	70.75
364.335	85.75
364.562	89.75
364.788	75.75
365.015	81.75
365.241	77.75
365.468	82.75
365.694	90.75
365.92	83.75
366.147	87.75
366.373	65.75
366.599	78.75
366.826	83.75
367.052	82.75
367.278	67.75
367.505	76.75
367.731	80.75
367.957	84.75
368.184	82.75
368.41	86.75
368.636	90.75
368.862	84.75
369.089	79.75
369.315	79.75
369.541	74.75
369.767	76.75
369.993	76.75
370.219	83.75
370.445	84.75
370.672	84.75
370.898	55.75
371.124	74.75
371.35	75.75
371.576	71.75
371.802	85.75
372.028	90.75
372.254	70.75
372.48	70.75
372.706	79.75
372.932	79.75
373.158	84.75
373.384	90.75
373.61	72.75
373.835	69.75
374.061	91.75
374.287	87.75
374.513	72.75
374.739	72.75
374.965	75.75
375.191	80.75
375.416	65.75
375.642	83.75
375.868	81.75
376.094	91.75
376.319	71.75
376.545	79.75
376.771	75.75
376.997	95.75
377.222	87.75
377.448	76.75
377.674	87.75
377.899	82.75
378.125	82.75
378.35	87.75
378.576	81.75
378.802	71.75
379.027	70.75
379.253	87.75
379.478	79.75
379.704	65.75
379.929	75.75
380.155	73.75
380.38	73.75
380.606	76.75
380.831	67.75
381.057	92.75
381.282	77.75
381.507	60.75
381.733	72.75
381.958	80.75
382.184	80.75
382.409	94.75
382.634	81.75
382.86	69.75
383.085	80.75
383.31	92.75
383.535	94.75
383.761	82.75
383.986	93.75
384.211	81.75
384.436	76.75
384.662	87.75
384.887	85.75
385.112	79.75
385.337	65.75
385.562	76.75
385.787	81.75
386.013	90.75
386.238	91.75
386.463	84.75
386.688	89.75
386.913	81.75
387.138	84.75
387.363	69.75
387.588	83.75
387.813	88.75
388.038	81.75
388.263	72.75
388.488	87.75
388.713	83.75
388.938	87.75
389.163	80.75
389.387	83.75
389.612	84.75
389.837	72.75
390.062	72.75
390.287	73.75
390.512	72.75
390.736	81.75
390.961	75.75
391.186	80.75
391.411	73.75
391.636	64.75
391.86	79.75
392.085	80.75
392.31	84.75
392.534	66.75
392.759	83.75
392.984	73.75
393.208	79.75
393.433	83.75
393.658	72.75
393.882	81.75
394.107	80.75
394.331	72.75
394.556	87.75
394.78	57.75
395.005	68.75
395.229	76.75
395.454	87.75
395.678	81.75
395.903	71.75
396.127	75.75
396.352	73.75
396.576	79.75
396.801	74.75
397.025	73.75
397.249	79.75
397.474	77.75
397.698	91.75
397.922	84.75
398.147	70.75
398.371	79.75
398.595	75.75
398.82	85.75
399.044	86.75
399.268	73.75
399.492	77.75
399.717	75.75
399.941	69.75
400.165	73.75
400.389	68.75
400.613	84.75
400.837	89.75
401.062	85.75
401.286	81.75
401.51	84.75
401.734	80.75
401.958	86.75
402.182	84.75
402.406	75.75
402.63	80.75
402.854	77.75
403.078	84.75
403.302	78.75
403.526	67.75
403.75	83.75
403.974	84.75
404.198	77.75
404.422	75.75
404.645	80.75
404.869	79.75
405.093	80.75
405.317	94.75
405.541	87.75
405.765	88.75
405.988	93.75
406.212	77.75
406.436	73.75
406.66	82.75
406.883	79.75
407.107	78.75
407.331	81.75
407.555	80.75
407.778	67.75
408.002	97.75
408.226	83.75
408.449	82.75
408.673	73.75
408.896	81.75
409.12	82.75
409.344	80.75
409.567	76.75
409.791	73.75
410.014	85.75
410.238	83.75
410.461	81.75
410.685	73.75
410.908	82.75
411.132	80.75
411.355	78.75
411.578	80.75
411.802	88.75
412.025	72.75
412.249	80.75
412.472	78.75
412.695	76.75
412.919	93.75
413.142	83.75
413.365	83.75
413.589	78.75
413.812	75.75
414.035	74.75
414.258	80.75
414.482	75.75
414.705	82.75
414.928	92.75
415.151	81.75
415.374	59.75
415.597	77.75
415.821	81.75
416.044	82.75
416.267	87.75
416.49	80.75
416.713	73.75
416.936	72.75
417.159	93.75
417.382	89.75
417.605	67.75
417.828	80.75
418.051	81.75
418.274	80.75
418.497	72.75
418.72	75.75
418.943	75.75
419.166	85.75
419.389	77.75
419.611	74.75
419.834	87.75
420.057	84.75
420.28	72.75
420.503	69.75
420.726	84.75
420.948	81.75
421.171	72.75
421.394	76.75
421.617	89.75
421.839	83.75
422.062	78.75
422.285	79.75
422.507	83.75
422.73	92.75
422.953	85.75
423.175	65.75
423.398	88.75
423.621	74.75
423.843	81.75
424.066	65.75
424.288	80.75
424.511	91.75
424.733	69.75
424.956	88.75
425.178	75.75
425.401	74.75
425.623	84.75
425.846	81.75
426.068	88.75
426.291	76.75
426.513	85.75
426.735	95.75
426.958	95.75
427.18	83.75
427.402	81.75
427.625	76.75
427.847	90.75
428.069	87.75
428.292	90.75
428.514	75.75
428.736	84.75
428.958	83.75
429.181	75.75
429.403	71.75
429.625	76.75
429.847	75.75
430.069	81.75
430.292	77.75
430.514	84.75
430.736	75.75
430.958	75.75
431.18	76.75
431.402	70.75
431.624	66.75
431.846	76.75
432.068	91.75
432.29	83.75
432.512	82.75
432.734	76.75
432.956	81.75
433.178	91.75
433.4	68.75
433.622	74.75
433.844	83.75
434.066	78.75
434.287	91.75
434.509	71.75
434.731	91.75
434.953	88.75
435.175	88.75
435.397	88.75
435.618	71.75
435.84	75.75
436.062	74.75
436.284	59.75
436.505	84.75
436.727	76.75
436.949	88.75
437.17	67.75
437.392	71.75
437.614	65.75
437.835	82.75
438.057	70.75
438.278	65.75
438.5	73.75
438.721	77.75
438.943	86.75
439.165	67.75
439.386	75.75
439.608	88.75
439.829	74.75
440.05	81.75
440.272	79.75
440.493	69.75
440.715	69.75
440.936	87.75
441.158	81.75
441.379	73.75
441.6	77.75
441.822	88.75
442.043	67.75
442.264	80.75
442.486	88.75
442.707	78.75
442.928	83.75
443.149	88.75
443.371	86.75
443.592	87.75
443.813	84.75
444.034	78.75
444.255	88.75
444.476	82.75
444.698	82.75
444.919	85.75
445.14	130.75
445.361	94.75
445.582	81.75
445.803	83.75
446.024	70.75
446.245	84.75
446.466	69.75
446.687	70.75
446.908	84.75
447.129	68.75
447.35	70.75
447.571	84.75
447.792	86.75
448.013	73.75
448.234	83.75
448.455	73.75
448.675	81.75
448.896	89.75
449.117	76.75
449.338	68.75
449.559	86.75
449.779	86.75
450	69.75
450.221	85.75
450.442	83.75
450.662	71.75
450.883	81.75
451.104	81.75
451.324	83.75
451.545	74.75
451.766	72.75
451.986	83.75
452.207	68.75
452.428	86.75
452.648	79.75
452.869	83.75
453.089	88.75
453.31	78.75
453.53	82.75
453.751	82.75
453.971	76.75
454.192	58.75
454.412	80.75
454.633	91.75
454.853	78.75
455.073	71.75
455.294	68.75
455.514	78.75
455.734	70.75
455.955	73.75
456.175	81.75
456.395	84.75
456.616	67.75
456.836	69.75
457.056	75.75
457.276	79.75
457.497	75.75
457.717	81.75
457.937	72.75
458.157	88.75
458.377	67.75
458.598	67.75
458.818	79.75
459.038	80.75
459.258	73.75
459.478	79.75
459.698	74.75
459.918	74.75
460.138	81.75
460.358	74.75
460.578	69.75
460.798	76.75
461.018	91.75
461.238	89.75
461.458	70.75
461.678	78.75
461.898	78.75
462.118	75.75
462.338	70.75
462.558	91.75
462.777	75.75
462.997	81.75
463.217	85.75
463.437	83.75
463.657	79.75
463.876	89.75
464.096	72.75
464.316	83.75
464.536	76.75
464.755	81.75
464.975	85.75
465.195	89.75
465.414	79.75
465.634	79.75
465.854	75.75
466.073	81.75
466.293	83.75
466.512	75.75
466.732	77.75
466.951	64.75
467.171	87.75
467.391	80.75
467.61	73.75
467.829	62.75
468.049	63.75
468.268	76.75
468.488	84.75
468.707	75.75
468.927	77.75
469.146	83.75
469.365	83.75
469.585	73.75
469.804	87.75
470.023	75.75
470.243	75.75
470.462	79.75
470.681	77.75
470.901	87.75
471.12	77.75
471.339	86.75
471.558	85.75
471.777	80.75
471.997	81.75
472.216	84.75
472.435	68.75
472.654	86.75
472.873	82.75
473.092	69.75
473.311	76.75
473.53	87.75
473.749	63.75
473.968	79.75
474.187	79.75
474.406	90.75
474.625	65.75
474.844	73.75
475.063	84.75
475.282	91.75
475.501	88.75
475.72	77.75
475.939	77.75
476.158	79.75
476.377	82.75
476.596	85.75
476.814	83.75
477.033	75.75
477.252	84.75
477.471	87.75
477.69	77.75
477.908	57.75
478.127	91.75
478.346	72.75
478.564	65.75
478.783	71.75
479.002	72.75
479.22	82.75
479.439	78.75
479.658	64.75
479.876	82.75
480.095	98.75
480.313	88.75
480.532	69.75
480.751	77.75
480.969	69.75
481.188	64.75
481.406	84.75
481.624	80.75
481.843	73.75
482.061	83.75
482.28	88.75
482.498	75.75
482.717	71.75
482.935	84.75
483.153	62.75
483.372	84.75
483.59	91.75
483.808	85.75
484.027	75.75
484.245	73.75
484.463	80.75
484.681	84.75
484.9	92.75
485.118	85.75
485.336	79.75
485.554	87.75
485.772	96.75
485.99	77.75
486.209	65.75
486.427	70.75
486.645	73.75
486.863	91.75
487.081	81.75
487.299	78.75
487.517	87.75
487.735	91.75
487.953	57.75
488.171	82.75
488.389	92.75
488.607	81.75
488.825	87.75
489.043	81.75
489.261	81.75
489.479	88.75
489.696	91.75
489.914	79.75
490.132	97.75
490.35	91.75
490.568	84.75
490.786	73.75
491.003	87.75
491.221	79.75
491.439	80.75
491.657	73.75
491.874	74.75
492.092	89.75
492.31	76.75
492.527	77.75
492.745	68.75
492.963	88.75
493.18	78.75
493.398	71.75
493.615	81.75
493.833	80.75
494.05	72.75
494.268	75.75
494.485	88.75
494.703	93.75
494.92	82.75
495.138	85.75
495.355	71.75
495.573	82.75
495.79	76.75
496.008	71.75
496.225	76.75
496.442	89.75
496.66	77.75
496.877	77.75
497.094	79.75
497.312	89.75
497.529	72.75
497.746	91.75
497.963	73.75
498.181	70.75
498.398	74.75
498.615	78.75
498.832	76.75
499.049	78.75
499.267	76.75
499.484	76.75
499.701	97.75
499.918	82.75
500.135	95.75
500.352	79.75
500.569	81.75
500.786	99.75
501.003	83.75
501.22	77.75
501.437	75.75
501.654	74.75
501.871	80.75
502.088	74.75
502.305	72.75
502.522	73.75
502.739	82.75
502.956	79.75
503.172	75.75
503.389	89.75
503.606	86.75
503.823	86.75
504.04	89.75
504.256	92.75
504.473	82.75
504.69	76.75
504.907	77.75
505.123	84.75
505.34	91.75
505.557	74.75
505.773	85.75
505.99	87.75
506.207	82.75
506.423	84.75
506.64	84.75
506.856	77.75
507.073	79.75
507.289	77.75
507.506	86.75
507.722	76.75
507.939	88.75
508.155	74.75
508.372	84.75
508.588	85.75
508.805	75.75
509.021	86.75
509.238	88.75
509.454	75.75
509.67	71.75
509.887	63.75
510.103	68.75
510.319	79.75
510.536	69.75
510.752	73.75
510.968	88.75
511.184	74.75
511.401	74.75
511.617	82.75
511.833	71.75
512.049	89.75
512.265	84.75
512.481	75.75
512.698	85.75
512.914	83.75
513.13	69.75
513.346	85.75
513.562	84.75
513.778	90.75
513.994	84.75
514.21	80.75
514.426	94.75
514.642	72.75
514.858	85.75
515.074	83.75
515.29	78.75
515.506	90.75
515.721	86.75
515.937	69.75
516.153	70.75
516.369	67.75
516.585	79.75
516.801	79.75
517.016	80.75
517.232	76.75
517.448	84.75
517.664	79.75
517.879	80.75
518.095	77.75
518.311	88.75
518.527	77.75
518.742	71.75
518.958	84.75
519.173	80.75
519.389	85.75
519.605	77.75
519.82	89.75
520.036	77.75
520.251	64.75
