Data from Background_2_HRD10591_00063.txt Node
Date: Wed Nov 05 14:47:27 EST 2025
User: Yrep
Spectrometer: HR+D1059
Trigger mode: 1
Integration Time (sec): 1.000000E-1
Scans to average: 1
Electric dark correction enabled: true
Nonlinearity correction enabled: false
Boxcar width: 0
XAxis mode: Wavelengths
Number of Pixels in Spectrum: 2048
>>>>>Begin Spectral Data<<<<<
223.165	-18
223.4	-18
223.635	-18
223.869	-15
224.104	-23
224.338	-9
224.573	-7
224.808	-7
225.042	-1
225.277	-6
225.511	-5
225.746	5
225.98	-4
226.215	4
226.449	19
226.683	29
226.918	15
227.152	23
227.387	36
227.621	38
227.856	46
228.09	45
228.324	42
228.559	49
228.793	56
229.027	65
229.262	72
229.496	57
229.73	63
229.964	68
230.199	71
230.433	81
230.667	86
230.901	72
231.136	76
231.37	94
231.604	65
231.838	79
232.072	82
232.306	73
232.541	93
232.775	86
233.009	72
233.243	85
233.477	98
233.711	85
233.945	86
234.179	77
234.413	77
234.647	87
234.881	86
235.115	83
235.349	87
235.583	86
235.817	80
236.051	74
236.285	81
236.519	75
236.753	79
236.987	86
237.221	82
237.455	81
237.689	77
237.922	68
238.156	92
238.39	72
238.624	81
238.858	85
239.091	80
239.325	75
239.559	63
239.793	79
240.027	89
240.26	78
240.494	81
240.728	81
240.961	84
241.195	73
241.429	90
241.662	89
241.896	76
242.13	69
242.363	70
242.597	78
242.83	71
243.064	69
243.298	86
243.531	81
243.765	78
243.998	84
244.232	87
244.465	89
244.699	79
244.932	86
245.166	69
245.399	69
245.633	76
245.866	77
246.099	108
246.333	71
246.566	55
246.8	76
247.033	58
247.266	77
247.5	69
247.733	83
247.966	75
248.2	82
248.433	90
248.666	95
248.899	82
249.133	89
249.366	87
249.599	76
249.832	67
250.066	78
250.299	71
250.532	79
250.765	62
250.998	91
251.231	89
251.465	60
251.698	81
251.931	75
252.164	68
252.397	95
252.63	94
252.863	79
253.096	89
253.329	79
253.562	81
253.795	87
254.028	82
254.261	74
254.494	93
254.727	93
254.96	76
255.193	85
255.426	80
255.659	82
255.892	84
256.124	85
256.357	85
256.59	85
256.823	93
257.056	83
257.289	82
257.521	69
257.754	89
257.987	83
258.22	72
258.452	82
258.685	85
258.918	82
259.151	88
259.383	79
259.616	81
259.849	85
260.081	83
260.314	82
260.547	79
260.779	93
261.012	83
261.244	84
261.477	81
261.71	69
261.942	77
262.175	100
262.407	86
262.64	81
262.872	91
263.105	94
263.337	96
263.57	78
263.802	72
264.035	84
264.267	69
264.499	88
264.732	83
264.964	86
265.197	89
265.429	95
265.661	89
265.894	93
266.126	89
266.358	86
266.591	78
266.823	95
267.055	79
267.287	81
267.52	76
267.752	62
267.984	87
268.216	83
268.448	89
268.681	92
268.913	94
269.145	79
269.377	86
269.609	81
269.841	91
270.073	94
270.306	72
270.538	76
270.77	85
271.002	91
271.234	97
271.466	75
271.698	90
271.93	89
272.162	91
272.394	84
272.626	77
272.858	85
273.09	84
273.322	85
273.553	90
273.785	68
274.017	91
274.249	97
274.481	74
274.713	73
274.945	92
275.176	81
275.408	89
275.64	85
275.872	86
276.104	89
276.335	84
276.567	84
276.799	92
277.031	95
277.262	81
277.494	75
277.726	77
277.957	89
278.189	89
278.421	78
278.652	82
278.884	91
279.115	84
279.347	92
279.579	78
279.81	82
280.042	66
280.273	98
280.505	90
280.736	82
280.968	97
281.199	93
281.431	91
281.662	83
281.894	91
282.125	87
282.356	95
282.588	81
282.819	86
283.051	81
283.282	89
283.513	85
283.745	81
283.976	84
284.207	86
284.439	82
284.67	77
284.901	80
285.132	97
285.364	86
285.595	62
285.826	85
286.057	97
286.288	70
286.52	86
286.751	72
286.982	85
287.213	93
287.444	93
287.675	99
287.906	85
288.138	83
288.369	96
288.6	81
288.831	101
289.062	87
289.293	88
289.524	84
289.755	89
289.986	91
290.217	90
290.448	99
290.679	82
290.91	77
291.141	90
291.371	89
291.602	75
291.833	94
292.064	72
292.295	83
292.526	80
292.757	92
292.987	81
293.218	79
293.449	86
293.68	73
293.91	89
294.141	80
294.372	86
294.603	78
294.833	100
295.064	82
295.295	82
295.525	77
295.756	91
295.987	81
296.217	78
296.448	82
296.679	87
296.909	83
297.14	84
297.37	87
297.601	77
297.831	74
298.062	77
298.292	91
298.523	91
298.753	75
298.984	74
299.214	81
299.445	91
299.675	82
299.905	103
300.136	86
300.366	93
300.597	85
300.827	96
301.057	80
301.288	84
301.518	83
301.748	96
301.979	108
302.209	83
302.439	85
302.669	91
302.9	85
303.13	84
303.36	85
303.59	86
303.82	85
304.051	65
304.281	82
304.511	99
304.741	85
304.971	76
305.201	82
305.431	73
305.661	91
305.891	82
306.121	89
306.352	95
306.582	83
306.812	84
307.042	101
307.272	87
307.502	88
307.731	89
307.961	85
308.191	85
308.421	83
308.651	90
308.881	88
309.111	85
309.341	88
309.571	85
309.8	83
310.03	69
310.26	87
310.49	83
310.72	73
310.949	98
311.179	73
311.409	72
311.639	84
311.868	73
312.098	75
312.328	83
312.557	98
312.787	84
313.017	83
313.246	98
313.476	79
313.706	81
313.935	87
314.165	95
314.394	92
314.624	74
314.853	97
315.083	84
315.312	77
315.542	84
315.771	77
316.001	81
316.23	80
316.46	99
316.689	80
316.919	85
317.148	86
317.377	84
317.607	74
317.836	99
318.065	80
318.295	94
318.524	90
318.753	81
318.983	92
319.212	82
319.441	94
319.67	91
319.9	88
320.129	77
320.358	89
320.587	96
320.816	96
321.046	94
321.275	80
321.504	81
321.733	87
321.962	83
322.191	98
322.42	73
322.649	91
322.878	83
323.108	87
323.337	70
323.566	80
323.795	90
324.024	85
324.253	89
324.482	71
324.71	72
324.939	105
325.168	71
325.397	86
325.626	81
325.855	90
326.084	80
326.313	62
326.542	78
326.77	64
326.999	81
327.228	83
327.457	82
327.686	66
327.914	85
328.143	83
328.372	96
328.6	72
328.829	78
329.058	84
329.287	69
329.515	78
329.744	99
329.972	89
330.201	78
330.43	81
330.658	81
330.887	66
331.115	89
331.344	81
331.572	91
331.801	89
332.03	82
332.258	85
332.486	94
332.715	99
332.943	66
333.172	65
333.4	87
333.629	84
333.857	83
334.085	81
334.314	84
334.542	82
334.771	88
334.999	80
335.227	85
335.455	90
335.684	96
335.912	82
336.14	84
336.369	68
336.597	83
336.825	81
337.053	93
337.281	78
337.51	87
337.738	86
337.966	67
338.194	74
338.422	81
338.65	91
338.878	86
339.106	92
339.334	95
339.562	70
339.79	86
340.018	79
340.246	85
340.474	69
340.702	83
340.93	93
341.158	80
341.386	78
341.614	86
341.842	79
342.07	79
342.298	75
342.526	86
342.754	91
342.981	86
343.209	85
343.437	96
343.665	78
343.893	76
344.12	91
344.348	83
344.576	71
344.804	80
345.031	93
345.259	87
345.487	83
345.714	93
345.942	80
346.17	82
346.397	89
346.625	81
346.853	80
347.08	90
347.308	86
347.535	76
347.763	81
347.99	89
348.218	88
348.445	88
348.673	79
348.9	101
349.128	81
349.355	75
349.583	78
349.81	81
350.037	98
350.265	93
350.492	85
350.72	70
350.947	84
351.174	93
351.402	85
351.629	87
351.856	79
352.083	90
352.311	91
352.538	79
352.765	97
352.992	94
353.22	81
353.447	73
353.674	87
353.901	71
354.128	70
354.355	76
354.583	88
354.81	83
355.037	81
355.264	82
355.491	83
355.718	93
355.945	81
356.172	82
356.399	86
356.626	95
356.853	81
357.08	80
357.307	83
357.534	93
357.761	104
357.988	90
358.215	89
358.441	79
358.668	83
358.895	83
359.122	78
359.349	75
359.576	83
359.802	93
360.029	100
360.256	85
360.483	91
360.709	94
360.936	70
361.163	89
361.39	88
361.616	82
361.843	71
362.07	84
362.296	83
362.523	81
362.749	81
362.976	86
363.203	85
363.429	91
363.656	85
363.882	83
364.109	96
364.335	92
364.562	84
364.788	79
365.015	65
365.241	89
365.468	83
365.694	78
365.92	82
366.147	85
366.373	84
366.599	89
366.826	73
367.052	94
367.278	101
367.505	90
367.731	87
367.957	78
368.184	88
368.41	85
368.636	92
368.862	98
369.089	66
369.315	76
369.541	83
369.767	82
369.993	89
370.219	85
370.445	75
370.672	82
370.898	81
371.124	81
371.35	76
371.576	95
371.802	83
372.028	87
372.254	89
372.48	70
372.706	79
372.932	81
373.158	73
373.384	70
373.61	75
373.835	78
374.061	86
374.287	80
374.513	86
374.739	70
374.965	94
375.191	85
375.416	86
375.642	90
375.868	80
376.094	97
376.319	79
376.545	80
376.771	90
376.997	98
377.222	89
377.448	99
377.674	85
377.899	92
378.125	89
378.35	83
378.576	74
378.802	90
379.027	78
379.253	81
379.478	81
379.704	83
379.929	75
380.155	78
380.38	76
380.606	79
380.831	74
381.057	85
381.282	78
381.507	77
381.733	75
381.958	95
382.184	82
382.409	85
382.634	87
382.86	80
383.085	85
383.31	84
383.535	88
383.761	89
383.986	87
384.211	90
384.436	82
384.662	95
384.887	86
385.112	74
385.337	101
385.562	83
385.787	75
386.013	83
386.238	96
386.463	84
386.688	86
386.913	77
387.138	89
387.363	72
387.588	88
387.813	77
388.038	85
388.263	89
388.488	84
388.713	82
388.938	105
389.163	84
389.387	91
389.612	89
389.837	91
390.062	71
390.287	78
390.512	86
390.736	87
390.961	74
391.186	86
391.411	86
391.636	87
391.86	92
392.085	70
392.31	81
392.534	85
392.759	93
392.984	95
393.208	76
393.433	77
393.658	84
393.882	79
394.107	85
394.331	93
394.556	85
394.78	92
395.005	81
395.229	90
395.454	89
395.678	82
395.903	93
396.127	86
396.352	91
396.576	78
396.801	83
397.025	87
397.249	85
397.474	71
397.698	85
397.922	75
398.147	93
398.371	88
398.595	75
398.82	63
399.044	85
399.268	81
399.492	83
399.717	95
399.941	95
400.165	79
400.389	79
400.613	72
400.837	74
401.062	71
401.286	83
401.51	82
401.734	71
401.958	78
402.182	88
402.406	81
402.63	70
402.854	77
403.078	87
403.302	80
403.526	78
403.75	84
403.974	74
404.198	87
404.422	101
404.645	78
404.869	83
405.093	99
405.317	82
405.541	76
405.765	89
405.988	83
406.212	81
406.436	81
406.66	79
406.883	82
407.107	78
407.331	77
407.555	81
407.778	75
408.002	91
408.226	92
408.449	86
408.673	78
408.896	83
409.12	72
409.344	87
409.567	68
409.791	67
410.014	75
410.238	75
410.461	94
410.685	82
410.908	75
411.132	88
411.355	71
411.578	98
411.802	85
412.025	78
412.249	70
412.472	84
412.695	83
412.919	80
413.142	92
413.365	79
413.589	92
413.812	71
414.035	89
414.258	69
414.482	75
414.705	93
414.928	82
415.151	78
415.374	92
415.597	71
415.821	78
416.044	87
416.267	81
416.49	90
416.713	76
416.936	74
417.159	78
417.382	77
417.605	79
417.828	75
418.051	67
418.274	85
418.497	81
418.72	79
418.943	80
419.166	81
419.389	81
419.611	77
419.834	94
420.057	68
420.28	91
420.503	79
420.726	84
420.948	81
421.171	71
421.394	87
421.617	64
421.839	86
422.062	81
422.285	81
422.507	85
422.73	84
422.953	79
423.175	88
423.398	82
423.621	93
423.843	81
424.066	67
424.288	71
424.511	90
424.733	76
424.956	96
425.178	93
425.401	84
425.623	80
425.846	75
426.068	89
426.291	76
426.513	83
426.735	84
426.958	93
427.18	84
427.402	89
427.625	83
427.847	83
428.069	77
428.292	85
428.514	79
428.736	90
428.958	84
429.181	83
429.403	80
429.625	87
429.847	85
430.069	71
430.292	59
430.514	99
430.736	68
430.958	83
431.18	77
431.402	98
431.624	88
431.846	82
432.068	87
432.29	84
432.512	89
432.734	77
432.956	84
433.178	87
433.4	80
433.622	77
433.844	70
434.066	70
434.287	72
434.509	80
434.731	83
434.953	79
435.175	70
435.397	75
435.618	79
435.84	88
436.062	73
436.284	94
436.505	81
436.727	87
436.949	82
437.17	77
437.392	79
437.614	85
437.835	91
438.057	87
438.278	69
438.5	70
438.721	70
438.943	92
439.165	85
439.386	101
439.608	102
439.829	88
440.05	76
440.272	84
440.493	89
440.715	67
440.936	82
441.158	78
441.379	80
441.6	86
441.822	76
442.043	80
442.264	65
442.486	86
442.707	75
442.928	69
443.149	82
443.371	93
443.592	81
443.813	84
444.034	74
444.255	87
444.476	91
444.698	83
444.919	84
445.14	162
445.361	117
445.582	78
445.803	83
446.024	98
446.245	92
446.466	87
446.687	82
446.908	77
447.129	95
447.35	94
447.571	91
447.792	78
448.013	81
448.234	91
448.455	85
448.675	87
448.896	89
449.117	66
449.338	83
449.559	75
449.779	92
450	83
450.221	85
450.442	76
450.662	84
450.883	81
451.104	84
451.324	93
451.545	71
451.766	67
451.986	83
452.207	77
452.428	96
452.648	90
452.869	78
453.089	87
453.31	83
453.53	79
453.751	70
453.971	81
454.192	75
454.412	73
454.633	89
454.853	75
455.073	84
455.294	97
455.514	83
455.734	81
455.955	89
456.175	89
456.395	84
456.616	82
456.836	93
457.056	87
457.276	67
457.497	75
457.717	89
457.937	80
458.157	79
458.377	82
458.598	79
458.818	91
459.038	77
459.258	85
459.478	85
459.698	79
459.918	93
460.138	94
460.358	93
460.578	97
460.798	86
461.018	96
461.238	99
461.458	90
461.678	85
461.898	91
462.118	95
462.338	80
462.558	75
462.777	100
462.997	85
463.217	88
463.437	77
463.657	82
463.876	66
464.096	85
464.316	95
464.536	85
464.755	102
464.975	81
465.195	85
465.414	89
465.634	76
465.854	87
466.073	71
466.293	77
466.512	89
466.732	84
466.951	78
467.171	78
467.391	83
467.61	77
467.829	83
468.049	86
468.268	66
468.488	77
468.707	82
468.927	93
469.146	78
469.365	84
469.585	83
469.804	89
470.023	97
470.243	80
470.462	94
470.681	56
470.901	81
471.12	87
471.339	87
471.558	75
471.777	74
471.997	76
472.216	82
472.435	81
472.654	80
472.873	81
473.092	75
473.311	85
473.53	97
473.749	73
473.968	83
474.187	72
474.406	90
474.625	73
474.844	74
475.063	75
475.282	86
475.501	87
475.72	86
475.939	89
476.158	72
476.377	77
476.596	83
476.814	76
477.033	89
477.252	67
477.471	85
477.69	92
477.908	84
478.127	84
478.346	95
478.564	66
478.783	88
479.002	89
479.22	75
479.439	79
479.658	79
479.876	86
480.095	93
480.313	73
480.532	88
480.751	81
480.969	82
481.188	82
481.406	83
481.624	70
481.843	71
482.061	89
482.28	77
482.498	79
482.717	89
482.935	89
483.153	77
483.372	85
483.59	87
483.808	89
484.027	87
484.245	83
484.463	87
484.681	81
484.9	86
485.118	83
485.336	83
485.554	84
485.772	93
485.99	88
486.209	81
486.427	84
486.645	85
486.863	88
487.081	83
487.299	81
487.517	89
487.735	92
487.953	93
488.171	79
488.389	87
488.607	76
488.825	79
489.043	77
489.261	87
489.479	72
489.696	79
489.914	88
490.132	85
490.35	80
490.568	74
490.786	82
491.003	73
491.221	81
491.439	89
491.657	74
491.874	79
492.092	91
492.31	89
492.527	83
492.745	83
492.963	78
493.18	90
493.398	94
493.615	70
493.833	93
494.05	74
494.268	81
494.485	87
494.703	82
494.92	77
495.138	71
495.355	85
495.573	82
495.79	67
496.008	75
496.225	90
496.442	77
496.66	101
496.877	73
497.094	93
497.312	77
497.529	88
497.746	83
497.963	76
498.181	66
498.398	87
498.615	85
498.832	77
499.049	89
499.267	82
499.484	81
499.701	80
499.918	81
500.135	78
500.352	95
500.569	86
500.786	93
501.003	73
501.22	74
501.437	75
501.654	89
501.871	86
502.088	99
502.305	79
502.522	86
502.739	93
502.956	92
503.172	101
503.389	82
503.606	67
503.823	85
504.04	93
504.256	102
504.473	87
504.69	88
504.907	89
505.123	94
505.34	83
505.557	95
505.773	90
505.99	81
506.207	94
506.423	85
506.64	97
506.856	86
507.073	93
507.289	83
507.506	79
507.722	78
507.939	98
508.155	102
508.372	64
508.588	85
508.805	87
509.021	71
509.238	81
509.454	92
509.67	87
509.887	89
510.103	83
510.319	88
510.536	78
510.752	87
510.968	86
511.184	85
511.401	84
511.617	91
511.833	73
512.049	89
512.265	76
512.481	78
512.698	84
512.914	88
513.13	91
513.346	78
513.562	72
513.778	92
513.994	69
514.21	90
514.426	82
514.642	79
514.858	86
515.074	82
515.29	86
515.506	98
515.721	93
515.937	89
516.153	80
516.369	91
516.585	89
516.801	79
517.016	89
517.232	71
517.448	92
517.664	81
517.879	70
518.095	85
518.311	79
518.527	80
518.742	94
518.958	98
519.173	82
519.389	79
519.605	95
519.82	87
520.036	82
520.251	78
520.467	79
520.682	72
520.898	83
521.113	84
521.329	91
521.544	75
521.76	80
521.975	83
522.19	85
522.406	78
522.621	78
522.836	71
523.052	73
523.267	93
523.482	81
523.698	75
523.913	73
524.128	90
524.343	89
524.559	87
524.774	81
524.989	91
525.204	77
525.419	86
525.634	92
525.849	90
526.064	80
526.28	94
526.495	90
526.71	80
526.925	75
527.14	85
527.355	80
527.57	91
527.785	98
527.999	81
528.214	85
528.429	69
528.644	83
528.859	109
529.074	91
529.289	75
529.503	89
529.718	89
529.933	78
530.148	77
530.363	80
530.577	86
530.792	99
531.007	86
531.221	91
531.436	75
531.651	87
531.865	85
532.08	78
532.295	69
532.509	95
532.724	85
532.938	85
533.153	84
533.367	74
533.582	86
533.796	85
534.011	81
534.225	89
534.44	85
534.654	81
534.868	77
535.083	79
535.297	79
535.511	86
535.726	90
535.94	72
536.154	82
536.369	85
536.583	89
536.797	86
537.011	75
537.225	79
537.44	85
537.654	89
537.868	83
538.082	85
538.296	70
538.51	87
538.724	86
538.938	101
539.153	93
539.367	101
539.581	68
539.795	86
540.009	75
540.222	83
540.436	93
540.65	81
540.864	95
541.078	88
541.292	78
541.506	94
541.72	97
541.934	78
542.147	89
542.361	73
542.575	71
542.789	84
543.002	83
543.216	73
543.43	81
543.644	94
543.857	102
544.071	77
544.285	86
544.498	75
544.712	87
544.925	86
545.139	90
545.352	74
545.566	62
545.779	83
545.993	92
546.206	97
546.42	81
546.633	98
546.847	90
547.06	79
547.274	89
547.487	89
547.7	79
547.914	79
548.127	86
548.34	92
548.554	77
548.767	99
548.98	85
549.193	82
549.407	93
549.62	97
549.833	91
550.046	97
550.259	85
550.473	93
550.686	85
550.899	80
551.112	87
551.325	89
551.538	75
551.751	84
551.964	98
552.177	92
552.39	81
552.603	100
552.816	92
553.029	93
553.242	92
553.455	76
553.667	99
553.88	90
554.093	86
554.306	87
554.519	90
554.732	91
554.944	69
555.157	76
555.37	87
555.583	68
555.795	85
556.008	79
556.221	85
556.433	100
556.646	94
556.859	82
557.071	67
557.284	84
557.496	79
557.709	81
557.921	79
558.134	79
558.346	91
558.559	75
558.771	82
558.984	93
559.196	84
559.409	86
559.621	80
559.833	69
560.046	85
560.258	95
560.47	96
560.683	89
560.895	86
561.107	82
561.32	82
561.532	85
561.744	86
561.956	91
562.168	89
562.381	83
562.593	97
562.805	93
563.017	98
563.229	85
563.441	91
563.653	91
563.865	87
564.077	92
564.289	92
564.501	63
564.713	86
564.925	86
565.137	76
565.349	89
565.561	86
565.773	75
565.985	88
566.197	83
566.408	88
566.62	82
566.832	90
567.044	89
567.255	86
567.467	85
567.679	75
567.891	95
568.102	96
568.314	81
568.526	84
568.737	90
568.949	72
569.161	68
569.372	81
569.584	92
569.795	92
570.007	83
570.218	81
570.43	80
570.641	82
570.853	83
571.064	71
571.276	89
571.487	78
571.698	85
571.91	87
572.121	92
572.333	79
572.544	77
572.755	96
572.966	85
573.178	77
573.389	102
573.6	93
573.811	79
574.023	78
574.234	83
574.445	75
574.656	82
574.867	87
575.078	90
575.289	78
575.501	97
575.712	89
575.923	78
576.134	95
576.345	86
576.556	94
576.767	83
576.978	90
577.188	99
577.399	83
577.61	79
577.821	91
578.032	88
578.243	73
578.454	87
578.665	68
578.875	80
579.086	83
579.297	97
579.508	74
579.718	84
579.929	86
580.14	81
580.35	87
580.561	96
580.772	84
580.982	88
581.193	87
581.403	93
581.614	77
581.825	78
582.035	87
582.246	86
582.456	90
582.667	83
582.877	91
583.087	90
583.298	81
583.508	85
583.719	98
583.929	83
584.139	80
584.35	92
584.56	89
584.77	81
584.981	77
585.191	83
585.401	80
585.611	81
585.821	78
586.032	79
586.242	82
586.452	89
586.662	77
586.872	69
587.082	79
587.292	99
587.502	93
587.713	87
587.923	89
588.133	72
588.343	92
588.553	92
588.762	94
588.972	79
589.182	74
589.392	82
589.602	85
589.812	79
590.022	90
590.232	87
590.441	84
