Data from Background_2_HRD10591_00074.txt Node
Date: Wed Nov 05 14:47:33 EST 2025
User: Yrep
Spectrometer: HR+D1059
Trigger mode: 1
Integration Time (sec): 1.000000E-1
Scans to average: 1
Electric dark correction enabled: true
Nonlinearity correction enabled: false
Boxcar width: 0
XAxis mode: Wavelengths
Number of Pixels in Spectrum: 2048
>>>>>Begin Spectral Data<<<<<
223.165	-14.81
223.4	-14.81
223.635	-14.81
223.869	-17.81
224.104	-31.81
224.338	-20.81
224.573	-3.81
224.808	-10.81
225.042	1.19
225.277	-16.81
225.511	-2.81
225.746	-0.81
225.98	15.19
226.215	11.19
226.449	12.19
226.683	21.19
226.918	26.19
227.152	33.19
227.387	24.19
227.621	36.19
227.856	25.19
228.09	43.19
228.324	56.19
228.559	56.19
228.793	52.19
229.027	52.19
229.262	51.19
229.496	64.19
229.73	60.19
229.964	76.19
230.199	68.19
230.433	59.19
230.667	62.19
230.901	84.19
231.136	84.19
231.37	78.19
231.604	68.19
231.838	70.19
232.072	62.19
232.306	71.19
232.541	72.19
232.775	86.19
233.009	90.19
233.243	90.19
233.477	80.19
233.711	79.19
233.945	85.19
234.179	76.19
234.413	71.19
234.647	86.19
234.881	83.19
235.115	76.19
235.349	83.19
235.583	75.19
235.817	82.19
236.051	80.19
236.285	81.19
236.519	82.19
236.753	75.19
236.987	73.19
237.221	82.19
237.455	74.19
237.689	77.19
237.922	74.19
238.156	92.19
238.39	74.19
238.624	76.19
238.858	79.19
239.091	70.19
239.325	72.19
239.559	77.19
239.793	69.19
240.027	79.19
240.26	93.19
240.494	79.19
240.728	89.19
240.961	90.19
241.195	71.19
241.429	77.19
241.662	79.19
241.896	79.19
242.13	76.19
242.363	81.19
242.597	73.19
242.83	82.19
243.064	63.19
243.298	59.19
243.531	75.19
243.765	75.19
243.998	72.19
244.232	78.19
244.465	81.19
244.699	58.19
244.932	81.19
245.166	68.19
245.399	88.19
245.633	78.19
245.866	73.19
246.099	68.19
246.333	94.19
246.566	92.19
246.8	78.19
247.033	92.19
247.266	68.19
247.5	80.19
247.733	77.19
247.966	73.19
248.2	71.19
248.433	73.19
248.666	66.19
248.899	70.19
249.133	64.19
249.366	81.19
249.599	75.19
249.832	70.19
250.066	76.19
250.299	72.19
250.532	80.19
250.765	81.19
250.998	77.19
251.231	69.19
251.465	61.19
251.698	84.19
251.931	74.19
252.164	84.19
252.397	69.19
252.63	73.19
252.863	85.19
253.096	82.19
253.329	79.19
253.562	65.19
253.795	83.19
254.028	94.19
254.261	76.19
254.494	66.19
254.727	62.19
254.96	88.19
255.193	72.19
255.426	69.19
255.659	73.19
255.892	73.19
256.124	96.19
256.357	79.19
256.59	71.19
256.823	78.19
257.056	82.19
257.289	75.19
257.521	78.19
257.754	79.19
257.987	82.19
258.22	88.19
258.452	61.19
258.685	79.19
258.918	85.19
259.151	73.19
259.383	69.19
259.616	81.19
259.849	83.19
260.081	92.19
260.314	75.19
260.547	77.19
260.779	76.19
261.012	81.19
261.244	78.19
261.477	86.19
261.71	72.19
261.942	71.19
262.175	85.19
262.407	78.19
262.64	87.19
262.872	78.19
263.105	76.19
263.337	69.19
263.57	73.19
263.802	84.19
264.035	75.19
264.267	82.19
264.499	82.19
264.732	77.19
264.964	84.19
265.197	83.19
265.429	94.19
265.661	92.19
265.894	91.19
266.126	92.19
266.358	67.19
266.591	75.19
266.823	87.19
267.055	75.19
267.287	74.19
267.52	80.19
267.752	82.19
267.984	100.19
268.216	83.19
268.448	79.19
268.681	71.19
268.913	85.19
269.145	78.19
269.377	92.19
269.609	88.19
269.841	84.19
270.073	82.19
270.306	88.19
270.538	81.19
270.77	78.19
271.002	76.19
271.234	69.19
271.466	79.19
271.698	87.19
271.93	80.19
272.162	83.19
272.394	72.19
272.626	76.19
272.858	85.19
273.09	75.19
273.322	91.19
273.553	78.19
273.785	77.19
274.017	86.19
274.249	76.19
274.481	64.19
274.713	85.19
274.945	76.19
275.176	77.19
275.408	78.19
275.64	78.19
275.872	82.19
276.104	87.19
276.335	69.19
276.567	80.19
276.799	77.19
277.031	72.19
277.262	84.19
277.494	82.19
277.726	73.19
277.957	83.19
278.189	71.19
278.421	78.19
278.652	71.19
278.884	75.19
279.115	89.19
279.347	85.19
279.579	96.19
279.81	81.19
280.042	79.19
280.273	81.19
280.505	89.19
280.736	87.19
280.968	84.19
281.199	79.19
281.431	81.19
281.662	84.19
281.894	94.19
282.125	82.19
282.356	72.19
282.588	87.19
282.819	85.19
283.051	94.19
283.282	78.19
283.513	86.19
283.745	85.19
283.976	86.19
284.207	98.19
284.439	79.19
284.67	94.19
284.901	83.19
285.132	86.19
285.364	68.19
285.595	76.19
285.826	84.19
286.057	78.19
286.288	87.19
286.52	88.19
286.751	93.19
286.982	98.19
287.213	94.19
287.444	96.19
287.675	80.19
287.906	83.19
288.138	79.19
288.369	83.19
288.6	81.19
288.831	85.19
289.062	87.19
289.293	76.19
289.524	62.19
289.755	88.19
289.986	65.19
290.217	77.19
290.448	80.19
290.679	82.19
290.91	84.19
291.141	80.19
291.371	86.19
291.602	80.19
291.833	83.19
292.064	79.19
292.295	84.19
292.526	85.19
292.757	86.19
292.987	74.19
293.218	76.19
293.449	71.19
293.68	88.19
293.91	76.19
294.141	86.19
294.372	77.19
294.603	80.19
294.833	82.19
295.064	82.19
295.295	69.19
295.525	80.19
295.756	78.19
295.987	83.19
296.217	87.19
296.448	86.19
296.679	87.19
296.909	92.19
297.14	86.19
297.37	76.19
297.601	76.19
297.831	77.19
298.062	78.19
298.292	73.19
298.523	80.19
298.753	91.19
298.984	86.19
299.214	93.19
299.445	64.19
299.675	84.19
299.905	95.19
300.136	82.19
300.366	83.19
300.597	81.19
300.827	78.19
301.057	74.19
301.288	82.19
301.518	81.19
301.748	70.19
301.979	95.19
302.209	76.19
302.439	88.19
302.669	77.19
302.9	75.19
303.13	92.19
303.36	93.19
303.59	84.19
303.82	93.19
304.051	86.19
304.281	83.19
304.511	83.19
304.741	83.19
304.971	83.19
305.201	71.19
305.431	76.19
305.661	76.19
305.891	75.19
306.121	84.19
306.352	83.19
306.582	87.19
306.812	83.19
307.042	81.19
307.272	80.19
307.502	77.19
307.731	86.19
307.961	94.19
308.191	75.19
308.421	94.19
308.651	80.19
308.881	83.19
309.111	83.19
309.341	86.19
309.571	69.19
309.8	79.19
310.03	77.19
310.26	83.19
310.49	86.19
310.72	74.19
310.949	80.19
311.179	78.19
311.409	79.19
311.639	98.19
311.868	86.19
312.098	66.19
312.328	85.19
312.557	77.19
312.787	68.19
313.017	78.19
313.246	72.19
313.476	70.19
313.706	88.19
313.935	85.19
314.165	66.19
314.394	81.19
314.624	98.19
314.853	86.19
315.083	74.19
315.312	81.19
315.542	91.19
315.771	91.19
316.001	82.19
316.23	67.19
316.46	81.19
316.689	79.19
316.919	96.19
317.148	84.19
317.377	83.19
317.607	74.19
317.836	74.19
318.065	77.19
318.295	78.19
318.524	78.19
318.753	91.19
318.983	74.19
319.212	78.19
319.441	85.19
319.67	77.19
319.9	85.19
320.129	80.19
320.358	81.19
320.587	82.19
320.816	78.19
321.046	70.19
321.275	83.19
321.504	82.19
321.733	79.19
321.962	88.19
322.191	85.19
322.42	73.19
322.649	98.19
322.878	80.19
323.108	84.19
323.337	80.19
323.566	87.19
323.795	79.19
324.024	89.19
324.253	95.19
324.482	85.19
324.71	91.19
324.939	88.19
325.168	78.19
325.397	92.19
325.626	79.19
325.855	65.19
326.084	82.19
326.313	85.19
326.542	75.19
326.77	67.19
326.999	79.19
327.228	83.19
327.457	75.19
327.686	88.19
327.914	82.19
328.143	96.19
328.372	76.19
328.6	74.19
328.829	71.19
329.058	84.19
329.287	76.19
329.515	86.19
329.744	92.19
329.972	83.19
330.201	90.19
330.43	91.19
330.658	71.19
330.887	83.19
331.115	82.19
331.344	78.19
331.572	95.19
331.801	88.19
332.03	79.19
332.258	87.19
332.486	86.19
332.715	63.19
332.943	74.19
333.172	86.19
333.4	88.19
333.629	88.19
333.857	83.19
334.085	73.19
334.314	82.19
334.542	80.19
334.771	78.19
334.999	78.19
335.227	81.19
335.455	92.19
335.684	82.19
335.912	63.19
336.14	73.19
336.369	99.19
336.597	87.19
336.825	84.19
337.053	83.19
337.281	78.19
337.51	89.19
337.738	79.19
337.966	78.19
338.194	88.19
338.422	80.19
338.65	70.19
338.878	68.19
339.106	96.19
339.334	74.19
339.562	90.19
339.79	90.19
340.018	72.19
340.246	78.19
340.474	74.19
340.702	69.19
340.93	87.19
341.158	104.19
341.386	77.19
341.614	78.19
341.842	76.19
342.07	79.19
342.298	81.19
342.526	88.19
342.754	74.19
342.981	65.19
343.209	80.19
343.437	96.19
343.665	82.19
343.893	81.19
344.12	82.19
344.348	80.19
344.576	83.19
344.804	73.19
345.031	81.19
345.259	62.19
345.487	86.19
345.714	94.19
345.942	77.19
346.17	68.19
346.397	80.19
346.625	84.19
346.853	71.19
347.08	74.19
347.308	83.19
347.535	85.19
347.763	84.19
347.99	71.19
348.218	83.19
348.445	71.19
348.673	102.19
348.9	91.19
349.128	75.19
349.355	72.19
349.583	78.19
349.81	80.19
350.037	96.19
350.265	75.19
350.492	93.19
350.72	92.19
350.947	71.19
351.174	86.19
351.402	80.19
351.629	86.19
351.856	84.19
352.083	87.19
352.311	74.19
352.538	83.19
352.765	91.19
352.992	82.19
353.22	90.19
353.447	84.19
353.674	72.19
353.901	77.19
354.128	87.19
354.355	84.19
354.583	74.19
354.81	83.19
355.037	84.19
355.264	74.19
355.491	91.19
355.718	74.19
355.945	75.19
356.172	84.19
356.399	80.19
356.626	74.19
356.853	78.19
357.08	79.19
357.307	98.19
357.534	73.19
357.761	72.19
357.988	97.19
358.215	70.19
358.441	87.19
358.668	72.19
358.895	86.19
359.122	76.19
359.349	68.19
359.576	78.19
359.802	90.19
360.029	69.19
360.256	73.19
360.483	82.19
360.709	83.19
360.936	89.19
361.163	78.19
361.39	69.19
361.616	74.19
361.843	80.19
362.07	83.19
362.296	74.19
362.523	84.19
362.749	89.19
362.976	86.19
363.203	84.19
363.429	76.19
363.656	87.19
363.882	79.19
364.109	90.19
364.335	90.19
364.562	96.19
364.788	77.19
365.015	90.19
365.241	88.19
365.468	84.19
365.694	84.19
365.92	70.19
366.147	72.19
366.373	77.19
366.599	76.19
366.826	82.19
367.052	83.19
367.278	89.19
367.505	74.19
367.731	89.19
367.957	76.19
368.184	81.19
368.41	76.19
368.636	82.19
368.862	82.19
369.089	91.19
369.315	93.19
369.541	86.19
369.767	68.19
369.993	75.19
370.219	78.19
370.445	91.19
370.672	90.19
370.898	65.19
371.124	80.19
371.35	86.19
371.576	70.19
371.802	75.19
372.028	83.19
372.254	77.19
372.48	83.19
372.706	77.19
372.932	76.19
373.158	86.19
373.384	75.19
373.61	71.19
373.835	82.19
374.061	87.19
374.287	82.19
374.513	94.19
374.739	84.19
374.965	79.19
375.191	87.19
375.416	84.19
375.642	92.19
375.868	92.19
376.094	76.19
376.319	80.19
376.545	74.19
376.771	83.19
376.997	69.19
377.222	81.19
377.448	82.19
377.674	88.19
377.899	76.19
378.125	68.19
378.35	90.19
378.576	82.19
378.802	76.19
379.027	72.19
379.253	77.19
379.478	97.19
379.704	79.19
379.929	79.19
380.155	72.19
380.38	81.19
380.606	86.19
380.831	79.19
381.057	76.19
381.282	95.19
381.507	85.19
381.733	79.19
381.958	74.19
382.184	84.19
382.409	89.19
382.634	83.19
382.86	86.19
383.085	89.19
383.31	87.19
383.535	83.19
383.761	66.19
383.986	76.19
384.211	80.19
384.436	75.19
384.662	83.19
384.887	77.19
385.112	83.19
385.337	68.19
385.562	90.19
385.787	74.19
386.013	91.19
386.238	67.19
386.463	80.19
386.688	80.19
386.913	94.19
387.138	83.19
387.363	78.19
387.588	75.19
387.813	75.19
388.038	79.19
388.263	71.19
388.488	78.19
388.713	86.19
388.938	83.19
389.163	81.19
389.387	69.19
389.612	83.19
389.837	73.19
390.062	81.19
390.287	88.19
390.512	74.19
390.736	68.19
390.961	81.19
391.186	75.19
391.411	85.19
391.636	80.19
391.86	83.19
392.085	89.19
392.31	69.19
392.534	75.19
392.759	86.19
392.984	82.19
393.208	81.19
393.433	102.19
393.658	67.19
393.882	75.19
394.107	90.19
394.331	68.19
394.556	94.19
394.78	71.19
395.005	103.19
395.229	86.19
395.454	96.19
395.678	82.19
395.903	76.19
396.127	82.19
396.352	90.19
396.576	79.19
396.801	83.19
397.025	81.19
397.249	75.19
397.474	87.19
397.698	87.19
397.922	83.19
398.147	73.19
398.371	75.19
398.595	75.19
398.82	71.19
399.044	82.19
399.268	66.19
399.492	74.19
399.717	87.19
399.941	82.19
400.165	76.19
400.389	69.19
400.613	92.19
400.837	69.19
401.062	83.19
401.286	82.19
401.51	90.19
401.734	88.19
401.958	91.19
402.182	82.19
402.406	68.19
402.63	94.19
402.854	80.19
403.078	75.19
403.302	82.19
403.526	79.19
403.75	69.19
403.974	81.19
404.198	80.19
404.422	69.19
404.645	70.19
404.869	81.19
405.093	68.19
405.317	87.19
405.541	84.19
405.765	78.19
405.988	70.19
406.212	73.19
406.436	73.19
406.66	87.19
406.883	88.19
407.107	81.19
407.331	76.19
407.555	98.19
407.778	87.19
408.002	80.19
408.226	75.19
408.449	71.19
408.673	92.19
408.896	83.19
409.12	73.19
409.344	71.19
409.567	84.19
409.791	83.19
410.014	71.19
410.238	83.19
410.461	77.19
410.685	60.19
410.908	78.19
411.132	82.19
411.355	91.19
411.578	88.19
411.802	67.19
412.025	80.19
412.249	80.19
412.472	85.19
412.695	67.19
412.919	95.19
413.142	77.19
413.365	63.19
413.589	76.19
413.812	66.19
414.035	74.19
414.258	73.19
414.482	82.19
414.705	75.19
414.928	82.19
415.151	86.19
415.374	77.19
415.597	66.19
415.821	80.19
416.044	91.19
416.267	90.19
416.49	86.19
416.713	86.19
416.936	79.19
417.159	64.19
417.382	69.19
417.605	77.19
417.828	92.19
418.051	81.19
418.274	72.19
418.497	80.19
418.72	75.19
418.943	86.19
419.166	93.19
419.389	76.19
419.611	76.19
419.834	70.19
420.057	92.19
420.28	75.19
420.503	85.19
420.726	76.19
420.948	89.19
421.171	88.19
421.394	75.19
421.617	83.19
421.839	69.19
422.062	87.19
422.285	82.19
422.507	80.19
422.73	86.19
422.953	58.19
423.175	82.19
423.398	78.19
423.621	77.19
423.843	76.19
424.066	79.19
424.288	85.19
424.511	83.19
424.733	83.19
424.956	83.19
425.178	85.19
425.401	72.19
425.623	84.19
425.846	75.19
426.068	76.19
426.291	92.19
426.513	86.19
426.735	77.19
426.958	77.19
427.18	75.19
427.402	64.19
427.625	70.19
427.847	74.19
428.069	70.19
428.292	84.19
428.514	86.19
428.736	74.19
428.958	85.19
429.181	79.19
429.403	77.19
429.625	97.19
429.847	73.19
430.069	80.19
430.292	86.19
430.514	73.19
430.736	68.19
430.958	79.19
431.18	66.19
431.402	69.19
431.624	88.19
431.846	82.19
432.068	77.19
432.29	88.19
432.512	84.19
432.734	73.19
432.956	87.19
433.178	83.19
433.4	83.19
433.622	81.19
433.844	86.19
434.066	77.19
434.287	80.19
434.509	74.19
434.731	88.19
434.953	70.19
435.175	79.19
435.397	77.19
435.618	88.19
435.84	91.19
436.062	80.19
436.284	90.19
436.505	78.19
436.727	88.19
436.949	86.19
437.17	71.19
437.392	76.19
437.614	87.19
437.835	72.19
438.057	74.19
438.278	83.19
438.5	77.19
438.721	71.19
438.943	74.19
439.165	80.19
439.386	77.19
439.608	82.19
439.829	68.19
440.05	83.19
440.272	80.19
440.493	83.19
440.715	83.19
440.936	86.19
441.158	74.19
441.379	82.19
441.6	96.19
441.822	79.19
442.043	92.19
442.264	76.19
442.486	68.19
442.707	66.19
442.928	76.19
443.149	79.19
443.371	96.19
443.592	67.19
443.813	92.19
444.034	82.19
444.255	84.19
444.476	102.19
444.698	72.19
444.919	70.19
445.14	150.19
445.361	106.19
445.582	98.19
445.803	73.19
446.024	73.19
446.245	84.19
446.466	74.19
446.687	68.19
446.908	74.19
447.129	86.19
447.35	90.19
447.571	75.19
447.792	81.19
448.013	79.19
448.234	71.19
448.455	72.19
448.675	77.19
448.896	80.19
449.117	79.19
449.338	77.19
449.559	94.19
449.779	89.19
450	73.19
450.221	81.19
450.442	87.19
450.662	83.19
450.883	79.19
451.104	87.19
451.324	74.19
451.545	80.19
451.766	88.19
451.986	73.19
452.207	80.19
452.428	69.19
452.648	88.19
452.869	69.19
453.089	67.19
453.31	70.19
453.53	83.19
453.751	88.19
453.971	76.19
454.192	91.19
454.412	88.19
454.633	67.19
454.853	68.19
455.073	88.19
455.294	81.19
455.514	101.19
455.734	78.19
455.955	83.19
456.175	65.19
456.395	78.19
456.616	73.19
456.836	84.19
457.056	71.19
457.276	79.19
457.497	83.19
457.717	83.19
457.937	77.19
458.157	82.19
458.377	77.19
458.598	74.19
458.818	73.19
459.038	69.19
459.258	74.19
459.478	83.19
459.698	67.19
459.918	64.19
460.138	77.19
460.358	74.19
460.578	94.19
460.798	84.19
461.018	73.19
461.238	86.19
461.458	79.19
461.678	80.19
461.898	71.19
462.118	96.19
462.338	84.19
462.558	79.19
462.777	88.19
462.997	75.19
463.217	81.19
463.437	85.19
463.657	80.19
463.876	73.19
464.096	87.19
464.316	74.19
464.536	70.19
464.755	77.19
464.975	87.19
465.195	97.19
465.414	79.19
465.634	83.19
465.854	83.19
466.073	74.19
466.293	82.19
466.512	79.19
466.732	70.19
466.951	76.19
467.171	93.19
467.391	70.19
467.61	89.19
467.829	90.19
468.049	83.19
468.268	79.19
468.488	68.19
468.707	72.19
468.927	86.19
469.146	83.19
469.365	74.19
469.585	75.19
469.804	82.19
470.023	83.19
470.243	74.19
470.462	91.19
470.681	75.19
470.901	74.19
471.12	81.19
471.339	71.19
471.558	79.19
471.777	82.19
471.997	82.19
472.216	78.19
472.435	82.19
472.654	79.19
472.873	75.19
473.092	90.19
473.311	83.19
473.53	76.19
473.749	78.19
473.968	74.19
474.187	85.19
474.406	72.19
474.625	66.19
474.844	77.19
475.063	78.19
475.282	83.19
475.501	86.19
475.72	77.19
475.939	80.19
476.158	76.19
476.377	68.19
476.596	82.19
476.814	75.19
477.033	89.19
477.252	81.19
477.471	76.19
477.69	76.19
477.908	85.19
478.127	93.19
478.346	83.19
478.564	76.19
478.783	74.19
479.002	89.19
479.22	86.19
479.439	66.19
479.658	86.19
479.876	97.19
480.095	86.19
480.313	77.19
480.532	78.19
480.751	86.19
480.969	82.19
481.188	93.19
481.406	87.19
481.624	91.19
481.843	88.19
482.061	81.19
482.28	80.19
482.498	93.19
482.717	86.19
482.935	67.19
483.153	70.19
483.372	87.19
483.59	82.19
483.808	78.19
484.027	77.19
484.245	82.19
484.463	94.19
484.681	84.19
484.9	76.19
485.118	68.19
485.336	59.19
485.554	83.19
485.772	92.19
485.99	81.19
486.209	76.19
486.427	79.19
486.645	74.19
486.863	98.19
487.081	83.19
487.299	79.19
487.517	77.19
487.735	82.19
487.953	63.19
488.171	86.19
488.389	84.19
488.607	86.19
488.825	82.19
489.043	76.19
489.261	84.19
489.479	89.19
489.696	74.19
489.914	76.19
490.132	86.19
490.35	78.19
490.568	71.19
490.786	87.19
491.003	81.19
491.221	92.19
491.439	80.19
491.657	72.19
491.874	83.19
492.092	82.19
492.31	88.19
492.527	82.19
492.745	74.19
492.963	82.19
493.18	81.19
493.398	74.19
493.615	77.19
493.833	84.19
494.05	86.19
494.268	78.19
494.485	71.19
494.703	84.19
494.92	77.19
495.138	72.19
495.355	83.19
495.573	100.19
495.79	75.19
496.008	82.19
496.225	68.19
496.442	87.19
496.66	80.19
496.877	77.19
497.094	76.19
497.312	80.19
497.529	89.19
497.746	79.19
497.963	90.19
498.181	82.19
498.398	82.19
498.615	88.19
498.832	78.19
499.049	94.19
499.267	84.19
499.484	76.19
499.701	91.19
499.918	76.19
500.135	74.19
500.352	84.19
500.569	77.19
500.786	104.19
501.003	86.19
501.22	90.19
501.437	84.19
501.654	73.19
501.871	71.19
502.088	82.19
502.305	76.19
502.522	87.19
502.739	80.19
502.956	85.19
503.172	79.19
503.389	90.19
503.606	78.19
503.823	66.19
504.04	87.19
504.256	88.19
504.473	76.19
504.69	74.19
504.907	91.19
505.123	88.19
505.34	66.19
505.557	78.19
505.773	76.19
505.99	65.19
506.207	65.19
506.423	73.19
506.64	86.19
506.856	86.19
507.073	79.19
507.289	79.19
507.506	72.19
507.722	91.19
507.939	71.19
508.155	82.19
508.372	74.19
508.588	81.19
508.805	86.19
509.021	78.19
509.238	77.19
509.454	77.19
509.67	80.19
509.887	81.19
510.103	79.19
510.319	74.19
510.536	81.19
510.752	84.19
510.968	84.19
511.184	80.19
511.401	79.19
511.617	91.19
511.833	76.19
512.049	69.19
512.265	75.19
512.481	83.19
512.698	71.19
512.914	91.19
513.13	83.19
513.346	61.19
513.562	91.19
513.778	81.19
513.994	68.19
514.21	80.19
514.426	87.19
514.642	84.19
514.858	87.19
515.074	75.19
515.29	83.19
515.506	96.19
515.721	74.19
515.937	88.19
516.153	74.19
516.369	93.19
516.585	93.19
516.801	90.19
517.016	92.19
517.232	74.19
517.448	77.19
517.664	74.19
517.879	80.19
518.095	83.19
518.311	85.19
518.527	65.19
518.742	85.19
518.958	80.19
519.173	86.19
519.389	80.19
519.605	90.19
519.82	71.19
520.036	87.19
