Data from Background_2_HRD10591_00091.txt Node
Date: Wed Nov 05 14:47:41 EST 2025
User: Yrep
Spectrometer: HR+D1059
Trigger mode: 1
Integration Time (sec): 1.000000E-1
Scans to average: 1
Electric dark correction enabled: true
Nonlinearity correction enabled: false
Boxcar width: 0
XAxis mode: Wavelengths
Number of Pixels in Spectrum: 2048
>>>>>Begin Spectral Data<<<<<
223.165	-17.69
223.4	-17.69
223.635	-17.69
223.869	-25.69
224.104	-8.69
224.338	-17.69
224.573	-7.69
224.808	-10.69
225.042	-13.69
225.277	-4.69
225.511	0.31
225.746	-1.69
225.98	9.31
226.215	26.31
226.449	16.31
226.683	17.31
226.918	23.31
227.152	15.31
227.387	38.31
227.621	55.31
227.856	36.31
228.09	47.31
228.324	50.31
228.559	63.31
228.793	60.31
229.027	69.31
229.262	72.31
229.496	66.31
229.73	63.31
229.964	74.31
230.199	74.31
230.433	72.31
230.667	80.31
230.901	94.31
231.136	73.31
231.37	63.31
231.604	90.31
231.838	84.31
232.072	81.31
232.306	71.31
232.541	76.31
232.775	84.31
233.009	81.31
233.243	80.31
233.477	72.31
233.711	79.31
233.945	81.31
234.179	63.31
234.413	85.31
234.647	95.31
234.881	71.31
235.115	85.31
235.349	85.31
235.583	84.31
235.817	65.31
236.051	75.31
236.285	70.31
236.519	73.31
236.753	74.31
236.987	86.31
237.221	88.31
237.455	87.31
237.689	72.31
237.922	76.31
238.156	86.31
238.39	72.31
238.624	82.31
238.858	81.31
239.091	76.31
239.325	71.31
239.559	69.31
239.793	70.31
240.027	85.31
240.26	93.31
240.494	90.31
240.728	67.31
240.961	60.31
241.195	70.31
241.429	68.31
241.662	71.31
241.896	83.31
242.13	61.31
242.363	68.31
242.597	82.31
242.83	78.31
243.064	70.31
243.298	86.31
243.531	79.31
243.765	69.31
243.998	72.31
244.232	85.31
244.465	69.31
244.699	80.31
244.932	83.31
245.166	76.31
245.399	79.31
245.633	88.31
245.866	73.31
246.099	74.31
246.333	75.31
246.566	78.31
246.8	90.31
247.033	74.31
247.266	75.31
247.5	74.31
247.733	74.31
247.966	67.31
248.2	71.31
248.433	90.31
248.666	90.31
248.899	68.31
249.133	95.31
249.366	85.31
249.599	90.31
249.832	54.31
250.066	86.31
250.299	83.31
250.532	91.31
250.765	72.31
250.998	93.31
251.231	83.31
251.465	82.31
251.698	74.31
251.931	66.31
252.164	75.31
252.397	88.31
252.63	86.31
252.863	92.31
253.096	78.31
253.329	75.31
253.562	79.31
253.795	78.31
254.028	84.31
254.261	68.31
254.494	70.31
254.727	82.31
254.96	80.31
255.193	78.31
255.426	75.31
255.659	81.31
255.892	77.31
256.124	93.31
256.357	84.31
256.59	79.31
256.823	83.31
257.056	80.31
257.289	68.31
257.521	74.31
257.754	85.31
257.987	95.31
258.22	88.31
258.452	84.31
258.685	90.31
258.918	70.31
259.151	96.31
259.383	86.31
259.616	76.31
259.849	73.31
260.081	80.31
260.314	85.31
260.547	90.31
260.779	77.31
261.012	90.31
261.244	96.31
261.477	85.31
261.71	65.31
261.942	91.31
262.175	94.31
262.407	85.31
262.64	73.31
262.872	79.31
263.105	85.31
263.337	73.31
263.57	76.31
263.802	85.31
264.035	98.31
264.267	94.31
264.499	79.31
264.732	91.31
264.964	75.31
265.197	91.31
265.429	79.31
265.661	84.31
265.894	87.31
266.126	93.31
266.358	77.31
266.591	85.31
266.823	77.31
267.055	85.31
267.287	79.31
267.52	75.31
267.752	79.31
267.984	81.31
268.216	72.31
268.448	73.31
268.681	71.31
268.913	79.31
269.145	83.31
269.377	82.31
269.609	78.31
269.841	77.31
270.073	82.31
270.306	78.31
270.538	91.31
270.77	90.31
271.002	107.31
271.234	92.31
271.466	83.31
271.698	95.31
271.93	89.31
272.162	87.31
272.394	80.31
272.626	74.31
272.858	72.31
273.09	79.31
273.322	68.31
273.553	86.31
273.785	82.31
274.017	78.31
274.249	81.31
274.481	70.31
274.713	77.31
274.945	85.31
275.176	75.31
275.408	89.31
275.64	82.31
275.872	78.31
276.104	106.31
276.335	88.31
276.567	71.31
276.799	68.31
277.031	80.31
277.262	84.31
277.494	92.31
277.726	83.31
277.957	81.31
278.189	82.31
278.421	84.31
278.652	83.31
278.884	100.31
279.115	84.31
279.347	86.31
279.579	79.31
279.81	84.31
280.042	88.31
280.273	96.31
280.505	77.31
280.736	90.31
280.968	83.31
281.199	86.31
281.431	93.31
281.662	88.31
281.894	82.31
282.125	97.31
282.356	85.31
282.588	85.31
282.819	94.31
283.051	87.31
283.282	85.31
283.513	90.31
283.745	89.31
283.976	73.31
284.207	90.31
284.439	92.31
284.67	84.31
284.901	89.31
285.132	90.31
285.364	79.31
285.595	82.31
285.826	72.31
286.057	81.31
286.288	90.31
286.52	81.31
286.751	80.31
286.982	98.31
287.213	73.31
287.444	73.31
287.675	85.31
287.906	92.31
288.138	91.31
288.369	88.31
288.6	87.31
288.831	86.31
289.062	78.31
289.293	88.31
289.524	91.31
289.755	85.31
289.986	86.31
290.217	94.31
290.448	92.31
290.679	90.31
290.91	82.31
291.141	86.31
291.371	95.31
291.602	92.31
291.833	93.31
292.064	87.31
292.295	93.31
292.526	84.31
292.757	89.31
292.987	80.31
293.218	76.31
293.449	90.31
293.68	73.31
293.91	74.31
294.141	86.31
294.372	87.31
294.603	106.31
294.833	78.31
295.064	84.31
295.295	80.31
295.525	85.31
295.756	91.31
295.987	89.31
296.217	83.31
296.448	85.31
296.679	84.31
296.909	97.31
297.14	85.31
297.37	94.31
297.601	90.31
297.831	82.31
298.062	72.31
298.292	81.31
298.523	92.31
298.753	88.31
298.984	87.31
299.214	83.31
299.445	89.31
299.675	88.31
299.905	90.31
300.136	85.31
300.366	89.31
300.597	90.31
300.827	76.31
301.057	78.31
301.288	76.31
301.518	110.31
301.748	76.31
301.979	94.31
302.209	80.31
302.439	81.31
302.669	82.31
302.9	82.31
303.13	72.31
303.36	85.31
303.59	95.31
303.82	80.31
304.051	73.31
304.281	82.31
304.511	93.31
304.741	78.31
304.971	94.31
305.201	92.31
305.431	93.31
305.661	88.31
305.891	80.31
306.121	86.31
306.352	99.31
306.582	88.31
306.812	86.31
307.042	89.31
307.272	76.31
307.502	88.31
307.731	81.31
307.961	95.31
308.191	76.31
308.421	96.31
308.651	64.31
308.881	92.31
309.111	80.31
309.341	79.31
309.571	79.31
309.8	86.31
310.03	86.31
310.26	86.31
310.49	94.31
310.72	84.31
310.949	79.31
311.179	99.31
311.409	83.31
311.639	94.31
311.868	70.31
312.098	86.31
312.328	72.31
312.557	93.31
312.787	86.31
313.017	84.31
313.246	93.31
313.476	87.31
313.706	83.31
313.935	92.31
314.165	76.31
314.394	94.31
314.624	93.31
314.853	91.31
315.083	79.31
315.312	80.31
315.542	88.31
315.771	85.31
316.001	102.31
316.23	79.31
316.46	88.31
316.689	92.31
316.919	87.31
317.148	94.31
317.377	88.31
317.607	88.31
317.836	89.31
318.065	76.31
318.295	88.31
318.524	91.31
318.753	103.31
318.983	88.31
319.212	94.31
319.441	80.31
319.67	95.31
319.9	78.31
320.129	70.31
320.358	91.31
320.587	100.31
320.816	94.31
321.046	74.31
321.275	93.31
321.504	89.31
321.733	100.31
321.962	68.31
322.191	93.31
322.42	94.31
322.649	94.31
322.878	87.31
323.108	92.31
323.337	85.31
323.566	86.31
323.795	110.31
324.024	87.31
324.253	85.31
324.482	100.31
324.71	91.31
324.939	95.31
325.168	92.31
325.397	92.31
325.626	98.31
325.855	84.31
326.084	82.31
326.313	87.31
326.542	84.31
326.77	74.31
326.999	84.31
327.228	78.31
327.457	84.31
327.686	85.31
327.914	76.31
328.143	91.31
328.372	78.31
328.6	80.31
328.829	71.31
329.058	76.31
329.287	80.31
329.515	85.31
329.744	98.31
329.972	75.31
330.201	92.31
330.43	98.31
330.658	83.31
330.887	84.31
331.115	86.31
331.344	96.31
331.572	87.31
331.801	83.31
332.03	99.31
332.258	78.31
332.486	95.31
332.715	83.31
332.943	78.31
333.172	92.31
333.4	79.31
333.629	76.31
333.857	69.31
334.085	80.31
334.314	84.31
334.542	88.31
334.771	84.31
334.999	81.31
335.227	84.31
335.455	88.31
335.684	86.31
335.912	86.31
336.14	93.31
336.369	88.31
336.597	84.31
336.825	88.31
337.053	86.31
337.281	91.31
337.51	84.31
337.738	78.31
337.966	81.31
338.194	86.31
338.422	81.31
338.65	86.31
338.878	85.31
339.106	93.31
339.334	82.31
339.562	85.31
339.79	75.31
340.018	96.31
340.246	79.31
340.474	72.31
340.702	91.31
340.93	80.31
341.158	80.31
341.386	64.31
341.614	75.31
341.842	72.31
342.07	88.31
342.298	94.31
342.526	83.31
342.754	80.31
342.981	81.31
343.209	83.31
343.437	96.31
343.665	86.31
343.893	82.31
344.12	80.31
344.348	90.31
344.576	93.31
344.804	86.31
345.031	62.31
345.259	74.31
345.487	82.31
345.714	90.31
345.942	88.31
346.17	93.31
346.397	94.31
346.625	91.31
346.853	110.31
347.08	82.31
347.308	81.31
347.535	82.31
347.763	79.31
347.99	94.31
348.218	78.31
348.445	82.31
348.673	74.31
348.9	95.31
349.128	100.31
349.355	90.31
349.583	90.31
349.81	90.31
350.037	87.31
350.265	82.31
350.492	86.31
350.72	84.31
350.947	84.31
351.174	86.31
351.402	86.31
351.629	81.31
351.856	72.31
352.083	93.31
352.311	104.31
352.538	77.31
352.765	86.31
352.992	95.31
353.22	86.31
353.447	84.31
353.674	96.31
353.901	91.31
354.128	70.31
354.355	81.31
354.583	94.31
354.81	86.31
355.037	77.31
355.264	92.31
355.491	94.31
355.718	86.31
355.945	93.31
356.172	90.31
356.399	92.31
356.626	94.31
356.853	88.31
357.08	100.31
357.307	90.31
357.534	78.31
357.761	73.31
357.988	82.31
358.215	87.31
358.441	83.31
358.668	87.31
358.895	90.31
359.122	86.31
359.349	80.31
359.576	100.31
359.802	85.31
360.029	72.31
360.256	74.31
360.483	87.31
360.709	76.31
360.936	92.31
361.163	82.31
361.39	74.31
361.616	84.31
361.843	72.31
362.07	94.31
362.296	78.31
362.523	85.31
362.749	74.31
362.976	78.31
363.203	86.31
363.429	81.31
363.656	78.31
363.882	90.31
364.109	92.31
364.335	86.31
364.562	90.31
364.788	85.31
365.015	91.31
365.241	95.31
365.468	81.31
365.694	102.31
365.92	87.31
366.147	87.31
366.373	87.31
366.599	79.31
366.826	79.31
367.052	83.31
367.278	85.31
367.505	73.31
367.731	76.31
367.957	79.31
368.184	71.31
368.41	82.31
368.636	93.31
368.862	80.31
369.089	87.31
369.315	76.31
369.541	95.31
369.767	86.31
369.993	90.31
370.219	88.31
370.445	86.31
370.672	79.31
370.898	82.31
371.124	84.31
371.35	87.31
371.576	80.31
371.802	85.31
372.028	82.31
372.254	69.31
372.48	85.31
372.706	95.31
372.932	87.31
373.158	80.31
373.384	90.31
373.61	89.31
373.835	79.31
374.061	76.31
374.287	70.31
374.513	82.31
374.739	81.31
374.965	81.31
375.191	97.31
375.416	88.31
375.642	81.31
375.868	85.31
376.094	91.31
376.319	86.31
376.545	92.31
376.771	79.31
376.997	88.31
377.222	81.31
377.448	74.31
377.674	77.31
377.899	75.31
378.125	83.31
378.35	83.31
378.576	91.31
378.802	88.31
379.027	87.31
379.253	98.31
379.478	94.31
379.704	86.31
379.929	79.31
380.155	82.31
380.38	89.31
380.606	95.31
380.831	73.31
381.057	90.31
381.282	76.31
381.507	94.31
381.733	78.31
381.958	64.31
382.184	100.31
382.409	93.31
382.634	78.31
382.86	79.31
383.085	86.31
383.31	97.31
383.535	92.31
383.761	89.31
383.986	78.31
384.211	76.31
384.436	84.31
384.662	84.31
384.887	87.31
385.112	81.31
385.337	79.31
385.562	82.31
385.787	83.31
386.013	92.31
386.238	85.31
386.463	91.31
386.688	91.31
386.913	76.31
387.138	79.31
387.363	78.31
387.588	83.31
387.813	80.31
388.038	88.31
388.263	75.31
388.488	82.31
388.713	87.31
388.938	90.31
389.163	84.31
389.387	93.31
389.612	78.31
389.837	84.31
390.062	86.31
390.287	87.31
390.512	90.31
390.736	86.31
390.961	87.31
391.186	95.31
391.411	82.31
391.636	86.31
391.86	81.31
392.085	78.31
392.31	76.31
392.534	83.31
392.759	89.31
392.984	93.31
393.208	93.31
393.433	82.31
393.658	92.31
393.882	91.31
394.107	90.31
394.331	82.31
394.556	69.31
394.78	79.31
395.005	92.31
395.229	94.31
395.454	77.31
395.678	96.31
395.903	86.31
396.127	92.31
396.352	71.31
396.576	76.31
396.801	78.31
397.025	91.31
397.249	76.31
397.474	76.31
397.698	80.31
397.922	101.31
398.147	70.31
398.371	83.31
398.595	85.31
398.82	78.31
399.044	87.31
399.268	104.31
399.492	94.31
399.717	92.31
399.941	82.31
400.165	75.31
400.389	71.31
400.613	82.31
400.837	81.31
401.062	87.31
401.286	92.31
401.51	86.31
401.734	79.31
401.958	87.31
402.182	81.31
402.406	77.31
402.63	87.31
402.854	88.31
403.078	84.31
403.302	71.31
403.526	86.31
403.75	96.31
403.974	76.31
404.198	87.31
404.422	81.31
404.645	78.31
404.869	75.31
405.093	81.31
405.317	88.31
405.541	97.31
405.765	85.31
405.988	83.31
406.212	86.31
406.436	83.31
406.66	90.31
406.883	100.31
407.107	76.31
407.331	81.31
407.555	98.31
407.778	92.31
408.002	85.31
408.226	82.31
408.449	74.31
408.673	80.31
408.896	90.31
409.12	83.31
409.344	87.31
409.567	85.31
409.791	91.31
410.014	87.31
410.238	78.31
410.461	87.31
410.685	88.31
410.908	82.31
411.132	91.31
411.355	84.31
411.578	84.31
411.802	94.31
412.025	97.31
412.249	93.31
412.472	82.31
412.695	78.31
412.919	98.31
413.142	80.31
413.365	79.31
413.589	84.31
413.812	78.31
414.035	88.31
414.258	85.31
414.482	101.31
414.705	87.31
414.928	90.31
415.151	82.31
415.374	87.31
415.597	73.31
415.821	90.31
416.044	77.31
416.267	86.31
416.49	84.31
416.713	85.31
416.936	87.31
417.159	87.31
417.382	79.31
417.605	76.31
417.828	96.31
418.051	76.31
418.274	66.31
418.497	62.31
418.72	76.31
418.943	72.31
419.166	76.31
419.389	84.31
419.611	102.31
419.834	87.31
420.057	90.31
420.28	98.31
420.503	83.31
420.726	85.31
420.948	71.31
421.171	84.31
421.394	87.31
421.617	95.31
421.839	75.31
422.062	85.31
422.285	93.31
422.507	90.31
422.73	78.31
422.953	78.31
423.175	70.31
423.398	101.31
423.621	79.31
423.843	74.31
424.066	76.31
424.288	84.31
424.511	81.31
424.733	78.31
424.956	74.31
425.178	93.31
425.401	80.31
425.623	80.31
425.846	86.31
426.068	87.31
426.291	101.31
426.513	89.31
426.735	80.31
426.958	74.31
427.18	83.31
427.402	85.31
427.625	82.31
427.847	67.31
428.069	86.31
428.292	76.31
428.514	94.31
428.736	81.31
428.958	79.31
429.181	84.31
429.403	77.31
429.625	88.31
429.847	76.31
430.069	82.31
430.292	78.31
430.514	88.31
430.736	77.31
430.958	82.31
431.18	86.31
431.402	79.31
431.624	66.31
431.846	84.31
432.068	70.31
432.29	99.31
432.512	72.31
432.734	79.31
432.956	84.31
433.178	102.31
433.4	83.31
433.622	96.31
433.844	98.31
434.066	72.31
434.287	86.31
434.509	79.31
434.731	97.31
434.953	74.31
435.175	76.31
435.397	102.31
435.618	94.31
435.84	93.31
436.062	77.31
436.284	91.31
436.505	99.31
436.727	81.31
436.949	83.31
437.17	72.31
437.392	74.31
437.614	80.31
437.835	76.31
438.057	84.31
438.278	88.31
438.5	70.31
438.721	80.31
438.943	102.31
439.165	83.31
439.386	78.31
439.608	78.31
439.829	90.31
440.05	79.31
440.272	92.31
440.493	86.31
440.715	73.31
440.936	82.31
441.158	87.31
441.379	86.31
441.6	77.31
441.822	78.31
442.043	73.31
442.264	86.31
442.486	72.31
442.707	65.31
442.928	84.31
443.149	73.31
443.371	91.31
443.592	86.31
443.813	86.31
444.034	90.31
444.255	82.31
444.476	86.31
444.698	91.31
444.919	90.31
445.14	163.31
445.361	126.31
445.582	82.31
445.803	84.31
446.024	76.31
446.245	68.31
446.466	89.31
446.687	84.31
446.908	87.31
447.129	84.31
447.35	84.31
447.571	79.31
447.792	93.31
448.013	84.31
448.234	71.31
448.455	90.31
448.675	76.31
448.896	82.31
449.117	87.31
449.338	68.31
449.559	97.31
449.779	91.31
450	80.31
450.221	70.31
450.442	72.31
450.662	87.31
450.883	66.31
451.104	92.31
451.324	89.31
451.545	90.31
451.766	98.31
451.986	81.31
452.207	89.31
452.428	81.31
452.648	66.31
452.869	63.31
453.089	80.31
453.31	83.31
453.53	79.31
453.751	72.31
453.971	73.31
454.192	72.31
454.412	76.31
454.633	85.31
454.853	82.31
455.073	90.31
455.294	88.31
455.514	80.31
455.734	88.31
455.955	92.31
456.175	82.31
456.395	86.31
456.616	92.31
456.836	83.31
457.056	86.31
457.276	82.31
457.497	83.31
457.717	90.31
457.937	69.31
458.157	83.31
458.377	84.31
458.598	90.31
458.818	78.31
459.038	78.31
459.258	89.31
459.478	73.31
459.698	78.31
459.918	90.31
460.138	77.31
460.358	88.31
460.578	70.31
460.798	91.31
461.018	95.31
461.238	83.31
461.458	91.31
461.678	82.31
461.898	85.31
462.118	72.31
462.338	92.31
462.558	81.31
462.777	78.31
462.997	67.31
463.217	88.31
463.437	87.31
463.657	75.31
463.876	86.31
464.096	76.31
464.316	80.31
464.536	77.31
464.755	94.31
464.975	74.31
465.195	72.31
465.414	84.31
465.634	84.31
465.854	89.31
466.073	91.31
466.293	96.31
466.512	75.31
466.732	78.31
466.951	71.31
467.171	98.31
467.391	89.31
467.61	90.31
467.829	81.31
468.049	69.31
468.268	91.31
468.488	85.31
468.707	82.31
468.927	88.31
469.146	91.31
469.365	78.31
469.585	79.31
469.804	75.31
470.023	83.31
470.243	82.31
470.462	79.31
470.681	78.31
470.901	91.31
471.12	69.31
471.339	87.31
471.558	84.31
471.777	85.31
471.997	84.31
472.216	100.31
472.435	73.31
472.654	91.31
472.873	78.31
473.092	84.31
473.311	82.31
473.53	71.31
473.749	83.31
473.968	85.31
474.187	95.31
474.406	70.31
474.625	75.31
474.844	72.31
475.063	69.31
475.282	88.31
475.501	82.31
475.72	91.31
475.939	88.31
476.158	87.31
476.377	79.31
476.596	81.31
476.814	76.31
477.033	92.31
477.252	73.31
477.471	90.31
477.69	76.31
477.908	88.31
478.127	86.31
478.346	94.31
478.564	84.31
478.783	95.31
479.002	84.31
479.22	78.31
479.439	90.31
479.658	86.31
479.876	80.31
480.095	74.31
480.313	80.31
480.532	88.31
480.751	91.31
480.969	86.31
481.188	86.31
481.406	90.31
481.624	87.31
481.843	80.31
482.061	76.31
482.28	72.31
482.498	84.31
482.717	86.31
482.935	89.31
483.153	92.31
483.372	97.31
483.59	82.31
483.808	85.31
484.027	90.31
484.245	98.31
484.463	84.31
484.681	75.31
484.9	83.31
485.118	78.31
485.336	90.31
485.554	79.31
485.772	79.31
485.99	82.31
486.209	90.31
486.427	84.31
486.645	96.31
486.863	97.31
487.081	92.31
487.299	92.31
487.517	91.31
487.735	80.31
487.953	75.31
488.171	81.31
488.389	82.31
488.607	78.31
488.825	90.31
489.043	78.31
489.261	84.31
489.479	81.31
489.696	94.31
489.914	82.31
490.132	90.31
490.35	92.31
490.568	81.31
490.786	99.31
491.003	77.31
491.221	99.31
491.439	87.31
491.657	92.31
491.874	86.31
492.092	83.31
492.31	94.31
492.527	84.31
492.745	90.31
492.963	78.31
493.18	87.31
493.398	93.31
493.615	88.31
493.833	72.31
494.05	84.31
494.268	94.31
494.485	84.31
494.703	74.31
494.92	78.31
495.138	88.31
495.355	86.31
495.573	89.31
495.79	80.31
496.008	82.31
496.225	83.31
496.442	93.31
496.66	86.31
496.877	90.31
497.094	79.31
497.312	98.31
497.529	86.31
497.746	96.31
497.963	92.31
498.181	85.31
498.398	79.31
498.615	98.31
498.832	85.31
499.049	77.31
499.267	95.31
499.484	83.31
499.701	83.31
499.918	84.31
500.135	97.31
500.352	85.31
500.569	87.31
500.786	79.31
501.003	87.31
501.22	82.31
501.437	69.31
501.654	86.31
501.871	71.31
502.088	78.31
502.305	83.31
502.522	100.31
502.739	88.31
502.956	87.31
503.172	79.31
503.389	91.31
503.606	92.31
503.823	83.31
504.04	73.31
504.256	93.31
504.473	84.31
504.69	92.31
504.907	95.31
505.123	91.31
505.34	98.31
505.557	89.31
505.773	83.31
505.99	82.31
506.207	90.31
506.423	92.31
506.64	83.31
506.856	84.31
507.073	77.31
507.289	87.31
507.506	78.31
507.722	75.31
507.939	80.31
508.155	90.31
508.372	77.31
508.588	82.31
508.805	81.31
509.021	81.31
509.238	94.31
509.454	78.31
509.67	74.31
509.887	84.31
510.103	86.31
510.319	82.31
510.536	79.31
510.752	88.31
510.968	93.31
511.184	69.31
511.401	77.31
511.617	82.31
511.833	92.31
512.049	85.31
512.265	74.31
512.481	82.31
512.698	90.31
512.914	95.31
513.13	80.31
513.346	82.31
513.562	71.31
513.778	92.31
513.994	84.31
514.21	93.31
514.426	91.31
514.642	85.31
514.858	76.31
515.074	94.31
515.29	88.31
515.506	78.31
515.721	70.31
515.937	94.31
516.153	76.31
516.369	84.31
516.585	78.31
516.801	86.31
517.016	80.31
517.232	84.31
517.448	85.31
517.664	87.31
517.879	79.31
518.095	84.31
518.311	82.31
518.527	85.31
518.742	82.31
518.958	85.31
519.173	81.31
519.389	92.31
519.605	83.31
519.82	78.31
