Data from Background_2_HRD10591_00093.txt Node
Date: Wed Nov 05 14:47:42 EST 2025
User: Yrep
Spectrometer: HR+D1059
Trigger mode: 1
Integration Time (sec): 1.000000E-1
Scans to average: 1
Electric dark correction enabled: true
Nonlinearity correction enabled: false
Boxcar width: 0
XAxis mode: Wavelengths
Number of Pixels in Spectrum: 2048
>>>>>Begin Spectral Data<<<<<
223.165	-18.62
223.4	-18.62
223.635	-18.62
223.869	-14.62
224.104	-20.62
224.338	-1.62
224.573	-17.62
224.808	-10.62
225.042	-5.62
225.277	-11.62
225.511	-9.62
225.746	6.38
225.98	5.38
226.215	14.38
226.449	13.38
226.683	5.38
226.918	31.38
227.152	34.38
227.387	28.38
227.621	44.38
227.856	40.38
228.09	45.38
228.324	43.38
228.559	61.38
228.793	54.38
229.027	57.38
229.262	65.38
229.496	68.38
229.73	76.38
229.964	67.38
230.199	65.38
230.433	80.38
230.667	72.38
230.901	73.38
231.136	64.38
231.37	63.38
231.604	79.38
231.838	83.38
232.072	77.38
232.306	82.38
232.541	65.38
232.775	86.38
233.009	79.38
233.243	97.38
233.477	80.38
233.711	70.38
233.945	62.38
234.179	84.38
234.413	85.38
234.647	67.38
234.881	65.38
235.115	84.38
235.349	59.38
235.583	86.38
235.817	73.38
236.051	84.38
236.285	77.38
236.519	74.38
236.753	72.38
236.987	68.38
237.221	69.38
237.455	68.38
237.689	72.38
237.922	77.38
238.156	67.38
238.39	81.38
238.624	79.38
238.858	72.38
239.091	78.38
239.325	69.38
239.559	82.38
239.793	75.38
240.027	76.38
240.26	67.38
240.494	80.38
240.728	77.38
240.961	87.38
241.195	71.38
241.429	81.38
241.662	62.38
241.896	84.38
242.13	81.38
242.363	76.38
242.597	81.38
242.83	85.38
243.064	66.38
243.298	75.38
243.531	59.38
243.765	65.38
243.998	63.38
244.232	68.38
244.465	69.38
244.699	74.38
244.932	65.38
245.166	84.38
245.399	60.38
245.633	79.38
245.866	82.38
246.099	79.38
246.333	71.38
246.566	91.38
246.8	84.38
247.033	71.38
247.266	79.38
247.5	73.38
247.733	80.38
247.966	72.38
248.2	77.38
248.433	74.38
248.666	80.38
248.899	79.38
249.133	91.38
249.366	72.38
249.599	72.38
249.832	79.38
250.066	86.38
250.299	79.38
250.532	81.38
250.765	82.38
250.998	76.38
251.231	83.38
251.465	68.38
251.698	95.38
251.931	69.38
252.164	89.38
252.397	77.38
252.63	94.38
252.863	71.38
253.096	74.38
253.329	84.38
253.562	90.38
253.795	88.38
254.028	69.38
254.261	71.38
254.494	77.38
254.727	72.38
254.96	69.38
255.193	77.38
255.426	67.38
255.659	84.38
255.892	87.38
256.124	75.38
256.357	74.38
256.59	81.38
256.823	88.38
257.056	104.38
257.289	83.38
257.521	80.38
257.754	77.38
257.987	78.38
258.22	82.38
258.452	79.38
258.685	85.38
258.918	78.38
259.151	75.38
259.383	82.38
259.616	74.38
259.849	81.38
260.081	67.38
260.314	82.38
260.547	77.38
260.779	69.38
261.012	65.38
261.244	73.38
261.477	72.38
261.71	83.38
261.942	80.38
262.175	88.38
262.407	74.38
262.64	81.38
262.872	86.38
263.105	63.38
263.337	70.38
263.57	72.38
263.802	90.38
264.035	80.38
264.267	78.38
264.499	89.38
264.732	73.38
264.964	87.38
265.197	78.38
265.429	84.38
265.661	68.38
265.894	80.38
266.126	85.38
266.358	91.38
266.591	96.38
266.823	83.38
267.055	80.38
267.287	86.38
267.52	84.38
267.752	69.38
267.984	77.38
268.216	80.38
268.448	81.38
268.681	82.38
268.913	91.38
269.145	87.38
269.377	83.38
269.609	78.38
269.841	78.38
270.073	83.38
270.306	79.38
270.538	88.38
270.77	89.38
271.002	80.38
271.234	70.38
271.466	90.38
271.698	86.38
271.93	94.38
272.162	91.38
272.394	97.38
272.626	85.38
272.858	81.38
273.09	77.38
273.322	87.38
273.553	76.38
273.785	98.38
274.017	81.38
274.249	81.38
274.481	71.38
274.713	65.38
274.945	85.38
275.176	80.38
275.408	83.38
275.64	83.38
275.872	83.38
276.104	82.38
276.335	78.38
276.567	87.38
276.799	77.38
277.031	78.38
277.262	83.38
277.494	91.38
277.726	82.38
277.957	91.38
278.189	88.38
278.421	81.38
278.652	74.38
278.884	62.38
279.115	76.38
279.347	75.38
279.579	72.38
279.81	72.38
280.042	77.38
280.273	77.38
280.505	81.38
280.736	85.38
280.968	91.38
281.199	71.38
281.431	75.38
281.662	94.38
281.894	86.38
282.125	75.38
282.356	85.38
282.588	81.38
282.819	75.38
283.051	90.38
283.282	67.38
283.513	87.38
283.745	79.38
283.976	79.38
284.207	84.38
284.439	73.38
284.67	80.38
284.901	83.38
285.132	96.38
285.364	69.38
285.595	89.38
285.826	79.38
286.057	87.38
286.288	79.38
286.52	80.38
286.751	80.38
286.982	81.38
287.213	83.38
287.444	96.38
287.675	81.38
287.906	73.38
288.138	64.38
288.369	86.38
288.6	84.38
288.831	75.38
289.062	81.38
289.293	82.38
289.524	77.38
289.755	81.38
289.986	91.38
290.217	82.38
290.448	103.38
290.679	86.38
290.91	74.38
291.141	78.38
291.371	99.38
291.602	84.38
291.833	81.38
292.064	81.38
292.295	83.38
292.526	69.38
292.757	87.38
292.987	76.38
293.218	92.38
293.449	95.38
293.68	87.38
293.91	91.38
294.141	81.38
294.372	93.38
294.603	81.38
294.833	89.38
295.064	77.38
295.295	69.38
295.525	81.38
295.756	80.38
295.987	93.38
296.217	89.38
296.448	75.38
296.679	77.38
296.909	78.38
297.14	87.38
297.37	87.38
297.601	85.38
297.831	59.38
298.062	77.38
298.292	95.38
298.523	98.38
298.753	67.38
298.984	87.38
299.214	71.38
299.445	95.38
299.675	83.38
299.905	91.38
300.136	82.38
300.366	86.38
300.597	88.38
300.827	84.38
301.057	83.38
301.288	81.38
301.518	87.38
301.748	91.38
301.979	96.38
302.209	82.38
302.439	83.38
302.669	81.38
302.9	85.38
303.13	93.38
303.36	88.38
303.59	87.38
303.82	92.38
304.051	84.38
304.281	66.38
304.511	82.38
304.741	72.38
304.971	80.38
305.201	94.38
305.431	92.38
305.661	79.38
305.891	99.38
306.121	68.38
306.352	76.38
306.582	87.38
306.812	75.38
307.042	81.38
307.272	87.38
307.502	87.38
307.731	79.38
307.961	98.38
308.191	82.38
308.421	68.38
308.651	88.38
308.881	77.38
309.111	85.38
309.341	69.38
309.571	86.38
309.8	86.38
310.03	93.38
310.26	79.38
310.49	77.38
310.72	87.38
310.949	86.38
311.179	75.38
311.409	71.38
311.639	77.38
311.868	93.38
312.098	84.38
312.328	76.38
312.557	76.38
312.787	85.38
313.017	83.38
313.246	70.38
313.476	96.38
313.706	67.38
313.935	73.38
314.165	80.38
314.394	88.38
314.624	80.38
314.853	79.38
315.083	72.38
315.312	74.38
315.542	86.38
315.771	87.38
316.001	87.38
316.23	74.38
316.46	85.38
316.689	83.38
316.919	74.38
317.148	89.38
317.377	89.38
317.607	82.38
317.836	82.38
318.065	87.38
318.295	85.38
318.524	65.38
318.753	99.38
318.983	84.38
319.212	65.38
319.441	79.38
319.67	89.38
319.9	82.38
320.129	79.38
320.358	75.38
320.587	86.38
320.816	79.38
321.046	80.38
321.275	92.38
321.504	88.38
321.733	75.38
321.962	87.38
322.191	83.38
322.42	78.38
322.649	87.38
322.878	82.38
323.108	95.38
323.337	84.38
323.566	77.38
323.795	82.38
324.024	76.38
324.253	81.38
324.482	78.38
324.71	89.38
324.939	87.38
325.168	82.38
325.397	87.38
325.626	84.38
325.855	76.38
326.084	80.38
326.313	81.38
326.542	65.38
326.77	89.38
326.999	87.38
327.228	78.38
327.457	83.38
327.686	76.38
327.914	67.38
328.143	80.38
328.372	83.38
328.6	69.38
328.829	93.38
329.058	76.38
329.287	81.38
329.515	83.38
329.744	80.38
329.972	70.38
330.201	88.38
330.43	72.38
330.658	98.38
330.887	104.38
331.115	64.38
331.344	75.38
331.572	71.38
331.801	90.38
332.03	85.38
332.258	73.38
332.486	76.38
332.715	76.38
332.943	83.38
333.172	80.38
333.4	84.38
333.629	81.38
333.857	86.38
334.085	79.38
334.314	84.38
334.542	95.38
334.771	100.38
334.999	75.38
335.227	70.38
335.455	71.38
335.684	81.38
335.912	87.38
336.14	78.38
336.369	84.38
336.597	81.38
336.825	90.38
337.053	75.38
337.281	85.38
337.51	74.38
337.738	84.38
337.966	77.38
338.194	84.38
338.422	80.38
338.65	83.38
338.878	81.38
339.106	92.38
339.334	92.38
339.562	89.38
339.79	77.38
340.018	79.38
340.246	86.38
340.474	85.38
340.702	87.38
340.93	79.38
341.158	83.38
341.386	87.38
341.614	65.38
341.842	83.38
342.07	79.38
342.298	82.38
342.526	72.38
342.754	96.38
342.981	103.38
343.209	81.38
343.437	88.38
343.665	84.38
343.893	85.38
344.12	99.38
344.348	77.38
344.576	94.38
344.804	88.38
345.031	101.38
345.259	77.38
345.487	73.38
345.714	79.38
345.942	82.38
346.17	84.38
346.397	89.38
346.625	78.38
346.853	77.38
347.08	79.38
347.308	71.38
347.535	77.38
347.763	78.38
347.99	80.38
348.218	72.38
348.445	73.38
348.673	83.38
348.9	65.38
349.128	89.38
349.355	91.38
349.583	88.38
349.81	84.38
350.037	87.38
350.265	76.38
350.492	84.38
350.72	92.38
350.947	75.38
351.174	77.38
351.402	68.38
351.629	66.38
351.856	76.38
352.083	71.38
352.311	85.38
352.538	82.38
352.765	99.38
352.992	82.38
353.22	90.38
353.447	77.38
353.674	82.38
353.901	85.38
354.128	82.38
354.355	69.38
354.583	65.38
354.81	79.38
355.037	77.38
355.264	81.38
355.491	85.38
355.718	77.38
355.945	98.38
356.172	77.38
356.399	77.38
356.626	67.38
356.853	70.38
357.08	83.38
357.307	74.38
357.534	72.38
357.761	83.38
357.988	83.38
358.215	73.38
358.441	79.38
358.668	86.38
358.895	69.38
359.122	88.38
359.349	67.38
359.576	79.38
359.802	73.38
360.029	78.38
360.256	82.38
360.483	65.38
360.709	86.38
360.936	81.38
361.163	85.38
361.39	91.38
361.616	94.38
361.843	83.38
362.07	72.38
362.296	87.38
362.523	91.38
362.749	73.38
362.976	81.38
363.203	100.38
363.429	96.38
363.656	93.38
363.882	59.38
364.109	73.38
364.335	87.38
364.562	101.38
364.788	88.38
365.015	86.38
365.241	90.38
365.468	70.38
365.694	73.38
365.92	89.38
366.147	91.38
366.373	63.38
366.599	88.38
366.826	76.38
367.052	77.38
367.278	69.38
367.505	76.38
367.731	88.38
367.957	77.38
368.184	83.38
368.41	72.38
368.636	92.38
368.862	84.38
369.089	72.38
369.315	72.38
369.541	97.38
369.767	79.38
369.993	85.38
370.219	75.38
370.445	72.38
370.672	80.38
370.898	79.38
371.124	74.38
371.35	80.38
371.576	77.38
371.802	91.38
372.028	84.38
372.254	69.38
372.48	75.38
372.706	79.38
372.932	87.38
373.158	76.38
373.384	81.38
373.61	74.38
373.835	79.38
374.061	81.38
374.287	81.38
374.513	75.38
374.739	88.38
374.965	75.38
375.191	87.38
375.416	89.38
375.642	87.38
375.868	89.38
376.094	96.38
376.319	83.38
376.545	83.38
376.771	80.38
376.997	86.38
377.222	81.38
377.448	93.38
377.674	84.38
377.899	79.38
378.125	67.38
378.35	75.38
378.576	71.38
378.802	73.38
379.027	68.38
379.253	73.38
379.478	79.38
379.704	89.38
379.929	82.38
380.155	80.38
380.38	92.38
380.606	71.38
380.831	79.38
381.057	71.38
381.282	85.38
381.507	89.38
381.733	82.38
381.958	78.38
382.184	83.38
382.409	84.38
382.634	78.38
382.86	63.38
383.085	73.38
383.31	96.38
383.535	75.38
383.761	67.38
383.986	69.38
384.211	75.38
384.436	88.38
384.662	88.38
384.887	77.38
385.112	77.38
385.337	79.38
385.562	70.38
385.787	75.38
386.013	86.38
386.238	86.38
386.463	81.38
386.688	92.38
386.913	79.38
387.138	68.38
387.363	84.38
387.588	69.38
387.813	79.38
388.038	79.38
388.263	75.38
388.488	61.38
388.713	80.38
388.938	78.38
389.163	84.38
389.387	83.38
389.612	79.38
389.837	85.38
390.062	67.38
390.287	91.38
390.512	76.38
390.736	75.38
390.961	68.38
391.186	88.38
391.411	91.38
391.636	75.38
391.86	76.38
392.085	69.38
392.31	85.38
392.534	83.38
392.759	84.38
392.984	75.38
393.208	89.38
393.433	70.38
393.658	81.38
393.882	65.38
394.107	74.38
394.331	77.38
394.556	76.38
394.78	71.38
395.005	81.38
395.229	75.38
395.454	77.38
395.678	87.38
395.903	76.38
396.127	83.38
396.352	74.38
396.576	86.38
396.801	66.38
397.025	74.38
397.249	83.38
397.474	71.38
397.698	83.38
397.922	84.38
398.147	80.38
398.371	75.38
398.595	75.38
398.82	64.38
399.044	82.38
399.268	73.38
399.492	94.38
399.717	90.38
399.941	83.38
400.165	79.38
400.389	77.38
400.613	68.38
400.837	79.38
401.062	78.38
401.286	93.38
401.51	82.38
401.734	92.38
401.958	73.38
402.182	77.38
402.406	87.38
402.63	74.38
402.854	80.38
403.078	94.38
403.302	72.38
403.526	87.38
403.75	73.38
403.974	90.38
404.198	65.38
404.422	71.38
404.645	90.38
404.869	75.38
405.093	75.38
405.317	88.38
405.541	80.38
405.765	83.38
405.988	72.38
406.212	73.38
406.436	74.38
406.66	81.38
406.883	76.38
407.107	81.38
407.331	71.38
407.555	67.38
407.778	83.38
408.002	82.38
408.226	79.38
408.449	85.38
408.673	84.38
408.896	79.38
409.12	69.38
409.344	72.38
409.567	82.38
409.791	77.38
410.014	91.38
410.238	82.38
410.461	89.38
410.685	71.38
410.908	72.38
411.132	84.38
411.355	65.38
411.578	75.38
411.802	87.38
412.025	82.38
412.249	73.38
412.472	83.38
412.695	87.38
412.919	68.38
413.142	70.38
413.365	65.38
413.589	72.38
413.812	71.38
414.035	70.38
414.258	82.38
414.482	78.38
414.705	72.38
414.928	69.38
415.151	81.38
415.374	87.38
415.597	74.38
415.821	66.38
416.044	74.38
416.267	83.38
416.49	80.38
416.713	77.38
416.936	69.38
417.159	89.38
417.382	87.38
417.605	67.38
417.828	64.38
418.051	80.38
418.274	89.38
418.497	78.38
418.72	82.38
418.943	70.38
419.166	74.38
419.389	79.38
419.611	89.38
419.834	83.38
420.057	76.38
420.28	61.38
420.503	77.38
420.726	71.38
420.948	75.38
421.171	68.38
421.394	75.38
421.617	69.38
421.839	69.38
422.062	87.38
422.285	85.38
422.507	69.38
422.73	81.38
422.953	68.38
423.175	73.38
423.398	69.38
423.621	89.38
423.843	76.38
424.066	57.38
424.288	80.38
424.511	68.38
424.733	77.38
424.956	84.38
425.178	75.38
425.401	74.38
425.623	75.38
425.846	74.38
426.068	70.38
426.291	85.38
426.513	97.38
426.735	72.38
426.958	67.38
427.18	75.38
427.402	86.38
427.625	73.38
427.847	82.38
428.069	83.38
428.292	81.38
428.514	77.38
428.736	86.38
428.958	75.38
429.181	69.38
429.403	71.38
429.625	81.38
429.847	77.38
430.069	92.38
430.292	91.38
430.514	72.38
430.736	73.38
430.958	68.38
431.18	79.38
431.402	89.38
431.624	76.38
431.846	82.38
432.068	91.38
432.29	88.38
432.512	82.38
432.734	85.38
432.956	86.38
433.178	101.38
433.4	84.38
433.622	69.38
433.844	91.38
434.066	83.38
434.287	98.38
434.509	89.38
434.731	82.38
434.953	70.38
435.175	76.38
435.397	78.38
435.618	73.38
435.84	76.38
436.062	91.38
436.284	74.38
436.505	66.38
436.727	74.38
436.949	72.38
437.17	81.38
437.392	84.38
437.614	93.38
437.835	77.38
438.057	77.38
438.278	72.38
438.5	79.38
438.721	96.38
438.943	63.38
439.165	68.38
439.386	76.38
439.608	69.38
439.829	87.38
440.05	79.38
440.272	75.38
440.493	92.38
440.715	77.38
440.936	77.38
441.158	69.38
441.379	79.38
441.6	64.38
441.822	91.38
442.043	77.38
442.264	70.38
442.486	78.38
442.707	78.38
442.928	68.38
443.149	63.38
443.371	88.38
443.592	78.38
443.813	77.38
444.034	83.38
444.255	79.38
444.476	84.38
444.698	78.38
444.919	70.38
445.14	144.38
445.361	113.38
445.582	88.38
445.803	73.38
446.024	81.38
446.245	83.38
446.466	81.38
446.687	76.38
446.908	70.38
447.129	73.38
447.35	77.38
447.571	70.38
447.792	89.38
448.013	83.38
448.234	75.38
448.455	77.38
448.675	69.38
448.896	78.38
449.117	84.38
449.338	63.38
449.559	83.38
449.779	97.38
450	77.38
450.221	76.38
450.442	80.38
450.662	89.38
450.883	67.38
451.104	80.38
451.324	73.38
451.545	73.38
451.766	90.38
451.986	79.38
452.207	84.38
452.428	79.38
452.648	84.38
452.869	75.38
453.089	73.38
453.31	80.38
453.53	84.38
453.751	86.38
453.971	75.38
454.192	88.38
454.412	82.38
454.633	84.38
454.853	61.38
455.073	64.38
455.294	68.38
455.514	81.38
455.734	74.38
455.955	74.38
456.175	67.38
456.395	93.38
456.616	79.38
456.836	79.38
457.056	79.38
457.276	68.38
457.497	75.38
457.717	76.38
457.937	75.38
458.157	82.38
458.377	72.38
458.598	75.38
458.818	61.38
459.038	83.38
459.258	69.38
459.478	89.38
459.698	82.38
459.918	93.38
460.138	75.38
460.358	80.38
460.578	83.38
460.798	76.38
461.018	95.38
461.238	82.38
461.458	79.38
461.678	83.38
461.898	85.38
462.118	84.38
462.338	81.38
462.558	78.38
462.777	70.38
462.997	76.38
463.217	82.38
463.437	84.38
463.657	94.38
463.876	85.38
464.096	80.38
464.316	93.38
464.536	87.38
464.755	89.38
464.975	83.38
465.195	77.38
465.414	75.38
465.634	80.38
465.854	80.38
466.073	68.38
466.293	69.38
466.512	77.38
466.732	94.38
466.951	75.38
467.171	72.38
467.391	76.38
467.61	69.38
467.829	75.38
468.049	85.38
468.268	78.38
468.488	77.38
468.707	77.38
468.927	82.38
469.146	72.38
469.365	83.38
469.585	73.38
469.804	88.38
470.023	95.38
470.243	67.38
470.462	72.38
470.681	57.38
470.901	70.38
471.12	59.38
471.339	82.38
471.558	68.38
471.777	76.38
471.997	76.38
472.216	76.38
472.435	68.38
472.654	93.38
472.873	87.38
473.092	80.38
473.311	66.38
473.53	73.38
473.749	87.38
473.968	81.38
474.187	77.38
474.406	80.38
474.625	68.38
474.844	73.38
475.063	73.38
475.282	78.38
475.501	81.38
475.72	72.38
475.939	83.38
476.158	79.38
476.377	84.38
476.596	79.38
476.814	80.38
477.033	87.38
477.252	83.38
477.471	73.38
477.69	72.38
477.908	72.38
478.127	75.38
478.346	87.38
478.564	69.38
478.783	76.38
479.002	73.38
479.22	63.38
479.439	83.38
479.658	75.38
479.876	83.38
480.095	76.38
480.313	91.38
480.532	81.38
480.751	74.38
480.969	77.38
481.188	76.38
481.406	79.38
481.624	79.38
481.843	74.38
482.061	90.38
482.28	73.38
482.498	58.38
482.717	75.38
482.935	68.38
483.153	81.38
483.372	93.38
483.59	69.38
483.808	80.38
484.027	74.38
484.245	87.38
484.463	75.38
484.681	85.38
484.9	64.38
485.118	74.38
485.336	75.38
485.554	74.38
485.772	71.38
485.99	83.38
486.209	73.38
486.427	70.38
486.645	85.38
486.863	93.38
487.081	78.38
487.299	75.38
487.517	77.38
487.735	84.38
487.953	81.38
488.171	83.38
488.389	93.38
488.607	83.38
488.825	74.38
489.043	81.38
489.261	75.38
489.479	82.38
489.696	81.38
489.914	83.38
490.132	84.38
490.35	69.38
490.568	73.38
490.786	78.38
491.003	75.38
491.221	78.38
491.439	66.38
491.657	79.38
491.874	77.38
492.092	79.38
492.31	63.38
492.527	89.38
492.745	79.38
492.963	91.38
493.18	75.38
493.398	80.38
493.615	69.38
493.833	81.38
494.05	69.38
494.268	80.38
494.485	90.38
494.703	69.38
494.92	80.38
495.138	89.38
495.355	94.38
495.573	87.38
495.79	84.38
496.008	85.38
496.225	82.38
496.442	77.38
496.66	66.38
496.877	81.38
497.094	88.38
497.312	87.38
497.529	83.38
497.746	83.38
497.963	70.38
498.181	75.38
498.398	67.38
498.615	77.38
498.832	87.38
499.049	75.38
499.267	69.38
499.484	67.38
499.701	67.38
499.918	65.38
500.135	77.38
500.352	75.38
500.569	85.38
500.786	78.38
501.003	77.38
501.22	85.38
501.437	75.38
501.654	73.38
501.871	88.38
502.088	62.38
502.305	78.38
502.522	91.38
502.739	75.38
502.956	74.38
503.172	76.38
503.389	86.38
503.606	80.38
503.823	82.38
504.04	87.38
504.256	83.38
504.473	77.38
504.69	88.38
504.907	84.38
505.123	71.38
505.34	75.38
505.557	76.38
505.773	80.38
505.99	72.38
506.207	77.38
506.423	75.38
506.64	77.38
506.856	85.38
507.073	80.38
507.289	78.38
507.506	80.38
507.722	74.38
507.939	69.38
508.155	79.38
508.372	92.38
508.588	71.38
508.805	79.38
509.021	77.38
509.238	101.38
509.454	67.38
509.67	76.38
509.887	71.38
510.103	85.38
510.319	93.38
510.536	83.38
510.752	71.38
510.968	89.38
511.184	59.38
511.401	68.38
511.617	77.38
511.833	94.38
512.049	66.38
512.265	74.38
512.481	63.38
512.698	82.38
512.914	89.38
513.13	72.38
513.346	83.38
513.562	67.38
513.778	70.38
513.994	84.38
514.21	73.38
514.426	87.38
514.642	76.38
514.858	81.38
515.074	80.38
515.29	95.38
515.506	83.38
515.721	87.38
515.937	84.38
516.153	65.38
516.369	87.38
516.585	100.38
516.801	88.38
517.016	87.38
517.232	89.38
517.448	85.38
517.664	73.38
517.879	82.38
518.095	88.38
518.311	82.38
518.527	70.38
518.742	75.38
518.958	90.38
519.173	83.38
519.389	73.38
519.605	85.38
519.82	95.38
520.036	75.38
