Data from Background_2_HRD10591_00008.txt Node
Date: Wed Nov 05 14:47:01 EST 2025
User: Yrep
Spectrometer: HR+D1059
Trigger mode: 1
Integration Time (sec): 1.000000E-1
Scans to average: 1
Electric dark correction enabled: true
Nonlinearity correction enabled: false
Boxcar width: 0
XAxis mode: Wavelengths
Number of Pixels in Spectrum: 2048
>>>>>Begin Spectral Data<<<<<
223.165	-21.25
223.4	-21.25
223.635	-21.25
223.869	-22.25
224.104	-11.25
224.338	-14.25
224.573	-17.25
224.808	-21.25
225.042	-1.25
225.277	-2.25
225.511	1.75
225.746	5.75
225.98	-5.25
226.215	20.75
226.449	19.75
226.683	20.75
226.918	20.75
227.152	26.75
227.387	24.75
227.621	43.75
227.856	49.75
228.09	43.75
228.324	40.75
228.559	60.75
228.793	54.75
229.027	54.75
229.262	65.75
229.496	56.75
229.73	54.75
229.964	74.75
230.199	62.75
230.433	59.75
230.667	79.75
230.901	70.75
231.136	61.75
231.37	87.75
231.604	78.75
231.838	89.75
232.072	73.75
232.306	81.75
232.541	71.75
232.775	78.75
233.009	78.75
233.243	96.75
233.477	83.75
233.711	73.75
233.945	81.75
234.179	90.75
234.413	76.75
234.647	68.75
234.881	82.75
235.115	81.75
235.349	87.75
235.583	77.75
235.817	72.75
236.051	74.75
236.285	76.75
236.519	68.75
236.753	82.75
236.987	92.75
237.221	79.75
237.455	72.75
237.689	82.75
237.922	74.75
238.156	84.75
238.39	67.75
238.624	77.75
238.858	72.75
239.091	71.75
239.325	63.75
239.559	84.75
239.793	72.75
240.027	69.75
240.26	67.75
240.494	73.75
240.728	78.75
240.961	65.75
241.195	62.75
241.429	77.75
241.662	60.75
241.896	64.75
242.13	68.75
242.363	74.75
242.597	78.75
242.83	73.75
243.064	72.75
243.298	79.75
243.531	80.75
243.765	70.75
243.998	72.75
244.232	76.75
244.465	68.75
244.699	62.75
244.932	78.75
245.166	78.75
245.399	74.75
245.633	78.75
245.866	91.75
246.099	72.75
246.333	76.75
246.566	71.75
246.8	74.75
247.033	71.75
247.266	76.75
247.5	62.75
247.733	82.75
247.966	64.75
248.2	71.75
248.433	64.75
248.666	77.75
248.899	80.75
249.133	66.75
249.366	79.75
249.599	70.75
249.832	82.75
250.066	71.75
250.299	80.75
250.532	73.75
250.765	76.75
250.998	83.75
251.231	68.75
251.465	98.75
251.698	93.75
251.931	76.75
252.164	75.75
252.397	85.75
252.63	74.75
252.863	81.75
253.096	83.75
253.329	77.75
253.562	68.75
253.795	72.75
254.028	87.75
254.261	71.75
254.494	78.75
254.727	76.75
254.96	64.75
255.193	72.75
255.426	73.75
255.659	85.75
255.892	86.75
256.124	92.75
256.357	90.75
256.59	81.75
256.823	81.75
257.056	72.75
257.289	72.75
257.521	82.75
257.754	56.75
257.987	70.75
258.22	83.75
258.452	70.75
258.685	79.75
258.918	64.75
259.151	73.75
259.383	89.75
259.616	82.75
259.849	93.75
260.081	83.75
260.314	71.75
260.547	85.75
260.779	80.75
261.012	74.75
261.244	77.75
261.477	89.75
261.71	78.75
261.942	82.75
262.175	74.75
262.407	75.75
262.64	79.75
262.872	75.75
263.105	76.75
263.337	71.75
263.57	92.75
263.802	69.75
264.035	68.75
264.267	84.75
264.499	96.75
264.732	76.75
264.964	88.75
265.197	77.75
265.429	80.75
265.661	76.75
265.894	76.75
266.126	87.75
266.358	94.75
266.591	80.75
266.823	86.75
267.055	67.75
267.287	90.75
267.52	78.75
267.752	76.75
267.984	83.75
268.216	81.75
268.448	76.75
268.681	74.75
268.913	76.75
269.145	70.75
269.377	83.75
269.609	57.75
269.841	70.75
270.073	82.75
270.306	76.75
270.538	79.75
270.77	65.75
271.002	87.75
271.234	77.75
271.466	77.75
271.698	80.75
271.93	66.75
272.162	91.75
272.394	75.75
272.626	85.75
272.858	81.75
273.09	84.75
273.322	83.75
273.553	86.75
273.785	66.75
274.017	86.75
274.249	82.75
274.481	63.75
274.713	72.75
274.945	71.75
275.176	79.75
275.408	78.75
275.64	83.75
275.872	74.75
276.104	70.75
276.335	87.75
276.567	82.75
276.799	79.75
277.031	86.75
277.262	82.75
277.494	84.75
277.726	78.75
277.957	74.75
278.189	87.75
278.421	71.75
278.652	74.75
278.884	87.75
279.115	84.75
279.347	67.75
279.579	88.75
279.81	77.75
280.042	82.75
280.273	79.75
280.505	72.75
280.736	78.75
280.968	108.75
281.199	82.75
281.431	68.75
281.662	86.75
281.894	74.75
282.125	84.75
282.356	83.75
282.588	73.75
282.819	76.75
283.051	87.75
283.282	84.75
283.513	89.75
283.745	70.75
283.976	85.75
284.207	75.75
284.439	93.75
284.67	76.75
284.901	73.75
285.132	76.75
285.364	92.75
285.595	72.75
285.826	83.75
286.057	80.75
286.288	69.75
286.52	89.75
286.751	76.75
286.982	80.75
287.213	86.75
287.444	94.75
287.675	80.75
287.906	78.75
288.138	83.75
288.369	73.75
288.6	70.75
288.831	68.75
289.062	76.75
289.293	88.75
289.524	84.75
289.755	82.75
289.986	79.75
290.217	81.75
290.448	70.75
290.679	83.75
290.91	85.75
291.141	86.75
291.371	86.75
291.602	79.75
291.833	80.75
292.064	84.75
292.295	98.75
292.526	72.75
292.757	92.75
292.987	72.75
293.218	72.75
293.449	95.75
293.68	84.75
293.91	80.75
294.141	97.75
294.372	86.75
294.603	86.75
294.833	83.75
295.064	83.75
295.295	84.75
295.525	78.75
295.756	74.75
295.987	75.75
296.217	99.75
296.448	74.75
296.679	97.75
296.909	78.75
297.14	87.75
297.37	70.75
297.601	76.75
297.831	74.75
298.062	91.75
298.292	75.75
298.523	90.75
298.753	76.75
298.984	84.75
299.214	83.75
299.445	88.75
299.675	82.75
299.905	85.75
300.136	86.75
300.366	80.75
300.597	78.75
300.827	83.75
301.057	71.75
301.288	74.75
301.518	77.75
301.748	73.75
301.979	100.75
302.209	78.75
302.439	82.75
302.669	82.75
302.9	82.75
303.13	80.75
303.36	92.75
303.59	80.75
303.82	90.75
304.051	76.75
304.281	68.75
304.511	76.75
304.741	85.75
304.971	72.75
305.201	96.75
305.431	81.75
305.661	76.75
305.891	77.75
306.121	78.75
306.352	90.75
306.582	74.75
306.812	85.75
307.042	68.75
307.272	83.75
307.502	70.75
307.731	81.75
307.961	90.75
308.191	82.75
308.421	89.75
308.651	90.75
308.881	101.75
309.111	88.75
309.341	83.75
309.571	96.75
309.8	76.75
310.03	80.75
310.26	73.75
310.49	82.75
310.72	91.75
310.949	88.75
311.179	75.75
311.409	81.75
311.639	75.75
311.868	81.75
312.098	80.75
312.328	83.75
312.557	83.75
312.787	83.75
313.017	94.75
313.246	98.75
313.476	89.75
313.706	75.75
313.935	82.75
314.165	82.75
314.394	79.75
314.624	77.75
314.853	77.75
315.083	83.75
315.312	73.75
315.542	81.75
315.771	82.75
316.001	83.75
316.23	84.75
316.46	83.75
316.689	61.75
316.919	86.75
317.148	80.75
317.377	79.75
317.607	90.75
317.836	78.75
318.065	78.75
318.295	82.75
318.524	86.75
318.753	78.75
318.983	80.75
319.212	95.75
319.441	71.75
319.67	86.75
319.9	76.75
320.129	86.75
320.358	74.75
320.587	97.75
320.816	91.75
321.046	75.75
321.275	96.75
321.504	68.75
321.733	76.75
321.962	88.75
322.191	73.75
322.42	74.75
322.649	88.75
322.878	90.75
323.108	79.75
323.337	90.75
323.566	80.75
323.795	78.75
324.024	106.75
324.253	92.75
324.482	71.75
324.71	84.75
324.939	74.75
325.168	78.75
325.397	80.75
325.626	82.75
325.855	83.75
326.084	69.75
326.313	82.75
326.542	81.75
326.77	78.75
326.999	90.75
327.228	82.75
327.457	78.75
327.686	77.75
327.914	75.75
328.143	88.75
328.372	83.75
328.6	68.75
328.829	84.75
329.058	90.75
329.287	90.75
329.515	97.75
329.744	88.75
329.972	84.75
330.201	79.75
330.43	72.75
330.658	72.75
330.887	77.75
331.115	87.75
331.344	86.75
331.572	82.75
331.801	75.75
332.03	91.75
332.258	81.75
332.486	79.75
332.715	81.75
332.943	77.75
333.172	80.75
333.4	83.75
333.629	78.75
333.857	94.75
334.085	77.75
334.314	71.75
334.542	78.75
334.771	74.75
334.999	62.75
335.227	74.75
335.455	82.75
335.684	86.75
335.912	77.75
336.14	83.75
336.369	77.75
336.597	83.75
336.825	76.75
337.053	78.75
337.281	69.75
337.51	79.75
337.738	80.75
337.966	84.75
338.194	79.75
338.422	87.75
338.65	76.75
338.878	84.75
339.106	74.75
339.334	80.75
339.562	75.75
339.79	78.75
340.018	80.75
340.246	69.75
340.474	67.75
340.702	80.75
340.93	95.75
341.158	90.75
341.386	76.75
341.614	90.75
341.842	87.75
342.07	78.75
342.298	76.75
342.526	79.75
342.754	70.75
342.981	78.75
343.209	78.75
343.437	89.75
343.665	86.75
343.893	90.75
344.12	77.75
344.348	85.75
344.576	86.75
344.804	88.75
345.031	72.75
345.259	82.75
345.487	83.75
345.714	86.75
345.942	66.75
346.17	70.75
346.397	72.75
346.625	75.75
346.853	78.75
347.08	82.75
347.308	83.75
347.535	88.75
347.763	82.75
347.99	87.75
348.218	78.75
348.445	92.75
348.673	58.75
348.9	76.75
349.128	84.75
349.355	78.75
349.583	87.75
349.81	88.75
350.037	71.75
350.265	75.75
350.492	89.75
350.72	83.75
350.947	83.75
351.174	79.75
351.402	77.75
351.629	89.75
351.856	82.75
352.083	86.75
352.311	87.75
352.538	70.75
352.765	68.75
352.992	82.75
353.22	75.75
353.447	81.75
353.674	78.75
353.901	73.75
354.128	79.75
354.355	79.75
354.583	64.75
354.81	75.75
355.037	66.75
355.264	75.75
355.491	77.75
355.718	96.75
355.945	86.75
356.172	83.75
356.399	76.75
356.626	72.75
356.853	78.75
357.08	83.75
357.307	81.75
357.534	82.75
357.761	74.75
357.988	78.75
358.215	82.75
358.441	69.75
358.668	67.75
358.895	75.75
359.122	74.75
359.349	72.75
359.576	88.75
359.802	73.75
360.029	93.75
360.256	75.75
360.483	89.75
360.709	74.75
360.936	78.75
361.163	79.75
361.39	83.75
361.616	76.75
361.843	69.75
362.07	82.75
362.296	79.75
362.523	80.75
362.749	84.75
362.976	76.75
363.203	84.75
363.429	85.75
363.656	86.75
363.882	82.75
364.109	88.75
364.335	81.75
364.562	72.75
364.788	87.75
365.015	71.75
365.241	89.75
365.468	81.75
365.694	84.75
365.92	81.75
366.147	94.75
366.373	71.75
366.599	75.75
366.826	64.75
367.052	72.75
367.278	76.75
367.505	72.75
367.731	79.75
367.957	98.75
368.184	76.75
368.41	78.75
368.636	85.75
368.862	81.75
369.089	82.75
369.315	90.75
369.541	71.75
369.767	72.75
369.993	76.75
370.219	91.75
370.445	82.75
370.672	87.75
370.898	82.75
371.124	67.75
371.35	70.75
371.576	78.75
371.802	81.75
372.028	81.75
372.254	75.75
372.48	62.75
372.706	86.75
372.932	78.75
373.158	97.75
373.384	71.75
373.61	83.75
373.835	76.75
374.061	82.75
374.287	84.75
374.513	79.75
374.739	77.75
374.965	85.75
375.191	82.75
375.416	89.75
375.642	74.75
375.868	87.75
376.094	96.75
376.319	72.75
376.545	75.75
376.771	79.75
376.997	70.75
377.222	86.75
377.448	73.75
377.674	86.75
377.899	78.75
378.125	81.75
378.35	86.75
378.576	79.75
378.802	67.75
379.027	77.75
379.253	78.75
379.478	79.75
379.704	78.75
379.929	85.75
380.155	79.75
380.38	69.75
380.606	81.75
380.831	63.75
381.057	85.75
381.282	85.75
381.507	89.75
381.733	79.75
381.958	80.75
382.184	92.75
382.409	74.75
382.634	96.75
382.86	74.75
383.085	73.75
383.31	83.75
383.535	90.75
383.761	97.75
383.986	93.75
384.211	64.75
384.436	82.75
384.662	92.75
384.887	69.75
385.112	83.75
385.337	82.75
385.562	64.75
385.787	63.75
386.013	74.75
386.238	68.75
386.463	89.75
386.688	88.75
386.913	86.75
387.138	74.75
387.363	80.75
387.588	86.75
387.813	87.75
388.038	90.75
388.263	80.75
388.488	99.75
388.713	73.75
388.938	66.75
389.163	78.75
389.387	88.75
389.612	84.75
389.837	93.75
390.062	82.75
390.287	75.75
390.512	80.75
390.736	91.75
390.961	75.75
391.186	76.75
391.411	74.75
391.636	74.75
391.86	66.75
392.085	81.75
392.31	76.75
392.534	78.75
392.759	72.75
392.984	86.75
393.208	66.75
393.433	81.75
393.658	75.75
393.882	88.75
394.107	68.75
394.331	87.75
394.556	68.75
394.78	75.75
395.005	72.75
395.229	84.75
395.454	80.75
395.678	68.75
395.903	80.75
396.127	76.75
396.352	72.75
396.576	81.75
396.801	79.75
397.025	68.75
397.249	74.75
397.474	81.75
397.698	78.75
397.922	72.75
398.147	78.75
398.371	80.75
398.595	86.75
398.82	81.75
399.044	100.75
399.268	80.75
399.492	72.75
399.717	80.75
399.941	74.75
400.165	78.75
400.389	87.75
400.613	82.75
400.837	71.75
401.062	82.75
401.286	76.75
401.51	72.75
401.734	83.75
401.958	91.75
402.182	66.75
402.406	64.75
402.63	70.75
402.854	81.75
403.078	79.75
403.302	67.75
403.526	62.75
403.75	73.75
403.974	84.75
404.198	87.75
404.422	77.75
404.645	82.75
404.869	68.75
405.093	78.75
405.317	58.75
405.541	67.75
405.765	67.75
405.988	86.75
406.212	80.75
406.436	75.75
406.66	92.75
406.883	72.75
407.107	65.75
407.331	78.75
407.555	82.75
407.778	63.75
408.002	68.75
408.226	81.75
408.449	78.75
408.673	80.75
408.896	80.75
409.12	69.75
409.344	72.75
409.567	77.75
409.791	72.75
410.014	81.75
410.238	58.75
410.461	74.75
410.685	74.75
410.908	82.75
411.132	74.75
411.355	73.75
411.578	62.75
411.802	80.75
412.025	72.75
412.249	81.75
412.472	72.75
412.695	68.75
412.919	87.75
413.142	68.75
413.365	80.75
413.589	79.75
413.812	76.75
414.035	80.75
414.258	79.75
414.482	74.75
414.705	78.75
414.928	82.75
415.151	89.75
415.374	80.75
415.597	97.75
415.821	88.75
416.044	82.75
416.267	79.75
416.49	77.75
416.713	82.75
416.936	77.75
417.159	79.75
417.382	75.75
417.605	59.75
417.828	66.75
418.051	73.75
418.274	81.75
418.497	77.75
418.72	87.75
418.943	92.75
419.166	80.75
419.389	82.75
419.611	75.75
419.834	80.75
420.057	78.75
420.28	69.75
420.503	68.75
420.726	80.75
420.948	64.75
421.171	80.75
421.394	75.75
421.617	76.75
421.839	79.75
422.062	68.75
422.285	64.75
422.507	56.75
422.73	67.75
422.953	73.75
423.175	87.75
423.398	74.75
423.621	85.75
423.843	84.75
424.066	75.75
424.288	74.75
424.511	55.75
424.733	78.75
424.956	76.75
425.178	67.75
425.401	78.75
425.623	86.75
425.846	77.75
426.068	74.75
426.291	90.75
426.513	63.75
426.735	71.75
426.958	68.75
427.18	84.75
427.402	72.75
427.625	78.75
427.847	82.75
428.069	69.75
428.292	77.75
428.514	83.75
428.736	85.75
428.958	88.75
429.181	74.75
429.403	81.75
429.625	74.75
429.847	78.75
430.069	67.75
430.292	71.75
430.514	74.75
430.736	72.75
430.958	75.75
431.18	76.75
431.402	86.75
431.624	70.75
431.846	81.75
432.068	77.75
432.29	69.75
432.512	72.75
432.734	80.75
432.956	78.75
433.178	77.75
433.4	63.75
433.622	68.75
433.844	75.75
434.066	79.75
434.287	63.75
434.509	80.75
434.731	79.75
434.953	81.75
435.175	74.75
435.397	79.75
435.618	69.75
435.84	81.75
436.062	74.75
436.284	73.75
436.505	62.75
436.727	70.75
436.949	79.75
437.17	89.75
437.392	62.75
437.614	88.75
437.835	90.75
438.057	72.75
438.278	66.75
438.5	78.75
438.721	85.75
438.943	85.75
439.165	78.75
439.386	82.75
439.608	73.75
439.829	60.75
440.05	75.75
440.272	87.75
440.493	99.75
440.715	65.75
440.936	89.75
441.158	89.75
441.379	83.75
441.6	73.75
441.822	73.75
442.043	78.75
442.264	76.75
442.486	73.75
442.707	79.75
442.928	72.75
443.149	87.75
443.371	86.75
443.592	82.75
443.813	82.75
444.034	84.75
444.255	78.75
444.476	74.75
444.698	83.75
444.919	84.75
445.14	149.75
445.361	112.75
445.582	76.75
445.803	81.75
446.024	72.75
446.245	80.75
446.466	73.75
446.687	77.75
446.908	76.75
447.129	74.75
447.35	77.75
447.571	77.75
447.792	82.75
448.013	72.75
448.234	88.75
448.455	81.75
448.675	74.75
448.896	79.75
449.117	66.75
449.338	72.75
449.559	78.75
449.779	80.75
450	81.75
450.221	74.75
450.442	81.75
450.662	83.75
450.883	75.75
451.104	73.75
451.324	92.75
451.545	74.75
451.766	63.75
451.986	67.75
452.207	81.75
452.428	68.75
452.648	80.75
452.869	78.75
453.089	63.75
453.31	88.75
453.53	83.75
453.751	83.75
453.971	94.75
454.192	76.75
454.412	81.75
454.633	83.75
454.853	82.75
455.073	72.75
455.294	71.75
455.514	76.75
455.734	86.75
455.955	63.75
456.175	74.75
456.395	89.75
456.616	80.75
456.836	75.75
457.056	71.75
457.276	66.75
457.497	76.75
457.717	88.75
457.937	72.75
458.157	66.75
458.377	75.75
458.598	83.75
458.818	82.75
459.038	68.75
459.258	75.75
459.478	78.75
459.698	66.75
459.918	75.75
460.138	81.75
460.358	86.75
460.578	87.75
460.798	81.75
461.018	84.75
461.238	93.75
461.458	81.75
461.678	91.75
461.898	74.75
462.118	78.75
462.338	94.75
462.558	69.75
462.777	74.75
462.997	67.75
463.217	82.75
463.437	84.75
463.657	77.75
463.876	66.75
464.096	72.75
464.316	86.75
464.536	76.75
464.755	96.75
464.975	69.75
465.195	71.75
465.414	74.75
465.634	84.75
465.854	61.75
466.073	68.75
466.293	71.75
466.512	87.75
466.732	83.75
466.951	69.75
467.171	79.75
467.391	78.75
467.61	78.75
467.829	94.75
468.049	63.75
468.268	70.75
468.488	76.75
468.707	90.75
468.927	75.75
469.146	79.75
469.365	94.75
469.585	83.75
469.804	77.75
470.023	83.75
470.243	86.75
470.462	72.75
470.681	76.75
470.901	66.75
471.12	57.75
471.339	86.75
471.558	79.75
471.777	84.75
471.997	70.75
472.216	75.75
472.435	72.75
472.654	78.75
472.873	76.75
473.092	62.75
473.311	67.75
473.53	80.75
473.749	93.75
473.968	84.75
474.187	88.75
474.406	87.75
474.625	75.75
474.844	85.75
475.063	92.75
475.282	68.75
475.501	77.75
475.72	83.75
475.939	81.75
476.158	65.75
476.377	79.75
476.596	81.75
476.814	79.75
477.033	80.75
477.252	67.75
477.471	82.75
477.69	79.75
477.908	72.75
478.127	78.75
478.346	73.75
478.564	77.75
478.783	84.75
479.002	60.75
479.22	83.75
479.439	75.75
479.658	83.75
479.876	72.75
480.095	83.75
480.313	89.75
480.532	72.75
480.751	74.75
480.969	70.75
481.188	79.75
481.406	86.75
481.624	78.75
481.843	72.75
482.061	89.75
482.28	79.75
482.498	79.75
482.717	82.75
482.935	81.75
483.153	89.75
483.372	73.75
483.59	79.75
483.808	83.75
484.027	80.75
484.245	88.75
484.463	75.75
484.681	83.75
484.9	81.75
485.118	86.75
485.336	83.75
485.554	87.75
485.772	79.75
485.99	76.75
486.209	88.75
486.427	90.75
486.645	80.75
486.863	90.75
487.081	82.75
487.299	65.75
487.517	64.75
487.735	84.75
487.953	82.75
488.171	75.75
488.389	84.75
488.607	90.75
488.825	87.75
489.043	78.75
489.261	88.75
489.479	89.75
489.696	90.75
489.914	79.75
490.132	81.75
490.35	78.75
490.568	64.75
490.786	78.75
491.003	82.75
491.221	66.75
491.439	66.75
491.657	77.75
491.874	80.75
492.092	82.75
492.31	78.75
492.527	78.75
492.745	85.75
492.963	77.75
493.18	80.75
493.398	101.75
493.615	67.75
493.833	83.75
494.05	83.75
494.268	95.75
494.485	87.75
494.703	82.75
494.92	73.75
495.138	81.75
495.355	76.75
495.573	80.75
495.79	80.75
496.008	70.75
496.225	78.75
496.442	99.75
496.66	87.75
496.877	75.75
497.094	68.75
497.312	86.75
497.529	94.75
497.746	83.75
497.963	80.75
498.181	72.75
498.398	72.75
498.615	79.75
498.832	84.75
499.049	80.75
499.267	79.75
499.484	89.75
499.701	89.75
499.918	74.75
500.135	82.75
500.352	80.75
500.569	80.75
500.786	80.75
501.003	75.75
501.22	79.75
501.437	84.75
501.654	87.75
501.871	82.75
502.088	98.75
502.305	67.75
502.522	94.75
502.739	83.75
502.956	66.75
503.172	74.75
503.389	76.75
503.606	88.75
503.823	82.75
504.04	78.75
504.256	80.75
504.473	76.75
504.69	89.75
504.907	81.75
505.123	82.75
505.34	82.75
505.557	78.75
505.773	97.75
505.99	82.75
506.207	72.75
506.423	84.75
506.64	95.75
506.856	75.75
507.073	67.75
507.289	90.75
507.506	83.75
507.722	78.75
507.939	79.75
508.155	98.75
508.372	73.75
508.588	71.75
508.805	72.75
509.021	65.75
509.238	94.75
509.454	80.75
509.67	74.75
509.887	68.75
510.103	96.75
510.319	76.75
510.536	91.75
510.752	83.75
510.968	75.75
511.184	77.75
511.401	77.75
511.617	91.75
511.833	88.75
512.049	80.75
512.265	80.75
512.481	69.75
512.698	74.75
512.914	82.75
513.13	75.75
513.346	74.75
513.562	79.75
513.778	70.75
513.994	84.75
514.21	88.75
514.426	88.75
514.642	69.75
514.858	72.75
515.074	80.75
515.29	79.75
515.506	79.75
515.721	84.75
515.937	100.75
516.153	88.75
516.369	76.75
516.585	84.75
516.801	78.75
517.016	78.75
517.232	76.75
517.448	78.75
517.664	67.75
517.879	81.75
518.095	80.75
518.311	88.75
518.527	77.75
518.742	80.75
518.958	62.75
519.173	89.75
519.389	76.75
519.605	86.75
519.82	82.75
520.036	83.75
