Data from Background_2_HRD10591_00048.txt Node
Date: Wed Nov 05 14:47:20 EST 2025
User: Yrep
Spectrometer: HR+D1059
Trigger mode: 1
Integration Time (sec): 1.000000E-1
Scans to average: 1
Electric dark correction enabled: true
Nonlinearity correction enabled: false
Boxcar width: 0
XAxis mode: Wavelengths
Number of Pixels in Spectrum: 2048
>>>>>Begin Spectral Data<<<<<
223.165	-22.69
223.4	-22.69
223.635	-22.69
223.869	-21.69
224.104	-20.69
224.338	-10.69
224.573	-18.69
224.808	-21.69
225.042	-17.69
225.277	-5.69
225.511	3.31
225.746	4.31
225.98	11.31
226.215	12.31
226.449	18.31
226.683	25.31
226.918	23.31
227.152	41.31
227.387	33.31
227.621	27.31
227.856	62.31
228.09	62.31
228.324	54.31
228.559	60.31
228.793	58.31
229.027	55.31
229.262	52.31
229.496	80.31
229.73	61.31
229.964	62.31
230.199	84.31
230.433	69.31
230.667	90.31
230.901	79.31
231.136	77.31
231.37	78.31
231.604	91.31
231.838	71.31
232.072	78.31
232.306	91.31
232.541	81.31
232.775	68.31
233.009	74.31
233.243	69.31
233.477	90.31
233.711	78.31
233.945	68.31
234.179	85.31
234.413	70.31
234.647	69.31
234.881	67.31
235.115	79.31
235.349	80.31
235.583	73.31
235.817	73.31
236.051	67.31
236.285	70.31
236.519	81.31
236.753	76.31
236.987	81.31
237.221	81.31
237.455	76.31
237.689	83.31
237.922	86.31
238.156	80.31
238.39	77.31
238.624	74.31
238.858	73.31
239.091	81.31
239.325	66.31
239.559	78.31
239.793	64.31
240.027	80.31
240.26	79.31
240.494	78.31
240.728	68.31
240.961	63.31
241.195	77.31
241.429	80.31
241.662	66.31
241.896	70.31
242.13	69.31
242.363	61.31
242.597	78.31
242.83	62.31
243.064	65.31
243.298	90.31
243.531	86.31
243.765	79.31
243.998	76.31
244.232	82.31
244.465	65.31
244.699	84.31
244.932	67.31
245.166	80.31
245.399	66.31
245.633	70.31
245.866	77.31
246.099	73.31
246.333	61.31
246.566	71.31
246.8	80.31
247.033	62.31
247.266	65.31
247.5	80.31
247.733	73.31
247.966	72.31
248.2	68.31
248.433	74.31
248.666	79.31
248.899	71.31
249.133	64.31
249.366	74.31
249.599	66.31
249.832	61.31
250.066	70.31
250.299	72.31
250.532	66.31
250.765	64.31
250.998	72.31
251.231	69.31
251.465	72.31
251.698	86.31
251.931	69.31
252.164	76.31
252.397	78.31
252.63	88.31
252.863	80.31
253.096	80.31
253.329	83.31
253.562	78.31
253.795	73.31
254.028	69.31
254.261	67.31
254.494	86.31
254.727	76.31
254.96	79.31
255.193	81.31
255.426	62.31
255.659	72.31
255.892	89.31
256.124	76.31
256.357	72.31
256.59	69.31
256.823	68.31
257.056	72.31
257.289	84.31
257.521	71.31
257.754	77.31
257.987	88.31
258.22	73.31
258.452	64.31
258.685	71.31
258.918	74.31
259.151	76.31
259.383	80.31
259.616	85.31
259.849	65.31
260.081	86.31
260.314	78.31
260.547	86.31
260.779	99.31
261.012	80.31
261.244	83.31
261.477	68.31
261.71	88.31
261.942	74.31
262.175	84.31
262.407	89.31
262.64	72.31
262.872	66.31
263.105	92.31
263.337	78.31
263.57	88.31
263.802	96.31
264.035	84.31
264.267	71.31
264.499	80.31
264.732	81.31
264.964	71.31
265.197	76.31
265.429	73.31
265.661	71.31
265.894	68.31
266.126	92.31
266.358	78.31
266.591	78.31
266.823	69.31
267.055	65.31
267.287	79.31
267.52	80.31
267.752	78.31
267.984	83.31
268.216	78.31
268.448	91.31
268.681	89.31
268.913	97.31
269.145	84.31
269.377	94.31
269.609	76.31
269.841	85.31
270.073	92.31
270.306	80.31
270.538	83.31
270.77	76.31
271.002	92.31
271.234	70.31
271.466	92.31
271.698	78.31
271.93	85.31
272.162	89.31
272.394	82.31
272.626	86.31
272.858	70.31
273.09	80.31
273.322	90.31
273.553	66.31
273.785	80.31
274.017	70.31
274.249	87.31
274.481	81.31
274.713	82.31
274.945	95.31
275.176	81.31
275.408	99.31
275.64	74.31
275.872	90.31
276.104	70.31
276.335	84.31
276.567	74.31
276.799	83.31
277.031	85.31
277.262	73.31
277.494	87.31
277.726	84.31
277.957	85.31
278.189	80.31
278.421	88.31
278.652	88.31
278.884	94.31
279.115	82.31
279.347	79.31
279.579	85.31
279.81	76.31
280.042	79.31
280.273	67.31
280.505	61.31
280.736	68.31
280.968	80.31
281.199	78.31
281.431	83.31
281.662	92.31
281.894	73.31
282.125	70.31
282.356	88.31
282.588	90.31
282.819	79.31
283.051	85.31
283.282	88.31
283.513	72.31
283.745	75.31
283.976	79.31
284.207	70.31
284.439	87.31
284.67	82.31
284.901	84.31
285.132	89.31
285.364	88.31
285.595	74.31
285.826	86.31
286.057	87.31
286.288	85.31
286.52	78.31
286.751	90.31
286.982	73.31
287.213	82.31
287.444	78.31
287.675	64.31
287.906	76.31
288.138	74.31
288.369	75.31
288.6	83.31
288.831	84.31
289.062	71.31
289.293	88.31
289.524	71.31
289.755	89.31
289.986	92.31
290.217	75.31
290.448	81.31
290.679	82.31
290.91	82.31
291.141	83.31
291.371	84.31
291.602	89.31
291.833	74.31
292.064	82.31
292.295	76.31
292.526	88.31
292.757	85.31
292.987	79.31
293.218	72.31
293.449	84.31
293.68	76.31
293.91	84.31
294.141	94.31
294.372	67.31
294.603	71.31
294.833	80.31
295.064	66.31
295.295	91.31
295.525	70.31
295.756	89.31
295.987	74.31
296.217	81.31
296.448	91.31
296.679	80.31
296.909	75.31
297.14	80.31
297.37	78.31
297.601	79.31
297.831	88.31
298.062	80.31
298.292	75.31
298.523	88.31
298.753	80.31
298.984	84.31
299.214	89.31
299.445	90.31
299.675	81.31
299.905	92.31
300.136	77.31
300.366	79.31
300.597	82.31
300.827	88.31
301.057	94.31
301.288	88.31
301.518	74.31
301.748	83.31
301.979	96.31
302.209	77.31
302.439	78.31
302.669	70.31
302.9	80.31
303.13	79.31
303.36	81.31
303.59	68.31
303.82	80.31
304.051	78.31
304.281	84.31
304.511	84.31
304.741	87.31
304.971	92.31
305.201	80.31
305.431	81.31
305.661	88.31
305.891	85.31
306.121	80.31
306.352	86.31
306.582	88.31
306.812	72.31
307.042	73.31
307.272	73.31
307.502	73.31
307.731	85.31
307.961	83.31
308.191	66.31
308.421	88.31
308.651	85.31
308.881	91.31
309.111	94.31
309.341	72.31
309.571	61.31
309.8	76.31
310.03	91.31
310.26	93.31
310.49	81.31
310.72	74.31
310.949	82.31
311.179	77.31
311.409	93.31
311.639	81.31
311.868	77.31
312.098	81.31
312.328	79.31
312.557	78.31
312.787	83.31
313.017	96.31
313.246	86.31
313.476	80.31
313.706	77.31
313.935	90.31
314.165	84.31
314.394	97.31
314.624	89.31
314.853	86.31
315.083	72.31
315.312	71.31
315.542	76.31
315.771	82.31
316.001	90.31
316.23	83.31
316.46	72.31
316.689	72.31
316.919	80.31
317.148	85.31
317.377	76.31
317.607	88.31
317.836	79.31
318.065	91.31
318.295	79.31
318.524	97.31
318.753	82.31
318.983	83.31
319.212	85.31
319.441	86.31
319.67	93.31
319.9	86.31
320.129	81.31
320.358	80.31
320.587	70.31
320.816	72.31
321.046	71.31
321.275	81.31
321.504	82.31
321.733	81.31
321.962	82.31
322.191	89.31
322.42	80.31
322.649	82.31
322.878	77.31
323.108	93.31
323.337	87.31
323.566	77.31
323.795	74.31
324.024	74.31
324.253	70.31
324.482	84.31
324.71	79.31
324.939	88.31
325.168	79.31
325.397	83.31
325.626	74.31
325.855	99.31
326.084	72.31
326.313	80.31
326.542	86.31
326.77	77.31
326.999	90.31
327.228	76.31
327.457	85.31
327.686	86.31
327.914	84.31
328.143	88.31
328.372	73.31
328.6	86.31
328.829	69.31
329.058	78.31
329.287	91.31
329.515	80.31
329.744	64.31
329.972	86.31
330.201	86.31
330.43	95.31
330.658	84.31
330.887	92.31
331.115	76.31
331.344	76.31
331.572	81.31
331.801	74.31
332.03	84.31
332.258	82.31
332.486	90.31
332.715	94.31
332.943	91.31
333.172	84.31
333.4	60.31
333.629	85.31
333.857	77.31
334.085	83.31
334.314	83.31
334.542	78.31
334.771	82.31
334.999	86.31
335.227	86.31
335.455	85.31
335.684	75.31
335.912	74.31
336.14	99.31
336.369	83.31
336.597	74.31
336.825	78.31
337.053	70.31
337.281	79.31
337.51	77.31
337.738	100.31
337.966	86.31
338.194	84.31
338.422	71.31
338.65	93.31
338.878	84.31
339.106	82.31
339.334	93.31
339.562	90.31
339.79	91.31
340.018	83.31
340.246	82.31
340.474	78.31
340.702	76.31
340.93	80.31
341.158	96.31
341.386	77.31
341.614	84.31
341.842	71.31
342.07	81.31
342.298	92.31
342.526	76.31
342.754	88.31
342.981	85.31
343.209	71.31
343.437	89.31
343.665	86.31
343.893	78.31
344.12	85.31
344.348	92.31
344.576	78.31
344.804	73.31
345.031	89.31
345.259	79.31
345.487	79.31
345.714	83.31
345.942	85.31
346.17	74.31
346.397	81.31
346.625	73.31
346.853	73.31
347.08	79.31
347.308	83.31
347.535	87.31
347.763	92.31
347.99	84.31
348.218	84.31
348.445	84.31
348.673	75.31
348.9	80.31
349.128	76.31
349.355	84.31
349.583	79.31
349.81	93.31
350.037	92.31
350.265	104.31
350.492	77.31
350.72	60.31
350.947	80.31
351.174	87.31
351.402	86.31
351.629	94.31
351.856	75.31
352.083	85.31
352.311	65.31
352.538	84.31
352.765	92.31
352.992	77.31
353.22	84.31
353.447	74.31
353.674	75.31
353.901	77.31
354.128	76.31
354.355	80.31
354.583	91.31
354.81	81.31
355.037	90.31
355.264	74.31
355.491	88.31
355.718	80.31
355.945	108.31
356.172	75.31
356.399	68.31
356.626	73.31
356.853	91.31
357.08	96.31
357.307	75.31
357.534	86.31
357.761	78.31
357.988	81.31
358.215	87.31
358.441	76.31
358.668	85.31
358.895	70.31
359.122	83.31
359.349	78.31
359.576	85.31
359.802	76.31
360.029	77.31
360.256	81.31
360.483	88.31
360.709	79.31
360.936	80.31
361.163	78.31
361.39	70.31
361.616	85.31
361.843	82.31
362.07	82.31
362.296	96.31
362.523	88.31
362.749	85.31
362.976	82.31
363.203	86.31
363.429	74.31
363.656	97.31
363.882	85.31
364.109	92.31
364.335	76.31
364.562	69.31
364.788	88.31
365.015	85.31
365.241	60.31
365.468	88.31
365.694	68.31
365.92	71.31
366.147	92.31
366.373	84.31
366.599	75.31
366.826	78.31
367.052	83.31
367.278	83.31
367.505	90.31
367.731	83.31
367.957	81.31
368.184	84.31
368.41	81.31
368.636	70.31
368.862	79.31
369.089	68.31
369.315	87.31
369.541	76.31
369.767	84.31
369.993	74.31
370.219	80.31
370.445	74.31
370.672	89.31
370.898	79.31
371.124	77.31
371.35	82.31
371.576	83.31
371.802	79.31
372.028	86.31
372.254	97.31
372.48	85.31
372.706	75.31
372.932	80.31
373.158	81.31
373.384	83.31
373.61	83.31
373.835	81.31
374.061	78.31
374.287	79.31
374.513	92.31
374.739	87.31
374.965	78.31
375.191	85.31
375.416	73.31
375.642	85.31
375.868	83.31
376.094	91.31
376.319	77.31
376.545	78.31
376.771	75.31
376.997	92.31
377.222	83.31
377.448	83.31
377.674	78.31
377.899	74.31
378.125	63.31
378.35	94.31
378.576	84.31
378.802	79.31
379.027	77.31
379.253	68.31
379.478	74.31
379.704	84.31
379.929	69.31
380.155	75.31
380.38	80.31
380.606	71.31
380.831	82.31
381.057	88.31
381.282	76.31
381.507	81.31
381.733	83.31
381.958	86.31
382.184	76.31
382.409	90.31
382.634	88.31
382.86	87.31
383.085	82.31
383.31	83.31
383.535	94.31
383.761	90.31
383.986	90.31
384.211	80.31
384.436	86.31
384.662	80.31
384.887	90.31
385.112	84.31
385.337	85.31
385.562	81.31
385.787	83.31
386.013	90.31
386.238	87.31
386.463	88.31
386.688	93.31
386.913	74.31
387.138	81.31
387.363	79.31
387.588	83.31
387.813	93.31
388.038	94.31
388.263	73.31
388.488	83.31
388.713	74.31
388.938	84.31
389.163	89.31
389.387	84.31
389.612	73.31
389.837	84.31
390.062	75.31
390.287	77.31
390.512	90.31
390.736	76.31
390.961	71.31
391.186	89.31
391.411	77.31
391.636	70.31
391.86	88.31
392.085	94.31
392.31	68.31
392.534	94.31
392.759	74.31
392.984	101.31
393.208	77.31
393.433	81.31
393.658	89.31
393.882	84.31
394.107	99.31
394.331	81.31
394.556	70.31
394.78	86.31
395.005	84.31
395.229	79.31
395.454	78.31
395.678	83.31
395.903	82.31
396.127	79.31
396.352	96.31
396.576	75.31
396.801	80.31
397.025	80.31
397.249	90.31
397.474	80.31
397.698	76.31
397.922	67.31
398.147	69.31
398.371	88.31
398.595	71.31
398.82	84.31
399.044	75.31
399.268	71.31
399.492	97.31
399.717	76.31
399.941	81.31
400.165	80.31
400.389	80.31
400.613	73.31
400.837	76.31
401.062	86.31
401.286	84.31
401.51	75.31
401.734	78.31
401.958	83.31
402.182	78.31
402.406	92.31
402.63	74.31
402.854	76.31
403.078	93.31
403.302	75.31
403.526	75.31
403.75	89.31
403.974	86.31
404.198	76.31
404.422	92.31
404.645	79.31
404.869	84.31
405.093	66.31
405.317	94.31
405.541	91.31
405.765	87.31
405.988	76.31
406.212	94.31
406.436	79.31
406.66	80.31
406.883	89.31
407.107	90.31
407.331	75.31
407.555	84.31
407.778	80.31
408.002	86.31
408.226	68.31
408.449	73.31
408.673	78.31
408.896	83.31
409.12	69.31
409.344	79.31
409.567	89.31
409.791	76.31
410.014	84.31
410.238	79.31
410.461	80.31
410.685	78.31
410.908	83.31
411.132	93.31
411.355	82.31
411.578	84.31
411.802	89.31
412.025	82.31
412.249	88.31
412.472	82.31
412.695	94.31
412.919	74.31
413.142	78.31
413.365	82.31
413.589	89.31
413.812	79.31
414.035	90.31
414.258	79.31
414.482	72.31
414.705	92.31
414.928	85.31
415.151	77.31
415.374	81.31
415.597	80.31
415.821	68.31
416.044	86.31
416.267	69.31
416.49	77.31
416.713	90.31
416.936	70.31
417.159	76.31
417.382	74.31
417.605	84.31
417.828	75.31
418.051	78.31
418.274	75.31
418.497	81.31
418.72	74.31
418.943	84.31
419.166	64.31
419.389	74.31
419.611	81.31
419.834	69.31
420.057	68.31
420.28	78.31
420.503	80.31
420.726	81.31
420.948	90.31
421.171	82.31
421.394	73.31
421.617	71.31
421.839	76.31
422.062	81.31
422.285	93.31
422.507	82.31
422.73	88.31
422.953	81.31
423.175	80.31
423.398	72.31
423.621	81.31
423.843	70.31
424.066	68.31
424.288	90.31
424.511	90.31
424.733	78.31
424.956	83.31
425.178	87.31
425.401	80.31
425.623	86.31
425.846	82.31
426.068	81.31
426.291	85.31
426.513	81.31
426.735	92.31
426.958	84.31
427.18	84.31
427.402	82.31
427.625	68.31
427.847	76.31
428.069	82.31
428.292	80.31
428.514	81.31
428.736	93.31
428.958	94.31
429.181	76.31
429.403	77.31
429.625	84.31
429.847	76.31
430.069	78.31
430.292	86.31
430.514	84.31
430.736	95.31
430.958	91.31
431.18	86.31
431.402	82.31
431.624	84.31
431.846	73.31
432.068	93.31
432.29	69.31
432.512	84.31
432.734	69.31
432.956	86.31
433.178	70.31
433.4	73.31
433.622	82.31
433.844	74.31
434.066	93.31
434.287	78.31
434.509	87.31
434.731	76.31
434.953	84.31
435.175	73.31
435.397	80.31
435.618	74.31
435.84	77.31
436.062	83.31
436.284	68.31
436.505	86.31
436.727	84.31
436.949	73.31
437.17	69.31
437.392	77.31
437.614	88.31
437.835	92.31
438.057	69.31
438.278	85.31
438.5	84.31
438.721	70.31
438.943	74.31
439.165	82.31
439.386	90.31
439.608	81.31
439.829	78.31
440.05	84.31
440.272	79.31
440.493	85.31
440.715	81.31
440.936	82.31
441.158	84.31
441.379	85.31
441.6	69.31
441.822	82.31
442.043	72.31
442.264	68.31
442.486	80.31
442.707	79.31
442.928	83.31
443.149	78.31
443.371	80.31
443.592	92.31
443.813	85.31
444.034	82.31
444.255	80.31
444.476	80.31
444.698	89.31
444.919	76.31
445.14	155.31
445.361	110.31
445.582	86.31
445.803	79.31
446.024	64.31
446.245	76.31
446.466	71.31
446.687	66.31
446.908	81.31
447.129	85.31
447.35	89.31
447.571	74.31
447.792	84.31
448.013	84.31
448.234	77.31
448.455	86.31
448.675	78.31
448.896	91.31
449.117	78.31
449.338	76.31
449.559	80.31
449.779	82.31
450	98.31
450.221	85.31
450.442	71.31
450.662	85.31
450.883	69.31
451.104	74.31
451.324	82.31
451.545	76.31
451.766	81.31
451.986	80.31
452.207	80.31
452.428	76.31
452.648	79.31
452.869	77.31
453.089	90.31
453.31	81.31
453.53	66.31
453.751	83.31
453.971	61.31
454.192	77.31
454.412	74.31
454.633	97.31
454.853	91.31
455.073	80.31
455.294	59.31
455.514	73.31
455.734	92.31
455.955	71.31
456.175	84.31
456.395	77.31
456.616	79.31
456.836	76.31
457.056	76.31
457.276	85.31
457.497	79.31
457.717	70.31
457.937	69.31
458.157	65.31
458.377	78.31
458.598	91.31
458.818	76.31
459.038	74.31
459.258	81.31
459.478	82.31
459.698	74.31
459.918	96.31
460.138	73.31
460.358	80.31
460.578	81.31
460.798	81.31
461.018	77.31
461.238	71.31
461.458	81.31
461.678	94.31
461.898	74.31
462.118	70.31
462.338	89.31
462.558	92.31
462.777	74.31
462.997	76.31
463.217	78.31
463.437	82.31
463.657	74.31
463.876	98.31
464.096	90.31
464.316	83.31
464.536	76.31
464.755	71.31
464.975	71.31
465.195	75.31
465.414	76.31
465.634	85.31
465.854	84.31
466.073	76.31
466.293	83.31
466.512	96.31
466.732	86.31
466.951	74.31
467.171	86.31
467.391	89.31
467.61	71.31
467.829	62.31
468.049	94.31
468.268	71.31
468.488	82.31
468.707	82.31
468.927	67.31
469.146	81.31
469.365	85.31
469.585	82.31
469.804	83.31
470.023	76.31
470.243	76.31
470.462	89.31
470.681	80.31
470.901	76.31
471.12	73.31
471.339	80.31
471.558	88.31
471.777	82.31
471.997	84.31
472.216	80.31
472.435	88.31
472.654	82.31
472.873	82.31
473.092	83.31
473.311	84.31
473.53	76.31
473.749	81.31
473.968	74.31
474.187	78.31
474.406	82.31
474.625	80.31
474.844	86.31
475.063	69.31
475.282	92.31
475.501	77.31
475.72	100.31
475.939	92.31
476.158	94.31
476.377	82.31
476.596	68.31
476.814	62.31
477.033	80.31
477.252	80.31
477.471	84.31
477.69	84.31
477.908	76.31
478.127	75.31
478.346	88.31
478.564	80.31
478.783	73.31
479.002	82.31
479.22	83.31
479.439	84.31
479.658	93.31
479.876	95.31
480.095	83.31
480.313	86.31
480.532	75.31
480.751	81.31
480.969	68.31
481.188	82.31
481.406	84.31
481.624	81.31
481.843	99.31
482.061	74.31
482.28	74.31
482.498	76.31
482.717	76.31
482.935	67.31
483.153	70.31
483.372	93.31
483.59	68.31
483.808	85.31
484.027	80.31
484.245	86.31
484.463	82.31
484.681	78.31
484.9	81.31
485.118	77.31
485.336	100.31
485.554	92.31
485.772	70.31
485.99	68.31
486.209	88.31
486.427	77.31
486.645	74.31
486.863	88.31
487.081	89.31
487.299	71.31
487.517	80.31
487.735	81.31
487.953	85.31
488.171	81.31
488.389	84.31
488.607	89.31
488.825	82.31
489.043	81.31
489.261	94.31
489.479	85.31
489.696	83.31
489.914	93.31
490.132	90.31
490.35	93.31
490.568	61.31
490.786	80.31
491.003	71.31
491.221	83.31
491.439	97.31
491.657	64.31
491.874	87.31
492.092	85.31
492.31	93.31
492.527	79.31
492.745	89.31
492.963	77.31
493.18	82.31
493.398	74.31
493.615	80.31
493.833	69.31
494.05	72.31
494.268	76.31
494.485	86.31
494.703	82.31
494.92	83.31
495.138	86.31
495.355	92.31
495.573	89.31
495.79	87.31
496.008	82.31
496.225	81.31
496.442	70.31
496.66	89.31
496.877	89.31
497.094	79.31
497.312	88.31
497.529	83.31
497.746	78.31
497.963	84.31
498.181	73.31
498.398	73.31
498.615	81.31
498.832	79.31
499.049	76.31
499.267	84.31
499.484	89.31
499.701	85.31
499.918	75.31
500.135	71.31
500.352	82.31
500.569	80.31
500.786	94.31
501.003	78.31
501.22	81.31
501.437	94.31
501.654	84.31
501.871	91.31
502.088	71.31
502.305	82.31
502.522	86.31
502.739	82.31
502.956	83.31
503.172	88.31
503.389	64.31
503.606	91.31
503.823	88.31
504.04	86.31
504.256	83.31
504.473	94.31
504.69	86.31
504.907	88.31
505.123	87.31
505.34	82.31
505.557	88.31
505.773	84.31
505.99	83.31
506.207	95.31
506.423	90.31
506.64	75.31
506.856	83.31
507.073	84.31
507.289	86.31
507.506	70.31
507.722	77.31
507.939	78.31
508.155	92.31
508.372	79.31
508.588	80.31
508.805	70.31
509.021	84.31
509.238	81.31
509.454	77.31
509.67	78.31
509.887	77.31
510.103	86.31
510.319	90.31
510.536	91.31
510.752	96.31
510.968	89.31
511.184	82.31
511.401	82.31
511.617	76.31
511.833	82.31
512.049	74.31
512.265	94.31
512.481	96.31
512.698	90.31
512.914	89.31
513.13	95.31
513.346	81.31
513.562	86.31
513.778	90.31
513.994	84.31
514.21	70.31
514.426	86.31
514.642	84.31
514.858	74.31
515.074	91.31
515.29	90.31
515.506	82.31
515.721	81.31
515.937	82.31
516.153	81.31
516.369	94.31
516.585	83.31
516.801	89.31
517.016	97.31
517.232	84.31
517.448	86.31
517.664	81.31
517.879	75.31
518.095	86.31
518.311	89.31
518.527	77.31
518.742	79.31
518.958	79.31
519.173	87.31
519.389	84.31
519.605	80.31
519.82	90.31
520.036	83.31
