Data from Background_2_HRD10591_00085.txt Node
Date: Wed Nov 05 14:47:38 EST 2025
User: Yrep
Spectrometer: HR+D1059
Trigger mode: 1
Integration Time (sec): 1.000000E-1
Scans to average: 1
Electric dark correction enabled: true
Nonlinearity correction enabled: false
Boxcar width: 0
XAxis mode: Wavelengths
Number of Pixels in Spectrum: 2048
>>>>>Begin Spectral Data<<<<<
223.165	-18
223.4	-18
223.635	-18
223.869	-14
224.104	-17
224.338	-24
224.573	-4
224.808	-9
225.042	-11
225.277	-5
225.511	1
225.746	17
225.98	5
226.215	8
226.449	5
226.683	22
226.918	7
227.152	37
227.387	46
227.621	40
227.856	60
228.09	52
228.324	41
228.559	54
228.793	65
229.027	63
229.262	63
229.496	63
229.73	67
229.964	68
230.199	67
230.433	65
230.667	88
230.901	72
231.136	82
231.37	89
231.604	80
231.838	76
232.072	84
232.306	88
232.541	90
232.775	67
233.009	84
233.243	78
233.477	94
233.711	97
233.945	83
234.179	78
234.413	75
234.647	61
234.881	87
235.115	94
235.349	70
235.583	68
235.817	84
236.051	76
236.285	68
236.519	85
236.753	74
236.987	71
237.221	78
237.455	73
237.689	75
237.922	76
238.156	76
238.39	68
238.624	83
238.858	85
239.091	75
239.325	75
239.559	86
239.793	69
240.027	77
240.26	85
240.494	70
240.728	77
240.961	78
241.195	85
241.429	70
241.662	90
241.896	70
242.13	70
242.363	85
242.597	70
242.83	84
243.064	80
243.298	71
243.531	78
243.765	88
243.998	78
244.232	77
244.465	84
244.699	90
244.932	64
245.166	82
245.399	63
245.633	62
245.866	71
246.099	78
246.333	74
246.566	76
246.8	77
247.033	79
247.266	62
247.5	83
247.733	82
247.966	88
248.2	86
248.433	76
248.666	75
248.899	69
249.133	86
249.366	80
249.599	76
249.832	68
250.066	72
250.299	76
250.532	87
250.765	92
250.998	81
251.231	78
251.465	91
251.698	90
251.931	82
252.164	67
252.397	78
252.63	88
252.863	82
253.096	92
253.329	96
253.562	77
253.795	70
254.028	99
254.261	89
254.494	81
254.727	80
254.96	93
255.193	71
255.426	82
255.659	84
255.892	60
256.124	66
256.357	67
256.59	80
256.823	81
257.056	76
257.289	95
257.521	80
257.754	81
257.987	80
258.22	75
258.452	70
258.685	82
258.918	77
259.151	84
259.383	66
259.616	84
259.849	90
260.081	83
260.314	88
260.547	83
260.779	78
261.012	84
261.244	75
261.477	94
261.71	101
261.942	78
262.175	92
262.407	79
262.64	77
262.872	81
263.105	85
263.337	92
263.57	66
263.802	107
264.035	80
264.267	70
264.499	92
264.732	86
264.964	65
265.197	83
265.429	95
265.661	88
265.894	86
266.126	74
266.358	77
266.591	82
266.823	90
267.055	82
267.287	73
267.52	78
267.752	79
267.984	89
268.216	79
268.448	90
268.681	73
268.913	83
269.145	89
269.377	88
269.609	69
269.841	93
270.073	96
270.306	78
270.538	88
270.77	80
271.002	81
271.234	80
271.466	80
271.698	80
271.93	83
272.162	95
272.394	93
272.626	82
272.858	98
273.09	94
273.322	85
273.553	79
273.785	87
274.017	93
274.249	76
274.481	82
274.713	72
274.945	85
275.176	77
275.408	73
275.64	85
275.872	81
276.104	83
276.335	89
276.567	74
276.799	92
277.031	89
277.262	87
277.494	90
277.726	85
277.957	87
278.189	84
278.421	76
278.652	76
278.884	75
279.115	80
279.347	80
279.579	91
279.81	79
280.042	97
280.273	90
280.505	73
280.736	90
280.968	79
281.199	83
281.431	77
281.662	91
281.894	80
282.125	97
282.356	84
282.588	88
282.819	86
283.051	80
283.282	96
283.513	88
283.745	96
283.976	76
284.207	78
284.439	87
284.67	98
284.901	77
285.132	78
285.364	83
285.595	71
285.826	77
286.057	72
286.288	77
286.52	80
286.751	91
286.982	90
287.213	80
287.444	90
287.675	88
287.906	86
288.138	75
288.369	65
288.6	77
288.831	82
289.062	90
289.293	88
289.524	72
289.755	78
289.986	78
290.217	90
290.448	83
290.679	77
290.91	84
291.141	91
291.371	74
291.602	81
291.833	88
292.064	79
292.295	91
292.526	84
292.757	82
292.987	82
293.218	85
293.449	94
293.68	92
293.91	87
294.141	98
294.372	84
294.603	73
294.833	80
295.064	80
295.295	84
295.525	90
295.756	88
295.987	86
296.217	89
296.448	73
296.679	73
296.909	93
297.14	83
297.37	88
297.601	84
297.831	73
298.062	86
298.292	80
298.523	84
298.753	87
298.984	88
299.214	93
299.445	91
299.675	74
299.905	80
300.136	99
300.366	94
300.597	81
300.827	77
301.057	65
301.288	91
301.518	82
301.748	84
301.979	101
302.209	94
302.439	97
302.669	93
302.9	83
303.13	83
303.36	75
303.59	77
303.82	70
304.051	92
304.281	88
304.511	94
304.741	76
304.971	78
305.201	89
305.431	73
305.661	91
305.891	92
306.121	83
306.352	81
306.582	85
306.812	90
307.042	83
307.272	83
307.502	79
307.731	79
307.961	70
308.191	95
308.421	77
308.651	71
308.881	78
309.111	76
309.341	84
309.571	81
309.8	76
310.03	85
310.26	79
310.49	76
310.72	88
310.949	77
311.179	89
311.409	92
311.639	90
311.868	89
312.098	91
312.328	85
312.557	93
312.787	79
313.017	82
313.246	93
313.476	71
313.706	104
313.935	89
314.165	88
314.394	74
314.624	90
314.853	91
315.083	82
315.312	75
315.542	65
315.771	93
316.001	89
316.23	89
316.46	88
316.689	77
316.919	83
317.148	89
317.377	88
317.607	86
317.836	96
318.065	78
318.295	88
318.524	72
318.753	80
318.983	86
319.212	66
319.441	82
319.67	81
319.9	82
320.129	90
320.358	76
320.587	83
320.816	73
321.046	85
321.275	98
321.504	96
321.733	84
321.962	87
322.191	85
322.42	77
322.649	93
322.878	89
323.108	91
323.337	91
323.566	97
323.795	84
324.024	106
324.253	82
324.482	76
324.71	82
324.939	91
325.168	84
325.397	84
325.626	81
325.855	71
326.084	100
326.313	85
326.542	76
326.77	70
326.999	77
327.228	57
327.457	95
327.686	81
327.914	95
328.143	94
328.372	76
328.6	70
328.829	91
329.058	84
329.287	96
329.515	85
329.744	90
329.972	78
330.201	92
330.43	87
330.658	74
330.887	90
331.115	79
331.344	85
331.572	86
331.801	83
332.03	81
332.258	73
332.486	71
332.715	83
332.943	84
333.172	85
333.4	91
333.629	90
333.857	91
334.085	74
334.314	80
334.542	75
334.771	82
334.999	76
335.227	84
335.455	94
335.684	81
335.912	89
336.14	75
336.369	95
336.597	78
336.825	89
337.053	104
337.281	94
337.51	82
337.738	88
337.966	88
338.194	76
338.422	67
338.65	83
338.878	88
339.106	81
339.334	89
339.562	78
339.79	81
340.018	73
340.246	96
340.474	92
340.702	88
340.93	85
341.158	80
341.386	75
341.614	69
341.842	94
342.07	88
342.298	71
342.526	90
342.754	81
342.981	73
343.209	93
343.437	94
343.665	81
343.893	90
344.12	95
344.348	89
344.576	92
344.804	80
345.031	91
345.259	84
345.487	71
345.714	78
345.942	93
346.17	88
346.397	78
346.625	80
346.853	72
347.08	82
347.308	97
347.535	78
347.763	81
347.99	81
348.218	94
348.445	84
348.673	91
348.9	87
349.128	89
349.355	97
349.583	75
349.81	81
350.037	96
350.265	80
350.492	79
350.72	88
350.947	74
351.174	90
351.402	98
351.629	83
351.856	84
352.083	77
352.311	75
352.538	95
352.765	79
352.992	84
353.22	65
353.447	91
353.674	89
353.901	89
354.128	77
354.355	77
354.583	94
354.81	81
355.037	95
355.264	74
355.491	84
355.718	78
355.945	75
356.172	85
356.399	89
356.626	91
356.853	81
357.08	78
357.307	68
357.534	80
357.761	81
357.988	81
358.215	105
358.441	96
358.668	70
358.895	79
359.122	77
359.349	75
359.576	98
359.802	79
360.029	78
360.256	86
360.483	77
360.709	74
360.936	96
361.163	91
361.39	74
361.616	89
361.843	89
362.07	71
362.296	70
362.523	68
362.749	77
362.976	69
363.203	79
363.429	79
363.656	75
363.882	81
364.109	81
364.335	79
364.562	87
364.788	75
365.015	78
365.241	73
365.468	84
365.694	88
365.92	66
366.147	79
366.373	71
366.599	85
366.826	75
367.052	88
367.278	88
367.505	85
367.731	90
367.957	80
368.184	70
368.41	66
368.636	82
368.862	86
369.089	90
369.315	82
369.541	75
369.767	74
369.993	77
370.219	73
370.445	86
370.672	80
370.898	77
371.124	80
371.35	78
371.576	86
371.802	79
372.028	95
372.254	83
372.48	89
372.706	92
372.932	75
373.158	92
373.384	82
373.61	84
373.835	84
374.061	83
374.287	83
374.513	85
374.739	82
374.965	74
375.191	62
375.416	75
375.642	80
375.868	86
376.094	86
376.319	68
376.545	86
376.771	88
376.997	85
377.222	79
377.448	59
377.674	72
377.899	72
378.125	89
378.35	71
378.576	76
378.802	82
379.027	73
379.253	78
379.478	72
379.704	83
379.929	78
380.155	79
380.38	74
380.606	69
380.831	77
381.057	85
381.282	82
381.507	82
381.733	80
381.958	84
382.184	89
382.409	91
382.634	66
382.86	90
383.085	86
383.31	79
383.535	73
383.761	79
383.986	84
384.211	89
384.436	84
384.662	83
384.887	78
385.112	84
385.337	83
385.562	73
385.787	84
386.013	99
386.238	80
386.463	79
386.688	88
386.913	97
387.138	76
387.363	92
387.588	79
387.813	82
388.038	83
388.263	89
388.488	69
388.713	86
388.938	90
389.163	86
389.387	94
389.612	80
389.837	77
390.062	92
390.287	90
390.512	70
390.736	60
390.961	91
391.186	81
391.411	86
391.636	83
391.86	80
392.085	61
392.31	81
392.534	84
392.759	84
392.984	78
393.208	71
393.433	86
393.658	76
393.882	85
394.107	84
394.331	75
394.556	80
394.78	78
395.005	60
395.229	88
395.454	72
395.678	93
395.903	95
396.127	97
396.352	73
396.576	85
396.801	82
397.025	75
397.249	76
397.474	84
397.698	81
397.922	82
398.147	89
398.371	66
398.595	76
398.82	80
399.044	81
399.268	76
399.492	91
399.717	76
399.941	78
400.165	76
400.389	68
400.613	88
400.837	74
401.062	80
401.286	80
401.51	85
401.734	74
401.958	73
402.182	79
402.406	86
402.63	80
402.854	68
403.078	73
403.302	88
403.526	80
403.75	70
403.974	71
404.198	79
404.422	82
404.645	62
404.869	70
405.093	70
405.317	78
405.541	81
405.765	65
405.988	71
406.212	79
406.436	64
406.66	85
406.883	97
407.107	81
407.331	66
407.555	76
407.778	84
408.002	78
408.226	89
408.449	82
408.673	62
408.896	60
409.12	69
409.344	89
409.567	67
409.791	71
410.014	68
410.238	76
410.461	87
410.685	67
410.908	82
411.132	82
411.355	62
411.578	78
411.802	75
412.025	69
412.249	72
412.472	77
412.695	69
412.919	74
413.142	76
413.365	74
413.589	80
413.812	84
414.035	79
414.258	88
414.482	75
414.705	71
414.928	91
415.151	83
415.374	75
415.597	77
415.821	83
416.044	73
416.267	75
416.49	85
416.713	76
416.936	91
417.159	92
417.382	87
417.605	78
417.828	73
418.051	67
418.274	86
418.497	88
418.72	82
418.943	80
419.166	75
419.389	86
419.611	91
419.834	73
420.057	74
420.28	75
420.503	102
420.726	82
420.948	77
421.171	78
421.394	86
421.617	70
421.839	88
422.062	81
422.285	75
422.507	61
422.73	76
422.953	76
423.175	69
423.398	66
423.621	75
423.843	88
424.066	85
424.288	94
424.511	76
424.733	91
424.956	76
425.178	65
425.401	86
425.623	69
425.846	80
426.068	68
426.291	67
426.513	85
426.735	85
426.958	79
427.18	73
427.402	74
427.625	76
427.847	91
428.069	86
428.292	88
428.514	73
428.736	65
428.958	90
429.181	93
429.403	85
429.625	102
429.847	78
430.069	86
430.292	77
430.514	71
430.736	71
430.958	73
431.18	67
431.402	61
431.624	84
431.846	72
432.068	80
432.29	78
432.512	82
432.734	76
432.956	68
433.178	82
433.4	88
433.622	86
433.844	70
434.066	79
434.287	90
434.509	72
434.731	81
434.953	80
435.175	84
435.397	89
435.618	82
435.84	86
436.062	94
436.284	79
436.505	85
436.727	81
436.949	85
437.17	80
437.392	88
437.614	90
437.835	81
438.057	73
438.278	71
438.5	73
438.721	80
438.943	78
439.165	78
439.386	92
439.608	82
439.829	73
440.05	83
440.272	82
440.493	99
440.715	84
440.936	73
441.158	86
441.379	83
441.6	78
441.822	78
442.043	84
442.264	74
442.486	75
442.707	68
442.928	72
443.149	77
443.371	66
443.592	74
443.813	81
444.034	87
444.255	80
444.476	81
444.698	86
444.919	73
445.14	148
445.361	124
445.582	75
445.803	66
446.024	69
446.245	77
446.466	86
446.687	84
446.908	80
447.129	84
447.35	81
447.571	82
447.792	88
448.013	76
448.234	77
448.455	84
448.675	80
448.896	86
449.117	75
449.338	76
449.559	77
449.779	78
450	94
450.221	83
450.442	92
450.662	81
450.883	76
451.104	77
451.324	81
451.545	68
451.766	74
451.986	84
452.207	87
452.428	69
452.648	98
452.869	80
453.089	76
453.31	84
453.53	88
453.751	92
453.971	84
454.192	77
454.412	78
454.633	79
454.853	84
455.073	74
455.294	82
455.514	75
455.734	88
455.955	81
456.175	81
456.395	63
456.616	71
456.836	89
457.056	74
457.276	74
457.497	82
457.717	81
457.937	74
458.157	84
458.377	79
458.598	81
458.818	67
459.038	82
459.258	82
459.478	84
459.698	74
459.918	80
460.138	79
460.358	65
460.578	82
460.798	65
461.018	76
461.238	88
461.458	82
461.678	73
461.898	83
462.118	79
462.338	79
462.558	91
462.777	82
462.997	89
463.217	79
463.437	84
463.657	81
463.876	76
464.096	86
464.316	79
464.536	82
464.755	91
464.975	84
465.195	88
465.414	70
465.634	92
465.854	74
466.073	75
466.293	74
466.512	78
466.732	83
466.951	73
467.171	75
467.391	78
467.61	88
467.829	79
468.049	84
468.268	70
468.488	84
468.707	64
468.927	85
469.146	92
469.365	82
469.585	87
469.804	83
470.023	94
470.243	86
470.462	73
470.681	78
470.901	77
471.12	78
471.339	78
471.558	89
471.777	93
471.997	77
472.216	83
472.435	89
472.654	84
472.873	76
473.092	88
473.311	92
473.53	88
473.749	77
473.968	89
474.187	76
474.406	78
474.625	80
474.844	74
475.063	69
475.282	89
475.501	81
475.72	99
475.939	69
476.158	71
476.377	80
476.596	93
476.814	72
477.033	91
477.252	98
477.471	88
477.69	86
477.908	82
478.127	75
478.346	82
478.564	72
478.783	80
479.002	89
479.22	78
479.439	61
479.658	82
479.876	77
480.095	87
480.313	81
480.532	84
480.751	88
480.969	70
481.188	85
481.406	80
481.624	78
481.843	82
482.061	87
482.28	70
482.498	73
482.717	83
482.935	85
483.153	93
483.372	85
483.59	96
483.808	81
484.027	84
484.245	80
484.463	77
484.681	93
484.9	75
485.118	90
485.336	82
485.554	74
485.772	78
485.99	81
486.209	89
486.427	83
486.645	81
486.863	82
487.081	88
487.299	84
487.517	73
487.735	78
487.953	71
488.171	81
488.389	76
488.607	80
488.825	73
489.043	79
489.261	91
489.479	62
489.696	74
489.914	82
490.132	80
490.35	90
490.568	78
490.786	86
491.003	85
491.221	92
491.439	83
491.657	71
491.874	81
492.092	74
492.31	92
492.527	70
492.745	93
492.963	76
493.18	61
493.398	75
493.615	77
493.833	73
494.05	77
494.268	81
494.485	88
494.703	80
494.92	84
495.138	73
495.355	70
495.573	82
495.79	88
496.008	84
496.225	89
496.442	81
496.66	89
496.877	74
497.094	87
497.312	94
497.529	88
497.746	84
497.963	88
498.181	80
498.398	74
498.615	74
498.832	91
499.049	89
499.267	92
499.484	84
499.701	78
499.918	97
500.135	85
500.352	95
500.569	83
500.786	78
501.003	79
501.22	106
501.437	90
501.654	75
501.871	68
502.088	76
502.305	85
502.522	83
502.739	92
502.956	77
503.172	87
503.389	97
503.606	78
503.823	97
504.04	92
504.256	90
504.473	85
504.69	76
504.907	75
505.123	70
505.34	72
505.557	81
505.773	78
505.99	78
506.207	79
506.423	77
506.64	82
506.856	93
507.073	78
507.289	77
507.506	82
507.722	70
507.939	85
508.155	86
508.372	92
508.588	85
508.805	82
509.021	85
509.238	80
509.454	80
509.67	94
509.887	80
510.103	87
510.319	88
510.536	87
510.752	72
510.968	80
511.184	94
511.401	81
511.617	85
511.833	75
512.049	81
512.265	85
512.481	98
512.698	84
512.914	76
513.13	91
513.346	73
513.562	90
513.778	83
513.994	86
514.21	89
514.426	76
514.642	78
514.858	76
515.074	97
515.29	83
515.506	74
515.721	76
515.937	92
516.153	88
516.369	97
516.585	90
516.801	84
517.016	97
517.232	89
517.448	85
517.664	87
517.879	85
518.095	90
518.311	78
518.527	85
518.742	85
518.958	75
519.173	94
519.389	88
519.605	86
519.82	77
520.036	80
520.251	91
520.467	74
520.682	100
520.898	96
521.113	74
521.329	73
521.544	85
521.76	83
521.975	82
522.19	83
522.406	68
522.621	81
522.836	78
523.052	73
523.267	77
523.482	76
523.698	100
523.913	88
524.128	76
524.343	89
524.559	82
524.774	76
524.989	81
525.204	84
525.419	87
525.634	83
525.849	75
526.064	90
526.28	94
526.495	105
526.71	82
526.925	80
527.14	85
527.355	75
527.57	71
527.785	89
527.999	75
528.214	69
528.429	71
528.644	82
528.859	81
529.074	91
529.289	76
529.503	95
529.718	78
529.933	82
530.148	86
530.363	89
530.577	80
530.792	73
531.007	74
531.221	85
531.436	89
531.651	89
531.865	76
532.08	80
532.295	78
532.509	76
532.724	85
532.938	88
533.153	85
533.367	80
533.582	79
533.796	86
534.011	87
534.225	84
534.44	79
534.654	93
534.868	82
535.083	89
535.297	87
535.511	86
535.726	88
535.94	69
536.154	93
536.369	80
536.583	72
536.797	92
537.011	85
537.225	83
537.44	90
537.654	84
537.868	82
538.082	89
538.296	81
538.51	82
538.724	92
538.938	89
539.153	71
539.367	93
539.581	89
539.795	92
540.009	76
540.222	92
540.436	91
540.65	77
540.864	91
541.078	89
541.292	96
541.506	84
541.72	91
541.934	78
542.147	80
542.361	82
542.575	82
542.789	75
543.002	82
543.216	82
543.43	77
543.644	89
543.857	91
544.071	86
544.285	76
544.498	84
544.712	94
544.925	93
545.139	85
545.352	85
545.566	90
545.779	97
545.993	67
546.206	81
546.42	79
546.633	80
546.847	73
547.06	84
547.274	90
547.487	87
547.7	80
547.914	81
548.127	59
548.34	85
548.554	82
548.767	84
548.98	98
549.193	85
549.407	96
549.62	92
549.833	81
550.046	69
550.259	83
550.473	84
550.686	91
550.899	77
551.112	88
551.325	88
551.538	80
551.751	91
551.964	82
552.177	92
552.39	78
552.603	89
552.816	89
553.029	85
553.242	84
553.455	76
553.667	76
553.88	90
554.093	78
554.306	86
554.519	95
554.732	72
554.944	88
555.157	87
555.37	79
555.583	78
555.795	84
556.008	85
556.221	80
556.433	66
556.646	81
556.859	96
557.071	82
557.284	78
557.496	86
557.709	88
557.921	101
558.134	81
558.346	89
558.559	88
558.771	92
558.984	82
559.196	85
559.409	84
559.621	71
559.833	85
560.046	90
560.258	93
560.47	90
560.683	88
560.895	79
561.107	83
561.32	81
561.532	92
561.744	77
561.956	80
562.168	85
562.381	94
562.593	86
562.805	74
563.017	66
563.229	84
563.441	82
563.653	80
563.865	87
564.077	77
564.289	78
564.501	77
564.713	73
564.925	69
565.137	84
565.349	75
565.561	68
565.773	82
565.985	88
566.197	85
566.408	83
566.62	75
566.832	93
567.044	78
567.255	67
567.467	79
567.679	80
567.891	64
568.102	84
568.314	78
568.526	83
568.737	84
568.949	85
569.161	78
569.372	81
569.584	78
569.795	87
570.007	89
570.218	90
570.43	79
570.641	88
570.853	70
571.064	82
571.276	85
571.487	87
571.698	74
571.91	73
572.121	86
572.333	82
572.544	77
572.755	79
572.966	80
573.178	78
573.389	84
573.6	94
573.811	90
574.023	89
574.234	83
574.445	58
574.656	69
574.867	86
575.078	79
575.289	84
575.501	88
575.712	92
575.923	77
576.134	87
576.345	79
576.556	84
576.767	80
576.978	81
577.188	94
577.399	86
577.61	88
577.821	88
578.032	85
578.243	94
578.454	75
578.665	85
578.875	87
579.086	68
579.297	83
579.508	77
579.718	90
579.929	93
580.14	76
580.35	84
580.561	78
580.772	88
580.982	81
581.193	83
581.403	88
581.614	83
581.825	77
582.035	77
582.246	71
582.456	84
582.667	80
582.877	76
583.087	79
583.298	82
583.508	81
583.719	84
583.929	109
584.139	78
584.35	91
584.56	70
584.77	92
584.981	89
585.191	67
585.401	73
585.611	85
585.821	88
586.032	79
586.242	84
586.452	82
586.662	73
586.872	71
587.082	81
587.292	86
587.502	74
587.713	77
587.923	77
588.133	69
588.343	90
588.553	85
588.762	96
588.972	75
589.182	73
589.392	79
589.602	79
589.812	90
590.022	81
590.232	82
590.441	75
590.651	80
