Data from BGNA1_HRD10591_00014.txt Node
Date: Fri Dec 27 14:28:48 EST 2024
User: Yrep
Spectrometer: HR+D1059
Trigger mode: 1
Integration Time (sec): 1.000000E-1
Scans to average: 1
Electric dark correction enabled: true
Nonlinearity correction enabled: false
Boxcar width: 0
XAxis mode: Wavelengths
Number of Pixels in Spectrum: 2048
>>>>>Begin Spectral Data<<<<<
223.165	-9.94
223.4	-9.94
223.635	-9.94
223.869	-21.94
224.104	-11.94
224.338	-11.94
224.573	-13.94
224.808	-6.94
225.042	-12.94
225.277	-9.94
225.511	-7.94
225.746	3.06
225.98	12.06
226.215	14.06
226.449	13.06
226.683	28.06
226.918	21.06
227.152	16.06
227.387	35.06
227.621	32.06
227.856	47.06
228.09	45.06
228.324	43.06
228.559	41.06
228.793	56.06
229.027	62.06
229.262	50.06
229.496	70.06
229.73	65.06
229.964	68.06
230.199	88.06
230.433	68.06
230.667	58.06
230.901	86.06
231.136	69.06
231.37	73.06
231.604	69.06
231.838	93.06
232.072	85.06
232.306	94.06
232.541	74.06
232.775	83.06
233.009	76.06
233.243	81.06
233.477	77.06
233.711	82.06
233.945	75.06
234.179	91.06
234.413	79.06
234.647	83.06
234.881	81.06
235.115	77.06
235.349	72.06
235.583	83.06
235.817	74.06
236.051	71.06
236.285	84.06
236.519	63.06
236.753	83.06
236.987	83.06
237.221	86.06
237.455	83.06
237.689	79.06
237.922	71.06
238.156	76.06
238.39	75.06
238.624	82.06
238.858	57.06
239.091	84.06
239.325	69.06
239.559	79.06
239.793	71.06
240.027	82.06
240.26	84.06
240.494	80.06
240.728	84.06
240.961	78.06
241.195	86.06
241.429	74.06
241.662	70.06
241.896	77.06
242.13	76.06
242.363	78.06
242.597	75.06
242.83	72.06
243.064	68.06
243.298	72.06
243.531	77.06
243.765	74.06
243.998	90.06
244.232	90.06
244.465	65.06
244.699	60.06
244.932	57.06
245.166	79.06
245.399	75.06
245.633	84.06
245.866	74.06
246.099	64.06
246.333	57.06
246.566	72.06
246.8	86.06
247.033	74.06
247.266	82.06
247.5	73.06
247.733	60.06
247.966	89.06
248.2	91.06
248.433	84.06
248.666	74.06
248.899	68.06
249.133	78.06
249.366	84.06
249.599	70.06
249.832	71.06
250.066	82.06
250.299	62.06
250.532	92.06
250.765	81.06
250.998	62.06
251.231	93.06
251.465	80.06
251.698	91.06
251.931	78.06
252.164	72.06
252.397	81.06
252.63	86.06
252.863	81.06
253.096	75.06
253.329	85.06
253.562	71.06
253.795	88.06
254.028	72.06
254.261	72.06
254.494	77.06
254.727	83.06
254.96	73.06
255.193	75.06
255.426	82.06
255.659	80.06
255.892	77.06
256.124	64.06
256.357	79.06
256.59	80.06
256.823	83.06
257.056	78.06
257.289	91.06
257.521	90.06
257.754	79.06
257.987	60.06
258.22	81.06
258.452	73.06
258.685	66.06
258.918	74.06
259.151	83.06
259.383	76.06
259.616	81.06
259.849	76.06
260.081	71.06
260.314	61.06
260.547	69.06
260.779	83.06
261.012	79.06
261.244	91.06
261.477	75.06
261.71	98.06
261.942	60.06
262.175	79.06
262.407	69.06
262.64	59.06
262.872	75.06
263.105	84.06
263.337	72.06
263.57	84.06
263.802	80.06
264.035	88.06
264.267	78.06
264.499	83.06
264.732	81.06
264.964	77.06
265.197	78.06
265.429	72.06
265.661	84.06
265.894	60.06
266.126	79.06
266.358	64.06
266.591	68.06
266.823	73.06
267.055	76.06
267.287	79.06
267.52	75.06
267.752	69.06
267.984	90.06
268.216	81.06
268.448	79.06
268.681	85.06
268.913	91.06
269.145	86.06
269.377	80.06
269.609	87.06
269.841	78.06
270.073	77.06
270.306	69.06
270.538	84.06
270.77	71.06
271.002	76.06
271.234	60.06
271.466	81.06
271.698	73.06
271.93	79.06
272.162	80.06
272.394	83.06
272.626	95.06
272.858	80.06
273.09	87.06
273.322	82.06
273.553	68.06
273.785	74.06
274.017	88.06
274.249	85.06
274.481	82.06
274.713	77.06
274.945	92.06
275.176	79.06
275.408	66.06
275.64	76.06
275.872	91.06
276.104	78.06
276.335	70.06
276.567	75.06
276.799	80.06
277.031	94.06
277.262	95.06
277.494	80.06
277.726	63.06
277.957	83.06
278.189	63.06
278.421	97.06
278.652	84.06
278.884	65.06
279.115	76.06
279.347	80.06
279.579	84.06
279.81	89.06
280.042	80.06
280.273	83.06
280.505	77.06
280.736	74.06
280.968	77.06
281.199	74.06
281.431	69.06
281.662	80.06
281.894	91.06
282.125	77.06
282.356	74.06
282.588	79.06
282.819	70.06
283.051	91.06
283.282	93.06
283.513	87.06
283.745	80.06
283.976	78.06
284.207	65.06
284.439	82.06
284.67	91.06
284.901	86.06
285.132	92.06
285.364	78.06
285.595	73.06
285.826	90.06
286.057	86.06
286.288	82.06
286.52	87.06
286.751	80.06
286.982	92.06
287.213	77.06
287.444	72.06
287.675	76.06
287.906	86.06
288.138	70.06
288.369	74.06
288.6	92.06
288.831	90.06
289.062	92.06
289.293	80.06
289.524	82.06
289.755	74.06
289.986	71.06
290.217	80.06
290.448	80.06
290.679	88.06
290.91	81.06
291.141	84.06
291.371	84.06
291.602	79.06
291.833	84.06
292.064	75.06
292.295	82.06
292.526	88.06
292.757	85.06
292.987	78.06
293.218	90.06
293.449	71.06
293.68	83.06
293.91	84.06
294.141	93.06
294.372	77.06
294.603	66.06
294.833	63.06
295.064	86.06
295.295	78.06
295.525	77.06
295.756	83.06
295.987	92.06
296.217	85.06
296.448	78.06
296.679	83.06
296.909	79.06
297.14	96.06
297.37	85.06
297.601	80.06
297.831	67.06
298.062	80.06
298.292	88.06
298.523	87.06
298.753	92.06
298.984	82.06
299.214	71.06
299.445	88.06
299.675	81.06
299.905	87.06
300.136	77.06
300.366	80.06
300.597	80.06
300.827	84.06
301.057	74.06
301.288	78.06
301.518	88.06
301.748	84.06
301.979	95.06
302.209	77.06
302.439	79.06
302.669	72.06
302.9	94.06
303.13	90.06
303.36	74.06
303.59	88.06
303.82	76.06
304.051	81.06
304.281	92.06
304.511	83.06
304.741	92.06
304.971	93.06
305.201	82.06
305.431	86.06
305.661	85.06
305.891	75.06
306.121	75.06
306.352	93.06
306.582	85.06
306.812	81.06
307.042	70.06
307.272	78.06
307.502	84.06
307.731	96.06
307.961	94.06
308.191	86.06
308.421	82.06
308.651	81.06
308.881	82.06
309.111	71.06
309.341	82.06
309.571	70.06
309.8	74.06
310.03	63.06
310.26	87.06
310.49	88.06
310.72	77.06
310.949	86.06
311.179	79.06
311.409	63.06
311.639	91.06
311.868	86.06
312.098	71.06
312.328	84.06
312.557	83.06
312.787	80.06
313.017	79.06
313.246	77.06
313.476	71.06
313.706	82.06
313.935	78.06
314.165	85.06
314.394	85.06
314.624	75.06
314.853	72.06
315.083	102.06
315.312	71.06
315.542	84.06
315.771	82.06
316.001	91.06
316.23	102.06
316.46	76.06
316.689	83.06
316.919	99.06
317.148	104.06
317.377	87.06
317.607	83.06
317.836	81.06
318.065	81.06
318.295	74.06
318.524	80.06
318.753	85.06
318.983	92.06
319.212	76.06
319.441	76.06
319.67	83.06
319.9	84.06
320.129	93.06
320.358	90.06
320.587	80.06
320.816	92.06
321.046	83.06
321.275	91.06
321.504	89.06
321.733	87.06
321.962	92.06
322.191	74.06
322.42	83.06
322.649	90.06
322.878	86.06
323.108	90.06
323.337	83.06
323.566	81.06
323.795	90.06
324.024	60.06
324.253	75.06
324.482	90.06
324.71	77.06
324.939	77.06
325.168	80.06
325.397	70.06
325.626	82.06
325.855	83.06
326.084	86.06
326.313	90.06
326.542	72.06
326.77	92.06
326.999	75.06
327.228	94.06
327.457	74.06
327.686	78.06
327.914	93.06
328.143	83.06
328.372	98.06
328.6	87.06
328.829	88.06
329.058	76.06
329.287	80.06
329.515	88.06
329.744	75.06
329.972	65.06
330.201	86.06
330.43	86.06
330.658	75.06
330.887	77.06
331.115	66.06
331.344	70.06
331.572	91.06
331.801	86.06
332.03	87.06
332.258	92.06
332.486	76.06
332.715	75.06
332.943	76.06
333.172	89.06
333.4	88.06
333.629	86.06
333.857	76.06
334.085	98.06
334.314	77.06
334.542	90.06
334.771	87.06
334.999	88.06
335.227	82.06
335.455	69.06
335.684	83.06
335.912	80.06
336.14	79.06
336.369	90.06
336.597	90.06
336.825	98.06
337.053	97.06
337.281	87.06
337.51	80.06
337.738	80.06
337.966	75.06
338.194	78.06
338.422	76.06
338.65	86.06
338.878	94.06
339.106	90.06
339.334	69.06
339.562	88.06
339.79	86.06
340.018	72.06
340.246	84.06
340.474	88.06
340.702	68.06
340.93	80.06
341.158	92.06
341.386	83.06
341.614	84.06
341.842	82.06
342.07	75.06
342.298	82.06
342.526	76.06
342.754	81.06
342.981	71.06
343.209	72.06
343.437	105.06
343.665	82.06
343.893	90.06
344.12	80.06
344.348	76.06
344.576	87.06
344.804	89.06
345.031	80.06
345.259	84.06
345.487	77.06
345.714	78.06
345.942	69.06
346.17	81.06
346.397	76.06
346.625	88.06
346.853	77.06
347.08	80.06
347.308	78.06
347.535	55.06
347.763	90.06
347.99	74.06
348.218	83.06
348.445	80.06
348.673	95.06
348.9	76.06
349.128	82.06
349.355	72.06
349.583	75.06
349.81	98.06
350.037	80.06
350.265	94.06
350.492	80.06
350.72	78.06
350.947	100.06
351.174	87.06
351.402	75.06
351.629	83.06
351.856	80.06
352.083	83.06
352.311	92.06
352.538	81.06
352.765	76.06
352.992	80.06
353.22	91.06
353.447	75.06
353.674	79.06
353.901	75.06
354.128	68.06
354.355	68.06
354.583	86.06
354.81	83.06
355.037	69.06
355.264	70.06
355.491	79.06
355.718	91.06
355.945	99.06
356.172	72.06
356.399	83.06
356.626	80.06
356.853	81.06
357.08	75.06
357.307	71.06
357.534	80.06
357.761	72.06
357.988	84.06
358.215	91.06
358.441	91.06
358.668	64.06
358.895	87.06
359.122	84.06
359.349	69.06
359.576	81.06
359.802	71.06
360.029	88.06
360.256	76.06
360.483	74.06
360.709	71.06
360.936	76.06
361.163	88.06
361.39	79.06
361.616	70.06
361.843	79.06
362.07	86.06
362.296	86.06
362.523	62.06
362.749	85.06
362.976	81.06
363.203	95.06
363.429	74.06
363.656	82.06
363.882	76.06
364.109	98.06
364.335	85.06
364.562	94.06
364.788	79.06
365.015	96.06
365.241	76.06
365.468	91.06
365.694	80.06
365.92	73.06
366.147	88.06
366.373	85.06
366.599	83.06
366.826	90.06
367.052	76.06
367.278	80.06
367.505	79.06
367.731	101.06
367.957	79.06
368.184	88.06
368.41	91.06
368.636	78.06
368.862	84.06
369.089	76.06
369.315	77.06
369.541	69.06
369.767	81.06
369.993	78.06
370.219	76.06
370.445	81.06
370.672	69.06
370.898	75.06
371.124	70.06
371.35	77.06
371.576	71.06
371.802	84.06
372.028	76.06
372.254	85.06
372.48	78.06
372.706	79.06
372.932	79.06
373.158	71.06
373.384	81.06
373.61	78.06
373.835	83.06
374.061	80.06
374.287	86.06
374.513	76.06
374.739	93.06
374.965	80.06
375.191	87.06
375.416	72.06
375.642	90.06
375.868	83.06
376.094	77.06
376.319	86.06
376.545	81.06
376.771	77.06
376.997	92.06
377.222	85.06
377.448	84.06
377.674	80.06
377.899	92.06
378.125	70.06
378.35	92.06
378.576	69.06
378.802	85.06
379.027	90.06
379.253	68.06
379.478	75.06
379.704	76.06
379.929	71.06
380.155	79.06
380.38	84.06
380.606	76.06
380.831	77.06
381.057	76.06
381.282	86.06
381.507	82.06
381.733	73.06
381.958	75.06
382.184	75.06
382.409	79.06
382.634	89.06
382.86	74.06
383.085	84.06
383.31	66.06
383.535	89.06
383.761	90.06
383.986	85.06
384.211	83.06
384.436	70.06
384.662	85.06
384.887	94.06
385.112	82.06
385.337	80.06
385.562	92.06
385.787	76.06
386.013	71.06
386.238	78.06
386.463	71.06
386.688	75.06
386.913	73.06
387.138	76.06
387.363	96.06
387.588	92.06
387.813	93.06
388.038	68.06
388.263	80.06
388.488	71.06
388.713	70.06
388.938	75.06
389.163	79.06
389.387	77.06
389.612	95.06
389.837	85.06
390.062	95.06
390.287	77.06
390.512	87.06
390.736	79.06
390.961	78.06
391.186	78.06
391.411	77.06
391.636	69.06
391.86	82.06
392.085	75.06
392.31	81.06
392.534	62.06
392.759	75.06
392.984	67.06
393.208	81.06
393.433	96.06
393.658	86.06
393.882	75.06
394.107	90.06
394.331	80.06
394.556	78.06
394.78	83.06
395.005	76.06
395.229	84.06
395.454	88.06
395.678	76.06
395.903	90.06
396.127	80.06
396.352	70.06
396.576	79.06
396.801	78.06
397.025	77.06
397.249	69.06
397.474	79.06
397.698	82.06
397.922	57.06
398.147	80.06
398.371	72.06
398.595	67.06
398.82	83.06
399.044	85.06
399.268	72.06
399.492	74.06
399.717	75.06
399.941	71.06
400.165	82.06
400.389	77.06
400.613	69.06
400.837	87.06
401.062	74.06
401.286	54.06
401.51	79.06
401.734	81.06
401.958	71.06
402.182	63.06
402.406	95.06
402.63	84.06
402.854	79.06
403.078	71.06
403.302	71.06
403.526	79.06
403.75	88.06
403.974	72.06
404.198	82.06
404.422	83.06
404.645	74.06
404.869	79.06
405.093	69.06
405.317	80.06
405.541	72.06
405.765	75.06
405.988	94.06
406.212	84.06
406.436	76.06
406.66	85.06
406.883	83.06
407.107	72.06
407.331	91.06
407.555	79.06
407.778	86.06
408.002	80.06
408.226	75.06
408.449	76.06
408.673	79.06
408.896	80.06
409.12	75.06
409.344	79.06
409.567	84.06
409.791	77.06
410.014	90.06
410.238	82.06
410.461	68.06
410.685	86.06
410.908	62.06
411.132	79.06
411.355	75.06
411.578	85.06
411.802	93.06
412.025	80.06
412.249	71.06
412.472	74.06
412.695	74.06
412.919	71.06
413.142	78.06
413.365	66.06
413.589	74.06
413.812	90.06
414.035	91.06
414.258	78.06
414.482	77.06
414.705	75.06
414.928	80.06
415.151	76.06
415.374	78.06
415.597	77.06
415.821	87.06
416.044	73.06
416.267	84.06
416.49	67.06
416.713	76.06
416.936	74.06
417.159	79.06
417.382	87.06
417.605	69.06
417.828	68.06
418.051	81.06
418.274	98.06
418.497	88.06
418.72	73.06
418.943	71.06
419.166	75.06
419.389	90.06
419.611	75.06
419.834	76.06
420.057	74.06
420.28	86.06
420.503	87.06
420.726	76.06
420.948	72.06
421.171	71.06
421.394	68.06
421.617	73.06
421.839	83.06
422.062	82.06
422.285	66.06
422.507	70.06
422.73	68.06
422.953	87.06
423.175	82.06
423.398	82.06
423.621	84.06
423.843	80.06
424.066	78.06
424.288	79.06
424.511	78.06
424.733	94.06
424.956	84.06
425.178	82.06
425.401	65.06
425.623	82.06
425.846	69.06
426.068	86.06
426.291	77.06
426.513	72.06
426.735	86.06
426.958	72.06
427.18	81.06
427.402	81.06
427.625	88.06
427.847	74.06
428.069	72.06
428.292	87.06
428.514	80.06
428.736	69.06
428.958	84.06
429.181	77.06
429.403	67.06
429.625	86.06
429.847	86.06
430.069	80.06
430.292	72.06
430.514	66.06
430.736	75.06
430.958	74.06
431.18	75.06
431.402	82.06
431.624	79.06
431.846	62.06
432.068	74.06
432.29	91.06
432.512	80.06
432.734	70.06
432.956	85.06
433.178	74.06
433.4	75.06
433.622	74.06
433.844	91.06
434.066	82.06
434.287	65.06
434.509	79.06
434.731	72.06
434.953	61.06
435.175	67.06
435.397	75.06
435.618	74.06
435.84	78.06
436.062	78.06
436.284	81.06
436.505	84.06
436.727	85.06
436.949	79.06
437.17	79.06
437.392	76.06
437.614	81.06
437.835	72.06
438.057	82.06
438.278	68.06
438.5	82.06
438.721	71.06
438.943	86.06
439.165	80.06
439.386	81.06
439.608	84.06
439.829	76.06
440.05	82.06
440.272	93.06
440.493	81.06
440.715	86.06
440.936	80.06
441.158	90.06
441.379	80.06
441.6	96.06
441.822	80.06
442.043	67.06
442.264	80.06
442.486	72.06
442.707	80.06
442.928	84.06
443.149	80.06
443.371	84.06
443.592	87.06
443.813	66.06
444.034	89.06
444.255	83.06
444.476	81.06
444.698	71.06
444.919	83.06
445.14	140.06
445.361	93.06
445.582	70.06
445.803	77.06
446.024	84.06
446.245	86.06
446.466	89.06
446.687	82.06
446.908	70.06
447.129	74.06
447.35	72.06
447.571	89.06
447.792	87.06
448.013	78.06
448.234	68.06
448.455	74.06
448.675	80.06
448.896	69.06
449.117	90.06
449.338	76.06
449.559	68.06
449.779	85.06
450	72.06
450.221	90.06
450.442	73.06
450.662	72.06
450.883	83.06
451.104	90.06
451.324	60.06
451.545	78.06
451.766	86.06
451.986	64.06
452.207	75.06
452.428	79.06
452.648	82.06
452.869	80.06
453.089	81.06
453.31	67.06
453.53	78.06
453.751	76.06
453.971	80.06
454.192	82.06
454.412	74.06
454.633	75.06
454.853	91.06
455.073	72.06
455.294	74.06
455.514	84.06
455.734	87.06
455.955	77.06
456.175	71.06
456.395	66.06
456.616	81.06
456.836	85.06
457.056	81.06
457.276	78.06
457.497	65.06
457.717	92.06
457.937	78.06
458.157	75.06
458.377	84.06
458.598	69.06
458.818	78.06
459.038	75.06
459.258	77.06
459.478	77.06
459.698	84.06
459.918	84.06
460.138	76.06
460.358	79.06
460.578	72.06
460.798	86.06
461.018	68.06
461.238	83.06
461.458	101.06
461.678	72.06
461.898	65.06
462.118	83.06
462.338	76.06
462.558	80.06
462.777	82.06
462.997	77.06
463.217	78.06
463.437	86.06
463.657	67.06
463.876	84.06
464.096	69.06
464.316	78.06
464.536	78.06
464.755	76.06
464.975	82.06
465.195	84.06
465.414	78.06
465.634	81.06
465.854	67.06
466.073	66.06
466.293	90.06
466.512	89.06
466.732	86.06
466.951	88.06
467.171	73.06
467.391	81.06
467.61	69.06
467.829	67.06
468.049	68.06
468.268	70.06
468.488	76.06
468.707	85.06
468.927	86.06
469.146	68.06
469.365	70.06
469.585	72.06
469.804	76.06
470.023	81.06
470.243	79.06
470.462	82.06
470.681	72.06
470.901	70.06
471.12	79.06
471.339	74.06
471.558	83.06
471.777	90.06
471.997	90.06
472.216	70.06
472.435	90.06
472.654	98.06
472.873	91.06
473.092	76.06
473.311	83.06
473.53	70.06
473.749	88.06
473.968	80.06
474.187	79.06
474.406	60.06
474.625	95.06
474.844	82.06
475.063	65.06
475.282	83.06
475.501	104.06
475.72	90.06
475.939	78.06
476.158	82.06
476.377	76.06
476.596	79.06
476.814	70.06
477.033	81.06
477.252	83.06
477.471	80.06
477.69	96.06
477.908	72.06
478.127	89.06
478.346	87.06
478.564	81.06
478.783	77.06
479.002	80.06
479.22	81.06
479.439	77.06
479.658	80.06
479.876	75.06
480.095	72.06
480.313	75.06
480.532	67.06
480.751	82.06
480.969	61.06
481.188	98.06
481.406	86.06
481.624	82.06
481.843	79.06
482.061	81.06
482.28	87.06
482.498	92.06
482.717	78.06
482.935	78.06
483.153	80.06
483.372	83.06
483.59	75.06
483.808	94.06
484.027	77.06
484.245	87.06
484.463	88.06
484.681	79.06
484.9	81.06
485.118	83.06
485.336	82.06
485.554	79.06
485.772	67.06
485.99	84.06
486.209	97.06
486.427	74.06
486.645	84.06
486.863	72.06
487.081	61.06
487.299	79.06
487.517	80.06
487.735	72.06
487.953	71.06
488.171	80.06
488.389	79.06
488.607	87.06
488.825	87.06
489.043	89.06
489.261	94.06
489.479	94.06
489.696	94.06
489.914	82.06
490.132	70.06
490.35	100.06
490.568	86.06
490.786	89.06
491.003	70.06
491.221	71.06
491.439	65.06
491.657	82.06
491.874	85.06
492.092	71.06
492.31	85.06
492.527	94.06
492.745	70.06
492.963	77.06
493.18	85.06
493.398	84.06
493.615	65.06
493.833	83.06
494.05	88.06
494.268	96.06
494.485	84.06
494.703	83.06
494.92	77.06
495.138	83.06
495.355	83.06
495.573	93.06
495.79	82.06
496.008	67.06
496.225	68.06
496.442	73.06
496.66	77.06
496.877	85.06
497.094	82.06
497.312	69.06
497.529	64.06
497.746	88.06
497.963	76.06
498.181	84.06
498.398	92.06
498.615	84.06
498.832	85.06
499.049	96.06
499.267	76.06
499.484	94.06
499.701	77.06
499.918	70.06
500.135	70.06
500.352	80.06
500.569	76.06
500.786	95.06
501.003	65.06
501.22	73.06
501.437	76.06
501.654	69.06
501.871	64.06
502.088	84.06
502.305	95.06
502.522	78.06
502.739	82.06
502.956	81.06
503.172	82.06
503.389	83.06
503.606	72.06
503.823	85.06
504.04	84.06
504.256	82.06
504.473	88.06
504.69	80.06
504.907	92.06
505.123	82.06
505.34	93.06
505.557	85.06
505.773	82.06
505.99	83.06
506.207	87.06
506.423	71.06
506.64	75.06
506.856	78.06
507.073	101.06
507.289	71.06
507.506	86.06
507.722	86.06
507.939	67.06
508.155	75.06
508.372	59.06
508.588	77.06
508.805	86.06
509.021	70.06
509.238	83.06
509.454	61.06
509.67	104.06
509.887	82.06
510.103	75.06
510.319	70.06
510.536	78.06
510.752	85.06
510.968	90.06
511.184	79.06
511.401	75.06
511.617	85.06
511.833	64.06
512.049	85.06
512.265	69.06
512.481	86.06
512.698	71.06
512.914	75.06
513.13	84.06
513.346	77.06
513.562	88.06
513.778	90.06
513.994	80.06
514.21	87.06
514.426	77.06
514.642	96.06
514.858	93.06
515.074	84.06
515.29	90.06
515.506	84.06
515.721	72.06
515.937	67.06
516.153	84.06
516.369	84.06
516.585	75.06
516.801	76.06
517.016	82.06
517.232	86.06
517.448	75.06
517.664	77.06
517.879	68.06
518.095	65.06
518.311	86.06
518.527	79.06
518.742	69.06
518.958	73.06
519.173	84.06
519.389	82.06
519.605	79.06
519.82	84.06
520.036	81.06
520.251	80.06
