Data from BGNA1_HRD10591_00006.txt Node
Date: Fri Dec 27 14:28:40 EST 2024
User: Yrep
Spectrometer: HR+D1059
Trigger mode: 1
Integration Time (sec): 1.000000E-1
Scans to average: 1
Electric dark correction enabled: true
Nonlinearity correction enabled: false
Boxcar width: 0
XAxis mode: Wavelengths
Number of Pixels in Spectrum: 2048
>>>>>Begin Spectral Data<<<<<
223.165	-13.25
223.4	-13.25
223.635	-13.25
223.869	-25.25
224.104	-20.25
224.338	-21.25
224.573	4.75
224.808	-15.25
225.042	-2.25
225.277	-8.25
225.511	-0.25
225.746	4.75
225.98	18.75
226.215	21.75
226.449	4.75
226.683	8.75
226.918	15.75
227.152	26.75
227.387	26.75
227.621	43.75
227.856	52.75
228.09	45.75
228.324	43.75
228.559	52.75
228.793	75.75
229.027	67.75
229.262	77.75
229.496	59.75
229.73	76.75
229.964	69.75
230.199	77.75
230.433	70.75
230.667	66.75
230.901	75.75
231.136	78.75
231.37	80.75
231.604	77.75
231.838	69.75
232.072	75.75
232.306	74.75
232.541	75.75
232.775	74.75
233.009	70.75
233.243	79.75
233.477	82.75
233.711	90.75
233.945	85.75
234.179	92.75
234.413	76.75
234.647	84.75
234.881	72.75
235.115	82.75
235.349	80.75
235.583	69.75
235.817	70.75
236.051	83.75
236.285	81.75
236.519	85.75
236.753	76.75
236.987	81.75
237.221	70.75
237.455	72.75
237.689	76.75
237.922	68.75
238.156	74.75
238.39	76.75
238.624	62.75
238.858	70.75
239.091	66.75
239.325	85.75
239.559	91.75
239.793	90.75
240.027	79.75
240.26	73.75
240.494	78.75
240.728	91.75
240.961	75.75
241.195	74.75
241.429	72.75
241.662	81.75
241.896	71.75
242.13	74.75
242.363	75.75
242.597	75.75
242.83	84.75
243.064	78.75
243.298	64.75
243.531	77.75
243.765	62.75
243.998	79.75
244.232	78.75
244.465	71.75
244.699	74.75
244.932	69.75
245.166	81.75
245.399	77.75
245.633	71.75
245.866	69.75
246.099	74.75
246.333	86.75
246.566	72.75
246.8	69.75
247.033	68.75
247.266	81.75
247.5	77.75
247.733	79.75
247.966	85.75
248.2	77.75
248.433	80.75
248.666	84.75
248.899	80.75
249.133	77.75
249.366	82.75
249.599	76.75
249.832	68.75
250.066	78.75
250.299	80.75
250.532	68.75
250.765	78.75
250.998	72.75
251.231	87.75
251.465	80.75
251.698	75.75
251.931	63.75
252.164	81.75
252.397	91.75
252.63	76.75
252.863	65.75
253.096	84.75
253.329	68.75
253.562	81.75
253.795	87.75
254.028	87.75
254.261	74.75
254.494	79.75
254.727	79.75
254.96	61.75
255.193	72.75
255.426	83.75
255.659	84.75
255.892	85.75
256.124	79.75
256.357	91.75
256.59	88.75
256.823	83.75
257.056	92.75
257.289	86.75
257.521	84.75
257.754	92.75
257.987	82.75
258.22	96.75
258.452	95.75
258.685	74.75
258.918	76.75
259.151	84.75
259.383	71.75
259.616	82.75
259.849	92.75
260.081	81.75
260.314	84.75
260.547	78.75
260.779	66.75
261.012	78.75
261.244	80.75
261.477	82.75
261.71	80.75
261.942	74.75
262.175	64.75
262.407	90.75
262.64	82.75
262.872	78.75
263.105	79.75
263.337	81.75
263.57	84.75
263.802	88.75
264.035	78.75
264.267	75.75
264.499	84.75
264.732	92.75
264.964	78.75
265.197	79.75
265.429	74.75
265.661	73.75
265.894	82.75
266.126	85.75
266.358	85.75
266.591	81.75
266.823	79.75
267.055	94.75
267.287	77.75
267.52	83.75
267.752	98.75
267.984	83.75
268.216	84.75
268.448	87.75
268.681	88.75
268.913	83.75
269.145	93.75
269.377	90.75
269.609	70.75
269.841	78.75
270.073	76.75
270.306	80.75
270.538	81.75
270.77	62.75
271.002	91.75
271.234	93.75
271.466	99.75
271.698	79.75
271.93	83.75
272.162	78.75
272.394	98.75
272.626	89.75
272.858	77.75
273.09	67.75
273.322	82.75
273.553	80.75
273.785	78.75
274.017	88.75
274.249	83.75
274.481	83.75
274.713	76.75
274.945	87.75
275.176	72.75
275.408	70.75
275.64	79.75
275.872	69.75
276.104	94.75
276.335	78.75
276.567	71.75
276.799	72.75
277.031	73.75
277.262	68.75
277.494	94.75
277.726	80.75
277.957	73.75
278.189	72.75
278.421	80.75
278.652	83.75
278.884	79.75
279.115	79.75
279.347	92.75
279.579	84.75
279.81	87.75
280.042	75.75
280.273	76.75
280.505	66.75
280.736	74.75
280.968	72.75
281.199	84.75
281.431	87.75
281.662	65.75
281.894	83.75
282.125	67.75
282.356	83.75
282.588	91.75
282.819	74.75
283.051	65.75
283.282	76.75
283.513	87.75
283.745	71.75
283.976	77.75
284.207	78.75
284.439	76.75
284.67	78.75
284.901	82.75
285.132	79.75
285.364	80.75
285.595	86.75
285.826	83.75
286.057	78.75
286.288	82.75
286.52	73.75
286.751	84.75
286.982	80.75
287.213	71.75
287.444	83.75
287.675	83.75
287.906	70.75
288.138	79.75
288.369	72.75
288.6	77.75
288.831	71.75
289.062	87.75
289.293	90.75
289.524	90.75
289.755	81.75
289.986	93.75
290.217	85.75
290.448	86.75
290.679	86.75
290.91	92.75
291.141	85.75
291.371	83.75
291.602	84.75
291.833	89.75
292.064	78.75
292.295	89.75
292.526	93.75
292.757	92.75
292.987	86.75
293.218	94.75
293.449	82.75
293.68	90.75
293.91	83.75
294.141	88.75
294.372	86.75
294.603	91.75
294.833	94.75
295.064	95.75
295.295	88.75
295.525	86.75
295.756	86.75
295.987	89.75
296.217	79.75
296.448	82.75
296.679	81.75
296.909	93.75
297.14	84.75
297.37	77.75
297.601	84.75
297.831	75.75
298.062	79.75
298.292	84.75
298.523	84.75
298.753	80.75
298.984	85.75
299.214	84.75
299.445	78.75
299.675	90.75
299.905	74.75
300.136	89.75
300.366	66.75
300.597	83.75
300.827	75.75
301.057	82.75
301.288	80.75
301.518	99.75
301.748	80.75
301.979	102.75
302.209	88.75
302.439	79.75
302.669	85.75
302.9	87.75
303.13	95.75
303.36	81.75
303.59	85.75
303.82	81.75
304.051	80.75
304.281	82.75
304.511	97.75
304.741	82.75
304.971	69.75
305.201	83.75
305.431	87.75
305.661	94.75
305.891	83.75
306.121	82.75
306.352	81.75
306.582	90.75
306.812	66.75
307.042	96.75
307.272	90.75
307.502	94.75
307.731	85.75
307.961	81.75
308.191	83.75
308.421	77.75
308.651	88.75
308.881	79.75
309.111	78.75
309.341	90.75
309.571	86.75
309.8	87.75
310.03	71.75
310.26	85.75
310.49	93.75
310.72	88.75
310.949	91.75
311.179	87.75
311.409	74.75
311.639	77.75
311.868	79.75
312.098	86.75
312.328	94.75
312.557	79.75
312.787	78.75
313.017	90.75
313.246	95.75
313.476	89.75
313.706	85.75
313.935	85.75
314.165	75.75
314.394	86.75
314.624	86.75
314.853	79.75
315.083	81.75
315.312	70.75
315.542	55.75
315.771	78.75
316.001	83.75
316.23	75.75
316.46	86.75
316.689	64.75
316.919	75.75
317.148	87.75
317.377	69.75
317.607	91.75
317.836	88.75
318.065	76.75
318.295	83.75
318.524	96.75
318.753	76.75
318.983	97.75
319.212	82.75
319.441	84.75
319.67	75.75
319.9	80.75
320.129	94.75
320.358	95.75
320.587	87.75
320.816	82.75
321.046	78.75
321.275	95.75
321.504	85.75
321.733	76.75
321.962	98.75
322.191	93.75
322.42	66.75
322.649	85.75
322.878	90.75
323.108	96.75
323.337	80.75
323.566	82.75
323.795	80.75
324.024	94.75
324.253	80.75
324.482	79.75
324.71	84.75
324.939	94.75
325.168	81.75
325.397	87.75
325.626	84.75
325.855	92.75
326.084	76.75
326.313	82.75
326.542	84.75
326.77	85.75
326.999	86.75
327.228	88.75
327.457	85.75
327.686	76.75
327.914	90.75
328.143	93.75
328.372	98.75
328.6	101.75
328.829	81.75
329.058	72.75
329.287	90.75
329.515	86.75
329.744	88.75
329.972	96.75
330.201	73.75
330.43	66.75
330.658	81.75
330.887	78.75
331.115	94.75
331.344	81.75
331.572	82.75
331.801	94.75
332.03	92.75
332.258	84.75
332.486	84.75
332.715	89.75
332.943	71.75
333.172	77.75
333.4	82.75
333.629	87.75
333.857	77.75
334.085	83.75
334.314	78.75
334.542	92.75
334.771	80.75
334.999	94.75
335.227	89.75
335.455	90.75
335.684	76.75
335.912	89.75
336.14	87.75
336.369	87.75
336.597	83.75
336.825	86.75
337.053	92.75
337.281	92.75
337.51	93.75
337.738	87.75
337.966	76.75
338.194	88.75
338.422	62.75
338.65	84.75
338.878	87.75
339.106	83.75
339.334	84.75
339.562	83.75
339.79	83.75
340.018	87.75
340.246	64.75
340.474	84.75
340.702	101.75
340.93	70.75
341.158	66.75
341.386	70.75
341.614	74.75
341.842	92.75
342.07	77.75
342.298	85.75
342.526	92.75
342.754	94.75
342.981	89.75
343.209	79.75
343.437	109.75
343.665	86.75
343.893	84.75
344.12	70.75
344.348	71.75
344.576	97.75
344.804	78.75
345.031	68.75
345.259	85.75
345.487	82.75
345.714	84.75
345.942	88.75
346.17	86.75
346.397	87.75
346.625	72.75
346.853	74.75
347.08	88.75
347.308	80.75
347.535	83.75
347.763	76.75
347.99	82.75
348.218	82.75
348.445	80.75
348.673	70.75
348.9	76.75
349.128	80.75
349.355	83.75
349.583	82.75
349.81	79.75
350.037	94.75
350.265	81.75
350.492	79.75
350.72	71.75
350.947	84.75
351.174	84.75
351.402	81.75
351.629	86.75
351.856	98.75
352.083	84.75
352.311	88.75
352.538	86.75
352.765	75.75
352.992	82.75
353.22	88.75
353.447	82.75
353.674	79.75
353.901	79.75
354.128	90.75
354.355	90.75
354.583	83.75
354.81	82.75
355.037	87.75
355.264	83.75
355.491	82.75
355.718	86.75
355.945	91.75
356.172	83.75
356.399	64.75
356.626	90.75
356.853	82.75
357.08	83.75
357.307	93.75
357.534	92.75
357.761	70.75
357.988	76.75
358.215	92.75
358.441	78.75
358.668	75.75
358.895	75.75
359.122	83.75
359.349	91.75
359.576	74.75
359.802	80.75
360.029	98.75
360.256	92.75
360.483	87.75
360.709	74.75
360.936	85.75
361.163	78.75
361.39	90.75
361.616	86.75
361.843	96.75
362.07	81.75
362.296	74.75
362.523	81.75
362.749	80.75
362.976	84.75
363.203	87.75
363.429	85.75
363.656	80.75
363.882	83.75
364.109	82.75
364.335	79.75
364.562	75.75
364.788	83.75
365.015	76.75
365.241	72.75
365.468	92.75
365.694	83.75
365.92	74.75
366.147	77.75
366.373	86.75
366.599	83.75
366.826	80.75
367.052	79.75
367.278	83.75
367.505	78.75
367.731	94.75
367.957	82.75
368.184	71.75
368.41	80.75
368.636	85.75
368.862	81.75
369.089	79.75
369.315	78.75
369.541	73.75
369.767	77.75
369.993	80.75
370.219	80.75
370.445	80.75
370.672	83.75
370.898	90.75
371.124	84.75
371.35	89.75
371.576	70.75
371.802	90.75
372.028	74.75
372.254	78.75
372.48	82.75
372.706	64.75
372.932	83.75
373.158	75.75
373.384	81.75
373.61	79.75
373.835	80.75
374.061	82.75
374.287	91.75
374.513	76.75
374.739	76.75
374.965	79.75
375.191	77.75
375.416	81.75
375.642	72.75
375.868	83.75
376.094	90.75
376.319	77.75
376.545	74.75
376.771	86.75
376.997	75.75
377.222	105.75
377.448	75.75
377.674	75.75
377.899	85.75
378.125	79.75
378.35	83.75
378.576	81.75
378.802	84.75
379.027	79.75
379.253	89.75
379.478	84.75
379.704	82.75
379.929	78.75
380.155	84.75
380.38	89.75
380.606	74.75
380.831	80.75
381.057	90.75
381.282	70.75
381.507	76.75
381.733	76.75
381.958	80.75
382.184	82.75
382.409	84.75
382.634	76.75
382.86	68.75
383.085	93.75
383.31	78.75
383.535	85.75
383.761	74.75
383.986	82.75
384.211	87.75
384.436	81.75
384.662	69.75
384.887	72.75
385.112	69.75
385.337	87.75
385.562	76.75
385.787	80.75
386.013	88.75
386.238	85.75
386.463	77.75
386.688	102.75
386.913	82.75
387.138	69.75
387.363	66.75
387.588	94.75
387.813	90.75
388.038	76.75
388.263	90.75
388.488	76.75
388.713	87.75
388.938	81.75
389.163	77.75
389.387	91.75
389.612	72.75
389.837	73.75
390.062	79.75
390.287	86.75
390.512	80.75
390.736	78.75
390.961	72.75
391.186	85.75
391.411	84.75
391.636	84.75
391.86	76.75
392.085	93.75
392.31	76.75
392.534	82.75
392.759	77.75
392.984	84.75
393.208	87.75
393.433	84.75
393.658	71.75
393.882	80.75
394.107	80.75
394.331	87.75
394.556	81.75
394.78	78.75
395.005	90.75
395.229	74.75
395.454	74.75
395.678	94.75
395.903	84.75
396.127	72.75
396.352	87.75
396.576	74.75
396.801	85.75
397.025	76.75
397.249	74.75
397.474	94.75
397.698	77.75
397.922	80.75
398.147	82.75
398.371	77.75
398.595	73.75
398.82	77.75
399.044	71.75
399.268	73.75
399.492	82.75
399.717	71.75
399.941	76.75
400.165	78.75
400.389	84.75
400.613	74.75
400.837	76.75
401.062	67.75
401.286	70.75
401.51	79.75
401.734	66.75
401.958	81.75
402.182	70.75
402.406	84.75
402.63	85.75
402.854	75.75
403.078	88.75
403.302	85.75
403.526	86.75
403.75	69.75
403.974	76.75
404.198	67.75
404.422	78.75
404.645	72.75
404.869	78.75
405.093	66.75
405.317	97.75
405.541	69.75
405.765	57.75
405.988	71.75
406.212	72.75
406.436	78.75
406.66	78.75
406.883	82.75
407.107	85.75
407.331	74.75
407.555	69.75
407.778	78.75
408.002	78.75
408.226	82.75
408.449	83.75
408.673	73.75
408.896	90.75
409.12	63.75
409.344	72.75
409.567	95.75
409.791	84.75
410.014	72.75
410.238	84.75
410.461	83.75
410.685	88.75
410.908	70.75
411.132	92.75
411.355	74.75
411.578	84.75
411.802	75.75
412.025	97.75
412.249	77.75
412.472	75.75
412.695	72.75
412.919	85.75
413.142	77.75
413.365	81.75
413.589	77.75
413.812	70.75
414.035	84.75
414.258	77.75
414.482	74.75
414.705	78.75
414.928	53.75
415.151	71.75
415.374	86.75
415.597	86.75
415.821	72.75
416.044	82.75
416.267	61.75
416.49	94.75
416.713	77.75
416.936	81.75
417.159	75.75
417.382	76.75
417.605	73.75
417.828	74.75
418.051	67.75
418.274	71.75
418.497	84.75
418.72	73.75
418.943	86.75
419.166	82.75
419.389	83.75
419.611	79.75
419.834	91.75
420.057	81.75
420.28	84.75
420.503	74.75
420.726	69.75
420.948	60.75
421.171	78.75
421.394	84.75
421.617	77.75
421.839	80.75
422.062	78.75
422.285	67.75
422.507	79.75
422.73	65.75
422.953	74.75
423.175	81.75
423.398	94.75
423.621	85.75
423.843	88.75
424.066	75.75
424.288	74.75
424.511	82.75
424.733	96.75
424.956	83.75
425.178	85.75
425.401	75.75
425.623	82.75
425.846	80.75
426.068	96.75
426.291	83.75
426.513	82.75
426.735	79.75
426.958	81.75
427.18	83.75
427.402	78.75
427.625	68.75
427.847	73.75
428.069	75.75
428.292	80.75
428.514	82.75
428.736	79.75
428.958	82.75
429.181	79.75
429.403	91.75
429.625	72.75
429.847	94.75
430.069	80.75
430.292	82.75
430.514	76.75
430.736	75.75
430.958	73.75
431.18	68.75
431.402	59.75
431.624	76.75
431.846	76.75
432.068	77.75
432.29	84.75
432.512	78.75
432.734	76.75
432.956	91.75
433.178	86.75
433.4	86.75
433.622	69.75
433.844	70.75
434.066	77.75
434.287	84.75
434.509	77.75
434.731	86.75
434.953	77.75
435.175	79.75
435.397	93.75
435.618	70.75
435.84	87.75
436.062	84.75
436.284	72.75
436.505	80.75
436.727	86.75
436.949	72.75
437.17	76.75
437.392	83.75
437.614	80.75
437.835	92.75
438.057	78.75
438.278	72.75
438.5	85.75
438.721	88.75
438.943	83.75
439.165	84.75
439.386	86.75
439.608	83.75
439.829	75.75
440.05	74.75
440.272	63.75
440.493	77.75
440.715	77.75
440.936	76.75
441.158	74.75
441.379	95.75
441.6	85.75
441.822	85.75
442.043	82.75
442.264	80.75
442.486	96.75
442.707	89.75
442.928	73.75
443.149	78.75
443.371	75.75
443.592	70.75
443.813	76.75
444.034	66.75
444.255	76.75
444.476	78.75
444.698	87.75
444.919	71.75
445.14	147.75
445.361	95.75
445.582	79.75
445.803	83.75
446.024	69.75
446.245	68.75
446.466	87.75
446.687	71.75
446.908	98.75
447.129	74.75
447.35	88.75
447.571	80.75
447.792	78.75
448.013	80.75
448.234	86.75
448.455	65.75
448.675	75.75
448.896	79.75
449.117	83.75
449.338	92.75
449.559	84.75
449.779	85.75
450	69.75
450.221	67.75
450.442	78.75
450.662	84.75
450.883	74.75
451.104	66.75
451.324	80.75
451.545	72.75
451.766	74.75
451.986	87.75
452.207	83.75
452.428	71.75
452.648	70.75
452.869	99.75
453.089	90.75
453.31	85.75
453.53	82.75
453.751	84.75
453.971	72.75
454.192	84.75
454.412	82.75
454.633	73.75
454.853	79.75
455.073	89.75
455.294	77.75
455.514	67.75
455.734	75.75
455.955	94.75
456.175	76.75
456.395	74.75
456.616	78.75
456.836	84.75
457.056	71.75
457.276	68.75
457.497	70.75
457.717	66.75
457.937	86.75
458.157	67.75
458.377	77.75
458.598	79.75
458.818	70.75
459.038	75.75
459.258	100.75
459.478	88.75
459.698	80.75
459.918	98.75
460.138	70.75
460.358	57.75
460.578	90.75
460.798	78.75
461.018	82.75
461.238	87.75
461.458	89.75
461.678	87.75
461.898	90.75
462.118	72.75
462.338	87.75
462.558	81.75
462.777	77.75
462.997	86.75
463.217	64.75
463.437	78.75
463.657	74.75
463.876	79.75
464.096	83.75
464.316	97.75
464.536	86.75
464.755	78.75
464.975	76.75
465.195	82.75
465.414	79.75
465.634	85.75
465.854	75.75
466.073	76.75
466.293	79.75
466.512	82.75
466.732	72.75
466.951	83.75
467.171	73.75
467.391	82.75
467.61	82.75
467.829	79.75
468.049	77.75
468.268	81.75
468.488	81.75
468.707	78.75
468.927	72.75
469.146	91.75
469.365	84.75
469.585	91.75
469.804	84.75
470.023	79.75
470.243	77.75
470.462	87.75
470.681	63.75
470.901	77.75
471.12	82.75
471.339	77.75
471.558	78.75
471.777	83.75
471.997	71.75
472.216	95.75
472.435	82.75
472.654	79.75
472.873	77.75
473.092	96.75
473.311	82.75
473.53	76.75
473.749	84.75
473.968	79.75
474.187	86.75
474.406	87.75
474.625	64.75
474.844	87.75
475.063	78.75
475.282	86.75
475.501	75.75
475.72	82.75
475.939	74.75
476.158	85.75
476.377	76.75
476.596	83.75
476.814	69.75
477.033	65.75
477.252	92.75
477.471	80.75
477.69	76.75
477.908	86.75
478.127	94.75
478.346	71.75
478.564	79.75
478.783	68.75
479.002	77.75
479.22	75.75
479.439	75.75
479.658	86.75
479.876	84.75
480.095	71.75
480.313	89.75
480.532	74.75
480.751	78.75
480.969	88.75
481.188	85.75
481.406	89.75
481.624	79.75
481.843	71.75
482.061	78.75
482.28	81.75
482.498	93.75
482.717	90.75
482.935	86.75
483.153	90.75
483.372	70.75
483.59	68.75
483.808	85.75
484.027	67.75
484.245	85.75
484.463	80.75
484.681	94.75
484.9	82.75
485.118	95.75
485.336	78.75
485.554	68.75
485.772	78.75
485.99	86.75
486.209	72.75
486.427	80.75
486.645	99.75
486.863	77.75
487.081	72.75
487.299	66.75
487.517	78.75
487.735	76.75
487.953	80.75
488.171	78.75
488.389	76.75
488.607	88.75
488.825	86.75
489.043	83.75
489.261	72.75
489.479	82.75
489.696	85.75
489.914	77.75
490.132	84.75
490.35	80.75
490.568	80.75
490.786	81.75
491.003	86.75
491.221	81.75
491.439	80.75
491.657	81.75
491.874	85.75
492.092	86.75
492.31	86.75
492.527	72.75
492.745	77.75
492.963	81.75
493.18	94.75
493.398	82.75
493.615	67.75
493.833	78.75
494.05	69.75
494.268	84.75
494.485	82.75
494.703	73.75
494.92	75.75
495.138	91.75
495.355	83.75
495.573	84.75
495.79	79.75
496.008	75.75
496.225	82.75
496.442	88.75
496.66	83.75
496.877	99.75
497.094	92.75
497.312	89.75
497.529	75.75
497.746	86.75
497.963	76.75
498.181	92.75
498.398	82.75
498.615	76.75
498.832	82.75
499.049	72.75
499.267	86.75
499.484	83.75
499.701	72.75
499.918	95.75
500.135	90.75
500.352	82.75
500.569	80.75
500.786	75.75
501.003	78.75
501.22	82.75
501.437	74.75
501.654	76.75
501.871	94.75
502.088	90.75
502.305	97.75
502.522	86.75
502.739	90.75
502.956	82.75
503.172	76.75
503.389	79.75
503.606	80.75
503.823	48.75
504.04	78.75
504.256	76.75
504.473	71.75
504.69	90.75
504.907	82.75
505.123	87.75
505.34	88.75
505.557	92.75
505.773	63.75
505.99	87.75
506.207	84.75
506.423	78.75
506.64	74.75
506.856	87.75
507.073	82.75
507.289	79.75
507.506	75.75
507.722	75.75
507.939	69.75
508.155	91.75
508.372	94.75
508.588	85.75
508.805	87.75
509.021	75.75
509.238	83.75
509.454	87.75
509.67	77.75
509.887	81.75
510.103	79.75
510.319	94.75
510.536	80.75
510.752	73.75
510.968	87.75
511.184	86.75
511.401	88.75
511.617	83.75
511.833	83.75
512.049	90.75
512.265	77.75
512.481	94.75
512.698	86.75
512.914	73.75
513.13	100.75
513.346	77.75
513.562	79.75
513.778	85.75
513.994	91.75
514.21	82.75
514.426	91.75
514.642	86.75
514.858	78.75
515.074	72.75
515.29	81.75
515.506	81.75
515.721	78.75
515.937	67.75
516.153	82.75
516.369	79.75
516.585	75.75
516.801	82.75
517.016	87.75
517.232	88.75
517.448	93.75
517.664	83.75
517.879	87.75
518.095	85.75
518.311	94.75
518.527	87.75
518.742	72.75
518.958	83.75
519.173	78.75
519.389	84.75
519.605	88.75
519.82	78.75
520.036	78.75
520.251	63.75
