Data from BGNA1_HRD10591_00004.txt Node
Date: Fri Dec 27 14:28:38 EST 2024
User: Yrep
Spectrometer: HR+D1059
Trigger mode: 1
Integration Time (sec): 1.000000E-1
Scans to average: 1
Electric dark correction enabled: true
Nonlinearity correction enabled: false
Boxcar width: 0
XAxis mode: Wavelengths
Number of Pixels in Spectrum: 2048
>>>>>Begin Spectral Data<<<<<
223.165	-10
223.4	-10
223.635	-10
223.869	-32
224.104	-8
224.338	-15
224.573	-23
224.808	-3
225.042	-2
225.277	-12
225.511	-8
225.746	13
225.98	7
226.215	9
226.449	15
226.683	21
226.918	17
227.152	31
227.387	50
227.621	39
227.856	39
228.09	36
228.324	56
228.559	67
228.793	53
229.027	53
229.262	70
229.496	72
229.73	58
229.964	71
230.199	89
230.433	67
230.667	87
230.901	71
231.136	81
231.37	71
231.604	83
231.838	96
232.072	75
232.306	80
232.541	77
232.775	81
233.009	84
233.243	88
233.477	70
233.711	79
233.945	81
234.179	72
234.413	71
234.647	74
234.881	80
235.115	78
235.349	75
235.583	91
235.817	75
236.051	61
236.285	70
236.519	63
236.753	72
236.987	79
237.221	72
237.455	91
237.689	80
237.922	80
238.156	84
238.39	74
238.624	72
238.858	89
239.091	87
239.325	68
239.559	73
239.793	75
240.027	69
240.26	72
240.494	81
240.728	84
240.961	64
241.195	69
241.429	78
241.662	78
241.896	63
242.13	75
242.363	64
242.597	71
242.83	88
243.064	63
243.298	73
243.531	88
243.765	79
243.998	93
244.232	84
244.465	70
244.699	80
244.932	73
245.166	87
245.399	88
245.633	86
245.866	79
246.099	75
246.333	77
246.566	78
246.8	67
247.033	65
247.266	78
247.5	83
247.733	81
247.966	82
248.2	73
248.433	77
248.666	72
248.899	78
249.133	63
249.366	83
249.599	81
249.832	87
250.066	84
250.299	87
250.532	72
250.765	92
250.998	79
251.231	69
251.465	88
251.698	69
251.931	78
252.164	81
252.397	72
252.63	69
252.863	87
253.096	86
253.329	86
253.562	86
253.795	87
254.028	96
254.261	82
254.494	67
254.727	95
254.96	85
255.193	82
255.426	87
255.659	84
255.892	88
256.124	73
256.357	81
256.59	78
256.823	88
257.056	72
257.289	83
257.521	91
257.754	70
257.987	75
258.22	76
258.452	80
258.685	73
258.918	69
259.151	92
259.383	85
259.616	71
259.849	89
260.081	89
260.314	94
260.547	80
260.779	76
261.012	70
261.244	73
261.477	72
261.71	66
261.942	76
262.175	88
262.407	79
262.64	75
262.872	79
263.105	93
263.337	82
263.57	91
263.802	92
264.035	95
264.267	87
264.499	81
264.732	84
264.964	80
265.197	79
265.429	76
265.661	94
265.894	81
266.126	69
266.358	79
266.591	87
266.823	90
267.055	78
267.287	81
267.52	92
267.752	83
267.984	95
268.216	84
268.448	109
268.681	71
268.913	69
269.145	87
269.377	82
269.609	85
269.841	81
270.073	85
270.306	88
270.538	71
270.77	74
271.002	82
271.234	76
271.466	79
271.698	87
271.93	67
272.162	63
272.394	80
272.626	80
272.858	78
273.09	78
273.322	95
273.553	81
273.785	85
274.017	88
274.249	88
274.481	77
274.713	89
274.945	93
275.176	82
275.408	89
275.64	83
275.872	88
276.104	99
276.335	71
276.567	85
276.799	88
277.031	92
277.262	88
277.494	80
277.726	76
277.957	88
278.189	96
278.421	77
278.652	80
278.884	72
279.115	79
279.347	82
279.579	70
279.81	80
280.042	89
280.273	91
280.505	75
280.736	74
280.968	87
281.199	87
281.431	76
281.662	85
281.894	81
282.125	92
282.356	85
282.588	81
282.819	96
283.051	88
283.282	87
283.513	74
283.745	77
283.976	90
284.207	85
284.439	91
284.67	85
284.901	82
285.132	86
285.364	98
285.595	85
285.826	81
286.057	89
286.288	82
286.52	84
286.751	80
286.982	91
287.213	79
287.444	84
287.675	87
287.906	81
288.138	80
288.369	91
288.6	69
288.831	84
289.062	75
289.293	64
289.524	83
289.755	81
289.986	74
290.217	91
290.448	89
290.679	85
290.91	95
291.141	79
291.371	81
291.602	82
291.833	83
292.064	91
292.295	75
292.526	67
292.757	76
292.987	76
293.218	85
293.449	85
293.68	92
293.91	86
294.141	93
294.372	102
294.603	100
294.833	92
295.064	87
295.295	87
295.525	86
295.756	84
295.987	68
296.217	77
296.448	89
296.679	87
296.909	94
297.14	93
297.37	99
297.601	78
297.831	85
298.062	80
298.292	85
298.523	80
298.753	83
298.984	87
299.214	73
299.445	81
299.675	86
299.905	81
300.136	76
300.366	87
300.597	93
300.827	87
301.057	87
301.288	80
301.518	79
301.748	91
301.979	93
302.209	83
302.439	96
302.669	88
302.9	88
303.13	79
303.36	71
303.59	70
303.82	78
304.051	76
304.281	83
304.511	85
304.741	70
304.971	84
305.201	77
305.431	84
305.661	93
305.891	93
306.121	80
306.352	91
306.582	90
306.812	93
307.042	93
307.272	98
307.502	97
307.731	98
307.961	93
308.191	89
308.421	92
308.651	91
308.881	88
309.111	77
309.341	82
309.571	80
309.8	69
310.03	81
310.26	92
310.49	84
310.72	79
310.949	80
311.179	90
311.409	105
311.639	78
311.868	88
312.098	73
312.328	81
312.557	87
312.787	83
313.017	92
313.246	78
313.476	81
313.706	65
313.935	80
314.165	75
314.394	70
314.624	77
314.853	75
315.083	95
315.312	82
315.542	71
315.771	79
316.001	83
316.23	79
316.46	63
316.689	82
316.919	84
317.148	95
317.377	94
317.607	89
317.836	87
318.065	88
318.295	88
318.524	74
318.753	88
318.983	97
319.212	81
319.441	91
319.67	84
319.9	99
320.129	77
320.358	80
320.587	79
320.816	72
321.046	72
321.275	91
321.504	88
321.733	91
321.962	75
322.191	56
322.42	73
322.649	90
322.878	89
323.108	79
323.337	88
323.566	75
323.795	85
324.024	79
324.253	80
324.482	101
324.71	93
324.939	81
325.168	92
325.397	84
325.626	86
325.855	95
326.084	72
326.313	86
326.542	87
326.77	79
326.999	85
327.228	95
327.457	83
327.686	85
327.914	80
328.143	99
328.372	87
328.6	83
328.829	91
329.058	75
329.287	87
329.515	111
329.744	84
329.972	72
330.201	66
330.43	83
330.658	84
330.887	70
331.115	87
331.344	86
331.572	93
331.801	86
332.03	91
332.258	86
332.486	82
332.715	89
332.943	82
333.172	81
333.4	93
333.629	94
333.857	95
334.085	95
334.314	67
334.542	78
334.771	76
334.999	93
335.227	93
335.455	90
335.684	79
335.912	81
336.14	89
336.369	87
336.597	95
336.825	88
337.053	77
337.281	89
337.51	85
337.738	81
337.966	82
338.194	94
338.422	95
338.65	76
338.878	91
339.106	95
339.334	94
339.562	85
339.79	80
340.018	92
340.246	81
340.474	79
340.702	94
340.93	90
341.158	89
341.386	86
341.614	77
341.842	81
342.07	83
342.298	100
342.526	95
342.754	79
342.981	79
343.209	85
343.437	93
343.665	92
343.893	87
344.12	83
344.348	86
344.576	102
344.804	83
345.031	72
345.259	82
345.487	86
345.714	82
345.942	72
346.17	78
346.397	85
346.625	79
346.853	81
347.08	76
347.308	91
347.535	81
347.763	79
347.99	77
348.218	83
348.445	95
348.673	83
348.9	80
349.128	94
349.355	83
349.583	88
349.81	75
350.037	80
350.265	74
350.492	72
350.72	91
350.947	90
351.174	86
351.402	91
351.629	80
351.856	82
352.083	70
352.311	76
352.538	82
352.765	92
352.992	105
353.22	96
353.447	83
353.674	82
353.901	96
354.128	94
354.355	80
354.583	69
354.81	84
355.037	86
355.264	86
355.491	89
355.718	87
355.945	86
356.172	87
356.399	83
356.626	78
356.853	89
357.08	88
357.307	82
357.534	76
357.761	95
357.988	89
358.215	79
358.441	76
358.668	87
358.895	88
359.122	76
359.349	83
359.576	77
359.802	85
360.029	89
360.256	77
360.483	85
360.709	86
360.936	79
361.163	72
361.39	85
361.616	97
361.843	83
362.07	88
362.296	84
362.523	63
362.749	76
362.976	81
363.203	82
363.429	76
363.656	95
363.882	73
364.109	86
364.335	93
364.562	89
364.788	84
365.015	76
365.241	79
365.468	78
365.694	83
365.92	96
366.147	88
366.373	58
366.599	87
366.826	77
367.052	80
367.278	85
367.505	72
367.731	84
367.957	72
368.184	69
368.41	83
368.636	93
368.862	85
369.089	91
369.315	75
369.541	81
369.767	72
369.993	84
370.219	78
370.445	87
370.672	79
370.898	73
371.124	87
371.35	84
371.576	83
371.802	98
372.028	83
372.254	83
372.48	80
372.706	72
372.932	78
373.158	93
373.384	80
373.61	79
373.835	77
374.061	66
374.287	81
374.513	74
374.739	88
374.965	75
375.191	99
375.416	87
375.642	103
375.868	89
376.094	84
376.319	72
376.545	94
376.771	72
376.997	84
377.222	88
377.448	95
377.674	91
377.899	89
378.125	75
378.35	80
378.576	82
378.802	92
379.027	81
379.253	85
379.478	81
379.704	82
379.929	95
380.155	90
380.38	77
380.606	90
380.831	94
381.057	91
381.282	85
381.507	87
381.733	82
381.958	71
382.184	71
382.409	83
382.634	91
382.86	68
383.085	84
383.31	93
383.535	71
383.761	75
383.986	77
384.211	78
384.436	97
384.662	69
384.887	90
385.112	91
385.337	88
385.562	76
385.787	80
386.013	88
386.238	78
386.463	79
386.688	93
386.913	99
387.138	73
387.363	69
387.588	96
387.813	86
388.038	93
388.263	73
388.488	95
388.713	82
388.938	81
389.163	101
389.387	92
389.612	88
389.837	90
390.062	76
390.287	86
390.512	85
390.736	88
390.961	86
391.186	78
391.411	76
391.636	86
391.86	75
392.085	92
392.31	65
392.534	93
392.759	72
392.984	86
393.208	73
393.433	77
393.658	80
393.882	66
394.107	81
394.331	89
394.556	84
394.78	98
395.005	91
395.229	79
395.454	88
395.678	87
395.903	76
396.127	95
396.352	86
396.576	63
396.801	92
397.025	75
397.249	71
397.474	88
397.698	91
397.922	89
398.147	77
398.371	87
398.595	93
398.82	86
399.044	76
399.268	73
399.492	78
399.717	79
399.941	84
400.165	85
400.389	88
400.613	86
400.837	81
401.062	94
401.286	80
401.51	87
401.734	84
401.958	88
402.182	78
402.406	81
402.63	82
402.854	90
403.078	79
403.302	82
403.526	82
403.75	68
403.974	73
404.198	78
404.422	77
404.645	81
404.869	89
405.093	79
405.317	70
405.541	85
405.765	69
405.988	97
406.212	80
406.436	68
406.66	67
406.883	84
407.107	78
407.331	75
407.555	81
407.778	87
408.002	75
408.226	78
408.449	77
408.673	86
408.896	91
409.12	72
409.344	67
409.567	76
409.791	80
410.014	86
410.238	78
410.461	80
410.685	78
410.908	84
411.132	77
411.355	84
411.578	80
411.802	89
412.025	97
412.249	76
412.472	86
412.695	84
412.919	78
413.142	76
413.365	85
413.589	64
413.812	75
414.035	96
414.258	78
414.482	73
414.705	77
414.928	82
415.151	81
415.374	81
415.597	68
415.821	77
416.044	84
416.267	64
416.49	78
416.713	65
416.936	93
417.159	87
417.382	83
417.605	79
417.828	91
418.051	77
418.274	95
418.497	82
418.72	72
418.943	76
419.166	80
419.389	85
419.611	84
419.834	98
420.057	83
420.28	71
420.503	72
420.726	73
420.948	75
421.171	86
421.394	79
421.617	77
421.839	79
422.062	78
422.285	80
422.507	75
422.73	73
422.953	71
423.175	94
423.398	80
423.621	86
423.843	85
424.066	79
424.288	87
424.511	87
424.733	75
424.956	85
425.178	71
425.401	83
425.623	86
425.846	88
426.068	70
426.291	77
426.513	67
426.735	85
426.958	88
427.18	97
427.402	83
427.625	70
427.847	61
428.069	71
428.292	84
428.514	79
428.736	75
428.958	77
429.181	71
429.403	71
429.625	80
429.847	67
430.069	94
430.292	82
430.514	75
430.736	81
430.958	84
431.18	92
431.402	78
431.624	79
431.846	86
432.068	66
432.29	88
432.512	84
432.734	89
432.956	72
433.178	70
433.4	79
433.622	87
433.844	75
434.066	80
434.287	56
434.509	72
434.731	85
434.953	88
435.175	84
435.397	100
435.618	88
435.84	84
436.062	90
436.284	86
436.505	94
436.727	92
436.949	91
437.17	85
437.392	81
437.614	77
437.835	83
438.057	71
438.278	81
438.5	78
438.721	72
438.943	87
439.165	72
439.386	80
439.608	103
439.829	69
440.05	81
440.272	77
440.493	89
440.715	88
440.936	83
441.158	80
441.379	87
441.6	74
441.822	86
442.043	84
442.264	76
442.486	65
442.707	76
442.928	83
443.149	77
443.371	73
443.592	65
443.813	78
444.034	73
444.255	85
444.476	89
444.698	93
444.919	99
445.14	160
445.361	105
445.582	78
445.803	77
446.024	65
446.245	92
446.466	91
446.687	79
446.908	87
447.129	91
447.35	88
447.571	71
447.792	96
448.013	85
448.234	76
448.455	75
448.675	81
448.896	91
449.117	94
449.338	74
449.559	78
449.779	67
450	79
450.221	81
450.442	92
450.662	88
450.883	95
451.104	85
451.324	84
451.545	84
451.766	78
451.986	70
452.207	79
452.428	95
452.648	92
452.869	77
453.089	85
453.31	86
453.53	73
453.751	91
453.971	65
454.192	75
454.412	78
454.633	87
454.853	79
455.073	71
455.294	74
455.514	87
455.734	85
455.955	81
456.175	79
456.395	76
456.616	86
456.836	65
457.056	76
457.276	64
457.497	74
457.717	71
457.937	75
458.157	83
458.377	78
458.598	82
458.818	86
459.038	87
459.258	88
459.478	85
459.698	85
459.918	86
460.138	70
460.358	78
460.578	86
460.798	79
461.018	63
461.238	78
461.458	70
461.678	72
461.898	94
462.118	76
462.338	81
462.558	83
462.777	72
462.997	81
463.217	76
463.437	83
463.657	80
463.876	87
464.096	89
464.316	70
464.536	76
464.755	70
464.975	90
465.195	79
465.414	79
465.634	97
465.854	91
466.073	82
466.293	73
466.512	81
466.732	85
466.951	76
467.171	80
467.391	88
467.61	80
467.829	74
468.049	81
468.268	77
468.488	91
468.707	80
468.927	91
469.146	85
469.365	87
469.585	71
469.804	95
470.023	84
470.243	77
470.462	81
470.681	56
470.901	88
471.12	79
471.339	91
471.558	89
471.777	82
471.997	82
472.216	101
472.435	84
472.654	79
472.873	90
473.092	88
473.311	90
473.53	79
473.749	77
473.968	76
474.187	83
474.406	89
474.625	77
474.844	73
475.063	70
475.282	71
475.501	95
475.72	101
475.939	77
476.158	63
476.377	86
476.596	79
476.814	74
477.033	71
477.252	77
477.471	77
477.69	91
477.908	95
478.127	87
478.346	76
478.564	88
478.783	81
479.002	80
479.22	84
479.439	79
479.658	85
479.876	87
480.095	79
480.313	83
480.532	77
480.751	87
480.969	71
481.188	95
481.406	77
481.624	78
481.843	93
482.061	88
482.28	69
482.498	76
482.717	84
482.935	88
483.153	66
483.372	78
483.59	79
483.808	85
484.027	86
484.245	83
484.463	87
484.681	102
484.9	91
485.118	86
485.336	77
485.554	83
485.772	80
485.99	82
486.209	77
486.427	85
486.645	80
486.863	65
487.081	97
487.299	94
487.517	68
487.735	85
487.953	79
488.171	83
488.389	99
488.607	79
488.825	71
489.043	93
489.261	78
489.479	95
489.696	80
489.914	80
490.132	86
490.35	83
490.568	75
490.786	92
491.003	79
491.221	71
491.439	77
491.657	73
491.874	86
492.092	78
492.31	80
492.527	81
492.745	83
492.963	80
493.18	88
493.398	76
493.615	78
493.833	100
494.05	89
494.268	77
494.485	91
494.703	77
494.92	86
495.138	79
495.355	88
495.573	81
495.79	71
496.008	80
496.225	76
496.442	69
496.66	101
496.877	86
497.094	71
497.312	88
497.529	69
497.746	93
497.963	89
498.181	79
498.398	86
498.615	85
498.832	75
499.049	74
499.267	72
499.484	90
499.701	79
499.918	79
500.135	74
500.352	86
500.569	83
500.786	77
501.003	68
501.22	78
501.437	76
501.654	77
501.871	85
502.088	85
502.305	89
502.522	91
502.739	79
502.956	81
503.172	72
503.389	68
503.606	85
503.823	82
504.04	80
504.256	92
504.473	70
504.69	96
504.907	97
505.123	86
505.34	80
505.557	91
505.773	79
505.99	83
506.207	86
506.423	79
506.64	80
506.856	78
507.073	82
507.289	100
507.506	81
507.722	68
507.939	86
508.155	88
508.372	77
508.588	83
508.805	73
509.021	94
509.238	89
509.454	78
509.67	78
509.887	76
510.103	85
510.319	86
510.536	82
510.752	85
510.968	77
511.184	84
511.401	79
511.617	73
511.833	73
512.049	82
512.265	82
512.481	78
512.698	95
512.914	82
513.13	79
513.346	80
513.562	76
513.778	75
513.994	75
514.21	103
514.426	105
514.642	91
514.858	84
515.074	86
515.29	82
515.506	77
515.721	88
515.937	91
516.153	85
516.369	75
516.585	79
516.801	88
517.016	92
517.232	93
517.448	94
517.664	85
517.879	65
518.095	81
518.311	73
518.527	89
518.742	79
518.958	70
519.173	82
519.389	82
519.605	78
519.82	74
520.036	84
520.251	80
520.467	82
520.682	82
520.898	86
521.113	84
521.329	60
521.544	62
521.76	80
521.975	80
522.19	83
522.406	79
522.621	97
522.836	84
523.052	95
523.267	93
523.482	86
523.698	91
523.913	69
524.128	69
524.343	92
524.559	70
524.774	95
524.989	82
525.204	91
525.419	93
525.634	77
525.849	87
526.064	69
526.28	104
526.495	85
526.71	82
526.925	80
527.14	80
527.355	77
527.57	84
527.785	90
527.999	82
528.214	80
528.429	99
528.644	77
528.859	83
529.074	83
529.289	80
529.503	93
529.718	87
529.933	88
530.148	99
530.363	86
530.577	81
530.792	89
531.007	79
531.221	77
531.436	94
531.651	86
531.865	89
532.08	86
532.295	77
532.509	87
532.724	78
532.938	92
533.153	85
533.367	77
533.582	86
533.796	85
534.011	94
534.225	81
534.44	80
534.654	83
534.868	91
535.083	67
535.297	77
535.511	88
535.726	80
535.94	79
536.154	80
536.369	77
536.583	84
536.797	86
537.011	79
537.225	79
537.44	85
537.654	98
537.868	80
538.082	83
538.296	86
538.51	95
538.724	93
538.938	76
539.153	81
539.367	76
539.581	86
539.795	88
540.009	93
540.222	85
540.436	81
540.65	93
540.864	87
541.078	81
541.292	76
541.506	88
541.72	95
541.934	81
542.147	86
542.361	70
542.575	84
542.789	71
543.002	87
543.216	80
543.43	82
543.644	98
543.857	93
544.071	84
544.285	98
544.498	82
544.712	80
544.925	76
545.139	60
545.352	92
545.566	84
545.779	91
545.993	87
546.206	72
546.42	88
546.633	83
546.847	95
547.06	102
547.274	78
547.487	90
547.7	85
547.914	93
548.127	87
548.34	94
548.554	95
548.767	93
548.98	93
549.193	69
549.407	93
549.62	85
549.833	80
550.046	91
550.259	88
550.473	70
550.686	90
550.899	82
551.112	90
551.325	73
551.538	76
551.751	84
551.964	76
552.177	88
552.39	81
552.603	88
552.816	90
553.029	79
553.242	75
553.455	75
553.667	79
553.88	81
554.093	76
554.306	82
554.519	88
554.732	84
554.944	81
555.157	79
555.37	83
555.583	70
555.795	81
556.008	86
556.221	78
556.433	75
556.646	78
556.859	94
557.071	79
557.284	78
557.496	83
557.709	100
557.921	77
558.134	84
558.346	72
558.559	71
558.771	98
558.984	78
559.196	86
559.409	83
559.621	90
559.833	84
560.046	83
560.258	80
560.47	70
560.683	87
560.895	100
561.107	91
561.32	85
561.532	86
561.744	82
561.956	81
562.168	80
562.381	82
562.593	93
562.805	85
563.017	89
563.229	88
563.441	80
563.653	98
563.865	96
564.077	71
564.289	87
564.501	77
564.713	87
564.925	87
565.137	84
565.349	92
565.561	79
565.773	87
565.985	100
566.197	82
566.408	96
566.62	71
566.832	82
567.044	80
567.255	93
567.467	85
567.679	87
567.891	74
568.102	82
568.314	73
568.526	91
568.737	87
568.949	89
569.161	92
569.372	91
569.584	89
569.795	95
570.007	85
570.218	87
570.43	76
570.641	75
570.853	76
571.064	84
571.276	86
571.487	83
571.698	89
571.91	86
572.121	87
572.333	83
572.544	62
572.755	88
572.966	78
573.178	76
573.389	84
573.6	89
573.811	101
574.023	79
574.234	77
574.445	76
574.656	85
574.867	81
575.078	91
575.289	87
575.501	78
575.712	76
575.923	85
576.134	93
576.345	75
576.556	88
576.767	93
576.978	83
577.188	87
577.399	85
577.61	81
577.821	86
578.032	91
578.243	77
578.454	82
578.665	98
578.875	94
579.086	74
579.297	79
579.508	91
579.718	89
579.929	82
580.14	81
580.35	74
580.561	95
580.772	77
580.982	87
581.193	81
581.403	96
581.614	80
581.825	68
582.035	82
582.246	72
582.456	86
582.667	76
582.877	85
583.087	86
583.298	93
583.508	96
583.719	82
583.929	66
584.139	70
584.35	88
584.56	78
584.77	92
584.981	81
585.191	88
585.401	85
585.611	85
585.821	81
586.032	84
586.242	76
586.452	84
586.662	87
586.872	91
587.082	87
587.292	88
587.502	83
587.713	99
587.923	76
588.133	91
588.343	73
588.553	91
588.762	99
588.972	95
589.182	84
589.392	97
589.602	83
589.812	84
590.022	84
590.232	73
590.441	78
590.651	83
