Data from BGNA1_HRD10591_00019.txt Node
Date: Fri Dec 27 14:28:53 EST 2024
User: Yrep
Spectrometer: HR+D1059
Trigger mode: 1
Integration Time (sec): 1.000000E-1
Scans to average: 1
Electric dark correction enabled: true
Nonlinearity correction enabled: false
Boxcar width: 0
XAxis mode: Wavelengths
Number of Pixels in Spectrum: 2048
>>>>>Begin Spectral Data<<<<<
223.165	-12.44
223.4	-12.44
223.635	-12.44
223.869	-12.44
224.104	-26.44
224.338	-19.44
224.573	-10.44
224.808	-20.44
225.042	-4.44
225.277	-6.44
225.511	12.56
225.746	3.56
225.98	0.56
226.215	4.56
226.449	14.56
226.683	25.56
226.918	22.56
227.152	28.56
227.387	42.56
227.621	30.56
227.856	47.56
228.09	49.56
228.324	54.56
228.559	51.56
228.793	41.56
229.027	62.56
229.262	58.56
229.496	66.56
229.73	65.56
229.964	80.56
230.199	77.56
230.433	77.56
230.667	58.56
230.901	84.56
231.136	69.56
231.37	84.56
231.604	84.56
231.838	95.56
232.072	87.56
232.306	77.56
232.541	87.56
232.775	93.56
233.009	81.56
233.243	67.56
233.477	69.56
233.711	80.56
233.945	81.56
234.179	67.56
234.413	94.56
234.647	85.56
234.881	75.56
235.115	83.56
235.349	81.56
235.583	93.56
235.817	75.56
236.051	66.56
236.285	75.56
236.519	68.56
236.753	77.56
236.987	73.56
237.221	76.56
237.455	86.56
237.689	72.56
237.922	75.56
238.156	81.56
238.39	72.56
238.624	81.56
238.858	88.56
239.091	78.56
239.325	76.56
239.559	74.56
239.793	71.56
240.027	70.56
240.26	79.56
240.494	80.56
240.728	79.56
240.961	96.56
241.195	71.56
241.429	98.56
241.662	79.56
241.896	73.56
242.13	72.56
242.363	58.56
242.597	84.56
242.83	68.56
243.064	78.56
243.298	86.56
243.531	85.56
243.765	73.56
243.998	74.56
244.232	83.56
244.465	73.56
244.699	78.56
244.932	72.56
245.166	75.56
245.399	97.56
245.633	80.56
245.866	83.56
246.099	80.56
246.333	75.56
246.566	76.56
246.8	68.56
247.033	72.56
247.266	71.56
247.5	77.56
247.733	80.56
247.966	86.56
248.2	85.56
248.433	77.56
248.666	82.56
248.899	66.56
249.133	72.56
249.366	83.56
249.599	92.56
249.832	78.56
250.066	72.56
250.299	67.56
250.532	78.56
250.765	84.56
250.998	79.56
251.231	70.56
251.465	91.56
251.698	69.56
251.931	78.56
252.164	82.56
252.397	87.56
252.63	72.56
252.863	80.56
253.096	80.56
253.329	73.56
253.562	86.56
253.795	78.56
254.028	89.56
254.261	78.56
254.494	77.56
254.727	85.56
254.96	79.56
255.193	82.56
255.426	77.56
255.659	84.56
255.892	81.56
256.124	76.56
256.357	83.56
256.59	89.56
256.823	87.56
257.056	81.56
257.289	74.56
257.521	69.56
257.754	84.56
257.987	84.56
258.22	94.56
258.452	83.56
258.685	87.56
258.918	60.56
259.151	78.56
259.383	84.56
259.616	85.56
259.849	73.56
260.081	72.56
260.314	96.56
260.547	76.56
260.779	78.56
261.012	96.56
261.244	83.56
261.477	84.56
261.71	79.56
261.942	77.56
262.175	82.56
262.407	89.56
262.64	69.56
262.872	82.56
263.105	85.56
263.337	75.56
263.57	72.56
263.802	79.56
264.035	83.56
264.267	83.56
264.499	78.56
264.732	65.56
264.964	83.56
265.197	81.56
265.429	86.56
265.661	91.56
265.894	81.56
266.126	81.56
266.358	77.56
266.591	81.56
266.823	80.56
267.055	79.56
267.287	93.56
267.52	84.56
267.752	77.56
267.984	75.56
268.216	78.56
268.448	91.56
268.681	79.56
268.913	80.56
269.145	83.56
269.377	98.56
269.609	95.56
269.841	81.56
270.073	89.56
270.306	86.56
270.538	69.56
270.77	73.56
271.002	87.56
271.234	70.56
271.466	76.56
271.698	79.56
271.93	84.56
272.162	80.56
272.394	89.56
272.626	80.56
272.858	76.56
273.09	80.56
273.322	69.56
273.553	73.56
273.785	85.56
274.017	82.56
274.249	82.56
274.481	84.56
274.713	86.56
274.945	82.56
275.176	77.56
275.408	84.56
275.64	94.56
275.872	77.56
276.104	85.56
276.335	71.56
276.567	83.56
276.799	80.56
277.031	79.56
277.262	70.56
277.494	95.56
277.726	83.56
277.957	82.56
278.189	76.56
278.421	94.56
278.652	78.56
278.884	86.56
279.115	87.56
279.347	82.56
279.579	84.56
279.81	89.56
280.042	71.56
280.273	76.56
280.505	95.56
280.736	93.56
280.968	84.56
281.199	88.56
281.431	87.56
281.662	84.56
281.894	70.56
282.125	82.56
282.356	83.56
282.588	85.56
282.819	93.56
283.051	85.56
283.282	70.56
283.513	97.56
283.745	97.56
283.976	80.56
284.207	89.56
284.439	91.56
284.67	100.56
284.901	68.56
285.132	87.56
285.364	88.56
285.595	85.56
285.826	79.56
286.057	77.56
286.288	94.56
286.52	93.56
286.751	92.56
286.982	89.56
287.213	95.56
287.444	72.56
287.675	89.56
287.906	79.56
288.138	75.56
288.369	77.56
288.6	81.56
288.831	88.56
289.062	84.56
289.293	96.56
289.524	76.56
289.755	85.56
289.986	79.56
290.217	88.56
290.448	88.56
290.679	94.56
290.91	80.56
291.141	74.56
291.371	82.56
291.602	96.56
291.833	78.56
292.064	85.56
292.295	89.56
292.526	91.56
292.757	91.56
292.987	101.56
293.218	79.56
293.449	78.56
293.68	93.56
293.91	81.56
294.141	93.56
294.372	82.56
294.603	84.56
294.833	77.56
295.064	84.56
295.295	72.56
295.525	68.56
295.756	83.56
295.987	67.56
296.217	84.56
296.448	58.56
296.679	73.56
296.909	81.56
297.14	84.56
297.37	92.56
297.601	88.56
297.831	97.56
298.062	84.56
298.292	74.56
298.523	96.56
298.753	88.56
298.984	75.56
299.214	95.56
299.445	82.56
299.675	89.56
299.905	93.56
300.136	84.56
300.366	79.56
300.597	88.56
300.827	93.56
301.057	91.56
301.288	76.56
301.518	84.56
301.748	71.56
301.979	103.56
302.209	91.56
302.439	81.56
302.669	84.56
302.9	87.56
303.13	98.56
303.36	80.56
303.59	101.56
303.82	85.56
304.051	77.56
304.281	83.56
304.511	103.56
304.741	81.56
304.971	91.56
305.201	83.56
305.431	74.56
305.661	92.56
305.891	85.56
306.121	84.56
306.352	109.56
306.582	80.56
306.812	77.56
307.042	78.56
307.272	85.56
307.502	99.56
307.731	85.56
307.961	80.56
308.191	81.56
308.421	84.56
308.651	100.56
308.881	81.56
309.111	79.56
309.341	83.56
309.571	85.56
309.8	76.56
310.03	84.56
310.26	81.56
310.49	78.56
310.72	87.56
310.949	92.56
311.179	87.56
311.409	84.56
311.639	71.56
311.868	75.56
312.098	86.56
312.328	98.56
312.557	93.56
312.787	103.56
313.017	85.56
313.246	82.56
313.476	78.56
313.706	86.56
313.935	77.56
314.165	88.56
314.394	99.56
314.624	93.56
314.853	91.56
315.083	94.56
315.312	82.56
315.542	78.56
315.771	85.56
316.001	91.56
316.23	75.56
316.46	85.56
316.689	75.56
316.919	91.56
317.148	77.56
317.377	84.56
317.607	84.56
317.836	79.56
318.065	77.56
318.295	91.56
318.524	83.56
318.753	72.56
318.983	78.56
319.212	76.56
319.441	81.56
319.67	84.56
319.9	74.56
320.129	91.56
320.358	86.56
320.587	91.56
320.816	78.56
321.046	83.56
321.275	94.56
321.504	82.56
321.733	83.56
321.962	82.56
322.191	77.56
322.42	84.56
322.649	81.56
322.878	72.56
323.108	100.56
323.337	86.56
323.566	75.56
323.795	85.56
324.024	92.56
324.253	75.56
324.482	79.56
324.71	79.56
324.939	103.56
325.168	92.56
325.397	76.56
325.626	79.56
325.855	72.56
326.084	77.56
326.313	93.56
326.542	88.56
326.77	84.56
326.999	95.56
327.228	76.56
327.457	93.56
327.686	97.56
327.914	110.56
328.143	89.56
328.372	82.56
328.6	81.56
328.829	70.56
329.058	74.56
329.287	84.56
329.515	80.56
329.744	91.56
329.972	88.56
330.201	82.56
330.43	91.56
330.658	81.56
330.887	81.56
331.115	95.56
331.344	89.56
331.572	94.56
331.801	76.56
332.03	84.56
332.258	98.56
332.486	80.56
332.715	97.56
332.943	69.56
333.172	87.56
333.4	72.56
333.629	67.56
333.857	81.56
334.085	77.56
334.314	80.56
334.542	90.56
334.771	83.56
334.999	81.56
335.227	85.56
335.455	81.56
335.684	85.56
335.912	79.56
336.14	83.56
336.369	67.56
336.597	97.56
336.825	88.56
337.053	101.56
337.281	93.56
337.51	82.56
337.738	76.56
337.966	86.56
338.194	75.56
338.422	85.56
338.65	95.56
338.878	93.56
339.106	84.56
339.334	84.56
339.562	67.56
339.79	82.56
340.018	84.56
340.246	82.56
340.474	78.56
340.702	81.56
340.93	86.56
341.158	80.56
341.386	90.56
341.614	91.56
341.842	87.56
342.07	75.56
342.298	75.56
342.526	83.56
342.754	84.56
342.981	73.56
343.209	81.56
343.437	93.56
343.665	87.56
343.893	85.56
344.12	88.56
344.348	80.56
344.576	83.56
344.804	90.56
345.031	77.56
345.259	85.56
345.487	70.56
345.714	94.56
345.942	81.56
346.17	82.56
346.397	86.56
346.625	70.56
346.853	84.56
347.08	96.56
347.308	91.56
347.535	76.56
347.763	77.56
347.99	93.56
348.218	91.56
348.445	76.56
348.673	79.56
348.9	91.56
349.128	87.56
349.355	96.56
349.583	95.56
349.81	84.56
350.037	82.56
350.265	92.56
350.492	86.56
350.72	91.56
350.947	88.56
351.174	103.56
351.402	90.56
351.629	81.56
351.856	93.56
352.083	85.56
352.311	76.56
352.538	83.56
352.765	79.56
352.992	87.56
353.22	85.56
353.447	85.56
353.674	85.56
353.901	81.56
354.128	91.56
354.355	75.56
354.583	84.56
354.81	81.56
355.037	74.56
355.264	86.56
355.491	75.56
355.718	84.56
355.945	81.56
356.172	77.56
356.399	70.56
356.626	81.56
356.853	81.56
357.08	91.56
357.307	95.56
357.534	75.56
357.761	79.56
357.988	77.56
358.215	84.56
358.441	86.56
358.668	76.56
358.895	91.56
359.122	87.56
359.349	93.56
359.576	88.56
359.802	86.56
360.029	87.56
360.256	88.56
360.483	78.56
360.709	79.56
360.936	103.56
361.163	80.56
361.39	78.56
361.616	79.56
361.843	95.56
362.07	87.56
362.296	80.56
362.523	83.56
362.749	71.56
362.976	66.56
363.203	98.56
363.429	72.56
363.656	84.56
363.882	73.56
364.109	84.56
364.335	91.56
364.562	80.56
364.788	80.56
365.015	96.56
365.241	83.56
365.468	72.56
365.694	89.56
365.92	76.56
366.147	87.56
366.373	84.56
366.599	83.56
366.826	79.56
367.052	101.56
367.278	83.56
367.505	77.56
367.731	84.56
367.957	89.56
368.184	81.56
368.41	76.56
368.636	84.56
368.862	92.56
369.089	87.56
369.315	82.56
369.541	93.56
369.767	91.56
369.993	80.56
370.219	94.56
370.445	91.56
370.672	91.56
370.898	72.56
371.124	95.56
371.35	75.56
371.576	73.56
371.802	78.56
372.028	81.56
372.254	68.56
372.48	81.56
372.706	76.56
372.932	81.56
373.158	88.56
373.384	71.56
373.61	88.56
373.835	87.56
374.061	76.56
374.287	87.56
374.513	82.56
374.739	80.56
374.965	79.56
375.191	94.56
375.416	95.56
375.642	84.56
375.868	81.56
376.094	84.56
376.319	80.56
376.545	87.56
376.771	72.56
376.997	70.56
377.222	79.56
377.448	78.56
377.674	91.56
377.899	98.56
378.125	82.56
378.35	73.56
378.576	93.56
378.802	72.56
379.027	77.56
379.253	83.56
379.478	89.56
379.704	92.56
379.929	91.56
380.155	77.56
380.38	80.56
380.606	73.56
380.831	72.56
381.057	99.56
381.282	92.56
381.507	88.56
381.733	68.56
381.958	80.56
382.184	92.56
382.409	84.56
382.634	85.56
382.86	76.56
383.085	82.56
383.31	81.56
383.535	85.56
383.761	90.56
383.986	87.56
384.211	88.56
384.436	75.56
384.662	79.56
384.887	80.56
385.112	80.56
385.337	84.56
385.562	81.56
385.787	78.56
386.013	104.56
386.238	89.56
386.463	91.56
386.688	97.56
386.913	81.56
387.138	90.56
387.363	79.56
387.588	73.56
387.813	84.56
388.038	83.56
388.263	84.56
388.488	83.56
388.713	68.56
388.938	85.56
389.163	77.56
389.387	68.56
389.612	80.56
389.837	89.56
390.062	99.56
390.287	76.56
390.512	77.56
390.736	85.56
390.961	77.56
391.186	83.56
391.411	72.56
391.636	91.56
391.86	91.56
392.085	80.56
392.31	83.56
392.534	75.56
392.759	82.56
392.984	100.56
393.208	93.56
393.433	78.56
393.658	91.56
393.882	84.56
394.107	80.56
394.331	75.56
394.556	84.56
394.78	80.56
395.005	86.56
395.229	103.56
395.454	87.56
395.678	93.56
395.903	92.56
396.127	86.56
396.352	93.56
396.576	73.56
396.801	75.56
397.025	79.56
397.249	94.56
397.474	91.56
397.698	96.56
397.922	92.56
398.147	79.56
398.371	82.56
398.595	81.56
398.82	83.56
399.044	81.56
399.268	88.56
399.492	89.56
399.717	81.56
399.941	84.56
400.165	84.56
400.389	77.56
400.613	94.56
400.837	67.56
401.062	77.56
401.286	81.56
401.51	91.56
401.734	83.56
401.958	85.56
402.182	86.56
402.406	67.56
402.63	75.56
402.854	81.56
403.078	92.56
403.302	81.56
403.526	75.56
403.75	87.56
403.974	68.56
404.198	78.56
404.422	81.56
404.645	70.56
404.869	72.56
405.093	80.56
405.317	96.56
405.541	97.56
405.765	77.56
405.988	95.56
406.212	87.56
406.436	81.56
406.66	86.56
406.883	81.56
407.107	94.56
407.331	85.56
407.555	74.56
407.778	87.56
408.002	90.56
408.226	78.56
408.449	69.56
408.673	80.56
408.896	79.56
409.12	80.56
409.344	67.56
409.567	71.56
409.791	73.56
410.014	77.56
410.238	78.56
410.461	81.56
410.685	88.56
410.908	82.56
411.132	71.56
411.355	84.56
411.578	83.56
411.802	89.56
412.025	98.56
412.249	84.56
412.472	88.56
412.695	75.56
412.919	73.56
413.142	95.56
413.365	83.56
413.589	75.56
413.812	91.56
414.035	81.56
414.258	76.56
414.482	71.56
414.705	91.56
414.928	79.56
415.151	70.56
415.374	84.56
415.597	78.56
415.821	84.56
416.044	87.56
416.267	85.56
416.49	76.56
416.713	91.56
416.936	73.56
417.159	90.56
417.382	80.56
417.605	69.56
417.828	79.56
418.051	84.56
418.274	89.56
418.497	91.56
418.72	79.56
418.943	83.56
419.166	83.56
419.389	86.56
419.611	88.56
419.834	85.56
420.057	87.56
420.28	78.56
420.503	81.56
420.726	79.56
420.948	93.56
421.171	95.56
421.394	77.56
421.617	83.56
421.839	86.56
422.062	88.56
422.285	76.56
422.507	103.56
422.73	97.56
422.953	84.56
423.175	93.56
423.398	85.56
423.621	90.56
423.843	73.56
424.066	87.56
424.288	83.56
424.511	92.56
424.733	84.56
424.956	81.56
425.178	81.56
425.401	77.56
425.623	91.56
425.846	92.56
426.068	72.56
426.291	79.56
426.513	80.56
426.735	75.56
426.958	91.56
427.18	86.56
427.402	62.56
427.625	83.56
427.847	75.56
428.069	94.56
428.292	80.56
428.514	98.56
428.736	84.56
428.958	70.56
429.181	67.56
429.403	60.56
429.625	93.56
429.847	84.56
430.069	83.56
430.292	83.56
430.514	84.56
430.736	80.56
430.958	91.56
431.18	85.56
431.402	74.56
431.624	63.56
431.846	86.56
432.068	79.56
432.29	79.56
432.512	86.56
432.734	81.56
432.956	77.56
433.178	78.56
433.4	76.56
433.622	94.56
433.844	73.56
434.066	88.56
434.287	82.56
434.509	79.56
434.731	80.56
434.953	77.56
435.175	95.56
435.397	81.56
435.618	85.56
435.84	84.56
436.062	77.56
436.284	78.56
436.505	86.56
436.727	81.56
436.949	85.56
437.17	81.56
437.392	78.56
437.614	86.56
437.835	78.56
438.057	70.56
438.278	77.56
438.5	79.56
438.721	76.56
438.943	90.56
439.165	87.56
439.386	77.56
439.608	89.56
439.829	81.56
440.05	94.56
440.272	83.56
440.493	75.56
440.715	81.56
440.936	83.56
441.158	88.56
441.379	86.56
441.6	78.56
441.822	95.56
442.043	86.56
442.264	79.56
442.486	77.56
442.707	100.56
442.928	91.56
443.149	84.56
443.371	92.56
443.592	82.56
443.813	81.56
444.034	98.56
444.255	79.56
444.476	77.56
444.698	76.56
444.919	84.56
445.14	134.56
445.361	99.56
445.582	76.56
445.803	77.56
446.024	70.56
446.245	67.56
446.466	79.56
446.687	95.56
446.908	76.56
447.129	86.56
447.35	86.56
447.571	78.56
447.792	88.56
448.013	76.56
448.234	80.56
448.455	82.56
448.675	76.56
448.896	97.56
449.117	79.56
449.338	88.56
449.559	86.56
449.779	75.56
450	87.56
450.221	81.56
450.442	87.56
450.662	81.56
450.883	77.56
451.104	87.56
451.324	80.56
451.545	84.56
451.766	97.56
451.986	77.56
452.207	70.56
452.428	99.56
452.648	96.56
452.869	82.56
453.089	86.56
453.31	76.56
453.53	77.56
453.751	72.56
453.971	85.56
454.192	85.56
454.412	82.56
454.633	58.56
454.853	84.56
455.073	78.56
455.294	86.56
455.514	80.56
455.734	87.56
455.955	75.56
456.175	78.56
456.395	84.56
456.616	82.56
456.836	65.56
457.056	75.56
457.276	70.56
457.497	63.56
457.717	79.56
457.937	82.56
458.157	78.56
458.377	73.56
458.598	79.56
458.818	87.56
459.038	71.56
459.258	80.56
459.478	82.56
459.698	100.56
459.918	90.56
460.138	77.56
460.358	80.56
460.578	72.56
460.798	86.56
461.018	85.56
461.238	86.56
461.458	72.56
461.678	80.56
461.898	79.56
462.118	89.56
462.338	76.56
462.558	71.56
462.777	92.56
462.997	76.56
463.217	87.56
463.437	91.56
463.657	85.56
463.876	79.56
464.096	75.56
464.316	73.56
464.536	87.56
464.755	81.56
464.975	63.56
465.195	76.56
465.414	87.56
465.634	82.56
465.854	93.56
466.073	79.56
466.293	83.56
466.512	88.56
466.732	76.56
466.951	88.56
467.171	63.56
467.391	73.56
467.61	85.56
467.829	76.56
468.049	68.56
468.268	88.56
468.488	68.56
468.707	77.56
468.927	85.56
469.146	87.56
469.365	81.56
469.585	85.56
469.804	92.56
470.023	96.56
470.243	86.56
470.462	84.56
470.681	86.56
470.901	85.56
471.12	71.56
471.339	70.56
471.558	83.56
471.777	84.56
471.997	85.56
472.216	69.56
472.435	88.56
472.654	81.56
472.873	80.56
473.092	78.56
473.311	91.56
473.53	86.56
473.749	80.56
473.968	89.56
474.187	79.56
474.406	85.56
474.625	82.56
474.844	81.56
475.063	69.56
475.282	84.56
475.501	73.56
475.72	84.56
475.939	86.56
476.158	75.56
476.377	72.56
476.596	87.56
476.814	83.56
477.033	77.56
477.252	86.56
477.471	87.56
477.69	91.56
477.908	78.56
478.127	77.56
478.346	75.56
478.564	94.56
478.783	83.56
479.002	82.56
479.22	72.56
479.439	82.56
479.658	75.56
479.876	79.56
480.095	85.56
480.313	80.56
480.532	77.56
480.751	78.56
480.969	84.56
481.188	99.56
481.406	88.56
481.624	95.56
481.843	83.56
482.061	83.56
482.28	85.56
482.498	66.56
482.717	70.56
482.935	64.56
483.153	72.56
483.372	82.56
483.59	83.56
483.808	87.56
484.027	88.56
484.245	79.56
484.463	80.56
484.681	86.56
484.9	83.56
485.118	86.56
485.336	72.56
485.554	79.56
485.772	79.56
485.99	77.56
486.209	96.56
486.427	77.56
486.645	72.56
486.863	88.56
487.081	83.56
487.299	101.56
487.517	102.56
487.735	78.56
487.953	84.56
488.171	86.56
488.389	81.56
488.607	79.56
488.825	93.56
489.043	79.56
489.261	86.56
489.479	69.56
489.696	110.56
489.914	85.56
490.132	77.56
490.35	83.56
490.568	63.56
490.786	80.56
491.003	96.56
491.221	73.56
491.439	90.56
491.657	93.56
491.874	82.56
492.092	78.56
492.31	73.56
492.527	84.56
492.745	87.56
492.963	68.56
493.18	84.56
493.398	87.56
493.615	84.56
493.833	81.56
494.05	87.56
494.268	77.56
494.485	80.56
494.703	80.56
494.92	79.56
495.138	85.56
495.355	80.56
495.573	75.56
495.79	85.56
496.008	94.56
496.225	77.56
496.442	74.56
496.66	85.56
496.877	84.56
497.094	90.56
497.312	84.56
497.529	83.56
497.746	87.56
497.963	85.56
498.181	72.56
498.398	84.56
498.615	94.56
498.832	85.56
499.049	86.56
499.267	84.56
499.484	80.56
499.701	88.56
499.918	85.56
500.135	78.56
500.352	82.56
500.569	84.56
500.786	80.56
501.003	81.56
501.22	92.56
501.437	75.56
501.654	88.56
501.871	78.56
502.088	89.56
502.305	88.56
502.522	73.56
502.739	82.56
502.956	61.56
503.172	81.56
503.389	84.56
503.606	88.56
503.823	97.56
504.04	86.56
504.256	81.56
504.473	83.56
504.69	73.56
504.907	84.56
505.123	81.56
505.34	89.56
505.557	87.56
505.773	73.56
505.99	72.56
506.207	64.56
506.423	82.56
506.64	88.56
506.856	92.56
507.073	91.56
507.289	89.56
507.506	91.56
507.722	97.56
507.939	84.56
508.155	82.56
508.372	73.56
508.588	81.56
508.805	76.56
509.021	79.56
509.238	80.56
509.454	76.56
509.67	70.56
509.887	76.56
510.103	81.56
510.319	68.56
510.536	91.56
510.752	87.56
510.968	79.56
511.184	86.56
511.401	93.56
511.617	85.56
511.833	88.56
512.049	80.56
512.265	86.56
512.481	68.56
512.698	71.56
512.914	71.56
513.13	83.56
513.346	72.56
513.562	91.56
513.778	89.56
513.994	95.56
514.21	88.56
514.426	70.56
514.642	88.56
514.858	97.56
515.074	91.56
515.29	84.56
515.506	69.56
515.721	91.56
515.937	92.56
516.153	86.56
516.369	84.56
516.585	73.56
516.801	80.56
517.016	91.56
517.232	89.56
517.448	75.56
517.664	88.56
517.879	80.56
518.095	75.56
518.311	94.56
518.527	85.56
518.742	82.56
518.958	84.56
519.173	86.56
519.389	87.56
519.605	82.56
519.82	82.56
520.036	89.56
