Data from BGNA1_HRD10591_00008.txt Node
Date: Fri Dec 27 14:28:42 EST 2024
User: Yrep
Spectrometer: HR+D1059
Trigger mode: 1
Integration Time (sec): 1.000000E-1
Scans to average: 1
Electric dark correction enabled: true
Nonlinearity correction enabled: false
Boxcar width: 0
XAxis mode: Wavelengths
Number of Pixels in Spectrum: 2048
>>>>>Begin Spectral Data<<<<<
223.165	-12.81
223.4	-12.81
223.635	-12.81
223.869	-31.81
224.104	-22.81
224.338	-11.81
224.573	-16.81
224.808	-23.81
225.042	-4.81
225.277	-9.81
225.511	9.19
225.746	-6.81
225.98	10.19
226.215	13.19
226.449	15.19
226.683	23.19
226.918	42.19
227.152	28.19
227.387	33.19
227.621	44.19
227.856	35.19
228.09	29.19
228.324	54.19
228.559	53.19
228.793	67.19
229.027	68.19
229.262	49.19
229.496	78.19
229.73	73.19
229.964	81.19
230.199	74.19
230.433	69.19
230.667	69.19
230.901	73.19
231.136	73.19
231.37	84.19
231.604	77.19
231.838	66.19
232.072	93.19
232.306	77.19
232.541	77.19
232.775	80.19
233.009	65.19
233.243	75.19
233.477	81.19
233.711	77.19
233.945	66.19
234.179	91.19
234.413	85.19
234.647	78.19
234.881	69.19
235.115	74.19
235.349	91.19
235.583	72.19
235.817	77.19
236.051	72.19
236.285	61.19
236.519	77.19
236.753	80.19
236.987	84.19
237.221	70.19
237.455	73.19
237.689	79.19
237.922	75.19
238.156	76.19
238.39	64.19
238.624	75.19
238.858	75.19
239.091	72.19
239.325	89.19
239.559	78.19
239.793	74.19
240.027	75.19
240.26	83.19
240.494	64.19
240.728	79.19
240.961	73.19
241.195	82.19
241.429	79.19
241.662	73.19
241.896	68.19
242.13	65.19
242.363	82.19
242.597	72.19
242.83	80.19
243.064	79.19
243.298	78.19
243.531	78.19
243.765	78.19
243.998	77.19
244.232	95.19
244.465	77.19
244.699	82.19
244.932	75.19
245.166	81.19
245.399	90.19
245.633	82.19
245.866	78.19
246.099	82.19
246.333	80.19
246.566	75.19
246.8	86.19
247.033	63.19
247.266	78.19
247.5	75.19
247.733	75.19
247.966	84.19
248.2	77.19
248.433	75.19
248.666	73.19
248.899	87.19
249.133	70.19
249.366	101.19
249.599	86.19
249.832	81.19
250.066	67.19
250.299	78.19
250.532	81.19
250.765	82.19
250.998	78.19
251.231	78.19
251.465	75.19
251.698	62.19
251.931	90.19
252.164	80.19
252.397	67.19
252.63	65.19
252.863	67.19
253.096	77.19
253.329	80.19
253.562	74.19
253.795	80.19
254.028	85.19
254.261	74.19
254.494	81.19
254.727	68.19
254.96	94.19
255.193	59.19
255.426	93.19
255.659	77.19
255.892	84.19
256.124	81.19
256.357	86.19
256.59	82.19
256.823	68.19
257.056	83.19
257.289	71.19
257.521	85.19
257.754	70.19
257.987	76.19
258.22	77.19
258.452	79.19
258.685	79.19
258.918	63.19
259.151	65.19
259.383	74.19
259.616	74.19
259.849	79.19
260.081	83.19
260.314	81.19
260.547	80.19
260.779	77.19
261.012	80.19
261.244	68.19
261.477	92.19
261.71	83.19
261.942	83.19
262.175	78.19
262.407	70.19
262.64	74.19
262.872	70.19
263.105	67.19
263.337	80.19
263.57	86.19
263.802	94.19
264.035	74.19
264.267	77.19
264.499	67.19
264.732	74.19
264.964	79.19
265.197	73.19
265.429	85.19
265.661	86.19
265.894	76.19
266.126	75.19
266.358	67.19
266.591	82.19
266.823	81.19
267.055	82.19
267.287	77.19
267.52	74.19
267.752	81.19
267.984	86.19
268.216	91.19
268.448	91.19
268.681	96.19
268.913	76.19
269.145	81.19
269.377	76.19
269.609	86.19
269.841	81.19
270.073	86.19
270.306	89.19
270.538	85.19
270.77	67.19
271.002	76.19
271.234	94.19
271.466	96.19
271.698	76.19
271.93	95.19
272.162	83.19
272.394	97.19
272.626	95.19
272.858	72.19
273.09	69.19
273.322	83.19
273.553	81.19
273.785	71.19
274.017	97.19
274.249	81.19
274.481	61.19
274.713	77.19
274.945	81.19
275.176	76.19
275.408	84.19
275.64	75.19
275.872	59.19
276.104	85.19
276.335	75.19
276.567	78.19
276.799	76.19
277.031	78.19
277.262	85.19
277.494	84.19
277.726	88.19
277.957	91.19
278.189	85.19
278.421	74.19
278.652	70.19
278.884	66.19
279.115	70.19
279.347	76.19
279.579	70.19
279.81	75.19
280.042	73.19
280.273	82.19
280.505	92.19
280.736	84.19
280.968	91.19
281.199	84.19
281.431	78.19
281.662	81.19
281.894	94.19
282.125	87.19
282.356	54.19
282.588	77.19
282.819	85.19
283.051	71.19
283.282	83.19
283.513	89.19
283.745	74.19
283.976	80.19
284.207	87.19
284.439	91.19
284.67	89.19
284.901	84.19
285.132	84.19
285.364	94.19
285.595	86.19
285.826	91.19
286.057	71.19
286.288	67.19
286.52	78.19
286.751	81.19
286.982	81.19
287.213	75.19
287.444	82.19
287.675	101.19
287.906	99.19
288.138	79.19
288.369	75.19
288.6	70.19
288.831	68.19
289.062	73.19
289.293	89.19
289.524	85.19
289.755	93.19
289.986	80.19
290.217	83.19
290.448	88.19
290.679	71.19
290.91	77.19
291.141	72.19
291.371	83.19
291.602	94.19
291.833	79.19
292.064	78.19
292.295	87.19
292.526	81.19
292.757	74.19
292.987	76.19
293.218	65.19
293.449	79.19
293.68	69.19
293.91	95.19
294.141	95.19
294.372	80.19
294.603	84.19
294.833	81.19
295.064	73.19
295.295	81.19
295.525	78.19
295.756	85.19
295.987	75.19
296.217	69.19
296.448	65.19
296.679	87.19
296.909	92.19
297.14	86.19
297.37	86.19
297.601	92.19
297.831	86.19
298.062	75.19
298.292	91.19
298.523	89.19
298.753	92.19
298.984	92.19
299.214	85.19
299.445	82.19
299.675	85.19
299.905	61.19
300.136	84.19
300.366	94.19
300.597	77.19
300.827	76.19
301.057	83.19
301.288	82.19
301.518	85.19
301.748	78.19
301.979	97.19
302.209	95.19
302.439	78.19
302.669	86.19
302.9	86.19
303.13	79.19
303.36	92.19
303.59	86.19
303.82	72.19
304.051	73.19
304.281	82.19
304.511	83.19
304.741	74.19
304.971	86.19
305.201	80.19
305.431	81.19
305.661	74.19
305.891	75.19
306.121	84.19
306.352	75.19
306.582	84.19
306.812	84.19
307.042	77.19
307.272	85.19
307.502	90.19
307.731	85.19
307.961	65.19
308.191	79.19
308.421	72.19
308.651	80.19
308.881	84.19
309.111	80.19
309.341	77.19
309.571	78.19
309.8	99.19
310.03	75.19
310.26	91.19
310.49	75.19
310.72	69.19
310.949	81.19
311.179	75.19
311.409	73.19
311.639	78.19
311.868	88.19
312.098	83.19
312.328	100.19
312.557	73.19
312.787	75.19
313.017	72.19
313.246	68.19
313.476	75.19
313.706	84.19
313.935	89.19
314.165	82.19
314.394	81.19
314.624	75.19
314.853	78.19
315.083	79.19
315.312	83.19
315.542	78.19
315.771	78.19
316.001	92.19
316.23	82.19
316.46	93.19
316.689	93.19
316.919	86.19
317.148	98.19
317.377	77.19
317.607	78.19
317.836	88.19
318.065	87.19
318.295	83.19
318.524	86.19
318.753	88.19
318.983	90.19
319.212	91.19
319.441	82.19
319.67	97.19
319.9	84.19
320.129	80.19
320.358	93.19
320.587	80.19
320.816	86.19
321.046	89.19
321.275	89.19
321.504	77.19
321.733	73.19
321.962	74.19
322.191	87.19
322.42	98.19
322.649	91.19
322.878	85.19
323.108	81.19
323.337	80.19
323.566	72.19
323.795	91.19
324.024	75.19
324.253	80.19
324.482	78.19
324.71	91.19
324.939	84.19
325.168	80.19
325.397	77.19
325.626	75.19
325.855	76.19
326.084	82.19
326.313	72.19
326.542	74.19
326.77	78.19
326.999	81.19
327.228	86.19
327.457	85.19
327.686	90.19
327.914	84.19
328.143	77.19
328.372	83.19
328.6	84.19
328.829	71.19
329.058	80.19
329.287	89.19
329.515	90.19
329.744	81.19
329.972	74.19
330.201	87.19
330.43	72.19
330.658	74.19
330.887	77.19
331.115	84.19
331.344	80.19
331.572	100.19
331.801	74.19
332.03	86.19
332.258	80.19
332.486	76.19
332.715	73.19
332.943	83.19
333.172	79.19
333.4	76.19
333.629	68.19
333.857	86.19
334.085	90.19
334.314	82.19
334.542	74.19
334.771	75.19
334.999	84.19
335.227	78.19
335.455	83.19
335.684	91.19
335.912	79.19
336.14	76.19
336.369	85.19
336.597	89.19
336.825	80.19
337.053	78.19
337.281	81.19
337.51	71.19
337.738	80.19
337.966	66.19
338.194	77.19
338.422	97.19
338.65	77.19
338.878	83.19
339.106	79.19
339.334	92.19
339.562	97.19
339.79	93.19
340.018	84.19
340.246	77.19
340.474	93.19
340.702	89.19
340.93	87.19
341.158	77.19
341.386	81.19
341.614	92.19
341.842	79.19
342.07	82.19
342.298	90.19
342.526	81.19
342.754	70.19
342.981	83.19
343.209	83.19
343.437	86.19
343.665	77.19
343.893	92.19
344.12	65.19
344.348	78.19
344.576	84.19
344.804	80.19
345.031	77.19
345.259	72.19
345.487	93.19
345.714	71.19
345.942	68.19
346.17	95.19
346.397	93.19
346.625	69.19
346.853	80.19
347.08	80.19
347.308	95.19
347.535	83.19
347.763	77.19
347.99	67.19
348.218	84.19
348.445	79.19
348.673	84.19
348.9	67.19
349.128	91.19
349.355	85.19
349.583	78.19
349.81	75.19
350.037	69.19
350.265	80.19
350.492	86.19
350.72	80.19
350.947	69.19
351.174	76.19
351.402	81.19
351.629	67.19
351.856	94.19
352.083	71.19
352.311	73.19
352.538	77.19
352.765	83.19
352.992	92.19
353.22	89.19
353.447	74.19
353.674	86.19
353.901	76.19
354.128	76.19
354.355	65.19
354.583	83.19
354.81	89.19
355.037	84.19
355.264	55.19
355.491	84.19
355.718	74.19
355.945	83.19
356.172	75.19
356.399	98.19
356.626	87.19
356.853	77.19
357.08	75.19
357.307	85.19
357.534	83.19
357.761	88.19
357.988	81.19
358.215	77.19
358.441	74.19
358.668	86.19
358.895	79.19
359.122	81.19
359.349	87.19
359.576	86.19
359.802	86.19
360.029	89.19
360.256	77.19
360.483	87.19
360.709	85.19
360.936	86.19
361.163	84.19
361.39	89.19
361.616	69.19
361.843	74.19
362.07	78.19
362.296	86.19
362.523	84.19
362.749	77.19
362.976	86.19
363.203	75.19
363.429	75.19
363.656	90.19
363.882	82.19
364.109	77.19
364.335	71.19
364.562	77.19
364.788	65.19
365.015	75.19
365.241	81.19
365.468	72.19
365.694	91.19
365.92	81.19
366.147	77.19
366.373	72.19
366.599	79.19
366.826	63.19
367.052	73.19
367.278	79.19
367.505	82.19
367.731	88.19
367.957	77.19
368.184	79.19
368.41	82.19
368.636	72.19
368.862	75.19
369.089	82.19
369.315	68.19
369.541	73.19
369.767	89.19
369.993	97.19
370.219	77.19
370.445	75.19
370.672	71.19
370.898	91.19
371.124	83.19
371.35	70.19
371.576	95.19
371.802	78.19
372.028	73.19
372.254	64.19
372.48	71.19
372.706	83.19
372.932	92.19
373.158	80.19
373.384	66.19
373.61	72.19
373.835	72.19
374.061	83.19
374.287	83.19
374.513	89.19
374.739	81.19
374.965	84.19
375.191	79.19
375.416	79.19
375.642	91.19
375.868	82.19
376.094	86.19
376.319	82.19
376.545	74.19
376.771	78.19
376.997	86.19
377.222	79.19
377.448	84.19
377.674	74.19
377.899	79.19
378.125	86.19
378.35	78.19
378.576	73.19
378.802	76.19
379.027	91.19
379.253	87.19
379.478	92.19
379.704	83.19
379.929	74.19
380.155	71.19
380.38	70.19
380.606	78.19
380.831	74.19
381.057	89.19
381.282	77.19
381.507	89.19
381.733	71.19
381.958	95.19
382.184	82.19
382.409	84.19
382.634	79.19
382.86	79.19
383.085	81.19
383.31	82.19
383.535	97.19
383.761	80.19
383.986	63.19
384.211	74.19
384.436	79.19
384.662	82.19
384.887	67.19
385.112	84.19
385.337	79.19
385.562	69.19
385.787	81.19
386.013	75.19
386.238	87.19
386.463	76.19
386.688	98.19
386.913	73.19
387.138	93.19
387.363	91.19
387.588	86.19
387.813	83.19
388.038	90.19
388.263	85.19
388.488	78.19
388.713	76.19
388.938	78.19
389.163	80.19
389.387	75.19
389.612	82.19
389.837	75.19
390.062	85.19
390.287	78.19
390.512	77.19
390.736	82.19
390.961	85.19
391.186	71.19
391.411	92.19
391.636	81.19
391.86	91.19
392.085	76.19
392.31	76.19
392.534	81.19
392.759	97.19
392.984	81.19
393.208	77.19
393.433	82.19
393.658	73.19
393.882	69.19
394.107	79.19
394.331	69.19
394.556	75.19
394.78	80.19
395.005	82.19
395.229	79.19
395.454	81.19
395.678	67.19
395.903	92.19
396.127	78.19
396.352	73.19
396.576	73.19
396.801	91.19
397.025	86.19
397.249	79.19
397.474	93.19
397.698	83.19
397.922	77.19
398.147	74.19
398.371	74.19
398.595	84.19
398.82	83.19
399.044	90.19
399.268	74.19
399.492	75.19
399.717	83.19
399.941	81.19
400.165	80.19
400.389	84.19
400.613	84.19
400.837	83.19
401.062	72.19
401.286	70.19
401.51	77.19
401.734	75.19
401.958	78.19
402.182	85.19
402.406	75.19
402.63	79.19
402.854	85.19
403.078	80.19
403.302	78.19
403.526	81.19
403.75	89.19
403.974	80.19
404.198	76.19
404.422	77.19
404.645	71.19
404.869	69.19
405.093	57.19
405.317	53.19
405.541	82.19
405.765	70.19
405.988	79.19
406.212	77.19
406.436	69.19
406.66	74.19
406.883	95.19
407.107	85.19
407.331	87.19
407.555	71.19
407.778	90.19
408.002	73.19
408.226	77.19
408.449	89.19
408.673	97.19
408.896	85.19
409.12	79.19
409.344	71.19
409.567	81.19
409.791	81.19
410.014	75.19
410.238	76.19
410.461	81.19
410.685	79.19
410.908	101.19
411.132	87.19
411.355	80.19
411.578	66.19
411.802	78.19
412.025	77.19
412.249	81.19
412.472	83.19
412.695	90.19
412.919	95.19
413.142	80.19
413.365	63.19
413.589	71.19
413.812	77.19
414.035	71.19
414.258	81.19
414.482	81.19
414.705	90.19
414.928	85.19
415.151	86.19
415.374	71.19
415.597	71.19
415.821	69.19
416.044	84.19
416.267	92.19
416.49	76.19
416.713	78.19
416.936	73.19
417.159	93.19
417.382	81.19
417.605	81.19
417.828	81.19
418.051	81.19
418.274	81.19
418.497	73.19
418.72	73.19
418.943	84.19
419.166	79.19
419.389	81.19
419.611	81.19
419.834	73.19
420.057	79.19
420.28	79.19
420.503	77.19
420.726	81.19
420.948	82.19
421.171	79.19
421.394	80.19
421.617	89.19
421.839	81.19
422.062	70.19
422.285	79.19
422.507	86.19
422.73	82.19
422.953	86.19
423.175	77.19
423.398	78.19
423.621	93.19
423.843	77.19
424.066	68.19
424.288	88.19
424.511	85.19
424.733	82.19
424.956	75.19
425.178	73.19
425.401	86.19
425.623	74.19
425.846	84.19
426.068	78.19
426.291	76.19
426.513	69.19
426.735	71.19
426.958	87.19
427.18	74.19
427.402	81.19
427.625	78.19
427.847	91.19
428.069	83.19
428.292	77.19
428.514	85.19
428.736	75.19
428.958	83.19
429.181	79.19
429.403	87.19
429.625	82.19
429.847	82.19
430.069	80.19
430.292	81.19
430.514	82.19
430.736	86.19
430.958	91.19
431.18	74.19
431.402	84.19
431.624	87.19
431.846	68.19
432.068	70.19
432.29	78.19
432.512	76.19
432.734	79.19
432.956	70.19
433.178	73.19
433.4	75.19
433.622	73.19
433.844	80.19
434.066	89.19
434.287	77.19
434.509	84.19
434.731	92.19
434.953	72.19
435.175	72.19
435.397	88.19
435.618	73.19
435.84	89.19
436.062	81.19
436.284	84.19
436.505	75.19
436.727	74.19
436.949	97.19
437.17	62.19
437.392	88.19
437.614	81.19
437.835	63.19
438.057	66.19
438.278	75.19
438.5	79.19
438.721	78.19
438.943	73.19
439.165	76.19
439.386	83.19
439.608	72.19
439.829	76.19
440.05	93.19
440.272	78.19
440.493	79.19
440.715	79.19
440.936	87.19
441.158	92.19
441.379	81.19
441.6	77.19
441.822	84.19
442.043	76.19
442.264	84.19
442.486	75.19
442.707	70.19
442.928	80.19
443.149	83.19
443.371	66.19
443.592	95.19
443.813	95.19
444.034	77.19
444.255	88.19
444.476	92.19
444.698	91.19
444.919	83.19
445.14	146.19
445.361	100.19
445.582	77.19
445.803	78.19
446.024	75.19
446.245	82.19
446.466	80.19
446.687	71.19
446.908	89.19
447.129	99.19
447.35	70.19
447.571	97.19
447.792	78.19
448.013	65.19
448.234	81.19
448.455	76.19
448.675	75.19
448.896	82.19
449.117	79.19
449.338	65.19
449.559	93.19
449.779	73.19
450	83.19
450.221	73.19
450.442	79.19
450.662	78.19
450.883	77.19
451.104	73.19
451.324	92.19
451.545	87.19
451.766	69.19
451.986	76.19
452.207	68.19
452.428	77.19
452.648	98.19
452.869	66.19
453.089	81.19
453.31	73.19
453.53	78.19
453.751	78.19
453.971	74.19
454.192	76.19
454.412	72.19
454.633	75.19
454.853	92.19
455.073	88.19
455.294	85.19
455.514	80.19
455.734	77.19
455.955	75.19
456.175	75.19
456.395	77.19
456.616	96.19
456.836	81.19
457.056	65.19
457.276	73.19
457.497	72.19
457.717	88.19
457.937	80.19
458.157	75.19
458.377	83.19
458.598	78.19
458.818	77.19
459.038	86.19
459.258	72.19
459.478	79.19
459.698	67.19
459.918	87.19
460.138	93.19
460.358	76.19
460.578	82.19
460.798	87.19
461.018	86.19
461.238	84.19
461.458	68.19
461.678	90.19
461.898	73.19
462.118	72.19
462.338	83.19
462.558	90.19
462.777	91.19
462.997	84.19
463.217	73.19
463.437	83.19
463.657	85.19
463.876	81.19
464.096	76.19
464.316	78.19
464.536	79.19
464.755	67.19
464.975	78.19
465.195	80.19
465.414	83.19
465.634	82.19
465.854	78.19
466.073	80.19
466.293	89.19
466.512	74.19
466.732	68.19
466.951	85.19
467.171	87.19
467.391	77.19
467.61	83.19
467.829	75.19
468.049	73.19
468.268	61.19
468.488	59.19
468.707	76.19
468.927	85.19
469.146	79.19
469.365	83.19
469.585	80.19
469.804	96.19
470.023	67.19
470.243	93.19
470.462	73.19
470.681	73.19
470.901	77.19
471.12	80.19
471.339	87.19
471.558	88.19
471.777	89.19
471.997	86.19
472.216	89.19
472.435	81.19
472.654	86.19
472.873	86.19
473.092	76.19
473.311	94.19
473.53	80.19
473.749	89.19
473.968	74.19
474.187	82.19
474.406	94.19
474.625	86.19
474.844	77.19
475.063	91.19
475.282	76.19
475.501	82.19
475.72	79.19
475.939	89.19
476.158	88.19
476.377	81.19
476.596	87.19
476.814	80.19
477.033	95.19
477.252	82.19
477.471	67.19
477.69	64.19
477.908	86.19
478.127	92.19
478.346	82.19
478.564	73.19
478.783	81.19
479.002	67.19
479.22	73.19
479.439	75.19
479.658	70.19
479.876	77.19
480.095	75.19
480.313	73.19
480.532	86.19
480.751	84.19
480.969	70.19
481.188	89.19
481.406	81.19
481.624	81.19
481.843	87.19
482.061	80.19
482.28	68.19
482.498	84.19
482.717	76.19
482.935	86.19
483.153	75.19
483.372	73.19
483.59	97.19
483.808	77.19
484.027	79.19
484.245	98.19
484.463	66.19
484.681	80.19
484.9	89.19
485.118	91.19
485.336	81.19
485.554	79.19
485.772	76.19
485.99	96.19
486.209	70.19
486.427	68.19
486.645	69.19
486.863	93.19
487.081	75.19
487.299	84.19
487.517	81.19
487.735	80.19
487.953	75.19
488.171	95.19
488.389	89.19
488.607	78.19
488.825	80.19
489.043	78.19
489.261	79.19
489.479	90.19
489.696	83.19
489.914	76.19
490.132	73.19
490.35	85.19
490.568	65.19
490.786	82.19
491.003	97.19
491.221	97.19
491.439	72.19
491.657	84.19
491.874	78.19
492.092	96.19
492.31	79.19
492.527	79.19
492.745	74.19
492.963	75.19
493.18	70.19
493.398	86.19
493.615	74.19
493.833	69.19
494.05	73.19
494.268	100.19
494.485	84.19
494.703	67.19
494.92	75.19
495.138	93.19
495.355	71.19
495.573	75.19
495.79	86.19
496.008	73.19
496.225	82.19
496.442	84.19
496.66	79.19
496.877	70.19
497.094	80.19
497.312	83.19
497.529	62.19
497.746	84.19
497.963	60.19
498.181	83.19
498.398	71.19
498.615	99.19
498.832	77.19
499.049	95.19
499.267	87.19
499.484	84.19
499.701	84.19
499.918	83.19
500.135	96.19
500.352	82.19
500.569	72.19
500.786	78.19
501.003	83.19
501.22	77.19
501.437	80.19
501.654	81.19
501.871	90.19
502.088	77.19
502.305	73.19
502.522	73.19
502.739	83.19
502.956	79.19
503.172	70.19
503.389	79.19
503.606	69.19
503.823	78.19
504.04	72.19
504.256	96.19
504.473	83.19
504.69	82.19
504.907	93.19
505.123	87.19
505.34	86.19
505.557	68.19
505.773	82.19
505.99	84.19
506.207	86.19
506.423	83.19
506.64	87.19
506.856	70.19
507.073	75.19
507.289	91.19
507.506	79.19
507.722	77.19
507.939	85.19
508.155	94.19
508.372	85.19
508.588	92.19
508.805	94.19
509.021	93.19
509.238	90.19
509.454	82.19
509.67	84.19
509.887	84.19
510.103	72.19
510.319	90.19
510.536	90.19
510.752	83.19
510.968	78.19
511.184	81.19
511.401	84.19
511.617	75.19
511.833	65.19
512.049	77.19
512.265	91.19
512.481	86.19
512.698	69.19
512.914	86.19
513.13	65.19
513.346	67.19
513.562	79.19
513.778	87.19
513.994	84.19
514.21	74.19
514.426	89.19
514.642	83.19
514.858	77.19
515.074	82.19
515.29	73.19
515.506	82.19
515.721	72.19
515.937	80.19
516.153	82.19
516.369	85.19
516.585	86.19
516.801	94.19
517.016	89.19
517.232	84.19
517.448	93.19
517.664	82.19
517.879	89.19
518.095	85.19
518.311	73.19
518.527	82.19
518.742	78.19
518.958	82.19
519.173	71.19
519.389	81.19
519.605	68.19
519.82	68.19
520.036	65.19
520.251	71.19
