Data from BGNA1_HRD10591_00017.txt Node
Date: Fri Dec 27 14:28:51 EST 2024
User: Yrep
Spectrometer: HR+D1059
Trigger mode: 1
Integration Time (sec): 1.000000E-1
Scans to average: 1
Electric dark correction enabled: true
Nonlinearity correction enabled: false
Boxcar width: 0
XAxis mode: Wavelengths
Number of Pixels in Spectrum: 2048
>>>>>Begin Spectral Data<<<<<
223.165	-16.69
223.4	-16.69
223.635	-16.69
223.869	-20.69
224.104	-13.69
224.338	-16.69
224.573	-17.69
224.808	-20.69
225.042	-9.69
225.277	-0.69
225.511	5.31
225.746	15.31
225.98	11.31
226.215	-5.69
226.449	15.31
226.683	11.31
226.918	35.31
227.152	28.31
227.387	32.31
227.621	43.31
227.856	57.31
228.09	49.31
228.324	56.31
228.559	59.31
228.793	44.31
229.027	49.31
229.262	70.31
229.496	72.31
229.73	84.31
229.964	79.31
230.199	72.31
230.433	73.31
230.667	69.31
230.901	71.31
231.136	78.31
231.37	89.31
231.604	79.31
231.838	83.31
232.072	99.31
232.306	84.31
232.541	77.31
232.775	79.31
233.009	77.31
233.243	80.31
233.477	80.31
233.711	94.31
233.945	88.31
234.179	76.31
234.413	81.31
234.647	82.31
234.881	73.31
235.115	71.31
235.349	80.31
235.583	80.31
235.817	67.31
236.051	73.31
236.285	77.31
236.519	76.31
236.753	78.31
236.987	81.31
237.221	71.31
237.455	72.31
237.689	67.31
237.922	83.31
238.156	81.31
238.39	80.31
238.624	87.31
238.858	91.31
239.091	77.31
239.325	71.31
239.559	60.31
239.793	69.31
240.027	61.31
240.26	75.31
240.494	86.31
240.728	81.31
240.961	66.31
241.195	87.31
241.429	86.31
241.662	76.31
241.896	65.31
242.13	82.31
242.363	81.31
242.597	71.31
242.83	71.31
243.064	87.31
243.298	76.31
243.531	83.31
243.765	66.31
243.998	80.31
244.232	84.31
244.465	87.31
244.699	65.31
244.932	71.31
245.166	76.31
245.399	67.31
245.633	88.31
245.866	61.31
246.099	68.31
246.333	84.31
246.566	74.31
246.8	76.31
247.033	93.31
247.266	85.31
247.5	71.31
247.733	85.31
247.966	77.31
248.2	59.31
248.433	77.31
248.666	89.31
248.899	71.31
249.133	84.31
249.366	96.31
249.599	68.31
249.832	66.31
250.066	87.31
250.299	80.31
250.532	70.31
250.765	69.31
250.998	78.31
251.231	92.31
251.465	82.31
251.698	88.31
251.931	78.31
252.164	67.31
252.397	83.31
252.63	76.31
252.863	69.31
253.096	82.31
253.329	78.31
253.562	69.31
253.795	80.31
254.028	78.31
254.261	86.31
254.494	74.31
254.727	86.31
254.96	68.31
255.193	76.31
255.426	82.31
255.659	76.31
255.892	72.31
256.124	71.31
256.357	69.31
256.59	95.31
256.823	79.31
257.056	71.31
257.289	86.31
257.521	99.31
257.754	71.31
257.987	88.31
258.22	81.31
258.452	82.31
258.685	70.31
258.918	86.31
259.151	82.31
259.383	74.31
259.616	92.31
259.849	73.31
260.081	88.31
260.314	80.31
260.547	84.31
260.779	80.31
261.012	69.31
261.244	92.31
261.477	84.31
261.71	70.31
261.942	67.31
262.175	77.31
262.407	76.31
262.64	74.31
262.872	92.31
263.105	80.31
263.337	83.31
263.57	64.31
263.802	64.31
264.035	81.31
264.267	86.31
264.499	85.31
264.732	91.31
264.964	84.31
265.197	93.31
265.429	97.31
265.661	82.31
265.894	84.31
266.126	83.31
266.358	82.31
266.591	71.31
266.823	80.31
267.055	74.31
267.287	86.31
267.52	84.31
267.752	79.31
267.984	87.31
268.216	91.31
268.448	71.31
268.681	67.31
268.913	77.31
269.145	100.31
269.377	88.31
269.609	80.31
269.841	84.31
270.073	79.31
270.306	85.31
270.538	92.31
270.77	82.31
271.002	79.31
271.234	72.31
271.466	75.31
271.698	79.31
271.93	85.31
272.162	92.31
272.394	73.31
272.626	62.31
272.858	96.31
273.09	81.31
273.322	80.31
273.553	71.31
273.785	87.31
274.017	87.31
274.249	91.31
274.481	77.31
274.713	79.31
274.945	93.31
275.176	96.31
275.408	81.31
275.64	89.31
275.872	81.31
276.104	87.31
276.335	97.31
276.567	82.31
276.799	100.31
277.031	89.31
277.262	79.31
277.494	86.31
277.726	76.31
277.957	84.31
278.189	77.31
278.421	82.31
278.652	91.31
278.884	65.31
279.115	88.31
279.347	87.31
279.579	76.31
279.81	85.31
280.042	84.31
280.273	75.31
280.505	76.31
280.736	82.31
280.968	72.31
281.199	74.31
281.431	81.31
281.662	94.31
281.894	95.31
282.125	76.31
282.356	78.31
282.588	74.31
282.819	83.31
283.051	94.31
283.282	88.31
283.513	84.31
283.745	87.31
283.976	91.31
284.207	73.31
284.439	89.31
284.67	87.31
284.901	92.31
285.132	88.31
285.364	81.31
285.595	93.31
285.826	91.31
286.057	79.31
286.288	74.31
286.52	87.31
286.751	79.31
286.982	74.31
287.213	90.31
287.444	73.31
287.675	88.31
287.906	81.31
288.138	82.31
288.369	79.31
288.6	82.31
288.831	100.31
289.062	75.31
289.293	90.31
289.524	104.31
289.755	79.31
289.986	75.31
290.217	85.31
290.448	85.31
290.679	90.31
290.91	98.31
291.141	92.31
291.371	85.31
291.602	78.31
291.833	96.31
292.064	92.31
292.295	89.31
292.526	71.31
292.757	85.31
292.987	95.31
293.218	97.31
293.449	85.31
293.68	90.31
293.91	77.31
294.141	87.31
294.372	79.31
294.603	89.31
294.833	75.31
295.064	78.31
295.295	90.31
295.525	83.31
295.756	82.31
295.987	86.31
296.217	90.31
296.448	79.31
296.679	87.31
296.909	80.31
297.14	75.31
297.37	84.31
297.601	96.31
297.831	83.31
298.062	80.31
298.292	91.31
298.523	75.31
298.753	71.31
298.984	107.31
299.214	91.31
299.445	101.31
299.675	86.31
299.905	79.31
300.136	84.31
300.366	93.31
300.597	83.31
300.827	81.31
301.057	86.31
301.288	91.31
301.518	86.31
301.748	91.31
301.979	100.31
302.209	81.31
302.439	87.31
302.669	75.31
302.9	87.31
303.13	80.31
303.36	81.31
303.59	92.31
303.82	78.31
304.051	89.31
304.281	85.31
304.511	93.31
304.741	86.31
304.971	83.31
305.201	83.31
305.431	73.31
305.661	87.31
305.891	72.31
306.121	95.31
306.352	81.31
306.582	73.31
306.812	91.31
307.042	97.31
307.272	81.31
307.502	88.31
307.731	85.31
307.961	69.31
308.191	83.31
308.421	89.31
308.651	95.31
308.881	81.31
309.111	87.31
309.341	85.31
309.571	79.31
309.8	83.31
310.03	94.31
310.26	93.31
310.49	91.31
310.72	84.31
310.949	85.31
311.179	82.31
311.409	78.31
311.639	79.31
311.868	72.31
312.098	86.31
312.328	81.31
312.557	98.31
312.787	87.31
313.017	86.31
313.246	94.31
313.476	73.31
313.706	102.31
313.935	78.31
314.165	78.31
314.394	71.31
314.624	84.31
314.853	79.31
315.083	81.31
315.312	70.31
315.542	83.31
315.771	74.31
316.001	78.31
316.23	87.31
316.46	79.31
316.689	86.31
316.919	80.31
317.148	88.31
317.377	84.31
317.607	73.31
317.836	77.31
318.065	85.31
318.295	85.31
318.524	86.31
318.753	92.31
318.983	78.31
319.212	85.31
319.441	75.31
319.67	97.31
319.9	74.31
320.129	73.31
320.358	85.31
320.587	71.31
320.816	86.31
321.046	86.31
321.275	78.31
321.504	78.31
321.733	90.31
321.962	84.31
322.191	88.31
322.42	73.31
322.649	81.31
322.878	91.31
323.108	82.31
323.337	82.31
323.566	76.31
323.795	80.31
324.024	64.31
324.253	90.31
324.482	67.31
324.71	70.31
324.939	85.31
325.168	91.31
325.397	84.31
325.626	79.31
325.855	91.31
326.084	79.31
326.313	89.31
326.542	75.31
326.77	77.31
326.999	77.31
327.228	94.31
327.457	91.31
327.686	81.31
327.914	62.31
328.143	79.31
328.372	92.31
328.6	81.31
328.829	93.31
329.058	78.31
329.287	75.31
329.515	87.31
329.744	81.31
329.972	94.31
330.201	79.31
330.43	83.31
330.658	78.31
330.887	96.31
331.115	101.31
331.344	86.31
331.572	95.31
331.801	84.31
332.03	70.31
332.258	86.31
332.486	90.31
332.715	97.31
332.943	69.31
333.172	84.31
333.4	73.31
333.629	95.31
333.857	78.31
334.085	85.31
334.314	76.31
334.542	77.31
334.771	75.31
334.999	71.31
335.227	79.31
335.455	81.31
335.684	97.31
335.912	83.31
336.14	86.31
336.369	81.31
336.597	99.31
336.825	84.31
337.053	95.31
337.281	92.31
337.51	81.31
337.738	94.31
337.966	76.31
338.194	76.31
338.422	77.31
338.65	86.31
338.878	92.31
339.106	82.31
339.334	104.31
339.562	85.31
339.79	79.31
340.018	96.31
340.246	82.31
340.474	83.31
340.702	80.31
340.93	94.31
341.158	95.31
341.386	79.31
341.614	99.31
341.842	79.31
342.07	93.31
342.298	84.31
342.526	80.31
342.754	72.31
342.981	76.31
343.209	89.31
343.437	122.31
343.665	83.31
343.893	68.31
344.12	84.31
344.348	81.31
344.576	83.31
344.804	69.31
345.031	84.31
345.259	93.31
345.487	85.31
345.714	99.31
345.942	77.31
346.17	96.31
346.397	76.31
346.625	75.31
346.853	80.31
347.08	96.31
347.308	91.31
347.535	80.31
347.763	99.31
347.99	101.31
348.218	86.31
348.445	97.31
348.673	81.31
348.9	86.31
349.128	87.31
349.355	85.31
349.583	82.31
349.81	94.31
350.037	82.31
350.265	76.31
350.492	88.31
350.72	75.31
350.947	87.31
351.174	91.31
351.402	87.31
351.629	81.31
351.856	90.31
352.083	77.31
352.311	76.31
352.538	99.31
352.765	82.31
352.992	75.31
353.22	98.31
353.447	85.31
353.674	80.31
353.901	90.31
354.128	88.31
354.355	91.31
354.583	92.31
354.81	72.31
355.037	85.31
355.264	81.31
355.491	82.31
355.718	75.31
355.945	73.31
356.172	75.31
356.399	79.31
356.626	83.31
356.853	79.31
357.08	92.31
357.307	72.31
357.534	83.31
357.761	95.31
357.988	81.31
358.215	87.31
358.441	85.31
358.668	82.31
358.895	78.31
359.122	86.31
359.349	77.31
359.576	83.31
359.802	71.31
360.029	85.31
360.256	87.31
360.483	93.31
360.709	85.31
360.936	94.31
361.163	81.31
361.39	80.31
361.616	85.31
361.843	75.31
362.07	76.31
362.296	84.31
362.523	100.31
362.749	97.31
362.976	77.31
363.203	88.31
363.429	89.31
363.656	84.31
363.882	78.31
364.109	91.31
364.335	88.31
364.562	81.31
364.788	82.31
365.015	83.31
365.241	97.31
365.468	89.31
365.694	81.31
365.92	81.31
366.147	79.31
366.373	86.31
366.599	77.31
366.826	93.31
367.052	92.31
367.278	86.31
367.505	82.31
367.731	97.31
367.957	86.31
368.184	79.31
368.41	80.31
368.636	79.31
368.862	77.31
369.089	83.31
369.315	76.31
369.541	85.31
369.767	85.31
369.993	94.31
370.219	77.31
370.445	99.31
370.672	73.31
370.898	86.31
371.124	79.31
371.35	99.31
371.576	89.31
371.802	80.31
372.028	91.31
372.254	85.31
372.48	63.31
372.706	84.31
372.932	75.31
373.158	73.31
373.384	89.31
373.61	72.31
373.835	84.31
374.061	80.31
374.287	85.31
374.513	69.31
374.739	81.31
374.965	88.31
375.191	67.31
375.416	80.31
375.642	88.31
375.868	85.31
376.094	85.31
376.319	101.31
376.545	80.31
376.771	82.31
376.997	76.31
377.222	83.31
377.448	94.31
377.674	102.31
377.899	85.31
378.125	93.31
378.35	86.31
378.576	75.31
378.802	78.31
379.027	76.31
379.253	78.31
379.478	99.31
379.704	93.31
379.929	91.31
380.155	78.31
380.38	85.31
380.606	86.31
380.831	95.31
381.057	83.31
381.282	83.31
381.507	73.31
381.733	79.31
381.958	83.31
382.184	89.31
382.409	79.31
382.634	79.31
382.86	86.31
383.085	88.31
383.31	82.31
383.535	81.31
383.761	76.31
383.986	68.31
384.211	71.31
384.436	76.31
384.662	82.31
384.887	74.31
385.112	79.31
385.337	83.31
385.562	77.31
385.787	92.31
386.013	82.31
386.238	79.31
386.463	66.31
386.688	105.31
386.913	83.31
387.138	69.31
387.363	74.31
387.588	95.31
387.813	70.31
388.038	87.31
388.263	84.31
388.488	72.31
388.713	83.31
388.938	72.31
389.163	74.31
389.387	79.31
389.612	94.31
389.837	70.31
390.062	92.31
390.287	88.31
390.512	79.31
390.736	79.31
390.961	81.31
391.186	79.31
391.411	98.31
391.636	63.31
391.86	79.31
392.085	99.31
392.31	81.31
392.534	93.31
392.759	101.31
392.984	89.31
393.208	86.31
393.433	96.31
393.658	68.31
393.882	74.31
394.107	71.31
394.331	74.31
394.556	67.31
394.78	81.31
395.005	78.31
395.229	80.31
395.454	78.31
395.678	66.31
395.903	67.31
396.127	79.31
396.352	93.31
396.576	83.31
396.801	86.31
397.025	73.31
397.249	87.31
397.474	78.31
397.698	84.31
397.922	93.31
398.147	77.31
398.371	86.31
398.595	78.31
398.82	91.31
399.044	79.31
399.268	93.31
399.492	88.31
399.717	82.31
399.941	72.31
400.165	87.31
400.389	79.31
400.613	78.31
400.837	82.31
401.062	87.31
401.286	82.31
401.51	62.31
401.734	80.31
401.958	84.31
402.182	68.31
402.406	81.31
402.63	72.31
402.854	73.31
403.078	85.31
403.302	92.31
403.526	83.31
403.75	64.31
403.974	85.31
404.198	70.31
404.422	77.31
404.645	75.31
404.869	84.31
405.093	92.31
405.317	86.31
405.541	74.31
405.765	75.31
405.988	73.31
406.212	82.31
406.436	76.31
406.66	75.31
406.883	82.31
407.107	74.31
407.331	92.31
407.555	92.31
407.778	77.31
408.002	83.31
408.226	101.31
408.449	74.31
408.673	82.31
408.896	78.31
409.12	79.31
409.344	85.31
409.567	81.31
409.791	92.31
410.014	97.31
410.238	95.31
410.461	88.31
410.685	75.31
410.908	83.31
411.132	79.31
411.355	79.31
411.578	67.31
411.802	91.31
412.025	71.31
412.249	80.31
412.472	95.31
412.695	67.31
412.919	77.31
413.142	82.31
413.365	68.31
413.589	88.31
413.812	93.31
414.035	72.31
414.258	77.31
414.482	63.31
414.705	63.31
414.928	72.31
415.151	84.31
415.374	73.31
415.597	70.31
415.821	93.31
416.044	81.31
416.267	89.31
416.49	88.31
416.713	79.31
416.936	86.31
417.159	71.31
417.382	78.31
417.605	71.31
417.828	78.31
418.051	69.31
418.274	99.31
418.497	89.31
418.72	62.31
418.943	89.31
419.166	80.31
419.389	81.31
419.611	103.31
419.834	68.31
420.057	73.31
420.28	91.31
420.503	77.31
420.726	73.31
420.948	87.31
421.171	88.31
421.394	89.31
421.617	89.31
421.839	90.31
422.062	85.31
422.285	86.31
422.507	84.31
422.73	94.31
422.953	76.31
423.175	70.31
423.398	81.31
423.621	86.31
423.843	85.31
424.066	91.31
424.288	85.31
424.511	70.31
424.733	98.31
424.956	95.31
425.178	78.31
425.401	74.31
425.623	82.31
425.846	81.31
426.068	88.31
426.291	84.31
426.513	85.31
426.735	91.31
426.958	76.31
427.18	88.31
427.402	84.31
427.625	82.31
427.847	71.31
428.069	85.31
428.292	76.31
428.514	72.31
428.736	80.31
428.958	79.31
429.181	80.31
429.403	70.31
429.625	89.31
429.847	93.31
430.069	74.31
430.292	81.31
430.514	82.31
430.736	77.31
430.958	74.31
431.18	87.31
431.402	91.31
431.624	88.31
431.846	85.31
432.068	97.31
432.29	100.31
432.512	88.31
432.734	73.31
432.956	89.31
433.178	96.31
433.4	77.31
433.622	81.31
433.844	77.31
434.066	72.31
434.287	85.31
434.509	71.31
434.731	72.31
434.953	82.31
435.175	79.31
435.397	82.31
435.618	87.31
435.84	91.31
436.062	85.31
436.284	91.31
436.505	95.31
436.727	72.31
436.949	91.31
437.17	91.31
437.392	75.31
437.614	77.31
437.835	84.31
438.057	90.31
438.278	86.31
438.5	79.31
438.721	76.31
438.943	88.31
439.165	76.31
439.386	78.31
439.608	93.31
439.829	88.31
440.05	67.31
440.272	87.31
440.493	91.31
440.715	91.31
440.936	82.31
441.158	84.31
441.379	69.31
441.6	89.31
441.822	86.31
442.043	85.31
442.264	78.31
442.486	84.31
442.707	97.31
442.928	88.31
443.149	74.31
443.371	81.31
443.592	78.31
443.813	88.31
444.034	74.31
444.255	86.31
444.476	73.31
444.698	87.31
444.919	80.31
445.14	122.31
445.361	105.31
445.582	84.31
445.803	79.31
446.024	78.31
446.245	78.31
446.466	74.31
446.687	66.31
446.908	84.31
447.129	99.31
447.35	88.31
447.571	83.31
447.792	77.31
448.013	75.31
448.234	83.31
448.455	86.31
448.675	81.31
448.896	96.31
449.117	87.31
449.338	81.31
449.559	76.31
449.779	90.31
450	86.31
450.221	76.31
450.442	84.31
450.662	68.31
450.883	75.31
451.104	84.31
451.324	77.31
451.545	79.31
451.766	73.31
451.986	87.31
452.207	76.31
452.428	78.31
452.648	96.31
452.869	79.31
453.089	73.31
453.31	81.31
453.53	94.31
453.751	76.31
453.971	78.31
454.192	79.31
454.412	82.31
454.633	89.31
454.853	93.31
455.073	91.31
455.294	88.31
455.514	77.31
455.734	88.31
455.955	94.31
456.175	72.31
456.395	72.31
456.616	93.31
456.836	77.31
457.056	83.31
457.276	81.31
457.497	94.31
457.717	75.31
457.937	93.31
458.157	83.31
458.377	85.31
458.598	97.31
458.818	85.31
459.038	83.31
459.258	92.31
459.478	99.31
459.698	82.31
459.918	83.31
460.138	77.31
460.358	87.31
460.578	84.31
460.798	76.31
461.018	77.31
461.238	86.31
461.458	73.31
461.678	77.31
461.898	94.31
462.118	93.31
462.338	75.31
462.558	80.31
462.777	83.31
462.997	85.31
463.217	72.31
463.437	84.31
463.657	83.31
463.876	87.31
464.096	83.31
464.316	78.31
464.536	74.31
464.755	63.31
464.975	84.31
465.195	86.31
465.414	86.31
465.634	96.31
465.854	88.31
466.073	101.31
466.293	83.31
466.512	82.31
466.732	83.31
466.951	87.31
467.171	89.31
467.391	97.31
467.61	78.31
467.829	79.31
468.049	78.31
468.268	86.31
468.488	75.31
468.707	91.31
468.927	87.31
469.146	85.31
469.365	84.31
469.585	79.31
469.804	78.31
470.023	86.31
470.243	71.31
470.462	91.31
470.681	75.31
470.901	95.31
471.12	65.31
471.339	79.31
471.558	71.31
471.777	88.31
471.997	94.31
472.216	79.31
472.435	71.31
472.654	87.31
472.873	90.31
473.092	88.31
473.311	89.31
473.53	81.31
473.749	94.31
473.968	91.31
474.187	80.31
474.406	84.31
474.625	84.31
474.844	84.31
475.063	86.31
475.282	87.31
475.501	67.31
475.72	78.31
475.939	77.31
476.158	73.31
476.377	71.31
476.596	74.31
476.814	86.31
477.033	78.31
477.252	84.31
477.471	63.31
477.69	96.31
477.908	79.31
478.127	95.31
478.346	85.31
478.564	79.31
478.783	84.31
479.002	81.31
479.22	75.31
479.439	82.31
479.658	67.31
479.876	86.31
480.095	76.31
480.313	63.31
480.532	73.31
480.751	94.31
480.969	83.31
481.188	81.31
481.406	86.31
481.624	82.31
481.843	83.31
482.061	86.31
482.28	82.31
482.498	92.31
482.717	76.31
482.935	91.31
483.153	81.31
483.372	77.31
483.59	92.31
483.808	87.31
484.027	89.31
484.245	76.31
484.463	79.31
484.681	98.31
484.9	88.31
485.118	80.31
485.336	87.31
485.554	67.31
485.772	76.31
485.99	76.31
486.209	78.31
486.427	77.31
486.645	94.31
486.863	69.31
487.081	64.31
487.299	85.31
487.517	89.31
487.735	77.31
487.953	79.31
488.171	92.31
488.389	75.31
488.607	87.31
488.825	70.31
489.043	84.31
489.261	72.31
489.479	77.31
489.696	92.31
489.914	65.31
490.132	80.31
490.35	75.31
490.568	88.31
490.786	80.31
491.003	77.31
491.221	80.31
491.439	85.31
491.657	88.31
491.874	85.31
492.092	91.31
492.31	83.31
492.527	83.31
492.745	68.31
492.963	84.31
493.18	86.31
493.398	78.31
493.615	72.31
493.833	84.31
494.05	64.31
494.268	65.31
494.485	94.31
494.703	83.31
494.92	81.31
495.138	90.31
495.355	78.31
495.573	84.31
495.79	78.31
496.008	80.31
496.225	74.31
496.442	79.31
496.66	88.31
496.877	101.31
497.094	88.31
497.312	82.31
497.529	73.31
497.746	90.31
497.963	79.31
498.181	78.31
498.398	84.31
498.615	88.31
498.832	80.31
499.049	98.31
499.267	77.31
499.484	103.31
499.701	76.31
499.918	88.31
500.135	83.31
500.352	75.31
500.569	93.31
500.786	93.31
501.003	84.31
501.22	75.31
501.437	91.31
501.654	91.31
501.871	79.31
502.088	83.31
502.305	75.31
502.522	55.31
502.739	76.31
502.956	70.31
503.172	85.31
503.389	87.31
503.606	95.31
503.823	95.31
504.04	79.31
504.256	89.31
504.473	84.31
504.69	93.31
504.907	95.31
505.123	87.31
505.34	94.31
505.557	89.31
505.773	98.31
505.99	95.31
506.207	78.31
506.423	86.31
506.64	81.31
506.856	81.31
507.073	73.31
507.289	85.31
507.506	89.31
507.722	95.31
507.939	79.31
508.155	65.31
508.372	87.31
508.588	77.31
508.805	83.31
509.021	94.31
509.238	97.31
509.454	89.31
509.67	78.31
509.887	98.31
510.103	78.31
510.319	97.31
510.536	88.31
510.752	80.31
510.968	89.31
511.184	77.31
511.401	95.31
511.617	73.31
511.833	88.31
512.049	87.31
512.265	91.31
512.481	83.31
512.698	93.31
512.914	85.31
513.13	79.31
513.346	82.31
513.562	79.31
513.778	85.31
513.994	87.31
514.21	75.31
514.426	78.31
514.642	91.31
514.858	92.31
515.074	97.31
515.29	88.31
515.506	88.31
515.721	87.31
515.937	78.31
516.153	81.31
516.369	81.31
516.585	84.31
516.801	84.31
517.016	79.31
517.232	92.31
517.448	87.31
517.664	88.31
517.879	88.31
518.095	79.31
518.311	76.31
518.527	87.31
518.742	104.31
518.958	93.31
519.173	77.31
519.389	81.31
519.605	79.31
519.82	97.31
520.036	87.31
