Data from BGNA1_HRD10591_00018.txt Node
Date: Fri Dec 27 14:28:52 EST 2024
User: Yrep
Spectrometer: HR+D1059
Trigger mode: 1
Integration Time (sec): 1.000000E-1
Scans to average: 1
Electric dark correction enabled: true
Nonlinearity correction enabled: false
Boxcar width: 0
XAxis mode: Wavelengths
Number of Pixels in Spectrum: 2048
>>>>>Begin Spectral Data<<<<<
223.165	-21.56
223.4	-21.56
223.635	-21.56
223.869	-30.56
224.104	-14.56
224.338	-12.56
224.573	-22.56
224.808	-10.56
225.042	-13.56
225.277	0.44
225.511	1.44
225.746	14.44
225.98	-7.56
226.215	14.44
226.449	16.44
226.683	26.44
226.918	29.44
227.152	30.44
227.387	25.44
227.621	47.44
227.856	39.44
228.09	33.44
228.324	51.44
228.559	41.44
228.793	48.44
229.027	64.44
229.262	78.44
229.496	70.44
229.73	69.44
229.964	67.44
230.199	77.44
230.433	65.44
230.667	77.44
230.901	73.44
231.136	63.44
231.37	69.44
231.604	78.44
231.838	68.44
232.072	78.44
232.306	75.44
232.541	74.44
232.775	88.44
233.009	83.44
233.243	95.44
233.477	77.44
233.711	69.44
233.945	67.44
234.179	90.44
234.413	67.44
234.647	86.44
234.881	73.44
235.115	81.44
235.349	93.44
235.583	70.44
235.817	63.44
236.051	79.44
236.285	64.44
236.519	73.44
236.753	79.44
236.987	75.44
237.221	78.44
237.455	74.44
237.689	66.44
237.922	76.44
238.156	76.44
238.39	64.44
238.624	83.44
238.858	66.44
239.091	70.44
239.325	99.44
239.559	70.44
239.793	67.44
240.027	71.44
240.26	58.44
240.494	74.44
240.728	81.44
240.961	62.44
241.195	77.44
241.429	72.44
241.662	68.44
241.896	64.44
242.13	66.44
242.363	72.44
242.597	55.44
242.83	71.44
243.064	81.44
243.298	68.44
243.531	64.44
243.765	91.44
243.998	80.44
244.232	89.44
244.465	78.44
244.699	65.44
244.932	76.44
245.166	81.44
245.399	75.44
245.633	59.44
245.866	79.44
246.099	68.44
246.333	70.44
246.566	85.44
246.8	78.44
247.033	81.44
247.266	71.44
247.5	66.44
247.733	55.44
247.966	81.44
248.2	85.44
248.433	78.44
248.666	75.44
248.899	65.44
249.133	77.44
249.366	68.44
249.599	67.44
249.832	67.44
250.066	75.44
250.299	77.44
250.532	86.44
250.765	79.44
250.998	75.44
251.231	59.44
251.465	74.44
251.698	75.44
251.931	75.44
252.164	69.44
252.397	80.44
252.63	78.44
252.863	84.44
253.096	69.44
253.329	66.44
253.562	63.44
253.795	81.44
254.028	69.44
254.261	81.44
254.494	80.44
254.727	68.44
254.96	66.44
255.193	69.44
255.426	86.44
255.659	74.44
255.892	80.44
256.124	65.44
256.357	82.44
256.59	78.44
256.823	77.44
257.056	80.44
257.289	69.44
257.521	65.44
257.754	78.44
257.987	71.44
258.22	72.44
258.452	72.44
258.685	89.44
258.918	70.44
259.151	87.44
259.383	83.44
259.616	81.44
259.849	90.44
260.081	70.44
260.314	66.44
260.547	74.44
260.779	73.44
261.012	75.44
261.244	77.44
261.477	90.44
261.71	103.44
261.942	88.44
262.175	78.44
262.407	68.44
262.64	91.44
262.872	77.44
263.105	71.44
263.337	78.44
263.57	86.44
263.802	79.44
264.035	86.44
264.267	84.44
264.499	75.44
264.732	75.44
264.964	84.44
265.197	91.44
265.429	73.44
265.661	76.44
265.894	68.44
266.126	82.44
266.358	81.44
266.591	91.44
266.823	68.44
267.055	67.44
267.287	79.44
267.52	63.44
267.752	83.44
267.984	68.44
268.216	74.44
268.448	79.44
268.681	78.44
268.913	88.44
269.145	77.44
269.377	77.44
269.609	81.44
269.841	82.44
270.073	82.44
270.306	83.44
270.538	93.44
270.77	87.44
271.002	86.44
271.234	80.44
271.466	85.44
271.698	85.44
271.93	87.44
272.162	86.44
272.394	84.44
272.626	77.44
272.858	93.44
273.09	91.44
273.322	84.44
273.553	89.44
273.785	83.44
274.017	87.44
274.249	76.44
274.481	64.44
274.713	88.44
274.945	86.44
275.176	74.44
275.408	87.44
275.64	67.44
275.872	76.44
276.104	84.44
276.335	61.44
276.567	85.44
276.799	70.44
277.031	74.44
277.262	83.44
277.494	90.44
277.726	86.44
277.957	86.44
278.189	77.44
278.421	82.44
278.652	72.44
278.884	83.44
279.115	79.44
279.347	69.44
279.579	90.44
279.81	78.44
280.042	69.44
280.273	85.44
280.505	71.44
280.736	75.44
280.968	92.44
281.199	76.44
281.431	81.44
281.662	86.44
281.894	75.44
282.125	68.44
282.356	77.44
282.588	69.44
282.819	64.44
283.051	85.44
283.282	75.44
283.513	99.44
283.745	87.44
283.976	76.44
284.207	82.44
284.439	66.44
284.67	81.44
284.901	68.44
285.132	75.44
285.364	85.44
285.595	81.44
285.826	73.44
286.057	83.44
286.288	83.44
286.52	74.44
286.751	66.44
286.982	85.44
287.213	92.44
287.444	83.44
287.675	78.44
287.906	92.44
288.138	83.44
288.369	90.44
288.6	87.44
288.831	75.44
289.062	77.44
289.293	73.44
289.524	105.44
289.755	71.44
289.986	87.44
290.217	78.44
290.448	77.44
290.679	75.44
290.91	94.44
291.141	79.44
291.371	92.44
291.602	73.44
291.833	90.44
292.064	76.44
292.295	67.44
292.526	78.44
292.757	80.44
292.987	86.44
293.218	73.44
293.449	81.44
293.68	71.44
293.91	66.44
294.141	92.44
294.372	90.44
294.603	95.44
294.833	66.44
295.064	90.44
295.295	79.44
295.525	73.44
295.756	76.44
295.987	67.44
296.217	80.44
296.448	79.44
296.679	90.44
296.909	85.44
297.14	79.44
297.37	88.44
297.601	77.44
297.831	93.44
298.062	80.44
298.292	77.44
298.523	94.44
298.753	77.44
298.984	71.44
299.214	90.44
299.445	87.44
299.675	87.44
299.905	76.44
300.136	75.44
300.366	86.44
300.597	87.44
300.827	87.44
301.057	82.44
301.288	81.44
301.518	82.44
301.748	79.44
301.979	99.44
302.209	93.44
302.439	75.44
302.669	69.44
302.9	95.44
303.13	87.44
303.36	92.44
303.59	81.44
303.82	89.44
304.051	80.44
304.281	81.44
304.511	82.44
304.741	81.44
304.971	77.44
305.201	82.44
305.431	81.44
305.661	84.44
305.891	76.44
306.121	82.44
306.352	74.44
306.582	85.44
306.812	82.44
307.042	78.44
307.272	73.44
307.502	71.44
307.731	80.44
307.961	90.44
308.191	75.44
308.421	72.44
308.651	86.44
308.881	71.44
309.111	86.44
309.341	85.44
309.571	86.44
309.8	80.44
310.03	79.44
310.26	96.44
310.49	76.44
310.72	74.44
310.949	73.44
311.179	81.44
311.409	78.44
311.639	82.44
311.868	86.44
312.098	91.44
312.328	83.44
312.557	76.44
312.787	89.44
313.017	93.44
313.246	74.44
313.476	92.44
313.706	77.44
313.935	68.44
314.165	90.44
314.394	77.44
314.624	73.44
314.853	78.44
315.083	77.44
315.312	82.44
315.542	71.44
315.771	76.44
316.001	69.44
316.23	89.44
316.46	77.44
316.689	71.44
316.919	80.44
317.148	73.44
317.377	76.44
317.607	87.44
317.836	82.44
318.065	74.44
318.295	92.44
318.524	89.44
318.753	85.44
318.983	90.44
319.212	77.44
319.441	82.44
319.67	76.44
319.9	81.44
320.129	98.44
320.358	78.44
320.587	89.44
320.816	85.44
321.046	73.44
321.275	71.44
321.504	83.44
321.733	76.44
321.962	76.44
322.191	90.44
322.42	82.44
322.649	75.44
322.878	71.44
323.108	79.44
323.337	81.44
323.566	71.44
323.795	77.44
324.024	83.44
324.253	76.44
324.482	79.44
324.71	82.44
324.939	84.44
325.168	85.44
325.397	68.44
325.626	80.44
325.855	72.44
326.084	77.44
326.313	84.44
326.542	81.44
326.77	86.44
326.999	77.44
327.228	68.44
327.457	89.44
327.686	80.44
327.914	75.44
328.143	78.44
328.372	72.44
328.6	78.44
328.829	87.44
329.058	77.44
329.287	85.44
329.515	84.44
329.744	94.44
329.972	86.44
330.201	89.44
330.43	79.44
330.658	84.44
330.887	78.44
331.115	84.44
331.344	82.44
331.572	90.44
331.801	82.44
332.03	85.44
332.258	77.44
332.486	63.44
332.715	67.44
332.943	85.44
333.172	76.44
333.4	82.44
333.629	78.44
333.857	77.44
334.085	87.44
334.314	101.44
334.542	79.44
334.771	77.44
334.999	67.44
335.227	81.44
335.455	72.44
335.684	87.44
335.912	76.44
336.14	95.44
336.369	76.44
336.597	86.44
336.825	77.44
337.053	86.44
337.281	81.44
337.51	98.44
337.738	85.44
337.966	84.44
338.194	83.44
338.422	80.44
338.65	75.44
338.878	84.44
339.106	73.44
339.334	74.44
339.562	81.44
339.79	73.44
340.018	65.44
340.246	90.44
340.474	89.44
340.702	77.44
340.93	87.44
341.158	78.44
341.386	75.44
341.614	83.44
341.842	77.44
342.07	70.44
342.298	81.44
342.526	77.44
342.754	83.44
342.981	76.44
343.209	89.44
343.437	84.44
343.665	74.44
343.893	84.44
344.12	69.44
344.348	75.44
344.576	81.44
344.804	77.44
345.031	75.44
345.259	66.44
345.487	77.44
345.714	73.44
345.942	74.44
346.17	98.44
346.397	80.44
346.625	83.44
346.853	85.44
347.08	79.44
347.308	78.44
347.535	75.44
347.763	80.44
347.99	77.44
348.218	78.44
348.445	93.44
348.673	92.44
348.9	77.44
349.128	82.44
349.355	73.44
349.583	79.44
349.81	75.44
350.037	85.44
350.265	89.44
350.492	89.44
350.72	69.44
350.947	77.44
351.174	78.44
351.402	81.44
351.629	84.44
351.856	94.44
352.083	76.44
352.311	73.44
352.538	81.44
352.765	89.44
352.992	80.44
353.22	88.44
353.447	81.44
353.674	83.44
353.901	89.44
354.128	84.44
354.355	82.44
354.583	67.44
354.81	91.44
355.037	85.44
355.264	77.44
355.491	80.44
355.718	59.44
355.945	81.44
356.172	74.44
356.399	82.44
356.626	77.44
356.853	92.44
357.08	71.44
357.307	72.44
357.534	78.44
357.761	82.44
357.988	84.44
358.215	72.44
358.441	81.44
358.668	78.44
358.895	72.44
359.122	83.44
359.349	82.44
359.576	82.44
359.802	68.44
360.029	83.44
360.256	82.44
360.483	80.44
360.709	94.44
360.936	94.44
361.163	88.44
361.39	76.44
361.616	72.44
361.843	74.44
362.07	80.44
362.296	75.44
362.523	67.44
362.749	73.44
362.976	87.44
363.203	78.44
363.429	77.44
363.656	85.44
363.882	77.44
364.109	73.44
364.335	83.44
364.562	71.44
364.788	84.44
365.015	82.44
365.241	80.44
365.468	87.44
365.694	72.44
365.92	82.44
366.147	93.44
366.373	86.44
366.599	81.44
366.826	79.44
367.052	80.44
367.278	82.44
367.505	77.44
367.731	79.44
367.957	84.44
368.184	79.44
368.41	80.44
368.636	78.44
368.862	69.44
369.089	79.44
369.315	82.44
369.541	90.44
369.767	97.44
369.993	87.44
370.219	89.44
370.445	79.44
370.672	91.44
370.898	84.44
371.124	75.44
371.35	77.44
371.576	85.44
371.802	77.44
372.028	74.44
372.254	81.44
372.48	76.44
372.706	81.44
372.932	86.44
373.158	65.44
373.384	82.44
373.61	73.44
373.835	78.44
374.061	79.44
374.287	75.44
374.513	76.44
374.739	88.44
374.965	85.44
375.191	82.44
375.416	83.44
375.642	83.44
375.868	85.44
376.094	95.44
376.319	75.44
376.545	76.44
376.771	81.44
376.997	90.44
377.222	86.44
377.448	80.44
377.674	95.44
377.899	93.44
378.125	79.44
378.35	79.44
378.576	75.44
378.802	73.44
379.027	81.44
379.253	86.44
379.478	70.44
379.704	77.44
379.929	83.44
380.155	86.44
380.38	71.44
380.606	81.44
380.831	82.44
381.057	90.44
381.282	73.44
381.507	89.44
381.733	89.44
381.958	85.44
382.184	76.44
382.409	67.44
382.634	71.44
382.86	80.44
383.085	85.44
383.31	83.44
383.535	80.44
383.761	82.44
383.986	84.44
384.211	80.44
384.436	86.44
384.662	80.44
384.887	81.44
385.112	73.44
385.337	83.44
385.562	82.44
385.787	85.44
386.013	80.44
386.238	73.44
386.463	75.44
386.688	98.44
386.913	81.44
387.138	78.44
387.363	78.44
387.588	83.44
387.813	56.44
388.038	76.44
388.263	77.44
388.488	80.44
388.713	77.44
388.938	75.44
389.163	71.44
389.387	69.44
389.612	81.44
389.837	64.44
390.062	78.44
390.287	82.44
390.512	76.44
390.736	79.44
390.961	89.44
391.186	75.44
391.411	75.44
391.636	66.44
391.86	80.44
392.085	89.44
392.31	72.44
392.534	72.44
392.759	79.44
392.984	88.44
393.208	94.44
393.433	84.44
393.658	81.44
393.882	80.44
394.107	89.44
394.331	65.44
394.556	76.44
394.78	83.44
395.005	63.44
395.229	81.44
395.454	93.44
395.678	73.44
395.903	86.44
396.127	75.44
396.352	78.44
396.576	73.44
396.801	83.44
397.025	81.44
397.249	67.44
397.474	83.44
397.698	82.44
397.922	93.44
398.147	86.44
398.371	78.44
398.595	82.44
398.82	65.44
399.044	90.44
399.268	73.44
399.492	75.44
399.717	77.44
399.941	84.44
400.165	82.44
400.389	71.44
400.613	75.44
400.837	74.44
401.062	73.44
401.286	70.44
401.51	75.44
401.734	91.44
401.958	72.44
402.182	70.44
402.406	73.44
402.63	77.44
402.854	72.44
403.078	80.44
403.302	79.44
403.526	73.44
403.75	84.44
403.974	81.44
404.198	75.44
404.422	73.44
404.645	82.44
404.869	76.44
405.093	76.44
405.317	77.44
405.541	78.44
405.765	79.44
405.988	87.44
406.212	90.44
406.436	88.44
406.66	79.44
406.883	74.44
407.107	69.44
407.331	70.44
407.555	76.44
407.778	69.44
408.002	72.44
408.226	76.44
408.449	86.44
408.673	65.44
408.896	77.44
409.12	78.44
409.344	98.44
409.567	72.44
409.791	77.44
410.014	74.44
410.238	76.44
410.461	86.44
410.685	83.44
410.908	75.44
411.132	69.44
411.355	80.44
411.578	84.44
411.802	74.44
412.025	86.44
412.249	87.44
412.472	83.44
412.695	68.44
412.919	66.44
413.142	82.44
413.365	66.44
413.589	85.44
413.812	63.44
414.035	81.44
414.258	74.44
414.482	81.44
414.705	75.44
414.928	84.44
415.151	72.44
415.374	96.44
415.597	78.44
415.821	84.44
416.044	90.44
416.267	71.44
416.49	82.44
416.713	78.44
416.936	86.44
417.159	79.44
417.382	78.44
417.605	69.44
417.828	74.44
418.051	73.44
418.274	69.44
418.497	84.44
418.72	83.44
418.943	70.44
419.166	67.44
419.389	76.44
419.611	63.44
419.834	72.44
420.057	71.44
420.28	79.44
420.503	80.44
420.726	79.44
420.948	79.44
421.171	89.44
421.394	74.44
421.617	83.44
421.839	83.44
422.062	86.44
422.285	87.44
422.507	68.44
422.73	87.44
422.953	79.44
423.175	67.44
423.398	77.44
423.621	67.44
423.843	73.44
424.066	75.44
424.288	79.44
424.511	72.44
424.733	72.44
424.956	71.44
425.178	84.44
425.401	77.44
425.623	70.44
425.846	63.44
426.068	79.44
426.291	75.44
426.513	78.44
426.735	74.44
426.958	79.44
427.18	80.44
427.402	78.44
427.625	70.44
427.847	76.44
428.069	73.44
428.292	74.44
428.514	74.44
428.736	71.44
428.958	76.44
429.181	80.44
429.403	71.44
429.625	89.44
429.847	62.44
430.069	70.44
430.292	75.44
430.514	71.44
430.736	73.44
430.958	82.44
431.18	72.44
431.402	81.44
431.624	74.44
431.846	76.44
432.068	77.44
432.29	71.44
432.512	81.44
432.734	84.44
432.956	95.44
433.178	85.44
433.4	68.44
433.622	81.44
433.844	71.44
434.066	83.44
434.287	67.44
434.509	90.44
434.731	79.44
434.953	89.44
435.175	94.44
435.397	81.44
435.618	86.44
435.84	79.44
436.062	76.44
436.284	72.44
436.505	74.44
436.727	77.44
436.949	80.44
437.17	85.44
437.392	74.44
437.614	81.44
437.835	79.44
438.057	68.44
438.278	83.44
438.5	75.44
438.721	72.44
438.943	67.44
439.165	62.44
439.386	84.44
439.608	79.44
439.829	77.44
440.05	74.44
440.272	81.44
440.493	70.44
440.715	77.44
440.936	76.44
441.158	75.44
441.379	61.44
441.6	87.44
441.822	66.44
442.043	75.44
442.264	72.44
442.486	77.44
442.707	71.44
442.928	64.44
443.149	66.44
443.371	93.44
443.592	86.44
443.813	86.44
444.034	90.44
444.255	79.44
444.476	75.44
444.698	73.44
444.919	78.44
445.14	131.44
445.361	87.44
445.582	78.44
445.803	74.44
446.024	79.44
446.245	78.44
446.466	90.44
446.687	69.44
446.908	73.44
447.129	86.44
447.35	91.44
447.571	81.44
447.792	68.44
448.013	89.44
448.234	74.44
448.455	86.44
448.675	89.44
448.896	65.44
449.117	82.44
449.338	86.44
449.559	77.44
449.779	76.44
450	80.44
450.221	86.44
450.442	72.44
450.662	78.44
450.883	79.44
451.104	77.44
451.324	74.44
451.545	78.44
451.766	76.44
451.986	83.44
452.207	74.44
452.428	65.44
452.648	82.44
452.869	79.44
453.089	87.44
453.31	78.44
453.53	77.44
453.751	81.44
453.971	90.44
454.192	82.44
454.412	77.44
454.633	81.44
454.853	77.44
455.073	73.44
455.294	77.44
455.514	67.44
455.734	83.44
455.955	80.44
456.175	93.44
456.395	74.44
456.616	91.44
456.836	73.44
457.056	84.44
457.276	82.44
457.497	86.44
457.717	76.44
457.937	83.44
458.157	86.44
458.377	79.44
458.598	79.44
458.818	87.44
459.038	81.44
459.258	76.44
459.478	66.44
459.698	75.44
459.918	79.44
460.138	74.44
460.358	82.44
460.578	84.44
460.798	83.44
461.018	79.44
461.238	88.44
461.458	91.44
461.678	82.44
461.898	82.44
462.118	85.44
462.338	76.44
462.558	85.44
462.777	72.44
462.997	81.44
463.217	71.44
463.437	78.44
463.657	85.44
463.876	72.44
464.096	86.44
464.316	81.44
464.536	69.44
464.755	76.44
464.975	79.44
465.195	84.44
465.414	83.44
465.634	78.44
465.854	62.44
466.073	68.44
466.293	80.44
466.512	68.44
466.732	91.44
466.951	80.44
467.171	72.44
467.391	76.44
467.61	70.44
467.829	76.44
468.049	80.44
468.268	78.44
468.488	74.44
468.707	77.44
468.927	74.44
469.146	66.44
469.365	87.44
469.585	83.44
469.804	73.44
470.023	75.44
470.243	91.44
470.462	90.44
470.681	70.44
470.901	78.44
471.12	72.44
471.339	80.44
471.558	71.44
471.777	82.44
471.997	75.44
472.216	83.44
472.435	74.44
472.654	78.44
472.873	78.44
473.092	89.44
473.311	73.44
473.53	77.44
473.749	84.44
473.968	96.44
474.187	91.44
474.406	76.44
474.625	77.44
474.844	77.44
475.063	87.44
475.282	80.44
475.501	91.44
475.72	79.44
475.939	81.44
476.158	68.44
476.377	64.44
476.596	68.44
476.814	79.44
477.033	74.44
477.252	84.44
477.471	77.44
477.69	89.44
477.908	85.44
478.127	81.44
478.346	91.44
478.564	81.44
478.783	74.44
479.002	68.44
479.22	73.44
479.439	73.44
479.658	67.44
479.876	67.44
480.095	65.44
480.313	75.44
480.532	74.44
480.751	78.44
480.969	80.44
481.188	89.44
481.406	78.44
481.624	83.44
481.843	78.44
482.061	77.44
482.28	76.44
482.498	69.44
482.717	70.44
482.935	66.44
483.153	67.44
483.372	82.44
483.59	73.44
483.808	78.44
484.027	76.44
484.245	79.44
484.463	81.44
484.681	78.44
484.9	85.44
485.118	77.44
485.336	81.44
485.554	78.44
485.772	72.44
485.99	70.44
486.209	68.44
486.427	65.44
486.645	78.44
486.863	77.44
487.081	59.44
487.299	75.44
487.517	83.44
487.735	67.44
487.953	90.44
488.171	79.44
488.389	73.44
488.607	73.44
488.825	85.44
489.043	83.44
489.261	85.44
489.479	70.44
489.696	91.44
489.914	85.44
490.132	75.44
490.35	73.44
490.568	88.44
490.786	90.44
491.003	70.44
491.221	81.44
491.439	87.44
491.657	81.44
491.874	78.44
492.092	81.44
492.31	70.44
492.527	82.44
492.745	81.44
492.963	71.44
493.18	69.44
493.398	75.44
493.615	83.44
493.833	73.44
494.05	80.44
494.268	78.44
494.485	81.44
494.703	75.44
494.92	77.44
495.138	75.44
495.355	62.44
495.573	75.44
495.79	89.44
496.008	92.44
496.225	76.44
496.442	70.44
496.66	83.44
496.877	88.44
497.094	82.44
497.312	82.44
497.529	79.44
497.746	89.44
497.963	81.44
498.181	88.44
498.398	89.44
498.615	93.44
498.832	75.44
499.049	71.44
499.267	80.44
499.484	78.44
499.701	71.44
499.918	78.44
500.135	56.44
500.352	81.44
500.569	87.44
500.786	74.44
501.003	76.44
501.22	87.44
501.437	72.44
501.654	80.44
501.871	83.44
502.088	87.44
502.305	85.44
502.522	85.44
502.739	81.44
502.956	91.44
503.172	88.44
503.389	76.44
503.606	78.44
503.823	78.44
504.04	82.44
504.256	74.44
504.473	82.44
504.69	80.44
504.907	79.44
505.123	81.44
505.34	68.44
505.557	81.44
505.773	78.44
505.99	79.44
506.207	81.44
506.423	89.44
506.64	78.44
506.856	71.44
507.073	85.44
507.289	82.44
507.506	85.44
507.722	86.44
507.939	72.44
508.155	71.44
508.372	82.44
508.588	91.44
508.805	89.44
509.021	78.44
509.238	82.44
509.454	78.44
509.67	71.44
509.887	71.44
510.103	77.44
510.319	93.44
510.536	91.44
510.752	94.44
510.968	82.44
511.184	93.44
511.401	68.44
511.617	67.44
511.833	78.44
512.049	82.44
512.265	71.44
512.481	70.44
512.698	77.44
512.914	93.44
513.13	71.44
513.346	69.44
513.562	77.44
513.778	66.44
513.994	81.44
514.21	88.44
514.426	86.44
514.642	90.44
514.858	75.44
515.074	79.44
515.29	84.44
515.506	63.44
515.721	75.44
515.937	79.44
516.153	74.44
516.369	76.44
516.585	85.44
516.801	60.44
517.016	78.44
517.232	87.44
517.448	70.44
517.664	86.44
517.879	78.44
518.095	74.44
518.311	82.44
518.527	93.44
518.742	82.44
518.958	78.44
519.173	76.44
519.389	63.44
519.605	91.44
519.82	82.44
520.036	80.44
520.251	81.44
