Data from BGNA1_HRD10591_00003.txt Node
Date: Fri Dec 27 14:28:37 EST 2024
User: Yrep
Spectrometer: HR+D1059
Trigger mode: 1
Integration Time (sec): 1.000000E-1
Scans to average: 1
Electric dark correction enabled: true
Nonlinearity correction enabled: false
Boxcar width: 0
XAxis mode: Wavelengths
Number of Pixels in Spectrum: 2048
>>>>>Begin Spectral Data<<<<<
223.165	-22.88
223.4	-22.88
223.635	-22.88
223.869	-15.88
224.104	-7.88
224.338	-12.88
224.573	-10.88
224.808	-13.88
225.042	-7.88
225.277	-6.88
225.511	2.12
225.746	8.12
225.98	-3.88
226.215	11.12
226.449	17.12
226.683	15.12
226.918	16.12
227.152	33.12
227.387	23.12
227.621	38.12
227.856	48.12
228.09	44.12
228.324	63.12
228.559	43.12
228.793	51.12
229.027	64.12
229.262	65.12
229.496	72.12
229.73	70.12
229.964	71.12
230.199	75.12
230.433	84.12
230.667	84.12
230.901	74.12
231.136	66.12
231.37	77.12
231.604	94.12
231.838	82.12
232.072	73.12
232.306	88.12
232.541	76.12
232.775	88.12
233.009	80.12
233.243	80.12
233.477	81.12
233.711	80.12
233.945	81.12
234.179	72.12
234.413	85.12
234.647	80.12
234.881	79.12
235.115	81.12
235.349	77.12
235.583	62.12
235.817	89.12
236.051	76.12
236.285	81.12
236.519	77.12
236.753	68.12
236.987	71.12
237.221	73.12
237.455	62.12
237.689	74.12
237.922	79.12
238.156	73.12
238.39	79.12
238.624	70.12
238.858	70.12
239.091	77.12
239.325	73.12
239.559	87.12
239.793	88.12
240.027	78.12
240.26	76.12
240.494	69.12
240.728	77.12
240.961	79.12
241.195	67.12
241.429	89.12
241.662	64.12
241.896	72.12
242.13	85.12
242.363	61.12
242.597	73.12
242.83	77.12
243.064	83.12
243.298	76.12
243.531	73.12
243.765	74.12
243.998	75.12
244.232	71.12
244.465	74.12
244.699	62.12
244.932	78.12
245.166	68.12
245.399	79.12
245.633	78.12
245.866	74.12
246.099	71.12
246.333	73.12
246.566	80.12
246.8	73.12
247.033	78.12
247.266	66.12
247.5	89.12
247.733	85.12
247.966	73.12
248.2	81.12
248.433	74.12
248.666	73.12
248.899	70.12
249.133	72.12
249.366	78.12
249.599	77.12
249.832	81.12
250.066	83.12
250.299	76.12
250.532	76.12
250.765	72.12
250.998	85.12
251.231	71.12
251.465	84.12
251.698	77.12
251.931	85.12
252.164	92.12
252.397	89.12
252.63	81.12
252.863	74.12
253.096	74.12
253.329	78.12
253.562	71.12
253.795	81.12
254.028	80.12
254.261	62.12
254.494	92.12
254.727	97.12
254.96	73.12
255.193	85.12
255.426	87.12
255.659	74.12
255.892	81.12
256.124	86.12
256.357	85.12
256.59	77.12
256.823	76.12
257.056	81.12
257.289	88.12
257.521	69.12
257.754	75.12
257.987	86.12
258.22	84.12
258.452	79.12
258.685	98.12
258.918	87.12
259.151	89.12
259.383	82.12
259.616	68.12
259.849	85.12
260.081	82.12
260.314	76.12
260.547	85.12
260.779	88.12
261.012	82.12
261.244	76.12
261.477	96.12
261.71	82.12
261.942	71.12
262.175	87.12
262.407	78.12
262.64	71.12
262.872	78.12
263.105	82.12
263.337	90.12
263.57	61.12
263.802	72.12
264.035	68.12
264.267	82.12
264.499	80.12
264.732	70.12
264.964	79.12
265.197	78.12
265.429	81.12
265.661	83.12
265.894	88.12
266.126	75.12
266.358	75.12
266.591	81.12
266.823	79.12
267.055	77.12
267.287	65.12
267.52	64.12
267.752	94.12
267.984	90.12
268.216	87.12
268.448	89.12
268.681	100.12
268.913	83.12
269.145	77.12
269.377	93.12
269.609	101.12
269.841	88.12
270.073	92.12
270.306	86.12
270.538	62.12
270.77	71.12
271.002	86.12
271.234	84.12
271.466	94.12
271.698	87.12
271.93	85.12
272.162	72.12
272.394	84.12
272.626	80.12
272.858	81.12
273.09	71.12
273.322	78.12
273.553	73.12
273.785	93.12
274.017	80.12
274.249	78.12
274.481	92.12
274.713	85.12
274.945	88.12
275.176	86.12
275.408	101.12
275.64	82.12
275.872	98.12
276.104	86.12
276.335	87.12
276.567	84.12
276.799	85.12
277.031	69.12
277.262	79.12
277.494	85.12
277.726	88.12
277.957	80.12
278.189	88.12
278.421	73.12
278.652	94.12
278.884	94.12
279.115	91.12
279.347	84.12
279.579	87.12
279.81	83.12
280.042	88.12
280.273	67.12
280.505	85.12
280.736	88.12
280.968	83.12
281.199	77.12
281.431	93.12
281.662	76.12
281.894	90.12
282.125	77.12
282.356	84.12
282.588	87.12
282.819	79.12
283.051	88.12
283.282	77.12
283.513	87.12
283.745	79.12
283.976	84.12
284.207	82.12
284.439	76.12
284.67	71.12
284.901	84.12
285.132	94.12
285.364	96.12
285.595	71.12
285.826	87.12
286.057	86.12
286.288	85.12
286.52	82.12
286.751	88.12
286.982	82.12
287.213	81.12
287.444	82.12
287.675	88.12
287.906	85.12
288.138	82.12
288.369	86.12
288.6	82.12
288.831	81.12
289.062	80.12
289.293	80.12
289.524	84.12
289.755	82.12
289.986	93.12
290.217	93.12
290.448	95.12
290.679	73.12
290.91	89.12
291.141	91.12
291.371	84.12
291.602	92.12
291.833	78.12
292.064	89.12
292.295	84.12
292.526	82.12
292.757	84.12
292.987	84.12
293.218	86.12
293.449	79.12
293.68	78.12
293.91	78.12
294.141	81.12
294.372	85.12
294.603	70.12
294.833	84.12
295.064	90.12
295.295	94.12
295.525	89.12
295.756	96.12
295.987	85.12
296.217	94.12
296.448	89.12
296.679	69.12
296.909	91.12
297.14	87.12
297.37	82.12
297.601	82.12
297.831	74.12
298.062	77.12
298.292	76.12
298.523	80.12
298.753	87.12
298.984	85.12
299.214	80.12
299.445	84.12
299.675	75.12
299.905	94.12
300.136	79.12
300.366	90.12
300.597	93.12
300.827	87.12
301.057	83.12
301.288	95.12
301.518	91.12
301.748	89.12
301.979	93.12
302.209	84.12
302.439	86.12
302.669	84.12
302.9	73.12
303.13	87.12
303.36	94.12
303.59	94.12
303.82	80.12
304.051	87.12
304.281	92.12
304.511	93.12
304.741	96.12
304.971	78.12
305.201	91.12
305.431	79.12
305.661	76.12
305.891	83.12
306.121	101.12
306.352	94.12
306.582	80.12
306.812	83.12
307.042	74.12
307.272	80.12
307.502	64.12
307.731	94.12
307.961	93.12
308.191	84.12
308.421	89.12
308.651	99.12
308.881	96.12
309.111	87.12
309.341	81.12
309.571	81.12
309.8	99.12
310.03	80.12
310.26	74.12
310.49	85.12
310.72	86.12
310.949	69.12
311.179	96.12
311.409	88.12
311.639	100.12
311.868	85.12
312.098	87.12
312.328	85.12
312.557	94.12
312.787	77.12
313.017	78.12
313.246	84.12
313.476	83.12
313.706	99.12
313.935	82.12
314.165	81.12
314.394	79.12
314.624	74.12
314.853	91.12
315.083	84.12
315.312	76.12
315.542	87.12
315.771	72.12
316.001	86.12
316.23	86.12
316.46	87.12
316.689	87.12
316.919	84.12
317.148	92.12
317.377	94.12
317.607	81.12
317.836	85.12
318.065	87.12
318.295	88.12
318.524	87.12
318.753	78.12
318.983	97.12
319.212	92.12
319.441	80.12
319.67	94.12
319.9	87.12
320.129	86.12
320.358	80.12
320.587	81.12
320.816	87.12
321.046	86.12
321.275	74.12
321.504	71.12
321.733	89.12
321.962	89.12
322.191	96.12
322.42	76.12
322.649	85.12
322.878	79.12
323.108	85.12
323.337	94.12
323.566	66.12
323.795	92.12
324.024	82.12
324.253	83.12
324.482	84.12
324.71	74.12
324.939	87.12
325.168	97.12
325.397	75.12
325.626	86.12
325.855	90.12
326.084	83.12
326.313	88.12
326.542	87.12
326.77	80.12
326.999	87.12
327.228	82.12
327.457	70.12
327.686	81.12
327.914	99.12
328.143	89.12
328.372	88.12
328.6	77.12
328.829	76.12
329.058	83.12
329.287	101.12
329.515	86.12
329.744	96.12
329.972	85.12
330.201	89.12
330.43	74.12
330.658	85.12
330.887	90.12
331.115	85.12
331.344	81.12
331.572	82.12
331.801	102.12
332.03	78.12
332.258	104.12
332.486	81.12
332.715	86.12
332.943	85.12
333.172	88.12
333.4	84.12
333.629	79.12
333.857	79.12
334.085	86.12
334.314	90.12
334.542	96.12
334.771	92.12
334.999	94.12
335.227	93.12
335.455	101.12
335.684	86.12
335.912	90.12
336.14	70.12
336.369	95.12
336.597	99.12
336.825	79.12
337.053	86.12
337.281	86.12
337.51	81.12
337.738	103.12
337.966	71.12
338.194	85.12
338.422	78.12
338.65	101.12
338.878	86.12
339.106	83.12
339.334	89.12
339.562	66.12
339.79	86.12
340.018	72.12
340.246	84.12
340.474	83.12
340.702	96.12
340.93	97.12
341.158	73.12
341.386	76.12
341.614	76.12
341.842	94.12
342.07	78.12
342.298	83.12
342.526	92.12
342.754	81.12
342.981	75.12
343.209	87.12
343.437	100.12
343.665	86.12
343.893	81.12
344.12	73.12
344.348	83.12
344.576	82.12
344.804	73.12
345.031	79.12
345.259	94.12
345.487	76.12
345.714	85.12
345.942	77.12
346.17	76.12
346.397	94.12
346.625	70.12
346.853	86.12
347.08	81.12
347.308	76.12
347.535	71.12
347.763	96.12
347.99	88.12
348.218	79.12
348.445	82.12
348.673	87.12
348.9	79.12
349.128	77.12
349.355	93.12
349.583	94.12
349.81	63.12
350.037	88.12
350.265	79.12
350.492	90.12
350.72	90.12
350.947	77.12
351.174	89.12
351.402	71.12
351.629	70.12
351.856	70.12
352.083	78.12
352.311	90.12
352.538	84.12
352.765	81.12
352.992	78.12
353.22	87.12
353.447	84.12
353.674	88.12
353.901	88.12
354.128	90.12
354.355	78.12
354.583	82.12
354.81	89.12
355.037	81.12
355.264	88.12
355.491	84.12
355.718	87.12
355.945	80.12
356.172	93.12
356.399	87.12
356.626	74.12
356.853	82.12
357.08	93.12
357.307	84.12
357.534	80.12
357.761	76.12
357.988	72.12
358.215	85.12
358.441	85.12
358.668	83.12
358.895	69.12
359.122	89.12
359.349	85.12
359.576	77.12
359.802	79.12
360.029	83.12
360.256	84.12
360.483	93.12
360.709	76.12
360.936	92.12
361.163	85.12
361.39	82.12
361.616	76.12
361.843	92.12
362.07	83.12
362.296	72.12
362.523	72.12
362.749	86.12
362.976	78.12
363.203	79.12
363.429	100.12
363.656	82.12
363.882	81.12
364.109	91.12
364.335	92.12
364.562	87.12
364.788	83.12
365.015	78.12
365.241	86.12
365.468	86.12
365.694	82.12
365.92	66.12
366.147	65.12
366.373	92.12
366.599	92.12
366.826	78.12
367.052	82.12
367.278	73.12
367.505	89.12
367.731	84.12
367.957	82.12
368.184	93.12
368.41	85.12
368.636	85.12
368.862	92.12
369.089	78.12
369.315	82.12
369.541	90.12
369.767	92.12
369.993	80.12
370.219	72.12
370.445	83.12
370.672	87.12
370.898	81.12
371.124	78.12
371.35	87.12
371.576	88.12
371.802	87.12
372.028	69.12
372.254	75.12
372.48	90.12
372.706	81.12
372.932	81.12
373.158	86.12
373.384	81.12
373.61	81.12
373.835	93.12
374.061	82.12
374.287	80.12
374.513	87.12
374.739	78.12
374.965	72.12
375.191	80.12
375.416	86.12
375.642	96.12
375.868	87.12
376.094	88.12
376.319	88.12
376.545	89.12
376.771	80.12
376.997	83.12
377.222	76.12
377.448	76.12
377.674	80.12
377.899	79.12
378.125	78.12
378.35	77.12
378.576	93.12
378.802	78.12
379.027	85.12
379.253	86.12
379.478	72.12
379.704	79.12
379.929	78.12
380.155	94.12
380.38	86.12
380.606	74.12
380.831	77.12
381.057	87.12
381.282	75.12
381.507	73.12
381.733	89.12
381.958	79.12
382.184	86.12
382.409	87.12
382.634	87.12
382.86	79.12
383.085	67.12
383.31	96.12
383.535	81.12
383.761	89.12
383.986	89.12
384.211	76.12
384.436	92.12
384.662	75.12
384.887	96.12
385.112	92.12
385.337	85.12
385.562	78.12
385.787	83.12
386.013	70.12
386.238	86.12
386.463	84.12
386.688	95.12
386.913	87.12
387.138	94.12
387.363	83.12
387.588	87.12
387.813	80.12
388.038	84.12
388.263	89.12
388.488	87.12
388.713	76.12
388.938	72.12
389.163	76.12
389.387	77.12
389.612	94.12
389.837	77.12
390.062	72.12
390.287	89.12
390.512	87.12
390.736	72.12
390.961	87.12
391.186	79.12
391.411	89.12
391.636	86.12
391.86	78.12
392.085	81.12
392.31	67.12
392.534	80.12
392.759	81.12
392.984	78.12
393.208	82.12
393.433	74.12
393.658	80.12
393.882	84.12
394.107	70.12
394.331	78.12
394.556	81.12
394.78	80.12
395.005	81.12
395.229	86.12
395.454	84.12
395.678	77.12
395.903	75.12
396.127	83.12
396.352	80.12
396.576	84.12
396.801	88.12
397.025	78.12
397.249	67.12
397.474	98.12
397.698	88.12
397.922	84.12
398.147	79.12
398.371	76.12
398.595	88.12
398.82	86.12
399.044	79.12
399.268	81.12
399.492	84.12
399.717	88.12
399.941	90.12
400.165	93.12
400.389	80.12
400.613	90.12
400.837	86.12
401.062	77.12
401.286	82.12
401.51	79.12
401.734	94.12
401.958	71.12
402.182	88.12
402.406	73.12
402.63	76.12
402.854	85.12
403.078	95.12
403.302	97.12
403.526	75.12
403.75	77.12
403.974	76.12
404.198	94.12
404.422	79.12
404.645	71.12
404.869	73.12
405.093	77.12
405.317	84.12
405.541	79.12
405.765	83.12
405.988	74.12
406.212	70.12
406.436	64.12
406.66	90.12
406.883	76.12
407.107	81.12
407.331	80.12
407.555	77.12
407.778	87.12
408.002	77.12
408.226	76.12
408.449	68.12
408.673	82.12
408.896	85.12
409.12	81.12
409.344	92.12
409.567	86.12
409.791	73.12
410.014	88.12
410.238	76.12
410.461	82.12
410.685	101.12
410.908	79.12
411.132	79.12
411.355	79.12
411.578	69.12
411.802	97.12
412.025	87.12
412.249	81.12
412.472	78.12
412.695	82.12
412.919	86.12
413.142	76.12
413.365	80.12
413.589	78.12
413.812	83.12
414.035	92.12
414.258	75.12
414.482	80.12
414.705	77.12
414.928	72.12
415.151	84.12
415.374	72.12
415.597	81.12
415.821	77.12
416.044	75.12
416.267	83.12
416.49	85.12
416.713	73.12
416.936	77.12
417.159	90.12
417.382	93.12
417.605	80.12
417.828	85.12
418.051	87.12
418.274	78.12
418.497	77.12
418.72	74.12
418.943	83.12
419.166	76.12
419.389	79.12
419.611	82.12
419.834	73.12
420.057	83.12
420.28	68.12
420.503	79.12
420.726	86.12
420.948	84.12
421.171	79.12
421.394	87.12
421.617	99.12
421.839	76.12
422.062	78.12
422.285	71.12
422.507	80.12
422.73	80.12
422.953	78.12
423.175	78.12
423.398	76.12
423.621	73.12
423.843	68.12
424.066	87.12
424.288	93.12
424.511	78.12
424.733	89.12
424.956	83.12
425.178	80.12
425.401	70.12
425.623	74.12
425.846	88.12
426.068	82.12
426.291	73.12
426.513	82.12
426.735	85.12
426.958	84.12
427.18	77.12
427.402	77.12
427.625	82.12
427.847	77.12
428.069	70.12
428.292	81.12
428.514	85.12
428.736	86.12
428.958	64.12
429.181	88.12
429.403	76.12
429.625	85.12
429.847	74.12
430.069	68.12
430.292	86.12
430.514	69.12
430.736	84.12
430.958	71.12
431.18	68.12
431.402	77.12
431.624	72.12
431.846	80.12
432.068	95.12
432.29	78.12
432.512	72.12
432.734	83.12
432.956	79.12
433.178	83.12
433.4	85.12
433.622	89.12
433.844	77.12
434.066	92.12
434.287	92.12
434.509	81.12
434.731	77.12
434.953	69.12
435.175	62.12
435.397	80.12
435.618	92.12
435.84	79.12
436.062	89.12
436.284	89.12
436.505	85.12
436.727	87.12
436.949	95.12
437.17	89.12
437.392	79.12
437.614	76.12
437.835	81.12
438.057	80.12
438.278	65.12
438.5	78.12
438.721	93.12
438.943	83.12
439.165	87.12
439.386	84.12
439.608	95.12
439.829	88.12
440.05	81.12
440.272	80.12
440.493	82.12
440.715	78.12
440.936	79.12
441.158	75.12
441.379	69.12
441.6	69.12
441.822	86.12
442.043	65.12
442.264	92.12
442.486	91.12
442.707	76.12
442.928	74.12
443.149	72.12
443.371	75.12
443.592	81.12
443.813	89.12
444.034	82.12
444.255	81.12
444.476	86.12
444.698	75.12
444.919	82.12
445.14	145.12
445.361	108.12
445.582	95.12
445.803	79.12
446.024	82.12
446.245	80.12
446.466	80.12
446.687	80.12
446.908	87.12
447.129	87.12
447.35	87.12
447.571	92.12
447.792	84.12
448.013	81.12
448.234	70.12
448.455	80.12
448.675	87.12
448.896	79.12
449.117	78.12
449.338	82.12
449.559	85.12
449.779	86.12
450	72.12
450.221	85.12
450.442	78.12
450.662	73.12
450.883	78.12
451.104	85.12
451.324	84.12
451.545	78.12
451.766	88.12
451.986	71.12
452.207	83.12
452.428	77.12
452.648	83.12
452.869	78.12
453.089	87.12
453.31	74.12
453.53	81.12
453.751	82.12
453.971	79.12
454.192	77.12
454.412	82.12
454.633	65.12
454.853	88.12
455.073	77.12
455.294	68.12
455.514	79.12
455.734	86.12
455.955	88.12
456.175	86.12
456.395	87.12
456.616	84.12
456.836	95.12
457.056	64.12
457.276	84.12
457.497	85.12
457.717	96.12
457.937	86.12
458.157	80.12
458.377	85.12
458.598	80.12
458.818	80.12
459.038	73.12
459.258	80.12
459.478	85.12
459.698	77.12
459.918	85.12
460.138	90.12
460.358	102.12
460.578	96.12
460.798	75.12
461.018	74.12
461.238	83.12
461.458	88.12
461.678	70.12
461.898	84.12
462.118	75.12
462.338	81.12
462.558	90.12
462.777	74.12
462.997	77.12
463.217	86.12
463.437	87.12
463.657	81.12
463.876	71.12
464.096	88.12
464.316	81.12
464.536	81.12
464.755	83.12
464.975	76.12
465.195	78.12
465.414	83.12
465.634	81.12
465.854	63.12
466.073	81.12
466.293	74.12
466.512	71.12
466.732	77.12
466.951	87.12
467.171	91.12
467.391	76.12
467.61	79.12
467.829	77.12
468.049	83.12
468.268	74.12
468.488	83.12
468.707	76.12
468.927	88.12
469.146	77.12
469.365	77.12
469.585	85.12
469.804	82.12
470.023	78.12
470.243	84.12
470.462	83.12
470.681	73.12
470.901	65.12
471.12	89.12
471.339	70.12
471.558	81.12
471.777	93.12
471.997	77.12
472.216	71.12
472.435	76.12
472.654	85.12
472.873	81.12
473.092	82.12
473.311	81.12
473.53	84.12
473.749	78.12
473.968	85.12
474.187	70.12
474.406	74.12
474.625	97.12
474.844	105.12
475.063	90.12
475.282	81.12
475.501	85.12
475.72	85.12
475.939	84.12
476.158	95.12
476.377	81.12
476.596	74.12
476.814	84.12
477.033	92.12
477.252	82.12
477.471	72.12
477.69	83.12
477.908	82.12
478.127	72.12
478.346	94.12
478.564	78.12
478.783	79.12
479.002	72.12
479.22	89.12
479.439	86.12
479.658	93.12
479.876	94.12
480.095	75.12
480.313	83.12
480.532	81.12
480.751	79.12
480.969	95.12
481.188	76.12
481.406	78.12
481.624	85.12
481.843	80.12
482.061	83.12
482.28	85.12
482.498	81.12
482.717	82.12
482.935	86.12
483.153	95.12
483.372	82.12
483.59	84.12
483.808	81.12
484.027	87.12
484.245	81.12
484.463	87.12
484.681	85.12
484.9	71.12
485.118	90.12
485.336	72.12
485.554	81.12
485.772	81.12
485.99	72.12
486.209	69.12
486.427	81.12
486.645	80.12
486.863	72.12
487.081	82.12
487.299	74.12
487.517	77.12
487.735	84.12
487.953	85.12
488.171	76.12
488.389	79.12
488.607	85.12
488.825	76.12
489.043	83.12
489.261	92.12
489.479	87.12
489.696	86.12
489.914	71.12
490.132	89.12
490.35	80.12
490.568	83.12
490.786	76.12
491.003	83.12
491.221	91.12
491.439	85.12
491.657	68.12
491.874	80.12
492.092	76.12
492.31	85.12
492.527	80.12
492.745	80.12
492.963	79.12
493.18	76.12
493.398	80.12
493.615	76.12
493.833	78.12
494.05	92.12
494.268	92.12
494.485	76.12
494.703	88.12
494.92	79.12
495.138	88.12
495.355	90.12
495.573	86.12
495.79	71.12
496.008	98.12
496.225	94.12
496.442	81.12
496.66	76.12
496.877	96.12
497.094	88.12
497.312	86.12
497.529	76.12
497.746	89.12
497.963	85.12
498.181	99.12
498.398	87.12
498.615	78.12
498.832	72.12
499.049	69.12
499.267	87.12
499.484	85.12
499.701	82.12
499.918	81.12
500.135	81.12
500.352	86.12
500.569	71.12
500.786	83.12
501.003	73.12
501.22	76.12
501.437	75.12
501.654	77.12
501.871	81.12
502.088	86.12
502.305	87.12
502.522	63.12
502.739	84.12
502.956	88.12
503.172	84.12
503.389	73.12
503.606	75.12
503.823	72.12
504.04	88.12
504.256	78.12
504.473	66.12
504.69	73.12
504.907	86.12
505.123	82.12
505.34	93.12
505.557	80.12
505.773	78.12
505.99	80.12
506.207	71.12
506.423	87.12
506.64	75.12
506.856	89.12
507.073	66.12
507.289	96.12
507.506	73.12
507.722	74.12
507.939	85.12
508.155	84.12
508.372	80.12
508.588	94.12
508.805	78.12
509.021	87.12
509.238	85.12
509.454	93.12
509.67	73.12
509.887	90.12
510.103	85.12
510.319	77.12
510.536	77.12
510.752	87.12
510.968	76.12
511.184	83.12
511.401	68.12
511.617	80.12
511.833	88.12
512.049	84.12
512.265	66.12
512.481	98.12
512.698	86.12
512.914	90.12
513.13	85.12
513.346	81.12
513.562	87.12
513.778	90.12
513.994	92.12
514.21	86.12
514.426	94.12
514.642	79.12
514.858	89.12
515.074	90.12
515.29	93.12
515.506	83.12
515.721	80.12
515.937	75.12
516.153	88.12
516.369	85.12
516.585	84.12
516.801	86.12
517.016	73.12
517.232	73.12
517.448	74.12
517.664	86.12
517.879	88.12
518.095	86.12
518.311	78.12
518.527	93.12
518.742	80.12
518.958	75.12
519.173	64.12
519.389	77.12
519.605	86.12
519.82	74.12
520.036	96.12
