Data from BGNA1_HRD10591_00001.txt Node
Date: Fri Dec 27 14:28:35 EST 2024
User: Yrep
Spectrometer: HR+D1059
Trigger mode: 1
Integration Time (sec): 1.000000E-1
Scans to average: 1
Electric dark correction enabled: true
Nonlinearity correction enabled: false
Boxcar width: 0
XAxis mode: Wavelengths
Number of Pixels in Spectrum: 2048
>>>>>Begin Spectral Data<<<<<
223.165	-20.06
223.4	-20.06
223.635	-20.06
223.869	-6.06
224.104	-15.06
224.338	-21.06
224.573	-15.06
224.808	-5.06
225.042	-7.06
225.277	-11.06
225.511	0.94
225.746	9.94
225.98	-1.06
226.215	9.94
226.449	10.94
226.683	24.94
226.918	22.94
227.152	21.94
227.387	17.94
227.621	39.94
227.856	45.94
228.09	55.94
228.324	40.94
228.559	55.94
228.793	56.94
229.027	62.94
229.262	55.94
229.496	58.94
229.73	60.94
229.964	79.94
230.199	68.94
230.433	67.94
230.667	90.94
230.901	77.94
231.136	79.94
231.37	60.94
231.604	76.94
231.838	92.94
232.072	59.94
232.306	65.94
232.541	77.94
232.775	65.94
233.009	88.94
233.243	76.94
233.477	89.94
233.711	65.94
233.945	75.94
234.179	77.94
234.413	77.94
234.647	79.94
234.881	66.94
235.115	65.94
235.349	73.94
235.583	62.94
235.817	73.94
236.051	77.94
236.285	73.94
236.519	68.94
236.753	81.94
236.987	74.94
237.221	68.94
237.455	82.94
237.689	69.94
237.922	70.94
238.156	87.94
238.39	72.94
238.624	80.94
238.858	83.94
239.091	79.94
239.325	76.94
239.559	56.94
239.793	68.94
240.027	79.94
240.26	79.94
240.494	77.94
240.728	72.94
240.961	63.94
241.195	73.94
241.429	83.94
241.662	71.94
241.896	68.94
242.13	62.94
242.363	74.94
242.597	69.94
242.83	68.94
243.064	71.94
243.298	71.94
243.531	80.94
243.765	68.94
243.998	66.94
244.232	82.94
244.465	68.94
244.699	55.94
244.932	62.94
245.166	67.94
245.399	82.94
245.633	62.94
245.866	81.94
246.099	82.94
246.333	74.94
246.566	89.94
246.8	71.94
247.033	66.94
247.266	74.94
247.5	59.94
247.733	81.94
247.966	76.94
248.2	90.94
248.433	73.94
248.666	69.94
248.899	82.94
249.133	79.94
249.366	65.94
249.599	76.94
249.832	87.94
250.066	73.94
250.299	72.94
250.532	82.94
250.765	86.94
250.998	75.94
251.231	92.94
251.465	72.94
251.698	74.94
251.931	72.94
252.164	76.94
252.397	82.94
252.63	80.94
252.863	76.94
253.096	93.94
253.329	86.94
253.562	68.94
253.795	71.94
254.028	74.94
254.261	79.94
254.494	83.94
254.727	78.94
254.96	96.94
255.193	82.94
255.426	75.94
255.659	77.94
255.892	81.94
256.124	80.94
256.357	76.94
256.59	81.94
256.823	70.94
257.056	79.94
257.289	78.94
257.521	79.94
257.754	90.94
257.987	71.94
258.22	89.94
258.452	68.94
258.685	96.94
258.918	63.94
259.151	81.94
259.383	85.94
259.616	62.94
259.849	78.94
260.081	80.94
260.314	79.94
260.547	71.94
260.779	82.94
261.012	75.94
261.244	67.94
261.477	87.94
261.71	84.94
261.942	71.94
262.175	89.94
262.407	67.94
262.64	65.94
262.872	85.94
263.105	75.94
263.337	66.94
263.57	76.94
263.802	77.94
264.035	69.94
264.267	76.94
264.499	66.94
264.732	83.94
264.964	65.94
265.197	81.94
265.429	79.94
265.661	89.94
265.894	83.94
266.126	87.94
266.358	67.94
266.591	67.94
266.823	67.94
267.055	74.94
267.287	80.94
267.52	76.94
267.752	73.94
267.984	87.94
268.216	79.94
268.448	78.94
268.681	81.94
268.913	77.94
269.145	81.94
269.377	83.94
269.609	79.94
269.841	76.94
270.073	69.94
270.306	84.94
270.538	75.94
270.77	82.94
271.002	87.94
271.234	77.94
271.466	92.94
271.698	82.94
271.93	81.94
272.162	88.94
272.394	95.94
272.626	99.94
272.858	80.94
273.09	78.94
273.322	76.94
273.553	73.94
273.785	83.94
274.017	69.94
274.249	86.94
274.481	80.94
274.713	82.94
274.945	95.94
275.176	79.94
275.408	78.94
275.64	74.94
275.872	66.94
276.104	76.94
276.335	78.94
276.567	73.94
276.799	82.94
277.031	78.94
277.262	72.94
277.494	84.94
277.726	81.94
277.957	73.94
278.189	80.94
278.421	70.94
278.652	68.94
278.884	84.94
279.115	76.94
279.347	81.94
279.579	83.94
279.81	92.94
280.042	80.94
280.273	67.94
280.505	81.94
280.736	80.94
280.968	68.94
281.199	80.94
281.431	72.94
281.662	73.94
281.894	80.94
282.125	72.94
282.356	75.94
282.588	72.94
282.819	91.94
283.051	82.94
283.282	75.94
283.513	81.94
283.745	77.94
283.976	81.94
284.207	79.94
284.439	75.94
284.67	75.94
284.901	74.94
285.132	83.94
285.364	81.94
285.595	79.94
285.826	76.94
286.057	85.94
286.288	68.94
286.52	64.94
286.751	73.94
286.982	78.94
287.213	68.94
287.444	74.94
287.675	82.94
287.906	81.94
288.138	91.94
288.369	87.94
288.6	78.94
288.831	85.94
289.062	93.94
289.293	71.94
289.524	71.94
289.755	76.94
289.986	87.94
290.217	71.94
290.448	70.94
290.679	82.94
290.91	73.94
291.141	79.94
291.371	77.94
291.602	84.94
291.833	88.94
292.064	84.94
292.295	83.94
292.526	87.94
292.757	83.94
292.987	86.94
293.218	75.94
293.449	77.94
293.68	87.94
293.91	88.94
294.141	90.94
294.372	91.94
294.603	85.94
294.833	87.94
295.064	69.94
295.295	71.94
295.525	73.94
295.756	85.94
295.987	87.94
296.217	78.94
296.448	91.94
296.679	78.94
296.909	97.94
297.14	91.94
297.37	82.94
297.601	72.94
297.831	75.94
298.062	77.94
298.292	74.94
298.523	80.94
298.753	88.94
298.984	76.94
299.214	75.94
299.445	76.94
299.675	75.94
299.905	71.94
300.136	85.94
300.366	83.94
300.597	68.94
300.827	77.94
301.057	78.94
301.288	73.94
301.518	76.94
301.748	69.94
301.979	107.94
302.209	83.94
302.439	77.94
302.669	75.94
302.9	91.94
303.13	79.94
303.36	81.94
303.59	85.94
303.82	77.94
304.051	70.94
304.281	79.94
304.511	82.94
304.741	81.94
304.971	78.94
305.201	84.94
305.431	79.94
305.661	85.94
305.891	77.94
306.121	83.94
306.352	84.94
306.582	76.94
306.812	80.94
307.042	84.94
307.272	75.94
307.502	76.94
307.731	84.94
307.961	96.94
308.191	75.94
308.421	79.94
308.651	77.94
308.881	86.94
309.111	82.94
309.341	84.94
309.571	85.94
309.8	79.94
310.03	73.94
310.26	88.94
310.49	85.94
310.72	74.94
310.949	72.94
311.179	77.94
311.409	86.94
311.639	79.94
311.868	80.94
312.098	85.94
312.328	84.94
312.557	73.94
312.787	87.94
313.017	95.94
313.246	82.94
313.476	76.94
313.706	91.94
313.935	73.94
314.165	95.94
314.394	81.94
314.624	80.94
314.853	79.94
315.083	93.94
315.312	93.94
315.542	82.94
315.771	71.94
316.001	72.94
316.23	83.94
316.46	91.94
316.689	74.94
316.919	77.94
317.148	83.94
317.377	83.94
317.607	84.94
317.836	83.94
318.065	81.94
318.295	76.94
318.524	72.94
318.753	72.94
318.983	73.94
319.212	88.94
319.441	75.94
319.67	73.94
319.9	67.94
320.129	89.94
320.358	80.94
320.587	84.94
320.816	90.94
321.046	80.94
321.275	75.94
321.504	81.94
321.733	71.94
321.962	83.94
322.191	85.94
322.42	77.94
322.649	70.94
322.878	67.94
323.108	77.94
323.337	86.94
323.566	73.94
323.795	81.94
324.024	83.94
324.253	69.94
324.482	90.94
324.71	80.94
324.939	82.94
325.168	97.94
325.397	97.94
325.626	85.94
325.855	80.94
326.084	79.94
326.313	76.94
326.542	71.94
326.77	70.94
326.999	83.94
327.228	79.94
327.457	84.94
327.686	82.94
327.914	72.94
328.143	89.94
328.372	93.94
328.6	84.94
328.829	72.94
329.058	76.94
329.287	88.94
329.515	79.94
329.744	71.94
329.972	72.94
330.201	81.94
330.43	90.94
330.658	92.94
330.887	95.94
331.115	76.94
331.344	74.94
331.572	79.94
331.801	76.94
332.03	74.94
332.258	85.94
332.486	84.94
332.715	95.94
332.943	78.94
333.172	82.94
333.4	70.94
333.629	91.94
333.857	65.94
334.085	88.94
334.314	79.94
334.542	81.94
334.771	71.94
334.999	77.94
335.227	80.94
335.455	77.94
335.684	80.94
335.912	77.94
336.14	72.94
336.369	75.94
336.597	82.94
336.825	77.94
337.053	72.94
337.281	58.94
337.51	70.94
337.738	92.94
337.966	76.94
338.194	78.94
338.422	81.94
338.65	80.94
338.878	76.94
339.106	89.94
339.334	84.94
339.562	87.94
339.79	83.94
340.018	74.94
340.246	78.94
340.474	71.94
340.702	71.94
340.93	89.94
341.158	89.94
341.386	81.94
341.614	79.94
341.842	73.94
342.07	86.94
342.298	82.94
342.526	75.94
342.754	72.94
342.981	79.94
343.209	71.94
343.437	85.94
343.665	82.94
343.893	87.94
344.12	91.94
344.348	84.94
344.576	85.94
344.804	85.94
345.031	76.94
345.259	90.94
345.487	89.94
345.714	82.94
345.942	67.94
346.17	73.94
346.397	81.94
346.625	77.94
346.853	82.94
347.08	69.94
347.308	66.94
347.535	77.94
347.763	74.94
347.99	83.94
348.218	95.94
348.445	77.94
348.673	75.94
348.9	81.94
349.128	89.94
349.355	71.94
349.583	82.94
349.81	76.94
350.037	90.94
350.265	79.94
350.492	83.94
350.72	85.94
350.947	75.94
351.174	79.94
351.402	68.94
351.629	80.94
351.856	74.94
352.083	73.94
352.311	91.94
352.538	75.94
352.765	63.94
352.992	75.94
353.22	73.94
353.447	75.94
353.674	70.94
353.901	78.94
354.128	80.94
354.355	81.94
354.583	81.94
354.81	88.94
355.037	85.94
355.264	79.94
355.491	72.94
355.718	75.94
355.945	83.94
356.172	89.94
356.399	79.94
356.626	72.94
356.853	74.94
357.08	83.94
357.307	82.94
357.534	83.94
357.761	90.94
357.988	90.94
358.215	72.94
358.441	69.94
358.668	91.94
358.895	83.94
359.122	79.94
359.349	81.94
359.576	96.94
359.802	81.94
360.029	74.94
360.256	75.94
360.483	98.94
360.709	76.94
360.936	84.94
361.163	75.94
361.39	68.94
361.616	84.94
361.843	72.94
362.07	70.94
362.296	66.94
362.523	87.94
362.749	87.94
362.976	87.94
363.203	78.94
363.429	83.94
363.656	93.94
363.882	83.94
364.109	90.94
364.335	81.94
364.562	83.94
364.788	57.94
365.015	73.94
365.241	74.94
365.468	80.94
365.694	91.94
365.92	85.94
366.147	75.94
366.373	81.94
366.599	96.94
366.826	87.94
367.052	82.94
367.278	91.94
367.505	73.94
367.731	83.94
367.957	74.94
368.184	99.94
368.41	78.94
368.636	77.94
368.862	85.94
369.089	81.94
369.315	76.94
369.541	76.94
369.767	80.94
369.993	79.94
370.219	80.94
370.445	63.94
370.672	85.94
370.898	84.94
371.124	82.94
371.35	83.94
371.576	79.94
371.802	77.94
372.028	84.94
372.254	83.94
372.48	79.94
372.706	78.94
372.932	61.94
373.158	75.94
373.384	77.94
373.61	87.94
373.835	80.94
374.061	68.94
374.287	84.94
374.513	73.94
374.739	75.94
374.965	76.94
375.191	73.94
375.416	84.94
375.642	95.94
375.868	67.94
376.094	73.94
376.319	90.94
376.545	83.94
376.771	77.94
376.997	73.94
377.222	75.94
377.448	76.94
377.674	73.94
377.899	91.94
378.125	97.94
378.35	78.94
378.576	74.94
378.802	96.94
379.027	73.94
379.253	84.94
379.478	78.94
379.704	78.94
379.929	80.94
380.155	78.94
380.38	76.94
380.606	74.94
380.831	84.94
381.057	83.94
381.282	58.94
381.507	71.94
381.733	64.94
381.958	69.94
382.184	88.94
382.409	67.94
382.634	72.94
382.86	94.94
383.085	85.94
383.31	86.94
383.535	79.94
383.761	78.94
383.986	78.94
384.211	76.94
384.436	80.94
384.662	86.94
384.887	82.94
385.112	81.94
385.337	76.94
385.562	74.94
385.787	70.94
386.013	78.94
386.238	78.94
386.463	77.94
386.688	83.94
386.913	80.94
387.138	80.94
387.363	81.94
387.588	80.94
387.813	80.94
388.038	68.94
388.263	83.94
388.488	63.94
388.713	80.94
388.938	68.94
389.163	79.94
389.387	68.94
389.612	79.94
389.837	82.94
390.062	74.94
390.287	81.94
390.512	76.94
390.736	84.94
390.961	71.94
391.186	77.94
391.411	80.94
391.636	90.94
391.86	71.94
392.085	80.94
392.31	93.94
392.534	90.94
392.759	78.94
392.984	76.94
393.208	74.94
393.433	74.94
393.658	84.94
393.882	72.94
394.107	68.94
394.331	82.94
394.556	78.94
394.78	80.94
395.005	80.94
395.229	82.94
395.454	78.94
395.678	65.94
395.903	96.94
396.127	77.94
396.352	69.94
396.576	78.94
396.801	73.94
397.025	82.94
397.249	82.94
397.474	80.94
397.698	74.94
397.922	91.94
398.147	82.94
398.371	72.94
398.595	77.94
398.82	97.94
399.044	73.94
399.268	75.94
399.492	89.94
399.717	93.94
399.941	80.94
400.165	80.94
400.389	78.94
400.613	77.94
400.837	74.94
401.062	69.94
401.286	85.94
401.51	76.94
401.734	96.94
401.958	78.94
402.182	87.94
402.406	82.94
402.63	70.94
402.854	75.94
403.078	80.94
403.302	71.94
403.526	70.94
403.75	73.94
403.974	70.94
404.198	63.94
404.422	100.94
404.645	89.94
404.869	76.94
405.093	76.94
405.317	69.94
405.541	90.94
405.765	83.94
405.988	80.94
406.212	80.94
406.436	75.94
406.66	86.94
406.883	89.94
407.107	79.94
407.331	71.94
407.555	71.94
407.778	67.94
408.002	72.94
408.226	63.94
408.449	66.94
408.673	76.94
408.896	86.94
409.12	73.94
409.344	63.94
409.567	81.94
409.791	71.94
410.014	72.94
410.238	82.94
410.461	79.94
410.685	82.94
410.908	64.94
411.132	74.94
411.355	67.94
411.578	93.94
411.802	67.94
412.025	69.94
412.249	85.94
412.472	79.94
412.695	66.94
412.919	88.94
413.142	83.94
413.365	67.94
413.589	71.94
413.812	87.94
414.035	67.94
414.258	87.94
414.482	67.94
414.705	85.94
414.928	74.94
415.151	72.94
415.374	81.94
415.597	81.94
415.821	70.94
416.044	82.94
416.267	83.94
416.49	76.94
416.713	70.94
416.936	66.94
417.159	91.94
417.382	82.94
417.605	68.94
417.828	75.94
418.051	79.94
418.274	67.94
418.497	77.94
418.72	75.94
418.943	70.94
419.166	75.94
419.389	86.94
419.611	78.94
419.834	78.94
420.057	79.94
420.28	72.94
420.503	77.94
420.726	80.94
420.948	89.94
421.171	68.94
421.394	89.94
421.617	68.94
421.839	67.94
422.062	78.94
422.285	74.94
422.507	72.94
422.73	77.94
422.953	80.94
423.175	71.94
423.398	74.94
423.621	67.94
423.843	69.94
424.066	66.94
424.288	72.94
424.511	79.94
424.733	70.94
424.956	71.94
425.178	76.94
425.401	74.94
425.623	75.94
425.846	77.94
426.068	69.94
426.291	58.94
426.513	49.94
426.735	98.94
426.958	83.94
427.18	61.94
427.402	74.94
427.625	76.94
427.847	82.94
428.069	79.94
428.292	63.94
428.514	82.94
428.736	73.94
428.958	67.94
429.181	84.94
429.403	72.94
429.625	91.94
429.847	77.94
430.069	79.94
430.292	83.94
430.514	88.94
430.736	81.94
430.958	87.94
431.18	57.94
431.402	67.94
431.624	71.94
431.846	72.94
432.068	75.94
432.29	73.94
432.512	73.94
432.734	73.94
432.956	72.94
433.178	79.94
433.4	76.94
433.622	76.94
433.844	66.94
434.066	86.94
434.287	70.94
434.509	95.94
434.731	71.94
434.953	68.94
435.175	82.94
435.397	70.94
435.618	72.94
435.84	82.94
436.062	76.94
436.284	75.94
436.505	74.94
436.727	72.94
436.949	66.94
437.17	76.94
437.392	99.94
437.614	78.94
437.835	85.94
438.057	78.94
438.278	90.94
438.5	83.94
438.721	80.94
438.943	70.94
439.165	83.94
439.386	75.94
439.608	84.94
439.829	73.94
440.05	77.94
440.272	84.94
440.493	64.94
440.715	61.94
440.936	81.94
441.158	85.94
441.379	78.94
441.6	71.94
441.822	76.94
442.043	77.94
442.264	90.94
442.486	76.94
442.707	80.94
442.928	70.94
443.149	87.94
443.371	82.94
443.592	65.94
443.813	81.94
444.034	80.94
444.255	73.94
444.476	76.94
444.698	77.94
444.919	75.94
445.14	141.94
445.361	95.94
445.582	86.94
445.803	79.94
446.024	71.94
446.245	90.94
446.466	88.94
446.687	84.94
446.908	86.94
447.129	83.94
447.35	67.94
447.571	58.94
447.792	66.94
448.013	84.94
448.234	82.94
448.455	70.94
448.675	73.94
448.896	70.94
449.117	77.94
449.338	75.94
449.559	86.94
449.779	65.94
450	77.94
450.221	83.94
450.442	79.94
450.662	77.94
450.883	70.94
451.104	78.94
451.324	71.94
451.545	89.94
451.766	52.94
451.986	77.94
452.207	75.94
452.428	88.94
452.648	82.94
452.869	78.94
453.089	79.94
453.31	80.94
453.53	71.94
453.751	74.94
453.971	80.94
454.192	80.94
454.412	75.94
454.633	70.94
454.853	79.94
455.073	93.94
455.294	68.94
455.514	90.94
455.734	80.94
455.955	57.94
456.175	73.94
456.395	76.94
456.616	91.94
456.836	71.94
457.056	79.94
457.276	73.94
457.497	72.94
457.717	73.94
457.937	80.94
458.157	72.94
458.377	91.94
458.598	73.94
458.818	73.94
459.038	82.94
459.258	77.94
459.478	77.94
459.698	79.94
459.918	75.94
460.138	69.94
460.358	80.94
460.578	71.94
460.798	63.94
461.018	85.94
461.238	85.94
461.458	72.94
461.678	81.94
461.898	74.94
462.118	71.94
462.338	88.94
462.558	82.94
462.777	78.94
462.997	77.94
463.217	103.94
463.437	68.94
463.657	82.94
463.876	77.94
464.096	74.94
464.316	89.94
464.536	77.94
464.755	76.94
464.975	79.94
465.195	77.94
465.414	89.94
465.634	77.94
465.854	77.94
466.073	89.94
466.293	85.94
466.512	84.94
466.732	83.94
466.951	92.94
467.171	81.94
467.391	91.94
467.61	83.94
467.829	75.94
468.049	77.94
468.268	83.94
468.488	80.94
468.707	72.94
468.927	92.94
469.146	71.94
469.365	63.94
469.585	73.94
469.804	74.94
470.023	92.94
470.243	67.94
470.462	89.94
470.681	61.94
470.901	75.94
471.12	82.94
471.339	89.94
471.558	69.94
471.777	64.94
471.997	81.94
472.216	91.94
472.435	69.94
472.654	83.94
472.873	89.94
473.092	79.94
473.311	67.94
473.53	82.94
473.749	63.94
473.968	84.94
474.187	73.94
474.406	76.94
474.625	91.94
474.844	75.94
475.063	84.94
475.282	81.94
475.501	82.94
475.72	81.94
475.939	80.94
476.158	90.94
476.377	63.94
476.596	59.94
476.814	66.94
477.033	77.94
477.252	80.94
477.471	76.94
477.69	71.94
477.908	79.94
478.127	67.94
478.346	82.94
478.564	74.94
478.783	73.94
479.002	74.94
479.22	84.94
479.439	65.94
479.658	80.94
479.876	87.94
480.095	63.94
480.313	81.94
480.532	75.94
480.751	80.94
480.969	70.94
481.188	91.94
481.406	79.94
481.624	70.94
481.843	57.94
482.061	88.94
482.28	89.94
482.498	72.94
482.717	81.94
482.935	75.94
483.153	68.94
483.372	90.94
483.59	78.94
483.808	93.94
484.027	88.94
484.245	68.94
484.463	87.94
484.681	92.94
484.9	76.94
485.118	77.94
485.336	92.94
485.554	75.94
485.772	78.94
485.99	83.94
486.209	85.94
486.427	77.94
486.645	73.94
486.863	74.94
487.081	84.94
487.299	83.94
487.517	71.94
487.735	89.94
487.953	85.94
488.171	93.94
488.389	81.94
488.607	67.94
488.825	72.94
489.043	78.94
489.261	80.94
489.479	90.94
489.696	80.94
489.914	81.94
490.132	82.94
490.35	79.94
490.568	63.94
490.786	71.94
491.003	83.94
491.221	67.94
491.439	88.94
491.657	83.94
491.874	87.94
492.092	78.94
492.31	80.94
492.527	84.94
492.745	67.94
492.963	79.94
493.18	95.94
493.398	75.94
493.615	75.94
493.833	76.94
494.05	75.94
494.268	74.94
494.485	84.94
494.703	75.94
494.92	91.94
495.138	79.94
495.355	84.94
495.573	78.94
495.79	71.94
496.008	66.94
496.225	83.94
496.442	75.94
496.66	80.94
496.877	88.94
497.094	68.94
497.312	81.94
497.529	92.94
497.746	74.94
497.963	81.94
498.181	75.94
498.398	76.94
498.615	89.94
498.832	74.94
499.049	73.94
499.267	63.94
499.484	82.94
499.701	89.94
499.918	82.94
500.135	86.94
500.352	80.94
500.569	72.94
500.786	77.94
501.003	69.94
501.22	79.94
501.437	72.94
501.654	88.94
501.871	87.94
502.088	72.94
502.305	75.94
502.522	84.94
502.739	60.94
502.956	79.94
503.172	79.94
503.389	85.94
503.606	72.94
503.823	76.94
504.04	88.94
504.256	79.94
504.473	82.94
504.69	75.94
504.907	90.94
505.123	90.94
505.34	70.94
505.557	81.94
505.773	83.94
505.99	86.94
506.207	76.94
506.423	73.94
506.64	75.94
506.856	81.94
507.073	99.94
507.289	78.94
507.506	76.94
507.722	80.94
507.939	75.94
508.155	73.94
508.372	74.94
508.588	70.94
508.805	76.94
509.021	83.94
509.238	73.94
509.454	87.94
509.67	81.94
509.887	85.94
510.103	86.94
510.319	82.94
510.536	77.94
510.752	80.94
510.968	72.94
511.184	84.94
511.401	74.94
511.617	83.94
511.833	91.94
512.049	75.94
512.265	91.94
512.481	74.94
512.698	87.94
512.914	82.94
513.13	89.94
513.346	81.94
513.562	93.94
513.778	79.94
513.994	72.94
514.21	72.94
514.426	84.94
514.642	72.94
514.858	75.94
515.074	83.94
515.29	79.94
515.506	99.94
515.721	82.94
515.937	85.94
516.153	67.94
516.369	80.94
516.585	73.94
516.801	75.94
517.016	95.94
517.232	67.94
517.448	72.94
517.664	82.94
517.879	76.94
518.095	83.94
518.311	87.94
518.527	81.94
518.742	80.94
518.958	97.94
519.173	92.94
519.389	91.94
519.605	77.94
519.82	86.94
520.036	64.94
520.251	79.94
