Data from BGNA1_HRD10591_00005.txt Node
Date: Fri Dec 27 14:28:39 EST 2024
User: Yrep
Spectrometer: HR+D1059
Trigger mode: 1
Integration Time (sec): 1.000000E-1
Scans to average: 1
Electric dark correction enabled: true
Nonlinearity correction enabled: false
Boxcar width: 0
XAxis mode: Wavelengths
Number of Pixels in Spectrum: 2048
>>>>>Begin Spectral Data<<<<<
223.165	-12.44
223.4	-12.44
223.635	-12.44
223.869	-21.44
224.104	-26.44
224.338	-9.44
224.573	-8.44
224.808	-16.44
225.042	-7.44
225.277	-4.44
225.511	-2.44
225.746	-2.44
225.98	-13.44
226.215	5.56
226.449	15.56
226.683	19.56
226.918	45.56
227.152	38.56
227.387	39.56
227.621	32.56
227.856	47.56
228.09	43.56
228.324	52.56
228.559	48.56
228.793	53.56
229.027	57.56
229.262	58.56
229.496	59.56
229.73	71.56
229.964	61.56
230.199	54.56
230.433	63.56
230.667	85.56
230.901	82.56
231.136	68.56
231.37	80.56
231.604	73.56
231.838	84.56
232.072	68.56
232.306	72.56
232.541	78.56
232.775	82.56
233.009	80.56
233.243	88.56
233.477	86.56
233.711	72.56
233.945	88.56
234.179	74.56
234.413	75.56
234.647	85.56
234.881	85.56
235.115	77.56
235.349	85.56
235.583	84.56
235.817	72.56
236.051	70.56
236.285	73.56
236.519	83.56
236.753	64.56
236.987	70.56
237.221	71.56
237.455	85.56
237.689	61.56
237.922	87.56
238.156	72.56
238.39	65.56
238.624	86.56
238.858	79.56
239.091	69.56
239.325	79.56
239.559	76.56
239.793	72.56
240.027	75.56
240.26	76.56
240.494	77.56
240.728	72.56
240.961	85.56
241.195	77.56
241.429	80.56
241.662	70.56
241.896	69.56
242.13	81.56
242.363	70.56
242.597	68.56
242.83	72.56
243.064	76.56
243.298	67.56
243.531	75.56
243.765	81.56
243.998	80.56
244.232	65.56
244.465	82.56
244.699	83.56
244.932	79.56
245.166	83.56
245.399	85.56
245.633	76.56
245.866	73.56
246.099	67.56
246.333	79.56
246.566	78.56
246.8	61.56
247.033	75.56
247.266	79.56
247.5	84.56
247.733	80.56
247.966	85.56
248.2	70.56
248.433	79.56
248.666	77.56
248.899	76.56
249.133	77.56
249.366	80.56
249.599	65.56
249.832	80.56
250.066	79.56
250.299	81.56
250.532	87.56
250.765	81.56
250.998	83.56
251.231	79.56
251.465	57.56
251.698	75.56
251.931	60.56
252.164	72.56
252.397	79.56
252.63	76.56
252.863	71.56
253.096	91.56
253.329	80.56
253.562	65.56
253.795	77.56
254.028	81.56
254.261	73.56
254.494	67.56
254.727	75.56
254.96	72.56
255.193	81.56
255.426	69.56
255.659	69.56
255.892	77.56
256.124	72.56
256.357	70.56
256.59	76.56
256.823	66.56
257.056	86.56
257.289	81.56
257.521	79.56
257.754	75.56
257.987	79.56
258.22	82.56
258.452	83.56
258.685	72.56
258.918	94.56
259.151	83.56
259.383	91.56
259.616	75.56
259.849	66.56
260.081	65.56
260.314	77.56
260.547	93.56
260.779	74.56
261.012	72.56
261.244	78.56
261.477	68.56
261.71	70.56
261.942	84.56
262.175	95.56
262.407	75.56
262.64	86.56
262.872	75.56
263.105	80.56
263.337	81.56
263.57	85.56
263.802	84.56
264.035	79.56
264.267	87.56
264.499	67.56
264.732	84.56
264.964	86.56
265.197	88.56
265.429	95.56
265.661	72.56
265.894	76.56
266.126	97.56
266.358	81.56
266.591	89.56
266.823	87.56
267.055	83.56
267.287	70.56
267.52	85.56
267.752	85.56
267.984	82.56
268.216	94.56
268.448	82.56
268.681	78.56
268.913	80.56
269.145	85.56
269.377	78.56
269.609	75.56
269.841	92.56
270.073	79.56
270.306	95.56
270.538	75.56
270.77	88.56
271.002	81.56
271.234	89.56
271.466	85.56
271.698	77.56
271.93	77.56
272.162	71.56
272.394	87.56
272.626	87.56
272.858	76.56
273.09	81.56
273.322	77.56
273.553	64.56
273.785	92.56
274.017	90.56
274.249	76.56
274.481	79.56
274.713	78.56
274.945	95.56
275.176	77.56
275.408	93.56
275.64	79.56
275.872	87.56
276.104	89.56
276.335	98.56
276.567	84.56
276.799	85.56
277.031	70.56
277.262	70.56
277.494	83.56
277.726	72.56
277.957	82.56
278.189	70.56
278.421	73.56
278.652	71.56
278.884	82.56
279.115	99.56
279.347	89.56
279.579	71.56
279.81	81.56
280.042	85.56
280.273	85.56
280.505	75.56
280.736	77.56
280.968	81.56
281.199	83.56
281.431	78.56
281.662	89.56
281.894	105.56
282.125	87.56
282.356	92.56
282.588	75.56
282.819	72.56
283.051	78.56
283.282	75.56
283.513	85.56
283.745	91.56
283.976	75.56
284.207	82.56
284.439	71.56
284.67	88.56
284.901	78.56
285.132	71.56
285.364	77.56
285.595	76.56
285.826	91.56
286.057	82.56
286.288	78.56
286.52	81.56
286.751	81.56
286.982	87.56
287.213	96.56
287.444	84.56
287.675	81.56
287.906	79.56
288.138	76.56
288.369	86.56
288.6	93.56
288.831	76.56
289.062	84.56
289.293	89.56
289.524	83.56
289.755	79.56
289.986	88.56
290.217	84.56
290.448	77.56
290.679	77.56
290.91	89.56
291.141	83.56
291.371	76.56
291.602	78.56
291.833	81.56
292.064	85.56
292.295	91.56
292.526	86.56
292.757	76.56
292.987	79.56
293.218	79.56
293.449	94.56
293.68	86.56
293.91	86.56
294.141	87.56
294.372	86.56
294.603	84.56
294.833	78.56
295.064	85.56
295.295	92.56
295.525	83.56
295.756	80.56
295.987	80.56
296.217	84.56
296.448	92.56
296.679	80.56
296.909	98.56
297.14	99.56
297.37	88.56
297.601	84.56
297.831	86.56
298.062	83.56
298.292	88.56
298.523	95.56
298.753	81.56
298.984	82.56
299.214	90.56
299.445	98.56
299.675	82.56
299.905	87.56
300.136	69.56
300.366	75.56
300.597	88.56
300.827	79.56
301.057	83.56
301.288	81.56
301.518	79.56
301.748	87.56
301.979	100.56
302.209	86.56
302.439	74.56
302.669	87.56
302.9	79.56
303.13	87.56
303.36	88.56
303.59	78.56
303.82	86.56
304.051	87.56
304.281	83.56
304.511	84.56
304.741	91.56
304.971	77.56
305.201	82.56
305.431	101.56
305.661	78.56
305.891	83.56
306.121	91.56
306.352	82.56
306.582	81.56
306.812	80.56
307.042	83.56
307.272	82.56
307.502	84.56
307.731	88.56
307.961	80.56
308.191	92.56
308.421	80.56
308.651	88.56
308.881	95.56
309.111	83.56
309.341	77.56
309.571	89.56
309.8	86.56
310.03	72.56
310.26	80.56
310.49	77.56
310.72	74.56
310.949	84.56
311.179	80.56
311.409	72.56
311.639	76.56
311.868	76.56
312.098	89.56
312.328	84.56
312.557	72.56
312.787	76.56
313.017	77.56
313.246	73.56
313.476	88.56
313.706	79.56
313.935	83.56
314.165	91.56
314.394	80.56
314.624	70.56
314.853	87.56
315.083	75.56
315.312	81.56
315.542	92.56
315.771	88.56
316.001	76.56
316.23	83.56
316.46	82.56
316.689	91.56
316.919	81.56
317.148	77.56
317.377	77.56
317.607	84.56
317.836	81.56
318.065	84.56
318.295	71.56
318.524	79.56
318.753	76.56
318.983	96.56
319.212	95.56
319.441	78.56
319.67	87.56
319.9	70.56
320.129	67.56
320.358	79.56
320.587	73.56
320.816	87.56
321.046	92.56
321.275	78.56
321.504	82.56
321.733	79.56
321.962	92.56
322.191	77.56
322.42	92.56
322.649	91.56
322.878	86.56
323.108	77.56
323.337	82.56
323.566	88.56
323.795	87.56
324.024	76.56
324.253	92.56
324.482	93.56
324.71	83.56
324.939	89.56
325.168	68.56
325.397	83.56
325.626	85.56
325.855	81.56
326.084	81.56
326.313	100.56
326.542	76.56
326.77	73.56
326.999	81.56
327.228	74.56
327.457	103.56
327.686	86.56
327.914	107.56
328.143	88.56
328.372	72.56
328.6	79.56
328.829	83.56
329.058	88.56
329.287	75.56
329.515	79.56
329.744	85.56
329.972	78.56
330.201	71.56
330.43	79.56
330.658	86.56
330.887	84.56
331.115	80.56
331.344	100.56
331.572	91.56
331.801	68.56
332.03	80.56
332.258	87.56
332.486	85.56
332.715	82.56
332.943	89.56
333.172	76.56
333.4	72.56
333.629	79.56
333.857	85.56
334.085	95.56
334.314	83.56
334.542	85.56
334.771	82.56
334.999	91.56
335.227	83.56
335.455	96.56
335.684	73.56
335.912	83.56
336.14	77.56
336.369	84.56
336.597	81.56
336.825	83.56
337.053	80.56
337.281	69.56
337.51	67.56
337.738	88.56
337.966	73.56
338.194	75.56
338.422	81.56
338.65	85.56
338.878	75.56
339.106	83.56
339.334	71.56
339.562	93.56
339.79	91.56
340.018	80.56
340.246	68.56
340.474	75.56
340.702	83.56
340.93	68.56
341.158	80.56
341.386	83.56
341.614	80.56
341.842	95.56
342.07	92.56
342.298	93.56
342.526	87.56
342.754	83.56
342.981	92.56
343.209	78.56
343.437	108.56
343.665	82.56
343.893	71.56
344.12	89.56
344.348	100.56
344.576	87.56
344.804	85.56
345.031	72.56
345.259	91.56
345.487	72.56
345.714	84.56
345.942	84.56
346.17	91.56
346.397	82.56
346.625	80.56
346.853	87.56
347.08	87.56
347.308	80.56
347.535	90.56
347.763	80.56
347.99	67.56
348.218	80.56
348.445	81.56
348.673	78.56
348.9	87.56
349.128	71.56
349.355	93.56
349.583	82.56
349.81	82.56
350.037	86.56
350.265	84.56
350.492	79.56
350.72	68.56
350.947	83.56
351.174	85.56
351.402	86.56
351.629	88.56
351.856	76.56
352.083	93.56
352.311	77.56
352.538	83.56
352.765	90.56
352.992	82.56
353.22	80.56
353.447	83.56
353.674	93.56
353.901	85.56
354.128	86.56
354.355	77.56
354.583	84.56
354.81	92.56
355.037	79.56
355.264	84.56
355.491	92.56
355.718	92.56
355.945	85.56
356.172	81.56
356.399	76.56
356.626	87.56
356.853	94.56
357.08	81.56
357.307	82.56
357.534	82.56
357.761	97.56
357.988	86.56
358.215	84.56
358.441	82.56
358.668	88.56
358.895	85.56
359.122	71.56
359.349	80.56
359.576	83.56
359.802	84.56
360.029	70.56
360.256	84.56
360.483	90.56
360.709	79.56
360.936	95.56
361.163	72.56
361.39	76.56
361.616	86.56
361.843	80.56
362.07	86.56
362.296	75.56
362.523	79.56
362.749	80.56
362.976	83.56
363.203	99.56
363.429	79.56
363.656	95.56
363.882	75.56
364.109	66.56
364.335	87.56
364.562	82.56
364.788	80.56
365.015	80.56
365.241	87.56
365.468	90.56
365.694	67.56
365.92	79.56
366.147	99.56
366.373	71.56
366.599	80.56
366.826	86.56
367.052	84.56
367.278	95.56
367.505	79.56
367.731	71.56
367.957	81.56
368.184	78.56
368.41	80.56
368.636	88.56
368.862	81.56
369.089	88.56
369.315	78.56
369.541	78.56
369.767	83.56
369.993	89.56
370.219	88.56
370.445	89.56
370.672	83.56
370.898	73.56
371.124	79.56
371.35	79.56
371.576	82.56
371.802	85.56
372.028	84.56
372.254	82.56
372.48	71.56
372.706	85.56
372.932	81.56
373.158	85.56
373.384	81.56
373.61	77.56
373.835	86.56
374.061	71.56
374.287	96.56
374.513	71.56
374.739	84.56
374.965	81.56
375.191	82.56
375.416	79.56
375.642	98.56
375.868	74.56
376.094	66.56
376.319	99.56
376.545	78.56
376.771	79.56
376.997	86.56
377.222	79.56
377.448	76.56
377.674	81.56
377.899	86.56
378.125	81.56
378.35	83.56
378.576	74.56
378.802	62.56
379.027	87.56
379.253	88.56
379.478	93.56
379.704	83.56
379.929	73.56
380.155	86.56
380.38	90.56
380.606	80.56
380.831	88.56
381.057	86.56
381.282	84.56
381.507	87.56
381.733	83.56
381.958	80.56
382.184	72.56
382.409	71.56
382.634	85.56
382.86	69.56
383.085	82.56
383.31	82.56
383.535	95.56
383.761	85.56
383.986	76.56
384.211	72.56
384.436	73.56
384.662	94.56
384.887	79.56
385.112	83.56
385.337	85.56
385.562	72.56
385.787	85.56
386.013	95.56
386.238	74.56
386.463	63.56
386.688	97.56
386.913	77.56
387.138	80.56
387.363	86.56
387.588	96.56
387.813	78.56
388.038	67.56
388.263	76.56
388.488	63.56
388.713	80.56
388.938	80.56
389.163	72.56
389.387	83.56
389.612	80.56
389.837	93.56
390.062	79.56
390.287	95.56
390.512	94.56
390.736	75.56
390.961	77.56
391.186	79.56
391.411	75.56
391.636	92.56
391.86	78.56
392.085	84.56
392.31	84.56
392.534	93.56
392.759	99.56
392.984	70.56
393.208	91.56
393.433	66.56
393.658	73.56
393.882	78.56
394.107	91.56
394.331	85.56
394.556	73.56
394.78	87.56
395.005	91.56
395.229	68.56
395.454	77.56
395.678	72.56
395.903	92.56
396.127	63.56
396.352	99.56
396.576	86.56
396.801	92.56
397.025	87.56
397.249	84.56
397.474	89.56
397.698	65.56
397.922	70.56
398.147	79.56
398.371	81.56
398.595	96.56
398.82	87.56
399.044	77.56
399.268	73.56
399.492	72.56
399.717	82.56
399.941	83.56
400.165	88.56
400.389	82.56
400.613	86.56
400.837	78.56
401.062	81.56
401.286	79.56
401.51	77.56
401.734	86.56
401.958	93.56
402.182	78.56
402.406	81.56
402.63	92.56
402.854	74.56
403.078	75.56
403.302	74.56
403.526	77.56
403.75	92.56
403.974	83.56
404.198	78.56
404.422	76.56
404.645	61.56
404.869	81.56
405.093	83.56
405.317	58.56
405.541	78.56
405.765	83.56
405.988	71.56
406.212	83.56
406.436	74.56
406.66	81.56
406.883	84.56
407.107	88.56
407.331	75.56
407.555	82.56
407.778	97.56
408.002	87.56
408.226	98.56
408.449	82.56
408.673	91.56
408.896	72.56
409.12	75.56
409.344	91.56
409.567	69.56
409.791	79.56
410.014	78.56
410.238	81.56
410.461	73.56
410.685	78.56
410.908	79.56
411.132	80.56
411.355	81.56
411.578	91.56
411.802	77.56
412.025	74.56
412.249	79.56
412.472	82.56
412.695	85.56
412.919	89.56
413.142	94.56
413.365	73.56
413.589	80.56
413.812	68.56
414.035	75.56
414.258	81.56
414.482	86.56
414.705	89.56
414.928	88.56
415.151	74.56
415.374	81.56
415.597	72.56
415.821	84.56
416.044	71.56
416.267	66.56
416.49	81.56
416.713	84.56
416.936	74.56
417.159	83.56
417.382	71.56
417.605	70.56
417.828	92.56
418.051	93.56
418.274	89.56
418.497	85.56
418.72	80.56
418.943	82.56
419.166	87.56
419.389	80.56
419.611	86.56
419.834	79.56
420.057	78.56
420.28	74.56
420.503	69.56
420.726	73.56
420.948	65.56
421.171	84.56
421.394	83.56
421.617	93.56
421.839	72.56
422.062	87.56
422.285	75.56
422.507	67.56
422.73	71.56
422.953	76.56
423.175	72.56
423.398	69.56
423.621	77.56
423.843	81.56
424.066	88.56
424.288	93.56
424.511	84.56
424.733	86.56
424.956	79.56
425.178	64.56
425.401	82.56
425.623	80.56
425.846	91.56
426.068	77.56
426.291	82.56
426.513	91.56
426.735	79.56
426.958	72.56
427.18	83.56
427.402	83.56
427.625	74.56
427.847	74.56
428.069	87.56
428.292	90.56
428.514	87.56
428.736	84.56
428.958	86.56
429.181	68.56
429.403	70.56
429.625	73.56
429.847	71.56
430.069	84.56
430.292	96.56
430.514	74.56
430.736	78.56
430.958	77.56
431.18	91.56
431.402	83.56
431.624	92.56
431.846	97.56
432.068	68.56
432.29	75.56
432.512	80.56
432.734	78.56
432.956	68.56
433.178	86.56
433.4	91.56
433.622	79.56
433.844	73.56
434.066	82.56
434.287	74.56
434.509	75.56
434.731	65.56
434.953	75.56
435.175	71.56
435.397	92.56
435.618	89.56
435.84	83.56
436.062	75.56
436.284	70.56
436.505	71.56
436.727	76.56
436.949	78.56
437.17	78.56
437.392	61.56
437.614	67.56
437.835	75.56
438.057	86.56
438.278	88.56
438.5	67.56
438.721	65.56
438.943	82.56
439.165	80.56
439.386	88.56
439.608	88.56
439.829	100.56
440.05	81.56
440.272	75.56
440.493	75.56
440.715	81.56
440.936	68.56
441.158	76.56
441.379	72.56
441.6	81.56
441.822	77.56
442.043	72.56
442.264	94.56
442.486	73.56
442.707	75.56
442.928	82.56
443.149	72.56
443.371	80.56
443.592	86.56
443.813	70.56
444.034	73.56
444.255	84.56
444.476	92.56
444.698	82.56
444.919	84.56
445.14	140.56
445.361	109.56
445.582	68.56
445.803	80.56
446.024	82.56
446.245	78.56
446.466	71.56
446.687	74.56
446.908	87.56
447.129	88.56
447.35	67.56
447.571	71.56
447.792	66.56
448.013	82.56
448.234	81.56
448.455	77.56
448.675	79.56
448.896	74.56
449.117	65.56
449.338	76.56
449.559	77.56
449.779	69.56
450	77.56
450.221	84.56
450.442	72.56
450.662	81.56
450.883	80.56
451.104	91.56
451.324	77.56
451.545	81.56
451.766	69.56
451.986	73.56
452.207	79.56
452.428	82.56
452.648	70.56
452.869	68.56
453.089	79.56
453.31	83.56
453.53	66.56
453.751	84.56
453.971	73.56
454.192	68.56
454.412	87.56
454.633	84.56
454.853	79.56
455.073	74.56
455.294	91.56
455.514	76.56
455.734	72.56
455.955	83.56
456.175	80.56
456.395	65.56
456.616	70.56
456.836	72.56
457.056	86.56
457.276	72.56
457.497	65.56
457.717	75.56
457.937	88.56
458.157	73.56
458.377	76.56
458.598	78.56
458.818	71.56
459.038	76.56
459.258	61.56
459.478	82.56
459.698	84.56
459.918	84.56
460.138	71.56
460.358	85.56
460.578	67.56
460.798	66.56
461.018	88.56
461.238	88.56
461.458	78.56
461.678	73.56
461.898	68.56
462.118	71.56
462.338	87.56
462.558	78.56
462.777	77.56
462.997	72.56
463.217	82.56
463.437	82.56
463.657	87.56
463.876	85.56
464.096	81.56
464.316	86.56
464.536	67.56
464.755	75.56
464.975	75.56
465.195	77.56
465.414	65.56
465.634	74.56
465.854	77.56
466.073	79.56
466.293	81.56
466.512	63.56
466.732	87.56
466.951	80.56
467.171	56.56
467.391	85.56
467.61	69.56
467.829	84.56
468.049	71.56
468.268	65.56
468.488	81.56
468.707	71.56
468.927	73.56
469.146	54.56
469.365	97.56
469.585	84.56
469.804	79.56
470.023	76.56
470.243	91.56
470.462	70.56
470.681	69.56
470.901	77.56
471.12	74.56
471.339	71.56
471.558	78.56
471.777	76.56
471.997	92.56
472.216	83.56
472.435	77.56
472.654	73.56
472.873	79.56
473.092	65.56
473.311	76.56
473.53	79.56
473.749	82.56
473.968	85.56
474.187	77.56
474.406	74.56
474.625	73.56
474.844	75.56
475.063	79.56
475.282	81.56
475.501	72.56
475.72	84.56
475.939	85.56
476.158	81.56
476.377	78.56
476.596	73.56
476.814	72.56
477.033	84.56
477.252	86.56
477.471	87.56
477.69	78.56
477.908	87.56
478.127	101.56
478.346	92.56
478.564	84.56
478.783	69.56
479.002	85.56
479.22	83.56
479.439	83.56
479.658	94.56
479.876	65.56
480.095	77.56
480.313	92.56
480.532	83.56
480.751	70.56
480.969	75.56
481.188	76.56
481.406	88.56
481.624	72.56
481.843	89.56
482.061	73.56
482.28	83.56
482.498	71.56
482.717	80.56
482.935	82.56
483.153	77.56
483.372	79.56
483.59	71.56
483.808	71.56
484.027	82.56
484.245	86.56
484.463	86.56
484.681	84.56
484.9	81.56
485.118	80.56
485.336	75.56
485.554	77.56
485.772	86.56
485.99	82.56
486.209	72.56
486.427	70.56
486.645	71.56
486.863	76.56
487.081	88.56
487.299	76.56
487.517	80.56
487.735	79.56
487.953	83.56
488.171	80.56
488.389	78.56
488.607	79.56
488.825	61.56
489.043	83.56
489.261	93.56
489.479	79.56
489.696	82.56
489.914	85.56
490.132	81.56
490.35	83.56
490.568	88.56
490.786	76.56
491.003	71.56
491.221	80.56
491.439	84.56
491.657	81.56
491.874	82.56
492.092	77.56
492.31	84.56
492.527	73.56
492.745	92.56
492.963	79.56
493.18	72.56
493.398	73.56
493.615	99.56
493.833	71.56
494.05	69.56
494.268	92.56
494.485	81.56
494.703	85.56
494.92	80.56
495.138	68.56
495.355	79.56
495.573	81.56
495.79	87.56
496.008	85.56
496.225	79.56
496.442	77.56
496.66	79.56
496.877	77.56
497.094	79.56
497.312	71.56
497.529	85.56
497.746	98.56
497.963	80.56
498.181	74.56
498.398	77.56
498.615	85.56
498.832	88.56
499.049	78.56
499.267	76.56
499.484	83.56
499.701	76.56
499.918	79.56
500.135	84.56
500.352	70.56
500.569	84.56
500.786	83.56
501.003	89.56
501.22	87.56
501.437	70.56
501.654	75.56
501.871	84.56
502.088	90.56
502.305	77.56
502.522	84.56
502.739	77.56
502.956	85.56
503.172	85.56
503.389	83.56
503.606	78.56
503.823	95.56
504.04	88.56
504.256	88.56
504.473	82.56
504.69	80.56
504.907	101.56
505.123	94.56
505.34	83.56
505.557	90.56
505.773	86.56
505.99	72.56
506.207	68.56
506.423	81.56
506.64	81.56
506.856	84.56
507.073	79.56
507.289	85.56
507.506	88.56
507.722	72.56
507.939	69.56
508.155	74.56
508.372	70.56
508.588	81.56
508.805	98.56
509.021	69.56
509.238	89.56
509.454	67.56
509.67	83.56
509.887	84.56
510.103	84.56
510.319	78.56
510.536	68.56
510.752	85.56
510.968	71.56
511.184	83.56
511.401	73.56
511.617	76.56
511.833	71.56
512.049	70.56
512.265	73.56
512.481	91.56
512.698	80.56
512.914	84.56
513.13	80.56
513.346	78.56
513.562	73.56
513.778	59.56
513.994	80.56
514.21	83.56
514.426	70.56
514.642	74.56
514.858	82.56
515.074	80.56
515.29	94.56
515.506	70.56
515.721	91.56
515.937	87.56
516.153	88.56
516.369	93.56
516.585	82.56
516.801	82.56
517.016	77.56
517.232	72.56
517.448	91.56
517.664	81.56
517.879	69.56
518.095	68.56
518.311	81.56
518.527	77.56
518.742	65.56
518.958	86.56
519.173	93.56
519.389	74.56
519.605	93.56
519.82	73.56
520.036	81.56
