Data from BGNA1_HRD10591_00010.txt Node
Date: Fri Dec 27 14:28:44 EST 2024
User: Yrep
Spectrometer: HR+D1059
Trigger mode: 1
Integration Time (sec): 1.000000E-1
Scans to average: 1
Electric dark correction enabled: true
Nonlinearity correction enabled: false
Boxcar width: 0
XAxis mode: Wavelengths
Number of Pixels in Spectrum: 2048
>>>>>Begin Spectral Data<<<<<
223.165	-33.5
223.4	-33.5
223.635	-33.5
223.869	-4.5
224.104	-11.5
224.338	-3.5
224.573	-15.5
224.808	-32.5
225.042	-22.5
225.277	4.5
225.511	-6.5
225.746	1.5
225.98	8.5
226.215	4.5
226.449	19.5
226.683	16.5
226.918	30.5
227.152	44.5
227.387	37.5
227.621	30.5
227.856	48.5
228.09	39.5
228.324	57.5
228.559	48.5
228.793	44.5
229.027	66.5
229.262	56.5
229.496	72.5
229.73	59.5
229.964	83.5
230.199	56.5
230.433	87.5
230.667	74.5
230.901	76.5
231.136	77.5
231.37	92.5
231.604	88.5
231.838	96.5
232.072	87.5
232.306	75.5
232.541	71.5
232.775	80.5
233.009	81.5
233.243	80.5
233.477	65.5
233.711	73.5
233.945	87.5
234.179	71.5
234.413	74.5
234.647	92.5
234.881	93.5
235.115	99.5
235.349	79.5
235.583	66.5
235.817	72.5
236.051	75.5
236.285	91.5
236.519	73.5
236.753	76.5
236.987	78.5
237.221	87.5
237.455	78.5
237.689	83.5
237.922	85.5
238.156	70.5
238.39	72.5
238.624	76.5
238.858	80.5
239.091	78.5
239.325	80.5
239.559	58.5
239.793	77.5
240.027	87.5
240.26	74.5
240.494	78.5
240.728	62.5
240.961	81.5
241.195	82.5
241.429	87.5
241.662	68.5
241.896	72.5
242.13	71.5
242.363	82.5
242.597	82.5
242.83	83.5
243.064	82.5
243.298	85.5
243.531	78.5
243.765	79.5
243.998	81.5
244.232	84.5
244.465	72.5
244.699	60.5
244.932	80.5
245.166	76.5
245.399	79.5
245.633	73.5
245.866	71.5
246.099	77.5
246.333	85.5
246.566	70.5
246.8	76.5
247.033	68.5
247.266	79.5
247.5	70.5
247.733	89.5
247.966	81.5
248.2	74.5
248.433	80.5
248.666	83.5
248.899	94.5
249.133	72.5
249.366	62.5
249.599	91.5
249.832	76.5
250.066	73.5
250.299	74.5
250.532	76.5
250.765	89.5
250.998	71.5
251.231	68.5
251.465	82.5
251.698	86.5
251.931	75.5
252.164	78.5
252.397	77.5
252.63	77.5
252.863	89.5
253.096	77.5
253.329	83.5
253.562	67.5
253.795	86.5
254.028	71.5
254.261	72.5
254.494	70.5
254.727	78.5
254.96	83.5
255.193	76.5
255.426	75.5
255.659	69.5
255.892	79.5
256.124	73.5
256.357	79.5
256.59	86.5
256.823	89.5
257.056	80.5
257.289	74.5
257.521	62.5
257.754	74.5
257.987	76.5
258.22	85.5
258.452	80.5
258.685	84.5
258.918	84.5
259.151	85.5
259.383	86.5
259.616	82.5
259.849	86.5
260.081	70.5
260.314	87.5
260.547	68.5
260.779	93.5
261.012	83.5
261.244	92.5
261.477	76.5
261.71	83.5
261.942	66.5
262.175	79.5
262.407	73.5
262.64	77.5
262.872	86.5
263.105	74.5
263.337	80.5
263.57	82.5
263.802	79.5
264.035	80.5
264.267	72.5
264.499	85.5
264.732	74.5
264.964	84.5
265.197	77.5
265.429	89.5
265.661	74.5
265.894	82.5
266.126	89.5
266.358	82.5
266.591	81.5
266.823	77.5
267.055	76.5
267.287	89.5
267.52	77.5
267.752	98.5
267.984	86.5
268.216	87.5
268.448	79.5
268.681	76.5
268.913	80.5
269.145	88.5
269.377	82.5
269.609	72.5
269.841	77.5
270.073	79.5
270.306	74.5
270.538	89.5
270.77	83.5
271.002	85.5
271.234	73.5
271.466	85.5
271.698	74.5
271.93	80.5
272.162	74.5
272.394	86.5
272.626	81.5
272.858	79.5
273.09	78.5
273.322	92.5
273.553	79.5
273.785	85.5
274.017	88.5
274.249	94.5
274.481	88.5
274.713	90.5
274.945	86.5
275.176	77.5
275.408	71.5
275.64	84.5
275.872	81.5
276.104	82.5
276.335	92.5
276.567	86.5
276.799	89.5
277.031	81.5
277.262	79.5
277.494	72.5
277.726	96.5
277.957	79.5
278.189	100.5
278.421	106.5
278.652	84.5
278.884	84.5
279.115	83.5
279.347	77.5
279.579	73.5
279.81	88.5
280.042	89.5
280.273	86.5
280.505	72.5
280.736	65.5
280.968	87.5
281.199	66.5
281.431	90.5
281.662	84.5
281.894	77.5
282.125	80.5
282.356	83.5
282.588	85.5
282.819	93.5
283.051	84.5
283.282	87.5
283.513	100.5
283.745	76.5
283.976	76.5
284.207	93.5
284.439	98.5
284.67	84.5
284.901	90.5
285.132	88.5
285.364	88.5
285.595	78.5
285.826	93.5
286.057	85.5
286.288	76.5
286.52	81.5
286.751	86.5
286.982	94.5
287.213	76.5
287.444	85.5
287.675	76.5
287.906	89.5
288.138	78.5
288.369	86.5
288.6	72.5
288.831	72.5
289.062	82.5
289.293	78.5
289.524	88.5
289.755	85.5
289.986	83.5
290.217	86.5
290.448	93.5
290.679	69.5
290.91	87.5
291.141	73.5
291.371	80.5
291.602	80.5
291.833	88.5
292.064	83.5
292.295	92.5
292.526	78.5
292.757	65.5
292.987	85.5
293.218	79.5
293.449	77.5
293.68	84.5
293.91	71.5
294.141	86.5
294.372	86.5
294.603	78.5
294.833	80.5
295.064	77.5
295.295	84.5
295.525	61.5
295.756	90.5
295.987	83.5
296.217	90.5
296.448	89.5
296.679	80.5
296.909	86.5
297.14	92.5
297.37	83.5
297.601	79.5
297.831	84.5
298.062	88.5
298.292	94.5
298.523	94.5
298.753	88.5
298.984	102.5
299.214	76.5
299.445	92.5
299.675	88.5
299.905	84.5
300.136	82.5
300.366	82.5
300.597	92.5
300.827	62.5
301.057	84.5
301.288	85.5
301.518	77.5
301.748	88.5
301.979	96.5
302.209	82.5
302.439	81.5
302.669	73.5
302.9	86.5
303.13	83.5
303.36	84.5
303.59	81.5
303.82	86.5
304.051	85.5
304.281	93.5
304.511	83.5
304.741	84.5
304.971	77.5
305.201	97.5
305.431	86.5
305.661	80.5
305.891	80.5
306.121	90.5
306.352	87.5
306.582	77.5
306.812	90.5
307.042	93.5
307.272	80.5
307.502	87.5
307.731	92.5
307.961	85.5
308.191	76.5
308.421	89.5
308.651	94.5
308.881	80.5
309.111	85.5
309.341	79.5
309.571	80.5
309.8	87.5
310.03	85.5
310.26	95.5
310.49	85.5
310.72	90.5
310.949	92.5
311.179	84.5
311.409	89.5
311.639	84.5
311.868	87.5
312.098	84.5
312.328	84.5
312.557	80.5
312.787	86.5
313.017	87.5
313.246	99.5
313.476	87.5
313.706	95.5
313.935	70.5
314.165	96.5
314.394	85.5
314.624	92.5
314.853	82.5
315.083	90.5
315.312	80.5
315.542	87.5
315.771	72.5
316.001	74.5
316.23	72.5
316.46	85.5
316.689	71.5
316.919	81.5
317.148	92.5
317.377	70.5
317.607	80.5
317.836	88.5
318.065	71.5
318.295	83.5
318.524	72.5
318.753	80.5
318.983	87.5
319.212	72.5
319.441	81.5
319.67	86.5
319.9	84.5
320.129	78.5
320.358	92.5
320.587	90.5
320.816	92.5
321.046	78.5
321.275	92.5
321.504	69.5
321.733	79.5
321.962	90.5
322.191	92.5
322.42	86.5
322.649	89.5
322.878	78.5
323.108	87.5
323.337	90.5
323.566	92.5
323.795	78.5
324.024	88.5
324.253	86.5
324.482	82.5
324.71	93.5
324.939	86.5
325.168	76.5
325.397	78.5
325.626	81.5
325.855	80.5
326.084	96.5
326.313	67.5
326.542	89.5
326.77	84.5
326.999	70.5
327.228	77.5
327.457	94.5
327.686	79.5
327.914	85.5
328.143	101.5
328.372	74.5
328.6	78.5
328.829	81.5
329.058	86.5
329.287	96.5
329.515	96.5
329.744	75.5
329.972	96.5
330.201	92.5
330.43	77.5
330.658	90.5
330.887	90.5
331.115	84.5
331.344	67.5
331.572	88.5
331.801	84.5
332.03	102.5
332.258	80.5
332.486	94.5
332.715	82.5
332.943	90.5
333.172	89.5
333.4	85.5
333.629	98.5
333.857	82.5
334.085	75.5
334.314	95.5
334.542	84.5
334.771	89.5
334.999	74.5
335.227	76.5
335.455	80.5
335.684	99.5
335.912	76.5
336.14	78.5
336.369	74.5
336.597	73.5
336.825	87.5
337.053	80.5
337.281	88.5
337.51	89.5
337.738	95.5
337.966	87.5
338.194	83.5
338.422	84.5
338.65	87.5
338.878	77.5
339.106	96.5
339.334	105.5
339.562	85.5
339.79	84.5
340.018	82.5
340.246	87.5
340.474	80.5
340.702	81.5
340.93	87.5
341.158	75.5
341.386	86.5
341.614	77.5
341.842	86.5
342.07	74.5
342.298	80.5
342.526	79.5
342.754	77.5
342.981	58.5
343.209	78.5
343.437	100.5
343.665	84.5
343.893	103.5
344.12	100.5
344.348	104.5
344.576	87.5
344.804	77.5
345.031	86.5
345.259	95.5
345.487	84.5
345.714	79.5
345.942	94.5
346.17	96.5
346.397	84.5
346.625	83.5
346.853	87.5
347.08	81.5
347.308	86.5
347.535	92.5
347.763	73.5
347.99	86.5
348.218	82.5
348.445	84.5
348.673	74.5
348.9	78.5
349.128	78.5
349.355	76.5
349.583	69.5
349.81	92.5
350.037	82.5
350.265	85.5
350.492	84.5
350.72	86.5
350.947	70.5
351.174	94.5
351.402	94.5
351.629	92.5
351.856	96.5
352.083	77.5
352.311	78.5
352.538	72.5
352.765	93.5
352.992	96.5
353.22	88.5
353.447	81.5
353.674	81.5
353.901	84.5
354.128	85.5
354.355	98.5
354.583	78.5
354.81	78.5
355.037	79.5
355.264	74.5
355.491	87.5
355.718	82.5
355.945	89.5
356.172	76.5
356.399	75.5
356.626	80.5
356.853	83.5
357.08	84.5
357.307	88.5
357.534	79.5
357.761	82.5
357.988	78.5
358.215	84.5
358.441	99.5
358.668	74.5
358.895	82.5
359.122	76.5
359.349	76.5
359.576	86.5
359.802	88.5
360.029	89.5
360.256	86.5
360.483	80.5
360.709	80.5
360.936	89.5
361.163	82.5
361.39	90.5
361.616	85.5
361.843	91.5
362.07	80.5
362.296	87.5
362.523	94.5
362.749	98.5
362.976	73.5
363.203	89.5
363.429	81.5
363.656	81.5
363.882	90.5
364.109	90.5
364.335	93.5
364.562	84.5
364.788	63.5
365.015	92.5
365.241	74.5
365.468	98.5
365.694	86.5
365.92	80.5
366.147	85.5
366.373	82.5
366.599	69.5
366.826	77.5
367.052	79.5
367.278	83.5
367.505	88.5
367.731	87.5
367.957	77.5
368.184	82.5
368.41	96.5
368.636	79.5
368.862	74.5
369.089	85.5
369.315	83.5
369.541	80.5
369.767	98.5
369.993	96.5
370.219	84.5
370.445	81.5
370.672	86.5
370.898	88.5
371.124	84.5
371.35	92.5
371.576	84.5
371.802	88.5
372.028	87.5
372.254	81.5
372.48	94.5
372.706	92.5
372.932	102.5
373.158	83.5
373.384	95.5
373.61	93.5
373.835	78.5
374.061	78.5
374.287	84.5
374.513	103.5
374.739	87.5
374.965	95.5
375.191	81.5
375.416	81.5
375.642	79.5
375.868	82.5
376.094	76.5
376.319	85.5
376.545	87.5
376.771	88.5
376.997	71.5
377.222	94.5
377.448	76.5
377.674	86.5
377.899	78.5
378.125	86.5
378.35	87.5
378.576	73.5
378.802	78.5
379.027	85.5
379.253	86.5
379.478	75.5
379.704	75.5
379.929	94.5
380.155	86.5
380.38	85.5
380.606	89.5
380.831	85.5
381.057	85.5
381.282	78.5
381.507	87.5
381.733	77.5
381.958	86.5
382.184	87.5
382.409	80.5
382.634	87.5
382.86	76.5
383.085	71.5
383.31	92.5
383.535	88.5
383.761	84.5
383.986	93.5
384.211	79.5
384.436	86.5
384.662	89.5
384.887	78.5
385.112	84.5
385.337	76.5
385.562	73.5
385.787	83.5
386.013	78.5
386.238	82.5
386.463	77.5
386.688	94.5
386.913	70.5
387.138	84.5
387.363	82.5
387.588	82.5
387.813	72.5
388.038	74.5
388.263	67.5
388.488	75.5
388.713	88.5
388.938	90.5
389.163	87.5
389.387	74.5
389.612	92.5
389.837	69.5
390.062	83.5
390.287	80.5
390.512	72.5
390.736	85.5
390.961	80.5
391.186	86.5
391.411	87.5
391.636	77.5
391.86	82.5
392.085	85.5
392.31	63.5
392.534	100.5
392.759	85.5
392.984	76.5
393.208	89.5
393.433	86.5
393.658	81.5
393.882	80.5
394.107	69.5
394.331	89.5
394.556	72.5
394.78	86.5
395.005	79.5
395.229	78.5
395.454	81.5
395.678	68.5
395.903	73.5
396.127	87.5
396.352	84.5
396.576	89.5
396.801	89.5
397.025	93.5
397.249	82.5
397.474	74.5
397.698	78.5
397.922	69.5
398.147	80.5
398.371	90.5
398.595	89.5
398.82	88.5
399.044	77.5
399.268	82.5
399.492	79.5
399.717	81.5
399.941	89.5
400.165	92.5
400.389	92.5
400.613	77.5
400.837	76.5
401.062	90.5
401.286	76.5
401.51	82.5
401.734	78.5
401.958	83.5
402.182	87.5
402.406	70.5
402.63	86.5
402.854	76.5
403.078	95.5
403.302	84.5
403.526	85.5
403.75	91.5
403.974	92.5
404.198	70.5
404.422	80.5
404.645	83.5
404.869	83.5
405.093	94.5
405.317	91.5
405.541	85.5
405.765	93.5
405.988	85.5
406.212	98.5
406.436	82.5
406.66	88.5
406.883	72.5
407.107	85.5
407.331	89.5
407.555	76.5
407.778	78.5
408.002	69.5
408.226	90.5
408.449	97.5
408.673	70.5
408.896	80.5
409.12	68.5
409.344	81.5
409.567	75.5
409.791	85.5
410.014	83.5
410.238	81.5
410.461	75.5
410.685	92.5
410.908	73.5
411.132	70.5
411.355	78.5
411.578	80.5
411.802	84.5
412.025	87.5
412.249	76.5
412.472	74.5
412.695	86.5
412.919	85.5
413.142	82.5
413.365	87.5
413.589	84.5
413.812	88.5
414.035	88.5
414.258	89.5
414.482	81.5
414.705	90.5
414.928	81.5
415.151	78.5
415.374	88.5
415.597	92.5
415.821	70.5
416.044	89.5
416.267	72.5
416.49	70.5
416.713	83.5
416.936	91.5
417.159	87.5
417.382	93.5
417.605	81.5
417.828	78.5
418.051	65.5
418.274	78.5
418.497	78.5
418.72	89.5
418.943	81.5
419.166	84.5
419.389	87.5
419.611	83.5
419.834	70.5
420.057	84.5
420.28	86.5
420.503	69.5
420.726	78.5
420.948	83.5
421.171	68.5
421.394	79.5
421.617	66.5
421.839	86.5
422.062	79.5
422.285	96.5
422.507	86.5
422.73	99.5
422.953	78.5
423.175	82.5
423.398	85.5
423.621	78.5
423.843	96.5
424.066	78.5
424.288	75.5
424.511	96.5
424.733	82.5
424.956	77.5
425.178	85.5
425.401	81.5
425.623	80.5
425.846	97.5
426.068	83.5
426.291	76.5
426.513	84.5
426.735	85.5
426.958	79.5
427.18	88.5
427.402	86.5
427.625	77.5
427.847	72.5
428.069	68.5
428.292	81.5
428.514	88.5
428.736	69.5
428.958	78.5
429.181	100.5
429.403	77.5
429.625	92.5
429.847	72.5
430.069	76.5
430.292	81.5
430.514	86.5
430.736	74.5
430.958	88.5
431.18	68.5
431.402	93.5
431.624	89.5
431.846	68.5
432.068	93.5
432.29	96.5
432.512	90.5
432.734	73.5
432.956	63.5
433.178	82.5
433.4	85.5
433.622	102.5
433.844	89.5
434.066	84.5
434.287	82.5
434.509	79.5
434.731	98.5
434.953	80.5
435.175	79.5
435.397	92.5
435.618	88.5
435.84	78.5
436.062	70.5
436.284	70.5
436.505	77.5
436.727	82.5
436.949	74.5
437.17	85.5
437.392	85.5
437.614	87.5
437.835	72.5
438.057	82.5
438.278	71.5
438.5	74.5
438.721	79.5
438.943	76.5
439.165	74.5
439.386	77.5
439.608	89.5
439.829	72.5
440.05	68.5
440.272	81.5
440.493	84.5
440.715	84.5
440.936	77.5
441.158	83.5
441.379	87.5
441.6	89.5
441.822	71.5
442.043	78.5
442.264	80.5
442.486	82.5
442.707	99.5
442.928	78.5
443.149	77.5
443.371	84.5
443.592	66.5
443.813	81.5
444.034	77.5
444.255	81.5
444.476	78.5
444.698	84.5
444.919	78.5
445.14	133.5
445.361	102.5
445.582	92.5
445.803	93.5
446.024	85.5
446.245	75.5
446.466	80.5
446.687	80.5
446.908	70.5
447.129	81.5
447.35	79.5
447.571	76.5
447.792	82.5
448.013	83.5
448.234	76.5
448.455	83.5
448.675	98.5
448.896	70.5
449.117	93.5
449.338	70.5
449.559	91.5
449.779	74.5
450	82.5
450.221	81.5
450.442	82.5
450.662	103.5
450.883	79.5
451.104	87.5
451.324	72.5
451.545	62.5
451.766	87.5
451.986	79.5
452.207	78.5
452.428	97.5
452.648	92.5
452.869	87.5
453.089	79.5
453.31	86.5
453.53	77.5
453.751	77.5
453.971	78.5
454.192	97.5
454.412	86.5
454.633	82.5
454.853	65.5
455.073	86.5
455.294	88.5
455.514	85.5
455.734	89.5
455.955	90.5
456.175	96.5
456.395	86.5
456.616	72.5
456.836	76.5
457.056	78.5
457.276	71.5
457.497	85.5
457.717	85.5
457.937	81.5
458.157	88.5
458.377	80.5
458.598	83.5
458.818	77.5
459.038	88.5
459.258	81.5
459.478	76.5
459.698	86.5
459.918	101.5
460.138	79.5
460.358	87.5
460.578	71.5
460.798	73.5
461.018	85.5
461.238	76.5
461.458	91.5
461.678	82.5
461.898	84.5
462.118	72.5
462.338	93.5
462.558	84.5
462.777	97.5
462.997	96.5
463.217	87.5
463.437	78.5
463.657	91.5
463.876	77.5
464.096	85.5
464.316	70.5
464.536	93.5
464.755	84.5
464.975	80.5
465.195	74.5
465.414	82.5
465.634	79.5
465.854	73.5
466.073	84.5
466.293	82.5
466.512	95.5
466.732	86.5
466.951	84.5
467.171	76.5
467.391	77.5
467.61	78.5
467.829	85.5
468.049	80.5
468.268	76.5
468.488	82.5
468.707	84.5
468.927	80.5
469.146	62.5
469.365	72.5
469.585	71.5
469.804	69.5
470.023	70.5
470.243	80.5
470.462	85.5
470.681	64.5
470.901	86.5
471.12	76.5
471.339	89.5
471.558	80.5
471.777	86.5
471.997	84.5
472.216	81.5
472.435	84.5
472.654	79.5
472.873	81.5
473.092	74.5
473.311	87.5
473.53	90.5
473.749	78.5
473.968	87.5
474.187	83.5
474.406	90.5
474.625	87.5
474.844	69.5
475.063	69.5
475.282	80.5
475.501	65.5
475.72	89.5
475.939	61.5
476.158	77.5
476.377	80.5
476.596	77.5
476.814	77.5
477.033	80.5
477.252	79.5
477.471	91.5
477.69	85.5
477.908	97.5
478.127	78.5
478.346	75.5
478.564	72.5
478.783	83.5
479.002	81.5
479.22	92.5
479.439	81.5
479.658	88.5
479.876	83.5
480.095	84.5
480.313	74.5
480.532	75.5
480.751	92.5
480.969	80.5
481.188	74.5
481.406	81.5
481.624	79.5
481.843	72.5
482.061	73.5
482.28	83.5
482.498	76.5
482.717	81.5
482.935	79.5
483.153	88.5
483.372	87.5
483.59	72.5
483.808	72.5
484.027	90.5
484.245	94.5
484.463	70.5
484.681	95.5
484.9	72.5
485.118	74.5
485.336	100.5
485.554	88.5
485.772	83.5
485.99	95.5
486.209	77.5
486.427	83.5
486.645	78.5
486.863	67.5
487.081	77.5
487.299	99.5
487.517	87.5
487.735	92.5
487.953	85.5
488.171	84.5
488.389	79.5
488.607	90.5
488.825	88.5
489.043	83.5
489.261	93.5
489.479	85.5
489.696	85.5
489.914	96.5
490.132	84.5
490.35	88.5
490.568	65.5
490.786	80.5
491.003	82.5
491.221	97.5
491.439	86.5
491.657	82.5
491.874	89.5
492.092	94.5
492.31	86.5
492.527	73.5
492.745	90.5
492.963	90.5
493.18	86.5
493.398	81.5
493.615	76.5
493.833	81.5
494.05	80.5
494.268	82.5
494.485	84.5
494.703	80.5
494.92	77.5
495.138	74.5
495.355	79.5
495.573	90.5
495.79	77.5
496.008	86.5
496.225	81.5
496.442	93.5
496.66	104.5
496.877	78.5
497.094	76.5
497.312	71.5
497.529	86.5
497.746	95.5
497.963	73.5
498.181	72.5
498.398	77.5
498.615	71.5
498.832	80.5
499.049	90.5
499.267	71.5
499.484	89.5
499.701	87.5
499.918	94.5
500.135	73.5
500.352	81.5
500.569	87.5
500.786	94.5
501.003	82.5
501.22	82.5
501.437	83.5
501.654	69.5
501.871	100.5
502.088	84.5
502.305	80.5
502.522	96.5
502.739	73.5
502.956	77.5
503.172	88.5
503.389	91.5
503.606	93.5
503.823	93.5
504.04	87.5
504.256	100.5
504.473	90.5
504.69	92.5
504.907	95.5
505.123	93.5
505.34	82.5
505.557	97.5
505.773	95.5
505.99	94.5
506.207	87.5
506.423	72.5
506.64	84.5
506.856	73.5
507.073	86.5
507.289	93.5
507.506	88.5
507.722	75.5
507.939	98.5
508.155	88.5
508.372	86.5
508.588	79.5
508.805	87.5
509.021	69.5
509.238	82.5
509.454	89.5
509.67	90.5
509.887	75.5
510.103	75.5
510.319	82.5
510.536	79.5
510.752	88.5
510.968	80.5
511.184	82.5
511.401	76.5
511.617	80.5
511.833	81.5
512.049	79.5
512.265	69.5
512.481	77.5
512.698	84.5
512.914	93.5
513.13	84.5
513.346	81.5
513.562	78.5
513.778	98.5
513.994	83.5
514.21	68.5
514.426	97.5
514.642	92.5
514.858	71.5
515.074	90.5
515.29	81.5
515.506	68.5
515.721	90.5
515.937	82.5
516.153	88.5
516.369	98.5
516.585	95.5
516.801	80.5
517.016	89.5
517.232	80.5
517.448	80.5
517.664	95.5
517.879	83.5
518.095	82.5
518.311	79.5
518.527	82.5
518.742	100.5
518.958	74.5
519.173	78.5
519.389	84.5
519.605	88.5
519.82	83.5
520.036	83.5
520.251	82.5
520.467	86.5
520.682	104.5
520.898	87.5
521.113	88.5
521.329	85.5
521.544	103.5
521.76	79.5
521.975	93.5
522.19	82.5
522.406	92.5
522.621	94.5
522.836	90.5
523.052	88.5
523.267	80.5
523.482	65.5
523.698	77.5
523.913	84.5
524.128	75.5
524.343	85.5
524.559	82.5
524.774	85.5
524.989	94.5
525.204	87.5
525.419	76.5
525.634	79.5
525.849	83.5
526.064	82.5
526.28	92.5
526.495	101.5
526.71	77.5
526.925	71.5
527.14	92.5
527.355	75.5
527.57	76.5
527.785	90.5
527.999	78.5
528.214	72.5
528.429	82.5
528.644	88.5
528.859	76.5
529.074	79.5
529.289	84.5
529.503	83.5
529.718	67.5
529.933	101.5
530.148	78.5
530.363	89.5
530.577	89.5
530.792	100.5
531.007	79.5
531.221	104.5
531.436	92.5
531.651	90.5
531.865	83.5
532.08	90.5
532.295	79.5
532.509	90.5
532.724	94.5
532.938	86.5
533.153	77.5
533.367	88.5
533.582	86.5
533.796	84.5
534.011	94.5
534.225	80.5
534.44	90.5
534.654	98.5
534.868	87.5
535.083	84.5
535.297	91.5
535.511	92.5
535.726	93.5
535.94	80.5
536.154	89.5
536.369	87.5
536.583	91.5
536.797	82.5
537.011	95.5
537.225	89.5
537.44	92.5
537.654	77.5
537.868	85.5
538.082	100.5
538.296	98.5
538.51	91.5
538.724	76.5
538.938	81.5
539.153	72.5
539.367	89.5
539.581	81.5
539.795	80.5
540.009	94.5
540.222	92.5
