Data from BGNA1_HRD10591_00016.txt Node
Date: Fri Dec 27 14:28:50 EST 2024
User: Yrep
Spectrometer: HR+D1059
Trigger mode: 1
Integration Time (sec): 1.000000E-1
Scans to average: 1
Electric dark correction enabled: true
Nonlinearity correction enabled: false
Boxcar width: 0
XAxis mode: Wavelengths
Number of Pixels in Spectrum: 2048
>>>>>Begin Spectral Data<<<<<
223.165	-8.69
223.4	-8.69
223.635	-8.69
223.869	-10.69
224.104	-17.69
224.338	-6.69
224.573	-11.69
224.808	-26.69
225.042	-11.69
225.277	-1.69
225.511	9.31
225.746	-4.69
225.98	0.31
226.215	0.31
226.449	19.31
226.683	13.31
226.918	29.31
227.152	28.31
227.387	33.31
227.621	43.31
227.856	45.31
228.09	52.31
228.324	43.31
228.559	52.31
228.793	52.31
229.027	59.31
229.262	63.31
229.496	65.31
229.73	78.31
229.964	79.31
230.199	68.31
230.433	68.31
230.667	76.31
230.901	61.31
231.136	70.31
231.37	72.31
231.604	80.31
231.838	76.31
232.072	72.31
232.306	80.31
232.541	90.31
232.775	92.31
233.009	78.31
233.243	83.31
233.477	80.31
233.711	87.31
233.945	87.31
234.179	70.31
234.413	68.31
234.647	83.31
234.881	73.31
235.115	74.31
235.349	68.31
235.583	89.31
235.817	95.31
236.051	71.31
236.285	65.31
236.519	84.31
236.753	71.31
236.987	81.31
237.221	76.31
237.455	88.31
237.689	76.31
237.922	76.31
238.156	68.31
238.39	85.31
238.624	78.31
238.858	70.31
239.091	74.31
239.325	74.31
239.559	66.31
239.793	70.31
240.027	75.31
240.26	62.31
240.494	68.31
240.728	66.31
240.961	71.31
241.195	67.31
241.429	80.31
241.662	63.31
241.896	89.31
242.13	71.31
242.363	76.31
242.597	73.31
242.83	78.31
243.064	79.31
243.298	79.31
243.531	86.31
243.765	76.31
243.998	79.31
244.232	81.31
244.465	65.31
244.699	76.31
244.932	70.31
245.166	70.31
245.399	76.31
245.633	86.31
245.866	68.31
246.099	93.31
246.333	81.31
246.566	72.31
246.8	87.31
247.033	66.31
247.266	75.31
247.5	78.31
247.733	75.31
247.966	72.31
248.2	74.31
248.433	70.31
248.666	85.31
248.899	72.31
249.133	95.31
249.366	92.31
249.599	86.31
249.832	80.31
250.066	77.31
250.299	77.31
250.532	77.31
250.765	63.31
250.998	74.31
251.231	67.31
251.465	63.31
251.698	83.31
251.931	69.31
252.164	76.31
252.397	66.31
252.63	78.31
252.863	80.31
253.096	69.31
253.329	89.31
253.562	71.31
253.795	84.31
254.028	74.31
254.261	87.31
254.494	76.31
254.727	78.31
254.96	74.31
255.193	91.31
255.426	57.31
255.659	87.31
255.892	73.31
256.124	70.31
256.357	71.31
256.59	87.31
256.823	89.31
257.056	73.31
257.289	80.31
257.521	75.31
257.754	81.31
257.987	70.31
258.22	79.31
258.452	73.31
258.685	79.31
258.918	65.31
259.151	74.31
259.383	92.31
259.616	71.31
259.849	77.31
260.081	76.31
260.314	79.31
260.547	84.31
260.779	105.31
261.012	81.31
261.244	88.31
261.477	87.31
261.71	88.31
261.942	79.31
262.175	81.31
262.407	80.31
262.64	80.31
262.872	92.31
263.105	70.31
263.337	85.31
263.57	84.31
263.802	84.31
264.035	74.31
264.267	83.31
264.499	85.31
264.732	85.31
264.964	76.31
265.197	77.31
265.429	59.31
265.661	83.31
265.894	79.31
266.126	88.31
266.358	70.31
266.591	77.31
266.823	77.31
267.055	85.31
267.287	78.31
267.52	76.31
267.752	73.31
267.984	84.31
268.216	84.31
268.448	99.31
268.681	79.31
268.913	74.31
269.145	80.31
269.377	95.31
269.609	80.31
269.841	79.31
270.073	79.31
270.306	86.31
270.538	78.31
270.77	77.31
271.002	88.31
271.234	71.31
271.466	87.31
271.698	84.31
271.93	74.31
272.162	85.31
272.394	89.31
272.626	74.31
272.858	98.31
273.09	97.31
273.322	73.31
273.553	74.31
273.785	73.31
274.017	73.31
274.249	82.31
274.481	86.31
274.713	90.31
274.945	82.31
275.176	71.31
275.408	76.31
275.64	74.31
275.872	65.31
276.104	68.31
276.335	86.31
276.567	82.31
276.799	77.31
277.031	70.31
277.262	91.31
277.494	88.31
277.726	87.31
277.957	73.31
278.189	73.31
278.421	75.31
278.652	82.31
278.884	82.31
279.115	87.31
279.347	83.31
279.579	88.31
279.81	88.31
280.042	81.31
280.273	70.31
280.505	85.31
280.736	77.31
280.968	91.31
281.199	89.31
281.431	78.31
281.662	88.31
281.894	66.31
282.125	80.31
282.356	78.31
282.588	79.31
282.819	77.31
283.051	78.31
283.282	74.31
283.513	73.31
283.745	83.31
283.976	81.31
284.207	74.31
284.439	88.31
284.67	93.31
284.901	84.31
285.132	89.31
285.364	80.31
285.595	94.31
285.826	95.31
286.057	89.31
286.288	85.31
286.52	98.31
286.751	72.31
286.982	88.31
287.213	86.31
287.444	81.31
287.675	78.31
287.906	82.31
288.138	84.31
288.369	75.31
288.6	96.31
288.831	76.31
289.062	94.31
289.293	77.31
289.524	72.31
289.755	87.31
289.986	92.31
290.217	84.31
290.448	71.31
290.679	92.31
290.91	80.31
291.141	99.31
291.371	78.31
291.602	83.31
291.833	81.31
292.064	80.31
292.295	69.31
292.526	84.31
292.757	80.31
292.987	86.31
293.218	68.31
293.449	67.31
293.68	99.31
293.91	84.31
294.141	77.31
294.372	64.31
294.603	97.31
294.833	92.31
295.064	67.31
295.295	85.31
295.525	80.31
295.756	83.31
295.987	80.31
296.217	88.31
296.448	76.31
296.679	80.31
296.909	78.31
297.14	83.31
297.37	70.31
297.601	80.31
297.831	86.31
298.062	99.31
298.292	96.31
298.523	95.31
298.753	87.31
298.984	80.31
299.214	96.31
299.445	97.31
299.675	77.31
299.905	70.31
300.136	89.31
300.366	71.31
300.597	80.31
300.827	95.31
301.057	88.31
301.288	88.31
301.518	68.31
301.748	77.31
301.979	101.31
302.209	78.31
302.439	89.31
302.669	83.31
302.9	90.31
303.13	88.31
303.36	68.31
303.59	76.31
303.82	84.31
304.051	78.31
304.281	89.31
304.511	82.31
304.741	88.31
304.971	79.31
305.201	75.31
305.431	77.31
305.661	83.31
305.891	85.31
306.121	92.31
306.352	78.31
306.582	76.31
306.812	85.31
307.042	93.31
307.272	87.31
307.502	84.31
307.731	77.31
307.961	87.31
308.191	84.31
308.421	84.31
308.651	79.31
308.881	87.31
309.111	88.31
309.341	79.31
309.571	86.31
309.8	81.31
310.03	84.31
310.26	81.31
310.49	67.31
310.72	84.31
310.949	77.31
311.179	85.31
311.409	71.31
311.639	92.31
311.868	76.31
312.098	92.31
312.328	94.31
312.557	72.31
312.787	81.31
313.017	72.31
313.246	86.31
313.476	91.31
313.706	84.31
313.935	77.31
314.165	81.31
314.394	86.31
314.624	84.31
314.853	87.31
315.083	71.31
315.312	76.31
315.542	84.31
315.771	82.31
316.001	95.31
316.23	78.31
316.46	90.31
316.689	85.31
316.919	82.31
317.148	72.31
317.377	72.31
317.607	86.31
317.836	97.31
318.065	74.31
318.295	73.31
318.524	84.31
318.753	68.31
318.983	84.31
319.212	83.31
319.441	76.31
319.67	85.31
319.9	77.31
320.129	80.31
320.358	82.31
320.587	87.31
320.816	85.31
321.046	83.31
321.275	88.31
321.504	93.31
321.733	96.31
321.962	82.31
322.191	83.31
322.42	84.31
322.649	77.31
322.878	89.31
323.108	82.31
323.337	86.31
323.566	80.31
323.795	94.31
324.024	85.31
324.253	81.31
324.482	92.31
324.71	89.31
324.939	93.31
325.168	78.31
325.397	89.31
325.626	81.31
325.855	76.31
326.084	83.31
326.313	79.31
326.542	68.31
326.77	80.31
326.999	85.31
327.228	93.31
327.457	78.31
327.686	88.31
327.914	64.31
328.143	100.31
328.372	74.31
328.6	68.31
328.829	80.31
329.058	92.31
329.287	67.31
329.515	83.31
329.744	86.31
329.972	89.31
330.201	93.31
330.43	77.31
330.658	75.31
330.887	90.31
331.115	89.31
331.344	72.31
331.572	97.31
331.801	72.31
332.03	89.31
332.258	80.31
332.486	69.31
332.715	89.31
332.943	89.31
333.172	83.31
333.4	76.31
333.629	77.31
333.857	78.31
334.085	79.31
334.314	98.31
334.542	73.31
334.771	80.31
334.999	78.31
335.227	82.31
335.455	81.31
335.684	79.31
335.912	93.31
336.14	84.31
336.369	71.31
336.597	73.31
336.825	88.31
337.053	68.31
337.281	65.31
337.51	80.31
337.738	90.31
337.966	74.31
338.194	73.31
338.422	78.31
338.65	76.31
338.878	97.31
339.106	88.31
339.334	78.31
339.562	87.31
339.79	81.31
340.018	79.31
340.246	88.31
340.474	85.31
340.702	91.31
340.93	65.31
341.158	85.31
341.386	76.31
341.614	76.31
341.842	79.31
342.07	92.31
342.298	86.31
342.526	84.31
342.754	84.31
342.981	72.31
343.209	60.31
343.437	72.31
343.665	84.31
343.893	82.31
344.12	92.31
344.348	83.31
344.576	73.31
344.804	86.31
345.031	92.31
345.259	78.31
345.487	83.31
345.714	81.31
345.942	74.31
346.17	82.31
346.397	90.31
346.625	74.31
346.853	68.31
347.08	81.31
347.308	91.31
347.535	72.31
347.763	88.31
347.99	83.31
348.218	85.31
348.445	82.31
348.673	74.31
348.9	92.31
349.128	85.31
349.355	74.31
349.583	84.31
349.81	86.31
350.037	78.31
350.265	95.31
350.492	80.31
350.72	79.31
350.947	82.31
351.174	82.31
351.402	83.31
351.629	93.31
351.856	78.31
352.083	89.31
352.311	80.31
352.538	71.31
352.765	77.31
352.992	80.31
353.22	73.31
353.447	79.31
353.674	113.31
353.901	77.31
354.128	93.31
354.355	78.31
354.583	82.31
354.81	98.31
355.037	88.31
355.264	81.31
355.491	74.31
355.718	72.31
355.945	90.31
356.172	83.31
356.399	92.31
356.626	85.31
356.853	74.31
357.08	96.31
357.307	87.31
357.534	68.31
357.761	76.31
357.988	84.31
358.215	75.31
358.441	85.31
358.668	81.31
358.895	91.31
359.122	74.31
359.349	80.31
359.576	75.31
359.802	70.31
360.029	79.31
360.256	94.31
360.483	81.31
360.709	80.31
360.936	90.31
361.163	75.31
361.39	69.31
361.616	93.31
361.843	86.31
362.07	82.31
362.296	77.31
362.523	90.31
362.749	86.31
362.976	77.31
363.203	97.31
363.429	84.31
363.656	96.31
363.882	82.31
364.109	79.31
364.335	92.31
364.562	84.31
364.788	82.31
365.015	80.31
365.241	84.31
365.468	99.31
365.694	75.31
365.92	96.31
366.147	78.31
366.373	86.31
366.599	69.31
366.826	74.31
367.052	88.31
367.278	87.31
367.505	89.31
367.731	104.31
367.957	84.31
368.184	90.31
368.41	81.31
368.636	85.31
368.862	91.31
369.089	88.31
369.315	86.31
369.541	101.31
369.767	74.31
369.993	80.31
370.219	86.31
370.445	89.31
370.672	84.31
370.898	93.31
371.124	76.31
371.35	69.31
371.576	87.31
371.802	82.31
372.028	80.31
372.254	87.31
372.48	73.31
372.706	71.31
372.932	70.31
373.158	91.31
373.384	78.31
373.61	94.31
373.835	81.31
374.061	70.31
374.287	88.31
374.513	79.31
374.739	78.31
374.965	100.31
375.191	83.31
375.416	92.31
375.642	90.31
375.868	79.31
376.094	74.31
376.319	98.31
376.545	74.31
376.771	91.31
376.997	83.31
377.222	81.31
377.448	86.31
377.674	85.31
377.899	77.31
378.125	77.31
378.35	96.31
378.576	81.31
378.802	75.31
379.027	74.31
379.253	85.31
379.478	82.31
379.704	97.31
379.929	80.31
380.155	83.31
380.38	79.31
380.606	79.31
380.831	100.31
381.057	98.31
381.282	72.31
381.507	83.31
381.733	85.31
381.958	82.31
382.184	87.31
382.409	76.31
382.634	78.31
382.86	86.31
383.085	86.31
383.31	77.31
383.535	73.31
383.761	82.31
383.986	85.31
384.211	85.31
384.436	85.31
384.662	77.31
384.887	88.31
385.112	73.31
385.337	73.31
385.562	83.31
385.787	88.31
386.013	82.31
386.238	88.31
386.463	84.31
386.688	105.31
386.913	74.31
387.138	77.31
387.363	82.31
387.588	87.31
387.813	79.31
388.038	78.31
388.263	80.31
388.488	77.31
388.713	85.31
388.938	81.31
389.163	84.31
389.387	85.31
389.612	82.31
389.837	74.31
390.062	83.31
390.287	82.31
390.512	78.31
390.736	74.31
390.961	95.31
391.186	68.31
391.411	79.31
391.636	79.31
391.86	68.31
392.085	90.31
392.31	84.31
392.534	87.31
392.759	90.31
392.984	84.31
393.208	74.31
393.433	65.31
393.658	74.31
393.882	80.31
394.107	76.31
394.331	89.31
394.556	83.31
394.78	89.31
395.005	79.31
395.229	78.31
395.454	70.31
395.678	69.31
395.903	78.31
396.127	83.31
396.352	81.31
396.576	82.31
396.801	82.31
397.025	76.31
397.249	69.31
397.474	94.31
397.698	67.31
397.922	78.31
398.147	63.31
398.371	86.31
398.595	76.31
398.82	88.31
399.044	85.31
399.268	90.31
399.492	87.31
399.717	83.31
399.941	82.31
400.165	89.31
400.389	82.31
400.613	80.31
400.837	73.31
401.062	74.31
401.286	72.31
401.51	84.31
401.734	78.31
401.958	83.31
402.182	81.31
402.406	66.31
402.63	81.31
402.854	76.31
403.078	81.31
403.302	80.31
403.526	74.31
403.75	87.31
403.974	74.31
404.198	75.31
404.422	83.31
404.645	84.31
404.869	76.31
405.093	81.31
405.317	86.31
405.541	70.31
405.765	79.31
405.988	74.31
406.212	71.31
406.436	85.31
406.66	85.31
406.883	80.31
407.107	86.31
407.331	74.31
407.555	75.31
407.778	100.31
408.002	89.31
408.226	100.31
408.449	82.31
408.673	74.31
408.896	73.31
409.12	79.31
409.344	78.31
409.567	85.31
409.791	69.31
410.014	79.31
410.238	92.31
410.461	76.31
410.685	81.31
410.908	71.31
411.132	87.31
411.355	57.31
411.578	89.31
411.802	71.31
412.025	95.31
412.249	80.31
412.472	66.31
412.695	92.31
412.919	89.31
413.142	93.31
413.365	94.31
413.589	81.31
413.812	83.31
414.035	80.31
414.258	75.31
414.482	95.31
414.705	80.31
414.928	74.31
415.151	69.31
415.374	75.31
415.597	73.31
415.821	84.31
416.044	77.31
416.267	88.31
416.49	77.31
416.713	83.31
416.936	78.31
417.159	58.31
417.382	71.31
417.605	77.31
417.828	68.31
418.051	76.31
418.274	88.31
418.497	80.31
418.72	87.31
418.943	76.31
419.166	67.31
419.389	80.31
419.611	70.31
419.834	73.31
420.057	81.31
420.28	68.31
420.503	73.31
420.726	87.31
420.948	79.31
421.171	103.31
421.394	92.31
421.617	73.31
421.839	86.31
422.062	66.31
422.285	80.31
422.507	70.31
422.73	89.31
422.953	69.31
423.175	88.31
423.398	92.31
423.621	68.31
423.843	80.31
424.066	82.31
424.288	89.31
424.511	82.31
424.733	78.31
424.956	89.31
425.178	80.31
425.401	96.31
425.623	78.31
425.846	72.31
426.068	87.31
426.291	74.31
426.513	84.31
426.735	76.31
426.958	93.31
427.18	71.31
427.402	86.31
427.625	82.31
427.847	77.31
428.069	73.31
428.292	74.31
428.514	84.31
428.736	75.31
428.958	68.31
429.181	77.31
429.403	72.31
429.625	73.31
429.847	89.31
430.069	87.31
430.292	82.31
430.514	73.31
430.736	88.31
430.958	85.31
431.18	77.31
431.402	69.31
431.624	89.31
431.846	87.31
432.068	80.31
432.29	82.31
432.512	69.31
432.734	80.31
432.956	67.31
433.178	89.31
433.4	87.31
433.622	79.31
433.844	76.31
434.066	71.31
434.287	62.31
434.509	73.31
434.731	82.31
434.953	74.31
435.175	74.31
435.397	84.31
435.618	68.31
435.84	83.31
436.062	77.31
436.284	86.31
436.505	87.31
436.727	78.31
436.949	69.31
437.17	76.31
437.392	87.31
437.614	80.31
437.835	86.31
438.057	73.31
438.278	81.31
438.5	82.31
438.721	72.31
438.943	79.31
439.165	68.31
439.386	82.31
439.608	84.31
439.829	93.31
440.05	79.31
440.272	80.31
440.493	76.31
440.715	73.31
440.936	88.31
441.158	77.31
441.379	80.31
441.6	97.31
441.822	82.31
442.043	66.31
442.264	85.31
442.486	89.31
442.707	85.31
442.928	89.31
443.149	79.31
443.371	80.31
443.592	84.31
443.813	74.31
444.034	86.31
444.255	91.31
444.476	82.31
444.698	86.31
444.919	84.31
445.14	121.31
445.361	97.31
445.582	78.31
445.803	77.31
446.024	84.31
446.245	86.31
446.466	77.31
446.687	85.31
446.908	91.31
447.129	73.31
447.35	79.31
447.571	78.31
447.792	90.31
448.013	82.31
448.234	93.31
448.455	73.31
448.675	90.31
448.896	81.31
449.117	81.31
449.338	70.31
449.559	79.31
449.779	80.31
450	84.31
450.221	83.31
450.442	78.31
450.662	75.31
450.883	87.31
451.104	74.31
451.324	92.31
451.545	85.31
451.766	66.31
451.986	71.31
452.207	79.31
452.428	76.31
452.648	96.31
452.869	87.31
453.089	74.31
453.31	84.31
453.53	90.31
453.751	80.31
453.971	89.31
454.192	75.31
454.412	80.31
454.633	75.31
454.853	68.31
455.073	86.31
455.294	80.31
455.514	85.31
455.734	75.31
455.955	69.31
456.175	71.31
456.395	81.31
456.616	92.31
456.836	86.31
457.056	85.31
457.276	69.31
457.497	79.31
457.717	85.31
457.937	81.31
458.157	71.31
458.377	76.31
458.598	83.31
458.818	81.31
459.038	72.31
459.258	73.31
459.478	71.31
459.698	81.31
459.918	76.31
460.138	74.31
460.358	71.31
460.578	87.31
460.798	87.31
461.018	81.31
461.238	81.31
461.458	88.31
461.678	76.31
461.898	79.31
462.118	89.31
462.338	79.31
462.558	95.31
462.777	71.31
462.997	99.31
463.217	70.31
463.437	81.31
463.657	77.31
463.876	81.31
464.096	96.31
464.316	89.31
464.536	71.31
464.755	79.31
464.975	75.31
465.195	74.31
465.414	74.31
465.634	85.31
465.854	70.31
466.073	68.31
466.293	71.31
466.512	81.31
466.732	91.31
466.951	82.31
467.171	92.31
467.391	88.31
467.61	80.31
467.829	74.31
468.049	68.31
468.268	70.31
468.488	70.31
468.707	69.31
468.927	82.31
469.146	78.31
469.365	88.31
469.585	79.31
469.804	84.31
470.023	89.31
470.243	58.31
470.462	73.31
470.681	84.31
470.901	69.31
471.12	75.31
471.339	71.31
471.558	73.31
471.777	84.31
471.997	92.31
472.216	71.31
472.435	67.31
472.654	88.31
472.873	70.31
473.092	92.31
473.311	72.31
473.53	75.31
473.749	76.31
473.968	94.31
474.187	81.31
474.406	88.31
474.625	85.31
474.844	76.31
475.063	76.31
475.282	78.31
475.501	85.31
475.72	84.31
475.939	82.31
476.158	75.31
476.377	70.31
476.596	80.31
476.814	81.31
477.033	84.31
477.252	70.31
477.471	72.31
477.69	87.31
477.908	84.31
478.127	87.31
478.346	82.31
478.564	89.31
478.783	83.31
479.002	78.31
479.22	89.31
479.439	81.31
479.658	81.31
479.876	82.31
480.095	76.31
480.313	73.31
480.532	92.31
480.751	83.31
480.969	67.31
481.188	86.31
481.406	76.31
481.624	69.31
481.843	68.31
482.061	82.31
482.28	83.31
482.498	54.31
482.717	62.31
482.935	80.31
483.153	81.31
483.372	96.31
483.59	84.31
483.808	73.31
484.027	82.31
484.245	84.31
484.463	74.31
484.681	71.31
484.9	95.31
485.118	87.31
485.336	86.31
485.554	77.31
485.772	88.31
485.99	88.31
486.209	79.31
486.427	81.31
486.645	83.31
486.863	62.31
487.081	83.31
487.299	83.31
487.517	72.31
487.735	77.31
487.953	80.31
488.171	86.31
488.389	88.31
488.607	81.31
488.825	59.31
489.043	72.31
489.261	77.31
489.479	82.31
489.696	86.31
489.914	87.31
490.132	75.31
490.35	76.31
490.568	76.31
490.786	69.31
491.003	84.31
491.221	87.31
491.439	81.31
491.657	72.31
491.874	81.31
492.092	90.31
492.31	95.31
492.527	76.31
492.745	78.31
492.963	85.31
493.18	73.31
493.398	77.31
493.615	83.31
493.833	76.31
494.05	79.31
494.268	85.31
494.485	84.31
494.703	82.31
494.92	87.31
495.138	82.31
495.355	75.31
495.573	82.31
495.79	68.31
496.008	86.31
496.225	77.31
496.442	79.31
496.66	91.31
496.877	102.31
497.094	70.31
497.312	66.31
497.529	80.31
497.746	95.31
497.963	70.31
498.181	84.31
498.398	82.31
498.615	77.31
498.832	76.31
499.049	73.31
499.267	78.31
499.484	83.31
499.701	80.31
499.918	69.31
500.135	87.31
500.352	90.31
500.569	71.31
500.786	81.31
501.003	94.31
501.22	87.31
501.437	89.31
501.654	95.31
501.871	90.31
502.088	66.31
502.305	83.31
502.522	78.31
502.739	97.31
502.956	80.31
503.172	85.31
503.389	87.31
503.606	91.31
503.823	89.31
504.04	60.31
504.256	77.31
504.473	80.31
504.69	81.31
504.907	84.31
505.123	85.31
505.34	78.31
505.557	81.31
505.773	89.31
505.99	88.31
506.207	79.31
506.423	80.31
506.64	82.31
506.856	89.31
507.073	85.31
507.289	78.31
507.506	79.31
507.722	82.31
507.939	85.31
508.155	78.31
508.372	81.31
508.588	96.31
508.805	72.31
509.021	94.31
509.238	86.31
509.454	69.31
509.67	69.31
509.887	79.31
510.103	78.31
510.319	89.31
510.536	83.31
510.752	81.31
510.968	81.31
511.184	69.31
511.401	61.31
511.617	73.31
511.833	70.31
512.049	88.31
512.265	81.31
512.481	72.31
512.698	89.31
512.914	78.31
513.13	82.31
513.346	75.31
513.562	90.31
513.778	90.31
513.994	92.31
514.21	82.31
514.426	93.31
514.642	77.31
514.858	82.31
515.074	78.31
515.29	98.31
515.506	91.31
515.721	78.31
515.937	84.31
516.153	83.31
516.369	92.31
516.585	73.31
516.801	80.31
517.016	88.31
517.232	79.31
517.448	87.31
517.664	69.31
517.879	72.31
518.095	105.31
518.311	97.31
518.527	84.31
518.742	86.31
518.958	85.31
519.173	78.31
519.389	71.31
519.605	77.31
519.82	75.31
520.036	84.31
520.251	72.31
