Data from BGNA1_HRD10591_00015.txt Node
Date: Fri Dec 27 14:28:49 EST 2024
User: Yrep
Spectrometer: HR+D1059
Trigger mode: 1
Integration Time (sec): 1.000000E-1
Scans to average: 1
Electric dark correction enabled: true
Nonlinearity correction enabled: false
Boxcar width: 0
XAxis mode: Wavelengths
Number of Pixels in Spectrum: 2048
>>>>>Begin Spectral Data<<<<<
223.165	-10.12
223.4	-10.12
223.635	-10.12
223.869	-12.12
224.104	-16.12
224.338	-8.12
224.573	-17.12
224.808	-21.12
225.042	1.88
225.277	-2.12
225.511	-10.12
225.746	8.88
225.98	0.88
226.215	14.88
226.449	9.88
226.683	11.88
226.918	16.88
227.152	31.88
227.387	44.88
227.621	35.88
227.856	47.88
228.09	41.88
228.324	56.88
228.559	65.88
228.793	62.88
229.027	62.88
229.262	59.88
229.496	74.88
229.73	49.88
229.964	80.88
230.199	67.88
230.433	65.88
230.667	82.88
230.901	83.88
231.136	96.88
231.37	84.88
231.604	79.88
231.838	86.88
232.072	76.88
232.306	68.88
232.541	75.88
232.775	77.88
233.009	80.88
233.243	76.88
233.477	96.88
233.711	79.88
233.945	80.88
234.179	91.88
234.413	82.88
234.647	73.88
234.881	80.88
235.115	85.88
235.349	80.88
235.583	80.88
235.817	93.88
236.051	82.88
236.285	60.88
236.519	74.88
236.753	80.88
236.987	74.88
237.221	92.88
237.455	91.88
237.689	86.88
237.922	81.88
238.156	80.88
238.39	81.88
238.624	85.88
238.858	76.88
239.091	74.88
239.325	72.88
239.559	66.88
239.793	76.88
240.027	73.88
240.26	63.88
240.494	79.88
240.728	63.88
240.961	73.88
241.195	88.88
241.429	76.88
241.662	81.88
241.896	75.88
242.13	78.88
242.363	78.88
242.597	77.88
242.83	78.88
243.064	65.88
243.298	72.88
243.531	72.88
243.765	78.88
243.998	86.88
244.232	83.88
244.465	77.88
244.699	62.88
244.932	74.88
245.166	77.88
245.399	79.88
245.633	68.88
245.866	76.88
246.099	71.88
246.333	73.88
246.566	76.88
246.8	76.88
247.033	77.88
247.266	63.88
247.5	76.88
247.733	72.88
247.966	69.88
248.2	80.88
248.433	71.88
248.666	78.88
248.899	69.88
249.133	97.88
249.366	83.88
249.599	86.88
249.832	82.88
250.066	74.88
250.299	69.88
250.532	75.88
250.765	63.88
250.998	85.88
251.231	77.88
251.465	77.88
251.698	81.88
251.931	89.88
252.164	74.88
252.397	76.88
252.63	65.88
252.863	67.88
253.096	87.88
253.329	69.88
253.562	63.88
253.795	72.88
254.028	84.88
254.261	75.88
254.494	83.88
254.727	86.88
254.96	84.88
255.193	85.88
255.426	61.88
255.659	80.88
255.892	92.88
256.124	79.88
256.357	80.88
256.59	80.88
256.823	93.88
257.056	82.88
257.289	78.88
257.521	80.88
257.754	73.88
257.987	79.88
258.22	72.88
258.452	58.88
258.685	83.88
258.918	81.88
259.151	92.88
259.383	86.88
259.616	77.88
259.849	79.88
260.081	78.88
260.314	86.88
260.547	69.88
260.779	79.88
261.012	77.88
261.244	87.88
261.477	74.88
261.71	84.88
261.942	83.88
262.175	76.88
262.407	76.88
262.64	78.88
262.872	84.88
263.105	73.88
263.337	95.88
263.57	89.88
263.802	78.88
264.035	93.88
264.267	85.88
264.499	72.88
264.732	69.88
264.964	87.88
265.197	91.88
265.429	77.88
265.661	78.88
265.894	88.88
266.126	72.88
266.358	67.88
266.591	72.88
266.823	83.88
267.055	86.88
267.287	68.88
267.52	98.88
267.752	82.88
267.984	81.88
268.216	85.88
268.448	72.88
268.681	77.88
268.913	80.88
269.145	82.88
269.377	99.88
269.609	68.88
269.841	63.88
270.073	70.88
270.306	102.88
270.538	74.88
270.77	89.88
271.002	81.88
271.234	79.88
271.466	89.88
271.698	68.88
271.93	70.88
272.162	84.88
272.394	86.88
272.626	83.88
272.858	84.88
273.09	100.88
273.322	78.88
273.553	76.88
273.785	74.88
274.017	86.88
274.249	74.88
274.481	83.88
274.713	72.88
274.945	80.88
275.176	86.88
275.408	80.88
275.64	91.88
275.872	78.88
276.104	86.88
276.335	86.88
276.567	90.88
276.799	84.88
277.031	88.88
277.262	76.88
277.494	71.88
277.726	84.88
277.957	90.88
278.189	93.88
278.421	78.88
278.652	61.88
278.884	81.88
279.115	86.88
279.347	79.88
279.579	82.88
279.81	74.88
280.042	81.88
280.273	92.88
280.505	80.88
280.736	90.88
280.968	79.88
281.199	68.88
281.431	86.88
281.662	79.88
281.894	70.88
282.125	77.88
282.356	85.88
282.588	77.88
282.819	81.88
283.051	99.88
283.282	78.88
283.513	93.88
283.745	84.88
283.976	89.88
284.207	72.88
284.439	89.88
284.67	90.88
284.901	80.88
285.132	64.88
285.364	84.88
285.595	81.88
285.826	82.88
286.057	79.88
286.288	87.88
286.52	98.88
286.751	80.88
286.982	91.88
287.213	80.88
287.444	89.88
287.675	74.88
287.906	97.88
288.138	77.88
288.369	76.88
288.6	78.88
288.831	91.88
289.062	98.88
289.293	70.88
289.524	78.88
289.755	86.88
289.986	89.88
290.217	84.88
290.448	75.88
290.679	86.88
290.91	76.88
291.141	93.88
291.371	79.88
291.602	80.88
291.833	85.88
292.064	81.88
292.295	81.88
292.526	86.88
292.757	83.88
292.987	90.88
293.218	90.88
293.449	84.88
293.68	83.88
293.91	90.88
294.141	85.88
294.372	82.88
294.603	68.88
294.833	81.88
295.064	74.88
295.295	92.88
295.525	88.88
295.756	92.88
295.987	70.88
296.217	85.88
296.448	72.88
296.679	74.88
296.909	88.88
297.14	95.88
297.37	79.88
297.601	89.88
297.831	101.88
298.062	85.88
298.292	85.88
298.523	77.88
298.753	92.88
298.984	98.88
299.214	93.88
299.445	87.88
299.675	92.88
299.905	86.88
300.136	84.88
300.366	81.88
300.597	94.88
300.827	95.88
301.057	79.88
301.288	77.88
301.518	82.88
301.748	73.88
301.979	100.88
302.209	82.88
302.439	79.88
302.669	80.88
302.9	80.88
303.13	68.88
303.36	92.88
303.59	79.88
303.82	83.88
304.051	85.88
304.281	86.88
304.511	92.88
304.741	99.88
304.971	89.88
305.201	91.88
305.431	81.88
305.661	100.88
305.891	78.88
306.121	90.88
306.352	97.88
306.582	83.88
306.812	83.88
307.042	75.88
307.272	93.88
307.502	78.88
307.731	87.88
307.961	88.88
308.191	77.88
308.421	99.88
308.651	98.88
308.881	85.88
309.111	83.88
309.341	80.88
309.571	89.88
309.8	97.88
310.03	87.88
310.26	89.88
310.49	83.88
310.72	74.88
310.949	94.88
311.179	67.88
311.409	85.88
311.639	94.88
311.868	92.88
312.098	78.88
312.328	85.88
312.557	89.88
312.787	85.88
313.017	91.88
313.246	92.88
313.476	85.88
313.706	83.88
313.935	81.88
314.165	84.88
314.394	66.88
314.624	77.88
314.853	91.88
315.083	80.88
315.312	87.88
315.542	86.88
315.771	78.88
316.001	84.88
316.23	75.88
316.46	84.88
316.689	73.88
316.919	91.88
317.148	80.88
317.377	82.88
317.607	68.88
317.836	85.88
318.065	74.88
318.295	80.88
318.524	93.88
318.753	79.88
318.983	81.88
319.212	79.88
319.441	96.88
319.67	81.88
319.9	80.88
320.129	87.88
320.358	80.88
320.587	89.88
320.816	95.88
321.046	92.88
321.275	103.88
321.504	82.88
321.733	68.88
321.962	67.88
322.191	81.88
322.42	73.88
322.649	90.88
322.878	80.88
323.108	86.88
323.337	88.88
323.566	81.88
323.795	71.88
324.024	88.88
324.253	80.88
324.482	83.88
324.71	67.88
324.939	85.88
325.168	80.88
325.397	85.88
325.626	80.88
325.855	85.88
326.084	88.88
326.313	75.88
326.542	81.88
326.77	78.88
326.999	85.88
327.228	85.88
327.457	77.88
327.686	97.88
327.914	95.88
328.143	95.88
328.372	88.88
328.6	79.88
328.829	95.88
329.058	78.88
329.287	87.88
329.515	95.88
329.744	80.88
329.972	76.88
330.201	78.88
330.43	89.88
330.658	68.88
330.887	84.88
331.115	100.88
331.344	92.88
331.572	85.88
331.801	89.88
332.03	91.88
332.258	82.88
332.486	75.88
332.715	99.88
332.943	87.88
333.172	81.88
333.4	77.88
333.629	89.88
333.857	75.88
334.085	87.88
334.314	85.88
334.542	81.88
334.771	75.88
334.999	75.88
335.227	72.88
335.455	74.88
335.684	95.88
335.912	79.88
336.14	83.88
336.369	81.88
336.597	80.88
336.825	95.88
337.053	88.88
337.281	85.88
337.51	84.88
337.738	92.88
337.966	92.88
338.194	98.88
338.422	97.88
338.65	69.88
338.878	89.88
339.106	93.88
339.334	80.88
339.562	90.88
339.79	100.88
340.018	96.88
340.246	81.88
340.474	84.88
340.702	88.88
340.93	75.88
341.158	83.88
341.386	84.88
341.614	95.88
341.842	94.88
342.07	83.88
342.298	77.88
342.526	74.88
342.754	70.88
342.981	69.88
343.209	93.88
343.437	99.88
343.665	89.88
343.893	81.88
344.12	77.88
344.348	82.88
344.576	82.88
344.804	81.88
345.031	87.88
345.259	84.88
345.487	92.88
345.714	83.88
345.942	83.88
346.17	104.88
346.397	77.88
346.625	72.88
346.853	77.88
347.08	71.88
347.308	83.88
347.535	94.88
347.763	82.88
347.99	78.88
348.218	80.88
348.445	64.88
348.673	74.88
348.9	86.88
349.128	87.88
349.355	81.88
349.583	76.88
349.81	90.88
350.037	92.88
350.265	92.88
350.492	86.88
350.72	88.88
350.947	74.88
351.174	78.88
351.402	96.88
351.629	85.88
351.856	76.88
352.083	86.88
352.311	87.88
352.538	79.88
352.765	84.88
352.992	100.88
353.22	70.88
353.447	89.88
353.674	96.88
353.901	86.88
354.128	85.88
354.355	72.88
354.583	85.88
354.81	92.88
355.037	86.88
355.264	77.88
355.491	84.88
355.718	89.88
355.945	85.88
356.172	93.88
356.399	89.88
356.626	72.88
356.853	76.88
357.08	80.88
357.307	76.88
357.534	87.88
357.761	84.88
357.988	88.88
358.215	77.88
358.441	79.88
358.668	93.88
358.895	89.88
359.122	93.88
359.349	88.88
359.576	80.88
359.802	80.88
360.029	85.88
360.256	77.88
360.483	84.88
360.709	83.88
360.936	86.88
361.163	90.88
361.39	79.88
361.616	82.88
361.843	87.88
362.07	77.88
362.296	82.88
362.523	82.88
362.749	82.88
362.976	80.88
363.203	81.88
363.429	82.88
363.656	76.88
363.882	78.88
364.109	73.88
364.335	102.88
364.562	81.88
364.788	84.88
365.015	88.88
365.241	88.88
365.468	88.88
365.694	82.88
365.92	87.88
366.147	89.88
366.373	89.88
366.599	97.88
366.826	82.88
367.052	79.88
367.278	79.88
367.505	79.88
367.731	94.88
367.957	92.88
368.184	86.88
368.41	92.88
368.636	83.88
368.862	96.88
369.089	80.88
369.315	79.88
369.541	71.88
369.767	77.88
369.993	88.88
370.219	86.88
370.445	100.88
370.672	72.88
370.898	92.88
371.124	80.88
371.35	86.88
371.576	83.88
371.802	91.88
372.028	84.88
372.254	84.88
372.48	78.88
372.706	96.88
372.932	77.88
373.158	98.88
373.384	82.88
373.61	92.88
373.835	94.88
374.061	85.88
374.287	73.88
374.513	82.88
374.739	87.88
374.965	90.88
375.191	87.88
375.416	79.88
375.642	92.88
375.868	78.88
376.094	83.88
376.319	84.88
376.545	86.88
376.771	83.88
376.997	88.88
377.222	92.88
377.448	84.88
377.674	82.88
377.899	82.88
378.125	70.88
378.35	90.88
378.576	84.88
378.802	83.88
379.027	89.88
379.253	89.88
379.478	81.88
379.704	72.88
379.929	76.88
380.155	84.88
380.38	67.88
380.606	85.88
380.831	82.88
381.057	83.88
381.282	78.88
381.507	81.88
381.733	86.88
381.958	82.88
382.184	86.88
382.409	96.88
382.634	80.88
382.86	84.88
383.085	81.88
383.31	98.88
383.535	90.88
383.761	77.88
383.986	84.88
384.211	97.88
384.436	92.88
384.662	73.88
384.887	85.88
385.112	82.88
385.337	79.88
385.562	92.88
385.787	80.88
386.013	86.88
386.238	68.88
386.463	65.88
386.688	83.88
386.913	73.88
387.138	82.88
387.363	74.88
387.588	73.88
387.813	75.88
388.038	83.88
388.263	96.88
388.488	84.88
388.713	74.88
388.938	78.88
389.163	81.88
389.387	87.88
389.612	87.88
389.837	61.88
390.062	88.88
390.287	76.88
390.512	96.88
390.736	64.88
390.961	75.88
391.186	82.88
391.411	79.88
391.636	71.88
391.86	74.88
392.085	104.88
392.31	79.88
392.534	78.88
392.759	82.88
392.984	87.88
393.208	79.88
393.433	64.88
393.658	90.88
393.882	86.88
394.107	86.88
394.331	95.88
394.556	88.88
394.78	71.88
395.005	78.88
395.229	74.88
395.454	80.88
395.678	81.88
395.903	75.88
396.127	94.88
396.352	85.88
396.576	84.88
396.801	82.88
397.025	76.88
397.249	73.88
397.474	73.88
397.698	77.88
397.922	87.88
398.147	83.88
398.371	84.88
398.595	90.88
398.82	85.88
399.044	86.88
399.268	76.88
399.492	70.88
399.717	87.88
399.941	72.88
400.165	77.88
400.389	90.88
400.613	93.88
400.837	74.88
401.062	94.88
401.286	90.88
401.51	66.88
401.734	61.88
401.958	80.88
402.182	75.88
402.406	85.88
402.63	82.88
402.854	83.88
403.078	83.88
403.302	84.88
403.526	74.88
403.75	87.88
403.974	80.88
404.198	82.88
404.422	75.88
404.645	72.88
404.869	85.88
405.093	78.88
405.317	86.88
405.541	79.88
405.765	82.88
405.988	71.88
406.212	73.88
406.436	78.88
406.66	88.88
406.883	73.88
407.107	103.88
407.331	61.88
407.555	67.88
407.778	83.88
408.002	68.88
408.226	94.88
408.449	86.88
408.673	77.88
408.896	80.88
409.12	84.88
409.344	69.88
409.567	77.88
409.791	89.88
410.014	72.88
410.238	64.88
410.461	66.88
410.685	87.88
410.908	85.88
411.132	81.88
411.355	98.88
411.578	76.88
411.802	72.88
412.025	70.88
412.249	82.88
412.472	84.88
412.695	84.88
412.919	87.88
413.142	75.88
413.365	88.88
413.589	81.88
413.812	82.88
414.035	102.88
414.258	82.88
414.482	81.88
414.705	75.88
414.928	78.88
415.151	91.88
415.374	81.88
415.597	78.88
415.821	80.88
416.044	76.88
416.267	97.88
416.49	71.88
416.713	86.88
416.936	76.88
417.159	74.88
417.382	76.88
417.605	73.88
417.828	88.88
418.051	94.88
418.274	86.88
418.497	86.88
418.72	87.88
418.943	72.88
419.166	86.88
419.389	71.88
419.611	71.88
419.834	79.88
420.057	79.88
420.28	85.88
420.503	69.88
420.726	69.88
420.948	74.88
421.171	78.88
421.394	64.88
421.617	90.88
421.839	76.88
422.062	86.88
422.285	87.88
422.507	81.88
422.73	72.88
422.953	76.88
423.175	74.88
423.398	70.88
423.621	89.88
423.843	82.88
424.066	81.88
424.288	84.88
424.511	69.88
424.733	88.88
424.956	82.88
425.178	79.88
425.401	81.88
425.623	71.88
425.846	70.88
426.068	67.88
426.291	92.88
426.513	85.88
426.735	73.88
426.958	89.88
427.18	72.88
427.402	74.88
427.625	85.88
427.847	88.88
428.069	80.88
428.292	79.88
428.514	75.88
428.736	73.88
428.958	77.88
429.181	88.88
429.403	77.88
429.625	74.88
429.847	84.88
430.069	83.88
430.292	82.88
430.514	94.88
430.736	73.88
430.958	86.88
431.18	74.88
431.402	81.88
431.624	85.88
431.846	85.88
432.068	88.88
432.29	70.88
432.512	88.88
432.734	73.88
432.956	83.88
433.178	78.88
433.4	77.88
433.622	85.88
433.844	85.88
434.066	83.88
434.287	84.88
434.509	84.88
434.731	108.88
434.953	83.88
435.175	68.88
435.397	72.88
435.618	89.88
435.84	84.88
436.062	74.88
436.284	81.88
436.505	95.88
436.727	76.88
436.949	77.88
437.17	76.88
437.392	82.88
437.614	89.88
437.835	74.88
438.057	76.88
438.278	81.88
438.5	84.88
438.721	100.88
438.943	82.88
439.165	87.88
439.386	71.88
439.608	87.88
439.829	89.88
440.05	83.88
440.272	85.88
440.493	95.88
440.715	90.88
440.936	82.88
441.158	95.88
441.379	88.88
441.6	92.88
441.822	85.88
442.043	79.88
442.264	76.88
442.486	77.88
442.707	78.88
442.928	88.88
443.149	81.88
443.371	78.88
443.592	82.88
443.813	73.88
444.034	89.88
444.255	86.88
444.476	81.88
444.698	89.88
444.919	89.88
445.14	137.88
445.361	114.88
445.582	88.88
445.803	71.88
446.024	81.88
446.245	82.88
446.466	70.88
446.687	81.88
446.908	88.88
447.129	80.88
447.35	85.88
447.571	73.88
447.792	83.88
448.013	86.88
448.234	83.88
448.455	76.88
448.675	80.88
448.896	70.88
449.117	94.88
449.338	89.88
449.559	95.88
449.779	74.88
450	81.88
450.221	73.88
450.442	78.88
450.662	83.88
450.883	76.88
451.104	84.88
451.324	81.88
451.545	80.88
451.766	74.88
451.986	74.88
452.207	75.88
452.428	88.88
452.648	79.88
452.869	63.88
453.089	77.88
453.31	78.88
453.53	84.88
453.751	72.88
453.971	70.88
454.192	83.88
454.412	81.88
454.633	80.88
454.853	81.88
455.073	86.88
455.294	68.88
455.514	92.88
455.734	76.88
455.955	80.88
456.175	80.88
456.395	88.88
456.616	80.88
456.836	79.88
457.056	81.88
457.276	82.88
457.497	75.88
457.717	92.88
457.937	76.88
458.157	72.88
458.377	76.88
458.598	79.88
458.818	72.88
459.038	87.88
459.258	82.88
459.478	76.88
459.698	79.88
459.918	82.88
460.138	85.88
460.358	92.88
460.578	80.88
460.798	79.88
461.018	88.88
461.238	88.88
461.458	108.88
461.678	96.88
461.898	90.88
462.118	77.88
462.338	77.88
462.558	76.88
462.777	81.88
462.997	89.88
463.217	80.88
463.437	82.88
463.657	80.88
463.876	78.88
464.096	94.88
464.316	80.88
464.536	77.88
464.755	75.88
464.975	76.88
465.195	99.88
465.414	87.88
465.634	80.88
465.854	73.88
466.073	81.88
466.293	72.88
466.512	69.88
466.732	84.88
466.951	94.88
467.171	85.88
467.391	86.88
467.61	84.88
467.829	76.88
468.049	84.88
468.268	83.88
468.488	78.88
468.707	78.88
468.927	86.88
469.146	85.88
469.365	87.88
469.585	81.88
469.804	73.88
470.023	77.88
470.243	84.88
470.462	88.88
470.681	78.88
470.901	84.88
471.12	83.88
471.339	89.88
471.558	79.88
471.777	76.88
471.997	76.88
472.216	79.88
472.435	78.88
472.654	77.88
472.873	80.88
473.092	94.88
473.311	77.88
473.53	86.88
473.749	94.88
473.968	76.88
474.187	79.88
474.406	79.88
474.625	77.88
474.844	76.88
475.063	69.88
475.282	86.88
475.501	88.88
475.72	76.88
475.939	94.88
476.158	70.88
476.377	82.88
476.596	81.88
476.814	69.88
477.033	79.88
477.252	79.88
477.471	82.88
477.69	83.88
477.908	80.88
478.127	77.88
478.346	92.88
478.564	77.88
478.783	68.88
479.002	74.88
479.22	70.88
479.439	77.88
479.658	82.88
479.876	95.88
480.095	80.88
480.313	75.88
480.532	77.88
480.751	78.88
480.969	86.88
481.188	73.88
481.406	89.88
481.624	77.88
481.843	87.88
482.061	82.88
482.28	79.88
482.498	79.88
482.717	82.88
482.935	83.88
483.153	67.88
483.372	80.88
483.59	69.88
483.808	82.88
484.027	85.88
484.245	79.88
484.463	88.88
484.681	80.88
484.9	80.88
485.118	82.88
485.336	87.88
485.554	76.88
485.772	77.88
485.99	73.88
486.209	82.88
486.427	78.88
486.645	70.88
486.863	81.88
487.081	76.88
487.299	84.88
487.517	93.88
487.735	84.88
487.953	88.88
488.171	78.88
488.389	76.88
488.607	83.88
488.825	80.88
489.043	92.88
489.261	94.88
489.479	63.88
489.696	74.88
489.914	81.88
490.132	84.88
490.35	94.88
490.568	74.88
490.786	86.88
491.003	69.88
491.221	73.88
491.439	92.88
491.657	82.88
491.874	84.88
492.092	82.88
492.31	81.88
492.527	82.88
492.745	82.88
492.963	89.88
493.18	68.88
493.398	73.88
493.615	85.88
493.833	83.88
494.05	77.88
494.268	81.88
494.485	80.88
494.703	72.88
494.92	86.88
495.138	81.88
495.355	75.88
495.573	88.88
495.79	82.88
496.008	72.88
496.225	94.88
496.442	63.88
496.66	79.88
496.877	79.88
497.094	86.88
497.312	79.88
497.529	70.88
497.746	86.88
497.963	87.88
498.181	87.88
498.398	71.88
498.615	75.88
498.832	82.88
499.049	85.88
499.267	98.88
499.484	75.88
499.701	88.88
499.918	88.88
500.135	77.88
500.352	91.88
500.569	96.88
500.786	88.88
501.003	100.88
501.22	94.88
501.437	68.88
501.654	93.88
501.871	81.88
502.088	79.88
502.305	84.88
502.522	78.88
502.739	84.88
502.956	78.88
503.172	92.88
503.389	84.88
503.606	76.88
503.823	89.88
504.04	92.88
504.256	78.88
504.473	74.88
504.69	76.88
504.907	73.88
505.123	78.88
505.34	80.88
505.557	91.88
505.773	85.88
505.99	88.88
506.207	73.88
506.423	82.88
506.64	87.88
506.856	85.88
507.073	80.88
507.289	80.88
507.506	80.88
507.722	86.88
507.939	76.88
508.155	79.88
508.372	88.88
508.588	95.88
508.805	81.88
509.021	88.88
509.238	79.88
509.454	77.88
509.67	76.88
509.887	90.88
510.103	78.88
510.319	79.88
510.536	99.88
510.752	88.88
510.968	88.88
511.184	71.88
511.401	93.88
511.617	76.88
511.833	77.88
512.049	80.88
512.265	81.88
512.481	81.88
512.698	88.88
512.914	81.88
513.13	93.88
513.346	103.88
513.562	82.88
513.778	87.88
513.994	83.88
514.21	80.88
514.426	90.88
514.642	88.88
514.858	80.88
515.074	91.88
515.29	68.88
515.506	83.88
515.721	81.88
515.937	79.88
516.153	69.88
516.369	82.88
516.585	85.88
516.801	83.88
517.016	78.88
517.232	80.88
517.448	86.88
517.664	84.88
517.879	78.88
518.095	81.88
518.311	83.88
518.527	96.88
518.742	60.88
518.958	76.88
519.173	80.88
519.389	92.88
519.605	90.88
519.82	80.88
520.036	92.88
