Data from BGNA1_HRD10591_00020.txt Node
Date: Fri Dec 27 14:28:54 EST 2024
User: Yrep
Spectrometer: HR+D1059
Trigger mode: 1
Integration Time (sec): 1.000000E-1
Scans to average: 1
Electric dark correction enabled: true
Nonlinearity correction enabled: false
Boxcar width: 0
XAxis mode: Wavelengths
Number of Pixels in Spectrum: 2048
>>>>>Begin Spectral Data<<<<<
223.165	-13.12
223.4	-13.12
223.635	-13.12
223.869	-7.12
224.104	-21.12
224.338	-6.12
224.573	-15.12
224.808	-11.12
225.042	-12.12
225.277	-1.12
225.511	-4.12
225.746	-17.12
225.98	9.88
226.215	12.88
226.449	12.88
226.683	13.88
226.918	32.88
227.152	25.88
227.387	23.88
227.621	43.88
227.856	42.88
228.09	42.88
228.324	54.88
228.559	61.88
228.793	62.88
229.027	50.88
229.262	71.88
229.496	53.88
229.73	76.88
229.964	66.88
230.199	72.88
230.433	82.88
230.667	74.88
230.901	71.88
231.136	82.88
231.37	82.88
231.604	68.88
231.838	75.88
232.072	81.88
232.306	82.88
232.541	76.88
232.775	80.88
233.009	82.88
233.243	82.88
233.477	81.88
233.711	76.88
233.945	76.88
234.179	76.88
234.413	84.88
234.647	79.88
234.881	62.88
235.115	78.88
235.349	81.88
235.583	74.88
235.817	79.88
236.051	98.88
236.285	73.88
236.519	80.88
236.753	85.88
236.987	77.88
237.221	76.88
237.455	82.88
237.689	62.88
237.922	85.88
238.156	56.88
238.39	83.88
238.624	75.88
238.858	65.88
239.091	87.88
239.325	77.88
239.559	64.88
239.793	83.88
240.027	77.88
240.26	67.88
240.494	64.88
240.728	75.88
240.961	78.88
241.195	76.88
241.429	72.88
241.662	84.88
241.896	68.88
242.13	66.88
242.363	77.88
242.597	68.88
242.83	72.88
243.064	80.88
243.298	75.88
243.531	75.88
243.765	79.88
243.998	82.88
244.232	88.88
244.465	82.88
244.699	70.88
244.932	85.88
245.166	85.88
245.399	93.88
245.633	81.88
245.866	73.88
246.099	82.88
246.333	89.88
246.566	72.88
246.8	73.88
247.033	74.88
247.266	65.88
247.5	84.88
247.733	80.88
247.966	84.88
248.2	88.88
248.433	74.88
248.666	74.88
248.899	85.88
249.133	80.88
249.366	77.88
249.599	81.88
249.832	70.88
250.066	72.88
250.299	88.88
250.532	73.88
250.765	78.88
250.998	80.88
251.231	86.88
251.465	81.88
251.698	60.88
251.931	68.88
252.164	71.88
252.397	82.88
252.63	81.88
252.863	91.88
253.096	85.88
253.329	82.88
253.562	87.88
253.795	76.88
254.028	94.88
254.261	67.88
254.494	68.88
254.727	87.88
254.96	82.88
255.193	86.88
255.426	88.88
255.659	65.88
255.892	82.88
256.124	89.88
256.357	64.88
256.59	89.88
256.823	78.88
257.056	81.88
257.289	69.88
257.521	76.88
257.754	96.88
257.987	71.88
258.22	73.88
258.452	81.88
258.685	72.88
258.918	78.88
259.151	71.88
259.383	84.88
259.616	79.88
259.849	79.88
260.081	98.88
260.314	77.88
260.547	82.88
260.779	76.88
261.012	89.88
261.244	68.88
261.477	89.88
261.71	91.88
261.942	88.88
262.175	78.88
262.407	87.88
262.64	76.88
262.872	83.88
263.105	89.88
263.337	89.88
263.57	72.88
263.802	85.88
264.035	95.88
264.267	85.88
264.499	84.88
264.732	93.88
264.964	82.88
265.197	69.88
265.429	80.88
265.661	77.88
265.894	94.88
266.126	83.88
266.358	86.88
266.591	70.88
266.823	77.88
267.055	82.88
267.287	93.88
267.52	79.88
267.752	79.88
267.984	98.88
268.216	102.88
268.448	88.88
268.681	89.88
268.913	86.88
269.145	79.88
269.377	75.88
269.609	81.88
269.841	76.88
270.073	73.88
270.306	80.88
270.538	69.88
270.77	83.88
271.002	70.88
271.234	68.88
271.466	86.88
271.698	91.88
271.93	79.88
272.162	85.88
272.394	83.88
272.626	81.88
272.858	76.88
273.09	80.88
273.322	84.88
273.553	77.88
273.785	86.88
274.017	75.88
274.249	85.88
274.481	88.88
274.713	83.88
274.945	84.88
275.176	88.88
275.408	66.88
275.64	70.88
275.872	91.88
276.104	85.88
276.335	80.88
276.567	70.88
276.799	82.88
277.031	84.88
277.262	75.88
277.494	88.88
277.726	89.88
277.957	84.88
278.189	94.88
278.421	79.88
278.652	74.88
278.884	83.88
279.115	89.88
279.347	92.88
279.579	103.88
279.81	67.88
280.042	76.88
280.273	79.88
280.505	62.88
280.736	84.88
280.968	73.88
281.199	63.88
281.431	90.88
281.662	88.88
281.894	75.88
282.125	89.88
282.356	78.88
282.588	66.88
282.819	91.88
283.051	76.88
283.282	81.88
283.513	90.88
283.745	93.88
283.976	82.88
284.207	78.88
284.439	92.88
284.67	84.88
284.901	82.88
285.132	80.88
285.364	79.88
285.595	94.88
285.826	78.88
286.057	86.88
286.288	102.88
286.52	97.88
286.751	66.88
286.982	86.88
287.213	69.88
287.444	82.88
287.675	84.88
287.906	78.88
288.138	79.88
288.369	87.88
288.6	78.88
288.831	76.88
289.062	82.88
289.293	82.88
289.524	88.88
289.755	78.88
289.986	79.88
290.217	87.88
290.448	85.88
290.679	84.88
290.91	98.88
291.141	95.88
291.371	96.88
291.602	86.88
291.833	94.88
292.064	85.88
292.295	74.88
292.526	72.88
292.757	79.88
292.987	93.88
293.218	83.88
293.449	69.88
293.68	90.88
293.91	84.88
294.141	83.88
294.372	93.88
294.603	97.88
294.833	87.88
295.064	92.88
295.295	69.88
295.525	73.88
295.756	76.88
295.987	83.88
296.217	83.88
296.448	93.88
296.679	64.88
296.909	80.88
297.14	88.88
297.37	70.88
297.601	94.88
297.831	76.88
298.062	98.88
298.292	97.88
298.523	71.88
298.753	85.88
298.984	85.88
299.214	88.88
299.445	85.88
299.675	77.88
299.905	101.88
300.136	83.88
300.366	75.88
300.597	88.88
300.827	83.88
301.057	96.88
301.288	88.88
301.518	71.88
301.748	83.88
301.979	97.88
302.209	78.88
302.439	83.88
302.669	97.88
302.9	94.88
303.13	83.88
303.36	85.88
303.59	84.88
303.82	68.88
304.051	82.88
304.281	92.88
304.511	88.88
304.741	80.88
304.971	100.88
305.201	94.88
305.431	80.88
305.661	83.88
305.891	75.88
306.121	80.88
306.352	92.88
306.582	92.88
306.812	75.88
307.042	81.88
307.272	79.88
307.502	78.88
307.731	93.88
307.961	78.88
308.191	81.88
308.421	74.88
308.651	90.88
308.881	73.88
309.111	72.88
309.341	88.88
309.571	73.88
309.8	77.88
310.03	84.88
310.26	73.88
310.49	84.88
310.72	79.88
310.949	79.88
311.179	81.88
311.409	87.88
311.639	102.88
311.868	79.88
312.098	89.88
312.328	84.88
312.557	88.88
312.787	79.88
313.017	80.88
313.246	77.88
313.476	77.88
313.706	86.88
313.935	96.88
314.165	84.88
314.394	96.88
314.624	108.88
314.853	98.88
315.083	92.88
315.312	88.88
315.542	80.88
315.771	81.88
316.001	84.88
316.23	80.88
316.46	83.88
316.689	84.88
316.919	85.88
317.148	93.88
317.377	83.88
317.607	82.88
317.836	84.88
318.065	74.88
318.295	89.88
318.524	74.88
318.753	88.88
318.983	95.88
319.212	85.88
319.441	89.88
319.67	79.88
319.9	79.88
320.129	78.88
320.358	78.88
320.587	72.88
320.816	79.88
321.046	91.88
321.275	78.88
321.504	80.88
321.733	84.88
321.962	81.88
322.191	89.88
322.42	99.88
322.649	94.88
322.878	85.88
323.108	88.88
323.337	87.88
323.566	103.88
323.795	96.88
324.024	89.88
324.253	87.88
324.482	83.88
324.71	78.88
324.939	85.88
325.168	75.88
325.397	79.88
325.626	84.88
325.855	76.88
326.084	88.88
326.313	79.88
326.542	70.88
326.77	72.88
326.999	94.88
327.228	76.88
327.457	81.88
327.686	85.88
327.914	81.88
328.143	81.88
328.372	110.88
328.6	84.88
328.829	70.88
329.058	67.88
329.287	76.88
329.515	79.88
329.744	90.88
329.972	79.88
330.201	84.88
330.43	76.88
330.658	96.88
330.887	64.88
331.115	76.88
331.344	70.88
331.572	84.88
331.801	90.88
332.03	79.88
332.258	82.88
332.486	78.88
332.715	82.88
332.943	97.88
333.172	80.88
333.4	85.88
333.629	81.88
333.857	89.88
334.085	81.88
334.314	77.88
334.542	84.88
334.771	74.88
334.999	77.88
335.227	82.88
335.455	74.88
335.684	92.88
335.912	72.88
336.14	77.88
336.369	85.88
336.597	80.88
336.825	101.88
337.053	77.88
337.281	73.88
337.51	83.88
337.738	98.88
337.966	89.88
338.194	74.88
338.422	76.88
338.65	79.88
338.878	73.88
339.106	80.88
339.334	93.88
339.562	85.88
339.79	74.88
340.018	87.88
340.246	82.88
340.474	72.88
340.702	80.88
340.93	79.88
341.158	82.88
341.386	80.88
341.614	80.88
341.842	93.88
342.07	92.88
342.298	77.88
342.526	86.88
342.754	81.88
342.981	81.88
343.209	92.88
343.437	96.88
343.665	84.88
343.893	90.88
344.12	72.88
344.348	82.88
344.576	72.88
344.804	84.88
345.031	88.88
345.259	78.88
345.487	76.88
345.714	83.88
345.942	84.88
346.17	80.88
346.397	86.88
346.625	83.88
346.853	84.88
347.08	74.88
347.308	89.88
347.535	76.88
347.763	72.88
347.99	72.88
348.218	74.88
348.445	76.88
348.673	76.88
348.9	99.88
349.128	85.88
349.355	86.88
349.583	87.88
349.81	85.88
350.037	82.88
350.265	81.88
350.492	87.88
350.72	82.88
350.947	89.88
351.174	86.88
351.402	93.88
351.629	80.88
351.856	94.88
352.083	70.88
352.311	74.88
352.538	78.88
352.765	96.88
352.992	81.88
353.22	80.88
353.447	75.88
353.674	72.88
353.901	79.88
354.128	88.88
354.355	92.88
354.583	79.88
354.81	96.88
355.037	89.88
355.264	92.88
355.491	78.88
355.718	70.88
355.945	69.88
356.172	82.88
356.399	74.88
356.626	87.88
356.853	77.88
357.08	91.88
357.307	90.88
357.534	80.88
357.761	84.88
357.988	75.88
358.215	79.88
358.441	75.88
358.668	83.88
358.895	68.88
359.122	98.88
359.349	101.88
359.576	98.88
359.802	83.88
360.029	73.88
360.256	91.88
360.483	81.88
360.709	92.88
360.936	81.88
361.163	97.88
361.39	85.88
361.616	92.88
361.843	79.88
362.07	106.88
362.296	70.88
362.523	76.88
362.749	78.88
362.976	63.88
363.203	95.88
363.429	85.88
363.656	68.88
363.882	78.88
364.109	93.88
364.335	82.88
364.562	75.88
364.788	92.88
365.015	69.88
365.241	90.88
365.468	79.88
365.694	71.88
365.92	74.88
366.147	85.88
366.373	87.88
366.599	84.88
366.826	84.88
367.052	67.88
367.278	76.88
367.505	93.88
367.731	76.88
367.957	68.88
368.184	86.88
368.41	83.88
368.636	81.88
368.862	68.88
369.089	92.88
369.315	85.88
369.541	75.88
369.767	82.88
369.993	94.88
370.219	74.88
370.445	90.88
370.672	84.88
370.898	93.88
371.124	94.88
371.35	73.88
371.576	86.88
371.802	88.88
372.028	76.88
372.254	73.88
372.48	75.88
372.706	86.88
372.932	80.88
373.158	86.88
373.384	85.88
373.61	82.88
373.835	75.88
374.061	92.88
374.287	100.88
374.513	81.88
374.739	98.88
374.965	74.88
375.191	89.88
375.416	77.88
375.642	69.88
375.868	76.88
376.094	80.88
376.319	77.88
376.545	72.88
376.771	81.88
376.997	68.88
377.222	86.88
377.448	82.88
377.674	89.88
377.899	76.88
378.125	72.88
378.35	85.88
378.576	73.88
378.802	75.88
379.027	82.88
379.253	81.88
379.478	88.88
379.704	81.88
379.929	77.88
380.155	85.88
380.38	77.88
380.606	79.88
380.831	77.88
381.057	96.88
381.282	85.88
381.507	78.88
381.733	92.88
381.958	86.88
382.184	79.88
382.409	90.88
382.634	82.88
382.86	89.88
383.085	92.88
383.31	76.88
383.535	82.88
383.761	95.88
383.986	83.88
384.211	71.88
384.436	80.88
384.662	74.88
384.887	90.88
385.112	74.88
385.337	73.88
385.562	77.88
385.787	64.88
386.013	85.88
386.238	79.88
386.463	83.88
386.688	110.88
386.913	74.88
387.138	79.88
387.363	84.88
387.588	101.88
387.813	75.88
388.038	79.88
388.263	92.88
388.488	89.88
388.713	72.88
388.938	71.88
389.163	73.88
389.387	82.88
389.612	88.88
389.837	77.88
390.062	92.88
390.287	83.88
390.512	73.88
390.736	68.88
390.961	66.88
391.186	82.88
391.411	76.88
391.636	82.88
391.86	87.88
392.085	91.88
392.31	86.88
392.534	84.88
392.759	81.88
392.984	76.88
393.208	84.88
393.433	83.88
393.658	101.88
393.882	86.88
394.107	96.88
394.331	87.88
394.556	80.88
394.78	74.88
395.005	86.88
395.229	68.88
395.454	87.88
395.678	81.88
395.903	84.88
396.127	93.88
396.352	94.88
396.576	78.88
396.801	73.88
397.025	81.88
397.249	69.88
397.474	81.88
397.698	87.88
397.922	101.88
398.147	85.88
398.371	77.88
398.595	87.88
398.82	71.88
399.044	84.88
399.268	92.88
399.492	82.88
399.717	83.88
399.941	74.88
400.165	84.88
400.389	86.88
400.613	68.88
400.837	84.88
401.062	83.88
401.286	78.88
401.51	75.88
401.734	85.88
401.958	70.88
402.182	85.88
402.406	65.88
402.63	86.88
402.854	80.88
403.078	86.88
403.302	81.88
403.526	88.88
403.75	86.88
403.974	80.88
404.198	82.88
404.422	82.88
404.645	78.88
404.869	69.88
405.093	59.88
405.317	88.88
405.541	77.88
405.765	74.88
405.988	79.88
406.212	87.88
406.436	88.88
406.66	70.88
406.883	87.88
407.107	72.88
407.331	73.88
407.555	75.88
407.778	93.88
408.002	68.88
408.226	82.88
408.449	73.88
408.673	74.88
408.896	98.88
409.12	87.88
409.344	58.88
409.567	68.88
409.791	73.88
410.014	86.88
410.238	76.88
410.461	82.88
410.685	84.88
410.908	80.88
411.132	90.88
411.355	94.88
411.578	77.88
411.802	78.88
412.025	81.88
412.249	73.88
412.472	92.88
412.695	74.88
412.919	74.88
413.142	85.88
413.365	81.88
413.589	84.88
413.812	82.88
414.035	80.88
414.258	78.88
414.482	83.88
414.705	91.88
414.928	79.88
415.151	87.88
415.374	72.88
415.597	78.88
415.821	72.88
416.044	82.88
416.267	96.88
416.49	82.88
416.713	81.88
416.936	83.88
417.159	78.88
417.382	89.88
417.605	81.88
417.828	80.88
418.051	85.88
418.274	102.88
418.497	81.88
418.72	74.88
418.943	84.88
419.166	83.88
419.389	78.88
419.611	88.88
419.834	60.88
420.057	76.88
420.28	78.88
420.503	69.88
420.726	76.88
420.948	84.88
421.171	85.88
421.394	74.88
421.617	80.88
421.839	85.88
422.062	94.88
422.285	78.88
422.507	82.88
422.73	86.88
422.953	73.88
423.175	77.88
423.398	85.88
423.621	90.88
423.843	97.88
424.066	72.88
424.288	63.88
424.511	66.88
424.733	70.88
424.956	84.88
425.178	95.88
425.401	84.88
425.623	73.88
425.846	75.88
426.068	93.88
426.291	70.88
426.513	84.88
426.735	78.88
426.958	78.88
427.18	90.88
427.402	75.88
427.625	90.88
427.847	81.88
428.069	85.88
428.292	70.88
428.514	77.88
428.736	70.88
428.958	74.88
429.181	88.88
429.403	74.88
429.625	83.88
429.847	90.88
430.069	72.88
430.292	84.88
430.514	86.88
430.736	69.88
430.958	73.88
431.18	87.88
431.402	73.88
431.624	72.88
431.846	72.88
432.068	83.88
432.29	73.88
432.512	80.88
432.734	70.88
432.956	62.88
433.178	93.88
433.4	77.88
433.622	84.88
433.844	73.88
434.066	87.88
434.287	74.88
434.509	57.88
434.731	80.88
434.953	87.88
435.175	74.88
435.397	77.88
435.618	84.88
435.84	79.88
436.062	83.88
436.284	98.88
436.505	86.88
436.727	73.88
436.949	67.88
437.17	67.88
437.392	86.88
437.614	73.88
437.835	79.88
438.057	80.88
438.278	71.88
438.5	92.88
438.721	82.88
438.943	80.88
439.165	81.88
439.386	85.88
439.608	73.88
439.829	81.88
440.05	79.88
440.272	75.88
440.493	84.88
440.715	93.88
440.936	68.88
441.158	83.88
441.379	69.88
441.6	69.88
441.822	69.88
442.043	76.88
442.264	76.88
442.486	86.88
442.707	78.88
442.928	62.88
443.149	57.88
443.371	89.88
443.592	81.88
443.813	76.88
444.034	74.88
444.255	73.88
444.476	83.88
444.698	73.88
444.919	82.88
445.14	138.88
445.361	105.88
445.582	78.88
445.803	84.88
446.024	73.88
446.245	80.88
446.466	76.88
446.687	78.88
446.908	74.88
447.129	81.88
447.35	83.88
447.571	72.88
447.792	78.88
448.013	73.88
448.234	72.88
448.455	78.88
448.675	85.88
448.896	81.88
449.117	70.88
449.338	80.88
449.559	75.88
449.779	71.88
450	76.88
450.221	79.88
450.442	79.88
450.662	86.88
450.883	83.88
451.104	84.88
451.324	72.88
451.545	67.88
451.766	75.88
451.986	78.88
452.207	77.88
452.428	88.88
452.648	74.88
452.869	88.88
453.089	96.88
453.31	89.88
453.53	69.88
453.751	77.88
453.971	93.88
454.192	90.88
454.412	81.88
454.633	66.88
454.853	80.88
455.073	96.88
455.294	80.88
455.514	81.88
455.734	75.88
455.955	81.88
456.175	70.88
456.395	86.88
456.616	82.88
456.836	71.88
457.056	78.88
457.276	76.88
457.497	77.88
457.717	83.88
457.937	87.88
458.157	81.88
458.377	90.88
458.598	79.88
458.818	83.88
459.038	69.88
459.258	90.88
459.478	79.88
459.698	77.88
459.918	90.88
460.138	82.88
460.358	72.88
460.578	84.88
460.798	89.88
461.018	96.88
461.238	96.88
461.458	78.88
461.678	92.88
461.898	74.88
462.118	75.88
462.338	72.88
462.558	73.88
462.777	62.88
462.997	91.88
463.217	76.88
463.437	86.88
463.657	76.88
463.876	96.88
464.096	80.88
464.316	65.88
464.536	71.88
464.755	99.88
464.975	90.88
465.195	82.88
465.414	85.88
465.634	103.88
465.854	66.88
466.073	90.88
466.293	60.88
466.512	84.88
466.732	74.88
466.951	77.88
467.171	84.88
467.391	81.88
467.61	87.88
467.829	78.88
468.049	95.88
468.268	80.88
468.488	71.88
468.707	88.88
468.927	65.88
469.146	85.88
469.365	90.88
469.585	73.88
469.804	82.88
470.023	73.88
470.243	88.88
470.462	104.88
470.681	78.88
470.901	80.88
471.12	76.88
471.339	89.88
471.558	87.88
471.777	67.88
471.997	91.88
472.216	86.88
472.435	80.88
472.654	76.88
472.873	88.88
473.092	85.88
473.311	92.88
473.53	75.88
473.749	74.88
473.968	81.88
474.187	90.88
474.406	73.88
474.625	78.88
474.844	80.88
475.063	89.88
475.282	74.88
475.501	77.88
475.72	89.88
475.939	81.88
476.158	77.88
476.377	77.88
476.596	81.88
476.814	94.88
477.033	74.88
477.252	92.88
477.471	82.88
477.69	71.88
477.908	80.88
478.127	100.88
478.346	88.88
478.564	68.88
478.783	89.88
479.002	84.88
479.22	75.88
479.439	83.88
479.658	88.88
479.876	82.88
480.095	80.88
480.313	78.88
480.532	75.88
480.751	78.88
480.969	74.88
481.188	78.88
481.406	84.88
481.624	69.88
481.843	66.88
482.061	87.88
482.28	78.88
482.498	70.88
482.717	91.88
482.935	72.88
483.153	73.88
483.372	74.88
483.59	95.88
483.808	76.88
484.027	86.88
484.245	80.88
484.463	83.88
484.681	98.88
484.9	83.88
485.118	82.88
485.336	82.88
485.554	71.88
485.772	92.88
485.99	94.88
486.209	87.88
486.427	68.88
486.645	82.88
486.863	72.88
487.081	86.88
487.299	80.88
487.517	81.88
487.735	72.88
487.953	94.88
488.171	66.88
488.389	72.88
488.607	74.88
488.825	80.88
489.043	83.88
489.261	83.88
489.479	71.88
489.696	80.88
489.914	69.88
490.132	82.88
490.35	81.88
490.568	69.88
490.786	85.88
491.003	89.88
491.221	77.88
491.439	68.88
491.657	79.88
491.874	80.88
492.092	79.88
492.31	73.88
492.527	72.88
492.745	94.88
492.963	78.88
493.18	85.88
493.398	73.88
493.615	87.88
493.833	75.88
494.05	96.88
494.268	79.88
494.485	80.88
494.703	71.88
494.92	80.88
495.138	80.88
495.355	84.88
495.573	92.88
495.79	85.88
496.008	96.88
496.225	79.88
496.442	87.88
496.66	90.88
496.877	84.88
497.094	85.88
497.312	85.88
497.529	74.88
497.746	82.88
497.963	80.88
498.181	87.88
498.398	71.88
498.615	79.88
498.832	77.88
499.049	73.88
499.267	79.88
499.484	79.88
499.701	85.88
499.918	85.88
500.135	84.88
500.352	71.88
500.569	82.88
500.786	88.88
501.003	84.88
501.22	82.88
501.437	75.88
501.654	78.88
501.871	85.88
502.088	85.88
502.305	70.88
502.522	83.88
502.739	96.88
502.956	79.88
503.172	81.88
503.389	77.88
503.606	73.88
503.823	94.88
504.04	82.88
504.256	83.88
504.473	76.88
504.69	71.88
504.907	104.88
505.123	89.88
505.34	78.88
505.557	79.88
505.773	96.88
505.99	82.88
506.207	77.88
506.423	74.88
506.64	86.88
506.856	94.88
507.073	81.88
507.289	77.88
507.506	90.88
507.722	78.88
507.939	72.88
508.155	96.88
508.372	80.88
508.588	78.88
508.805	72.88
509.021	101.88
509.238	83.88
509.454	66.88
509.67	78.88
509.887	96.88
510.103	78.88
510.319	72.88
510.536	74.88
510.752	82.88
510.968	84.88
511.184	83.88
511.401	75.88
511.617	86.88
511.833	80.88
512.049	94.88
512.265	86.88
512.481	76.88
512.698	87.88
512.914	68.88
513.13	77.88
513.346	82.88
513.562	81.88
513.778	89.88
513.994	92.88
514.21	76.88
514.426	72.88
514.642	75.88
514.858	88.88
515.074	100.88
515.29	84.88
515.506	82.88
515.721	73.88
515.937	73.88
516.153	69.88
516.369	82.88
516.585	86.88
516.801	90.88
517.016	89.88
517.232	81.88
517.448	85.88
517.664	96.88
517.879	85.88
518.095	83.88
518.311	92.88
518.527	83.88
518.742	71.88
518.958	86.88
519.173	78.88
519.389	67.88
519.605	84.88
519.82	80.88
520.036	85.88
