Data from Uncirc_2001_H10_HRD10591_00006.txt Node
Date: Wed Jan 03 10:43:58 EST 2024
User: Yrep
Spectrometer: HR+D1059
Trigger mode: 1
Integration Time (sec): 1.000000E-1
Scans to average: 1
Electric dark correction enabled: true
Nonlinearity correction enabled: false
Boxcar width: 0
XAxis mode: Wavelengths
Number of Pixels in Spectrum: 2048
>>>>>Begin Spectral Data<<<<<
223.165	-31.31
223.4	-31.31
223.635	-31.31
223.869	-25.31
224.104	-18.31
224.338	-3.31
224.573	-8.31
224.808	-16.31
225.042	-14.31
225.277	-0.31
225.511	-1.31
225.746	11.69
225.98	-1.31
226.215	29.69
226.449	14.69
226.683	9.69
226.918	24.69
227.152	29.69
227.387	43.69
227.621	29.69
227.856	44.69
228.09	37.69
228.324	52.69
228.559	48.69
228.793	52.69
229.027	71.69
229.262	62.69
229.496	64.69
229.73	72.69
229.964	70.69
230.199	70.69
230.433	85.69
230.667	90.69
230.901	75.69
231.136	81.69
231.37	87.69
231.604	71.69
231.838	81.69
232.072	79.69
232.306	70.69
232.541	78.69
232.775	77.69
233.009	73.69
233.243	84.69
233.477	76.69
233.711	90.69
233.945	81.69
234.179	70.69
234.413	84.69
234.647	72.69
234.881	78.69
235.115	83.69
235.349	70.69
235.583	81.69
235.817	77.69
236.051	70.69
236.285	77.69
236.519	67.69
236.753	80.69
236.987	78.69
237.221	81.69
237.455	83.69
237.689	60.69
237.922	78.69
238.156	75.69
238.39	86.69
238.624	75.69
238.858	82.69
239.091	74.69
239.325	79.69
239.559	70.69
239.793	78.69
240.027	59.69
240.26	80.69
240.494	78.69
240.728	68.69
240.961	69.69
241.195	84.69
241.429	64.69
241.662	83.69
241.896	84.69
242.13	71.69
242.363	68.69
242.597	80.69
242.83	72.69
243.064	77.69
243.298	78.69
243.531	78.69
243.765	85.69
243.998	94.69
244.232	83.69
244.465	79.69
244.699	79.69
244.932	82.69
245.166	72.69
245.399	52.69
245.633	81.69
245.866	68.69
246.099	66.69
246.333	71.69
246.566	69.69
246.8	80.69
247.033	86.69
247.266	80.69
247.5	90.69
247.733	79.69
247.966	85.69
248.2	74.69
248.433	88.69
248.666	74.69
248.899	81.69
249.133	80.69
249.366	75.69
249.599	79.69
249.832	82.69
250.066	89.69
250.299	87.69
250.532	73.69
250.765	85.69
250.998	89.69
251.231	78.69
251.465	67.69
251.698	79.69
251.931	81.69
252.164	78.69
252.397	64.69
252.63	76.69
252.863	82.69
253.096	68.69
253.329	69.69
253.562	66.69
253.795	65.69
254.028	91.69
254.261	87.69
254.494	76.69
254.727	85.69
254.96	91.69
255.193	83.69
255.426	80.69
255.659	59.69
255.892	89.69
256.124	75.69
256.357	101.69
256.59	90.69
256.823	75.69
257.056	73.69
257.289	83.69
257.521	65.69
257.754	74.69
257.987	80.69
258.22	80.69
258.452	83.69
258.685	75.69
258.918	87.69
259.151	69.69
259.383	74.69
259.616	80.69
259.849	67.69
260.081	90.69
260.314	79.69
260.547	88.69
260.779	83.69
261.012	74.69
261.244	80.69
261.477	81.69
261.71	97.69
261.942	102.69
262.175	98.69
262.407	86.69
262.64	70.69
262.872	88.69
263.105	82.69
263.337	88.69
263.57	76.69
263.802	82.69
264.035	76.69
264.267	85.69
264.499	82.69
264.732	95.69
264.964	85.69
265.197	89.69
265.429	92.69
265.661	86.69
265.894	96.69
266.126	76.69
266.358	81.69
266.591	79.69
266.823	91.69
267.055	83.69
267.287	81.69
267.52	78.69
267.752	73.69
267.984	70.69
268.216	78.69
268.448	85.69
268.681	88.69
268.913	78.69
269.145	73.69
269.377	69.69
269.609	75.69
269.841	87.69
270.073	75.69
270.306	90.69
270.538	73.69
270.77	76.69
271.002	89.69
271.234	80.69
271.466	94.69
271.698	82.69
271.93	87.69
272.162	79.69
272.394	66.69
272.626	87.69
272.858	90.69
273.09	104.69
273.322	74.69
273.553	62.69
273.785	67.69
274.017	91.69
274.249	82.69
274.481	70.69
274.713	85.69
274.945	70.69
275.176	78.69
275.408	82.69
275.64	85.69
275.872	88.69
276.104	86.69
276.335	88.69
276.567	77.69
276.799	82.69
277.031	97.69
277.262	80.69
277.494	80.69
277.726	82.69
277.957	79.69
278.189	83.69
278.421	91.69
278.652	96.69
278.884	84.69
279.115	86.69
279.347	75.69
279.579	84.69
279.81	89.69
280.042	94.69
280.273	94.69
280.505	87.69
280.736	81.69
280.968	81.69
281.199	82.69
281.431	85.69
281.662	103.69
281.894	82.69
282.125	87.69
282.356	105.69
282.588	119.69
282.819	98.69
283.051	79.69
283.282	75.69
283.513	78.69
283.745	94.69
283.976	91.69
284.207	86.69
284.439	94.69
284.67	76.69
284.901	76.69
285.132	82.69
285.364	90.69
285.595	95.69
285.826	74.69
286.057	79.69
286.288	80.69
286.52	89.69
286.751	89.69
286.982	87.69
287.213	84.69
287.444	82.69
287.675	97.69
287.906	93.69
288.138	86.69
288.369	82.69
288.6	88.69
288.831	87.69
289.062	73.69
289.293	75.69
289.524	81.69
289.755	98.69
289.986	89.69
290.217	101.69
290.448	87.69
290.679	75.69
290.91	86.69
291.141	81.69
291.371	82.69
291.602	87.69
291.833	98.69
292.064	90.69
292.295	86.69
292.526	102.69
292.757	88.69
292.987	74.69
293.218	75.69
293.449	75.69
293.68	77.69
293.91	89.69
294.141	85.69
294.372	74.69
294.603	92.69
294.833	76.69
295.064	88.69
295.295	78.69
295.525	86.69
295.756	112.69
295.987	103.69
296.217	115.69
296.448	111.69
296.679	100.69
296.909	84.69
297.14	96.69
297.37	72.69
297.601	67.69
297.831	95.69
298.062	87.69
298.292	77.69
298.523	80.69
298.753	89.69
298.984	98.69
299.214	91.69
299.445	94.69
299.675	91.69
299.905	82.69
300.136	83.69
300.366	85.69
300.597	83.69
300.827	97.69
301.057	104.69
301.288	100.69
301.518	84.69
301.748	81.69
301.979	87.69
302.209	86.69
302.439	82.69
302.669	95.69
302.9	91.69
303.13	82.69
303.36	83.69
303.59	91.69
303.82	96.69
304.051	83.69
304.281	81.69
304.511	91.69
304.741	84.69
304.971	84.69
305.201	89.69
305.431	100.69
305.661	112.69
305.891	81.69
306.121	97.69
306.352	99.69
306.582	98.69
306.812	95.69
307.042	88.69
307.272	86.69
307.502	83.69
307.731	82.69
307.961	87.69
308.191	96.69
308.421	68.69
308.651	96.69
308.881	82.69
309.111	106.69
309.341	90.69
309.571	88.69
309.8	91.69
310.03	100.69
310.26	82.69
310.49	98.69
310.72	95.69
310.949	102.69
311.179	107.69
311.409	98.69
311.639	85.69
311.868	90.69
312.098	103.69
312.328	84.69
312.557	86.69
312.787	100.69
313.017	77.69
313.246	89.69
313.476	93.69
313.706	92.69
313.935	96.69
314.165	87.69
314.394	102.69
314.624	92.69
314.853	96.69
315.083	84.69
315.312	88.69
315.542	101.69
315.771	99.69
316.001	89.69
316.23	79.69
316.46	84.69
316.689	81.69
316.919	90.69
317.148	84.69
317.377	83.69
317.607	92.69
317.836	84.69
318.065	82.69
318.295	94.69
318.524	84.69
318.753	91.69
318.983	104.69
319.212	105.69
319.441	102.69
319.67	92.69
319.9	96.69
320.129	82.69
320.358	91.69
320.587	89.69
320.816	102.69
321.046	113.69
321.275	92.69
321.504	98.69
321.733	109.69
321.962	100.69
322.191	96.69
322.42	103.69
322.649	103.69
322.878	107.69
323.108	115.69
323.337	118.69
323.566	119.69
323.795	156.69
324.024	183.69
324.253	311.69
324.482	585.69
324.71	1146.69
324.939	1460.69
325.168	568.69
325.397	196.69
325.626	128.69
325.855	104.69
326.084	114.69
326.313	108.69
326.542	140.69
326.77	192.69
326.999	358.69
327.228	641.69
327.457	1168.69
327.686	955.69
327.914	284.69
328.143	146.69
328.372	127.69
328.6	107.69
328.829	108.69
329.058	110.69
329.287	115.69
329.515	89.69
329.744	113.69
329.972	103.69
330.201	91.69
330.43	98.69
330.658	115.69
330.887	125.69
331.115	110.69
331.344	100.69
331.572	102.69
331.801	85.69
332.03	95.69
332.258	91.69
332.486	92.69
332.715	87.69
332.943	79.69
333.172	92.69
333.4	105.69
333.629	103.69
333.857	108.69
334.085	105.69
334.314	99.69
334.542	102.69
334.771	97.69
334.999	102.69
335.227	88.69
335.455	79.69
335.684	95.69
335.912	94.69
336.14	93.69
336.369	103.69
336.597	104.69
336.825	92.69
337.053	99.69
337.281	97.69
337.51	79.69
337.738	91.69
337.966	88.69
338.194	93.69
338.422	101.69
338.65	106.69
338.878	110.69
339.106	71.69
339.334	91.69
339.562	94.69
339.79	96.69
340.018	76.69
340.246	96.69
340.474	104.69
340.702	100.69
340.93	82.69
341.158	90.69
341.386	90.69
341.614	95.69
341.842	90.69
342.07	85.69
342.298	102.69
342.526	92.69
342.754	90.69
342.981	87.69
343.209	99.69
343.437	95.69
343.665	97.69
343.893	89.69
344.12	98.69
344.348	85.69
344.576	88.69
344.804	103.69
345.031	88.69
345.259	90.69
345.487	78.69
345.714	87.69
345.942	85.69
346.17	95.69
346.397	88.69
346.625	94.69
346.853	100.69
347.08	105.69
347.308	88.69
347.535	87.69
347.763	91.69
347.99	92.69
348.218	94.69
348.445	94.69
348.673	89.69
348.9	90.69
349.128	100.69
349.355	84.69
349.583	97.69
349.81	94.69
350.037	97.69
350.265	95.69
350.492	110.69
350.72	86.69
350.947	97.69
351.174	109.69
351.402	103.69
351.629	98.69
351.856	84.69
352.083	103.69
352.311	101.69
352.538	102.69
352.765	115.69
352.992	117.69
353.22	97.69
353.447	91.69
353.674	102.69
353.901	94.69
354.128	91.69
354.355	118.69
354.583	100.69
354.81	108.69
355.037	97.69
355.264	92.69
355.491	89.69
355.718	94.69
355.945	103.69
356.172	83.69
356.399	97.69
356.626	92.69
356.853	92.69
357.08	98.69
357.307	88.69
357.534	78.69
357.761	95.69
357.988	97.69
358.215	99.69
358.441	101.69
358.668	80.69
358.895	94.69
359.122	90.69
359.349	97.69
359.576	82.69
359.802	98.69
360.029	105.69
360.256	92.69
360.483	99.69
360.709	88.69
360.936	102.69
361.163	94.69
361.39	89.69
361.616	90.69
361.843	91.69
362.07	98.69
362.296	100.69
362.523	95.69
362.749	84.69
362.976	79.69
363.203	89.69
363.429	81.69
363.656	89.69
363.882	105.69
364.109	93.69
364.335	83.69
364.562	75.69
364.788	80.69
365.015	94.69
365.241	85.69
365.468	87.69
365.694	84.69
365.92	74.69
366.147	86.69
366.373	87.69
366.599	86.69
366.826	87.69
367.052	79.69
367.278	91.69
367.505	85.69
367.731	95.69
367.957	92.69
368.184	88.69
368.41	87.69
368.636	100.69
368.862	100.69
369.089	98.69
369.315	90.69
369.541	84.69
369.767	87.69
369.993	86.69
370.219	85.69
370.445	83.69
370.672	99.69
370.898	92.69
371.124	78.69
371.35	101.69
371.576	97.69
371.802	94.69
372.028	94.69
372.254	85.69
372.48	91.69
372.706	88.69
372.932	91.69
373.158	96.69
373.384	86.69
373.61	88.69
373.835	95.69
374.061	87.69
374.287	93.69
374.513	82.69
374.739	85.69
374.965	96.69
375.191	94.69
375.416	104.69
375.642	91.69
375.868	97.69
376.094	96.69
376.319	99.69
376.545	98.69
376.771	90.69
376.997	77.69
377.222	85.69
377.448	107.69
377.674	96.69
377.899	89.69
378.125	96.69
378.35	99.69
378.576	98.69
378.802	98.69
379.027	116.69
379.253	89.69
379.478	97.69
379.704	106.69
379.929	103.69
380.155	108.69
380.38	104.69
380.606	111.69
380.831	107.69
381.057	91.69
381.282	105.69
381.507	87.69
381.733	106.69
381.958	104.69
382.184	111.69
382.409	93.69
382.634	107.69
382.86	106.69
383.085	96.69
383.31	119.69
383.535	99.69
383.761	108.69
383.986	103.69
384.211	104.69
384.436	105.69
384.662	114.69
384.887	115.69
385.112	113.69
385.337	116.69
385.562	110.69
385.787	117.69
386.013	113.69
386.238	122.69
386.463	111.69
386.688	109.69
386.913	116.69
387.138	102.69
387.363	114.69
387.588	120.69
387.813	113.69
388.038	117.69
388.263	135.69
388.488	130.69
388.713	107.69
388.938	110.69
389.163	111.69
389.387	98.69
389.612	98.69
389.837	101.69
390.062	94.69
390.287	76.69
390.512	99.69
390.736	108.69
390.961	87.69
391.186	81.69
391.411	81.69
391.636	96.69
391.86	86.69
392.085	88.69
392.31	95.69
392.534	82.69
392.759	82.69
392.984	93.69
393.208	91.69
393.433	91.69
393.658	90.69
393.882	76.69
394.107	84.69
394.331	87.69
394.556	76.69
394.78	97.69
395.005	82.69
395.229	83.69
395.454	76.69
395.678	75.69
395.903	80.69
396.127	90.69
396.352	89.69
396.576	91.69
396.801	81.69
397.025	91.69
397.249	98.69
397.474	95.69
397.698	84.69
397.922	89.69
398.147	92.69
398.371	85.69
398.595	90.69
398.82	88.69
399.044	84.69
399.268	84.69
399.492	97.69
399.717	86.69
399.941	84.69
400.165	85.69
400.389	69.69
400.613	70.69
400.837	95.69
401.062	94.69
401.286	82.69
401.51	83.69
401.734	78.69
401.958	96.69
402.182	99.69
402.406	128.69
402.63	114.69
402.854	99.69
403.078	86.69
403.302	74.69
403.526	91.69
403.75	97.69
403.974	75.69
404.198	97.69
404.422	91.69
404.645	97.69
404.869	77.69
405.093	91.69
405.317	83.69
405.541	78.69
405.765	86.69
405.988	115.69
406.212	147.69
406.436	156.69
406.66	114.69
406.883	97.69
407.107	93.69
407.331	88.69
407.555	94.69
407.778	97.69
408.002	81.69
408.226	71.69
408.449	86.69
408.673	83.69
408.896	90.69
409.12	93.69
409.344	89.69
409.567	89.69
409.791	84.69
410.014	97.69
410.238	78.69
410.461	77.69
410.685	98.69
410.908	94.69
411.132	107.69
411.355	92.69
411.578	97.69
411.802	95.69
412.025	82.69
412.249	105.69
412.472	81.69
412.695	72.69
412.919	82.69
413.142	79.69
413.365	91.69
413.589	81.69
413.812	97.69
414.035	94.69
414.258	85.69
414.482	88.69
414.705	90.69
414.928	95.69
415.151	110.69
415.374	89.69
415.597	90.69
415.821	82.69
416.044	88.69
416.267	92.69
416.49	76.69
416.713	87.69
416.936	80.69
417.159	83.69
417.382	73.69
417.605	81.69
417.828	104.69
418.051	75.69
418.274	101.69
418.497	99.69
418.72	90.69
418.943	82.69
419.166	105.69
419.389	84.69
419.611	95.69
419.834	89.69
420.057	90.69
420.28	82.69
420.503	88.69
420.726	76.69
420.948	86.69
421.171	86.69
421.394	101.69
421.617	77.69
421.839	79.69
422.062	84.69
422.285	98.69
422.507	89.69
422.73	99.69
422.953	80.69
423.175	96.69
423.398	94.69
423.621	86.69
423.843	97.69
424.066	95.69
424.288	84.69
424.511	96.69
424.733	93.69
424.956	83.69
425.178	92.69
425.401	101.69
425.623	86.69
425.846	94.69
426.068	98.69
426.291	96.69
426.513	87.69
426.735	78.69
426.958	94.69
427.18	109.69
427.402	119.69
427.625	129.69
427.847	96.69
428.069	97.69
428.292	80.69
428.514	88.69
428.736	88.69
428.958	67.69
429.181	74.69
429.403	76.69
429.625	96.69
429.847	88.69
430.069	90.69
430.292	85.69
430.514	85.69
430.736	88.69
430.958	81.69
431.18	87.69
431.402	96.69
431.624	82.69
431.846	88.69
432.068	93.69
432.29	68.69
432.512	90.69
432.734	82.69
432.956	83.69
433.178	78.69
433.4	91.69
433.622	81.69
433.844	88.69
434.066	92.69
434.287	103.69
434.509	91.69
434.731	102.69
434.953	97.69
435.175	95.69
435.397	82.69
435.618	89.69
435.84	111.69
436.062	116.69
436.284	98.69
436.505	85.69
436.727	97.69
436.949	78.69
437.17	90.69
437.392	82.69
437.614	80.69
437.835	101.69
438.057	105.69
438.278	107.69
438.5	112.69
438.721	101.69
438.943	100.69
439.165	91.69
439.386	84.69
439.608	92.69
439.829	113.69
440.05	101.69
440.272	131.69
440.493	91.69
440.715	95.69
440.936	68.69
441.158	82.69
441.379	85.69
441.6	91.69
441.822	88.69
442.043	74.69
442.264	104.69
442.486	90.69
442.707	87.69
442.928	84.69
443.149	106.69
443.371	120.69
443.592	97.69
443.813	102.69
444.034	95.69
444.255	95.69
444.476	86.69
444.698	80.69
444.919	86.69
445.14	118.69
445.361	122.69
445.582	121.69
445.803	127.69
446.024	122.69
446.245	126.69
446.466	111.69
446.687	86.69
446.908	78.69
447.129	86.69
447.35	96.69
447.571	106.69
447.792	97.69
448.013	100.69
448.234	92.69
448.455	89.69
448.675	94.69
448.896	119.69
449.117	94.69
449.338	98.69
449.559	116.69
449.779	126.69
450	88.69
450.221	83.69
450.442	78.69
450.662	90.69
450.883	101.69
451.104	109.69
451.324	87.69
451.545	96.69
451.766	90.69
451.986	82.69
452.207	86.69
452.428	88.69
452.648	99.69
452.869	104.69
453.089	95.69
453.31	98.69
453.53	80.69
453.751	94.69
453.971	89.69
454.192	93.69
454.412	97.69
454.633	77.69
454.853	71.69
455.073	84.69
455.294	86.69
455.514	121.69
455.734	96.69
455.955	86.69
456.175	83.69
456.395	80.69
456.616	87.69
456.836	76.69
457.056	79.69
457.276	81.69
457.497	92.69
457.717	72.69
457.937	72.69
458.157	87.69
458.377	86.69
458.598	98.69
458.818	115.69
459.038	132.69
459.258	86.69
459.478	91.69
459.698	93.69
459.918	94.69
460.138	83.69
460.358	78.69
460.578	87.69
460.798	88.69
461.018	90.69
461.238	89.69
461.458	95.69
461.678	75.69
461.898	89.69
462.118	76.69
462.338	90.69
462.558	85.69
462.777	85.69
462.997	86.69
463.217	80.69
463.437	85.69
463.657	70.69
463.876	87.69
464.096	67.69
464.316	71.69
464.536	87.69
464.755	97.69
464.975	106.69
465.195	142.69
465.414	139.69
465.634	90.69
465.854	80.69
466.073	82.69
466.293	79.69
466.512	83.69
466.732	92.69
466.951	79.69
467.171	95.69
467.391	72.69
467.61	62.69
467.829	104.69
468.049	102.69
468.268	92.69
468.488	76.69
468.707	84.69
468.927	83.69
469.146	89.69
469.365	91.69
469.585	87.69
469.804	79.69
470.023	83.69
470.243	97.69
470.462	96.69
470.681	106.69
470.901	70.69
471.12	83.69
471.339	92.69
471.558	67.69
471.777	88.69
471.997	90.69
472.216	82.69
472.435	95.69
472.654	79.69
472.873	80.69
473.092	86.69
473.311	84.69
473.53	89.69
473.749	87.69
473.968	87.69
474.187	86.69
474.406	91.69
474.625	81.69
474.844	74.69
475.063	71.69
475.282	98.69
475.501	89.69
475.72	79.69
475.939	87.69
476.158	89.69
476.377	93.69
476.596	87.69
476.814	97.69
477.033	90.69
477.252	101.69
477.471	81.69
477.69	90.69
477.908	94.69
478.127	83.69
478.346	97.69
478.564	87.69
478.783	83.69
479.002	89.69
479.22	71.69
479.439	82.69
479.658	102.69
479.876	89.69
480.095	85.69
480.313	87.69
480.532	84.69
480.751	88.69
480.969	87.69
481.188	103.69
481.406	91.69
481.624	92.69
481.843	102.69
482.061	68.69
482.28	93.69
482.498	84.69
482.717	86.69
482.935	76.69
483.153	93.69
483.372	92.69
483.59	93.69
483.808	82.69
484.027	84.69
484.245	89.69
484.463	93.69
484.681	92.69
484.9	90.69
485.118	92.69
485.336	82.69
485.554	104.69
485.772	86.69
485.99	102.69
486.209	99.69
486.427	103.69
486.645	106.69
486.863	103.69
487.081	92.69
487.299	100.69
487.517	102.69
487.735	103.69
487.953	96.69
488.171	91.69
488.389	97.69
488.607	96.69
488.825	96.69
489.043	95.69
489.261	87.69
489.479	81.69
489.696	97.69
489.914	81.69
490.132	92.69
490.35	87.69
490.568	100.69
490.786	78.69
491.003	98.69
491.221	97.69
491.439	95.69
491.657	87.69
491.874	92.69
492.092	93.69
492.31	82.69
492.527	96.69
492.745	67.69
492.963	99.69
493.18	86.69
493.398	82.69
493.615	105.69
493.833	113.69
494.05	88.69
494.268	86.69
494.485	83.69
494.703	74.69
494.92	93.69
495.138	94.69
495.355	95.69
495.573	99.69
495.79	83.69
496.008	94.69
496.225	93.69
496.442	90.69
496.66	96.69
496.877	87.69
497.094	96.69
497.312	89.69
497.529	89.69
497.746	92.69
497.963	90.69
498.181	87.69
498.398	100.69
498.615	115.69
498.832	96.69
499.049	92.69
499.267	84.69
499.484	95.69
499.701	88.69
499.918	92.69
500.135	71.69
500.352	96.69
500.569	93.69
500.786	91.69
501.003	86.69
501.22	92.69
501.437	97.69
501.654	80.69
501.871	95.69
502.088	83.69
502.305	101.69
502.522	80.69
502.739	88.69
502.956	90.69
503.172	104.69
503.389	96.69
503.606	95.69
503.823	105.69
504.04	79.69
504.256	91.69
504.473	88.69
504.69	84.69
504.907	86.69
505.123	87.69
505.34	91.69
505.557	80.69
505.773	91.69
505.99	100.69
506.207	82.69
506.423	92.69
506.64	84.69
506.856	86.69
507.073	93.69
507.289	106.69
507.506	102.69
507.722	101.69
507.939	102.69
508.155	98.69
508.372	113.69
508.588	101.69
508.805	95.69
509.021	104.69
509.238	101.69
509.454	96.69
509.67	92.69
509.887	94.69
510.103	111.69
510.319	177.69
510.536	559.69
510.752	1558.69
510.968	465.69
511.184	131.69
511.401	120.69
511.617	112.69
511.833	90.69
512.049	97.69
512.265	86.69
512.481	98.69
512.698	96.69
512.914	93.69
513.13	86.69
513.346	88.69
513.562	93.69
513.778	82.69
513.994	96.69
514.21	86.69
514.426	115.69
514.642	127.69
514.858	97.69
515.074	136.69
515.29	337.69
515.506	981.69
515.721	377.69
515.937	114.69
516.153	99.69
516.369	90.69
