Data from Uncirc_2001_H10_HRD10591_00044.txt Node
Date: Wed Jan 03 10:44:05 EST 2024
User: Yrep
Spectrometer: HR+D1059
Trigger mode: 1
Integration Time (sec): 1.000000E-1
Scans to average: 1
Electric dark correction enabled: true
Nonlinearity correction enabled: false
Boxcar width: 0
XAxis mode: Wavelengths
Number of Pixels in Spectrum: 2048
>>>>>Begin Spectral Data<<<<<
223.165	-21.31
223.4	-21.31
223.635	-21.31
223.869	-14.31
224.104	-29.31
224.338	-16.31
224.573	-12.31
224.808	-18.31
225.042	-14.31
225.277	10.69
225.511	-4.31
225.746	9.69
225.98	12.69
226.215	7.69
226.449	19.69
226.683	10.69
226.918	29.69
227.152	29.69
227.387	33.69
227.621	39.69
227.856	40.69
228.09	48.69
228.324	51.69
228.559	44.69
228.793	43.69
229.027	63.69
229.262	60.69
229.496	71.69
229.73	77.69
229.964	97.69
230.199	66.69
230.433	70.69
230.667	76.69
230.901	72.69
231.136	65.69
231.37	93.69
231.604	72.69
231.838	64.69
232.072	72.69
232.306	74.69
232.541	82.69
232.775	61.69
233.009	83.69
233.243	70.69
233.477	75.69
233.711	80.69
233.945	70.69
234.179	86.69
234.413	72.69
234.647	76.69
234.881	70.69
235.115	70.69
235.349	81.69
235.583	80.69
235.817	84.69
236.051	73.69
236.285	67.69
236.519	85.69
236.753	87.69
236.987	79.69
237.221	83.69
237.455	72.69
237.689	76.69
237.922	73.69
238.156	75.69
238.39	68.69
238.624	79.69
238.858	72.69
239.091	73.69
239.325	77.69
239.559	79.69
239.793	71.69
240.027	83.69
240.26	82.69
240.494	68.69
240.728	64.69
240.961	65.69
241.195	70.69
241.429	72.69
241.662	83.69
241.896	71.69
242.13	62.69
242.363	85.69
242.597	69.69
242.83	69.69
243.064	81.69
243.298	77.69
243.531	77.69
243.765	77.69
243.998	73.69
244.232	74.69
244.465	79.69
244.699	72.69
244.932	75.69
245.166	73.69
245.399	71.69
245.633	73.69
245.866	71.69
246.099	72.69
246.333	76.69
246.566	63.69
246.8	61.69
247.033	70.69
247.266	80.69
247.5	68.69
247.733	76.69
247.966	86.69
248.2	71.69
248.433	67.69
248.666	73.69
248.899	68.69
249.133	85.69
249.366	102.69
249.599	93.69
249.832	80.69
250.066	80.69
250.299	63.69
250.532	73.69
250.765	82.69
250.998	77.69
251.231	78.69
251.465	75.69
251.698	74.69
251.931	73.69
252.164	86.69
252.397	68.69
252.63	80.69
252.863	70.69
253.096	67.69
253.329	69.69
253.562	84.69
253.795	74.69
254.028	84.69
254.261	71.69
254.494	80.69
254.727	66.69
254.96	79.69
255.193	81.69
255.426	76.69
255.659	61.69
255.892	70.69
256.124	69.69
256.357	69.69
256.59	74.69
256.823	70.69
257.056	81.69
257.289	71.69
257.521	78.69
257.754	89.69
257.987	79.69
258.22	75.69
258.452	75.69
258.685	77.69
258.918	83.69
259.151	70.69
259.383	80.69
259.616	66.69
259.849	71.69
260.081	88.69
260.314	66.69
260.547	79.69
260.779	67.69
261.012	64.69
261.244	67.69
261.477	93.69
261.71	90.69
261.942	108.69
262.175	108.69
262.407	70.69
262.64	84.69
262.872	71.69
263.105	78.69
263.337	66.69
263.57	56.69
263.802	80.69
264.035	85.69
264.267	85.69
264.499	88.69
264.732	79.69
264.964	60.69
265.197	64.69
265.429	75.69
265.661	68.69
265.894	71.69
266.126	65.69
266.358	76.69
266.591	79.69
266.823	78.69
267.055	84.69
267.287	71.69
267.52	73.69
267.752	67.69
267.984	82.69
268.216	95.69
268.448	77.69
268.681	80.69
268.913	65.69
269.145	78.69
269.377	71.69
269.609	85.69
269.841	73.69
270.073	78.69
270.306	71.69
270.538	84.69
270.77	80.69
271.002	70.69
271.234	86.69
271.466	81.69
271.698	73.69
271.93	95.69
272.162	89.69
272.394	91.69
272.626	73.69
272.858	79.69
273.09	81.69
273.322	76.69
273.553	90.69
273.785	73.69
274.017	90.69
274.249	75.69
274.481	76.69
274.713	81.69
274.945	76.69
275.176	88.69
275.408	67.69
275.64	86.69
275.872	73.69
276.104	69.69
276.335	72.69
276.567	94.69
276.799	84.69
277.031	95.69
277.262	84.69
277.494	82.69
277.726	79.69
277.957	79.69
278.189	72.69
278.421	85.69
278.652	75.69
278.884	79.69
279.115	92.69
279.347	83.69
279.579	85.69
279.81	78.69
280.042	87.69
280.273	75.69
280.505	82.69
280.736	67.69
280.968	79.69
281.199	69.69
281.431	74.69
281.662	88.69
281.894	81.69
282.125	103.69
282.356	104.69
282.588	133.69
282.819	114.69
283.051	85.69
283.282	78.69
283.513	92.69
283.745	68.69
283.976	88.69
284.207	80.69
284.439	75.69
284.67	88.69
284.901	65.69
285.132	70.69
285.364	83.69
285.595	78.69
285.826	84.69
286.057	74.69
286.288	81.69
286.52	99.69
286.751	78.69
286.982	81.69
287.213	76.69
287.444	64.69
287.675	77.69
287.906	87.69
288.138	83.69
288.369	96.69
288.6	112.69
288.831	80.69
289.062	84.69
289.293	84.69
289.524	69.69
289.755	71.69
289.986	75.69
290.217	87.69
290.448	89.69
290.679	78.69
290.91	79.69
291.141	67.69
291.371	77.69
291.602	83.69
291.833	76.69
292.064	92.69
292.295	94.69
292.526	73.69
292.757	81.69
292.987	85.69
293.218	88.69
293.449	91.69
293.68	86.69
293.91	88.69
294.141	89.69
294.372	82.69
294.603	74.69
294.833	86.69
295.064	74.69
295.295	87.69
295.525	73.69
295.756	107.69
295.987	108.69
296.217	141.69
296.448	120.69
296.679	97.69
296.909	87.69
297.14	67.69
297.37	87.69
297.601	74.69
297.831	77.69
298.062	101.69
298.292	91.69
298.523	87.69
298.753	100.69
298.984	91.69
299.214	83.69
299.445	76.69
299.675	79.69
299.905	90.69
300.136	67.69
300.366	83.69
300.597	71.69
300.827	81.69
301.057	86.69
301.288	88.69
301.518	86.69
301.748	83.69
301.979	96.69
302.209	84.69
302.439	82.69
302.669	81.69
302.9	86.69
303.13	79.69
303.36	86.69
303.59	93.69
303.82	93.69
304.051	86.69
304.281	81.69
304.511	75.69
304.741	96.69
304.971	81.69
305.201	79.69
305.431	88.69
305.661	79.69
305.891	81.69
306.121	90.69
306.352	91.69
306.582	94.69
306.812	81.69
307.042	81.69
307.272	86.69
307.502	86.69
307.731	86.69
307.961	72.69
308.191	84.69
308.421	84.69
308.651	80.69
308.881	86.69
309.111	85.69
309.341	93.69
309.571	94.69
309.8	83.69
310.03	93.69
310.26	97.69
310.49	101.69
310.72	94.69
310.949	103.69
311.179	99.69
311.409	101.69
311.639	97.69
311.868	86.69
312.098	100.69
312.328	99.69
312.557	105.69
312.787	92.69
313.017	89.69
313.246	77.69
313.476	97.69
313.706	92.69
313.935	92.69
314.165	101.69
314.394	101.69
314.624	92.69
314.853	69.69
315.083	96.69
315.312	85.69
315.542	89.69
315.771	86.69
316.001	94.69
316.23	91.69
316.46	87.69
316.689	94.69
316.919	76.69
317.148	84.69
317.377	104.69
317.607	96.69
317.836	91.69
318.065	90.69
318.295	76.69
318.524	92.69
318.753	83.69
318.983	89.69
319.212	104.69
319.441	115.69
319.67	96.69
319.9	106.69
320.129	74.69
320.358	73.69
320.587	89.69
320.816	77.69
321.046	92.69
321.275	108.69
321.504	99.69
321.733	91.69
321.962	77.69
322.191	95.69
322.42	104.69
322.649	96.69
322.878	107.69
323.108	109.69
323.337	115.69
323.566	123.69
323.795	130.69
324.024	192.69
324.253	363.69
324.482	749.69
324.71	1485.69
324.939	1906.69
325.168	692.69
325.397	223.69
325.626	146.69
325.855	116.69
326.084	121.69
326.313	139.69
326.542	136.69
326.77	205.69
326.999	415.69
327.228	827.69
327.457	1501.69
327.686	1158.69
327.914	335.69
328.143	176.69
328.372	133.69
328.6	110.69
328.829	139.69
329.058	127.69
329.287	120.69
329.515	93.69
329.744	90.69
329.972	91.69
330.201	109.69
330.43	101.69
330.658	117.69
330.887	114.69
331.115	109.69
331.344	90.69
331.572	98.69
331.801	88.69
332.03	100.69
332.258	95.69
332.486	97.69
332.715	88.69
332.943	93.69
333.172	76.69
333.4	90.69
333.629	103.69
333.857	110.69
334.085	84.69
334.314	86.69
334.542	93.69
334.771	95.69
334.999	80.69
335.227	97.69
335.455	84.69
335.684	80.69
335.912	93.69
336.14	94.69
336.369	85.69
336.597	106.69
336.825	76.69
337.053	94.69
337.281	91.69
337.51	88.69
337.738	88.69
337.966	80.69
338.194	104.69
338.422	96.69
338.65	84.69
338.878	88.69
339.106	90.69
339.334	79.69
339.562	76.69
339.79	102.69
340.018	96.69
340.246	74.69
340.474	75.69
340.702	82.69
340.93	96.69
341.158	88.69
341.386	96.69
341.614	93.69
341.842	101.69
342.07	86.69
342.298	86.69
342.526	91.69
342.754	83.69
342.981	94.69
343.209	93.69
343.437	92.69
343.665	93.69
343.893	84.69
344.12	82.69
344.348	86.69
344.576	94.69
344.804	84.69
345.031	105.69
345.259	96.69
345.487	79.69
345.714	85.69
345.942	93.69
346.17	89.69
346.397	99.69
346.625	87.69
346.853	95.69
347.08	100.69
347.308	84.69
347.535	83.69
347.763	98.69
347.99	96.69
348.218	104.69
348.445	92.69
348.673	99.69
348.9	80.69
349.128	94.69
349.355	78.69
349.583	91.69
349.81	77.69
350.037	96.69
350.265	104.69
350.492	88.69
350.72	92.69
350.947	89.69
351.174	94.69
351.402	103.69
351.629	98.69
351.856	96.69
352.083	97.69
352.311	118.69
352.538	98.69
352.765	99.69
352.992	114.69
353.22	104.69
353.447	110.69
353.674	103.69
353.901	94.69
354.128	94.69
354.355	85.69
354.583	87.69
354.81	98.69
355.037	92.69
355.264	91.69
355.491	79.69
355.718	103.69
355.945	98.69
356.172	86.69
356.399	76.69
356.626	85.69
356.853	95.69
357.08	84.69
357.307	103.69
357.534	85.69
357.761	103.69
357.988	95.69
358.215	89.69
358.441	110.69
358.668	77.69
358.895	91.69
359.122	79.69
359.349	83.69
359.576	93.69
359.802	95.69
360.029	118.69
360.256	119.69
360.483	98.69
360.709	89.69
360.936	91.69
361.163	96.69
361.39	97.69
361.616	85.69
361.843	92.69
362.07	88.69
362.296	96.69
362.523	95.69
362.749	72.69
362.976	78.69
363.203	78.69
363.429	92.69
363.656	98.69
363.882	75.69
364.109	92.69
364.335	96.69
364.562	83.69
364.788	102.69
365.015	95.69
365.241	88.69
365.468	96.69
365.694	97.69
365.92	90.69
366.147	89.69
366.373	83.69
366.599	75.69
366.826	81.69
367.052	83.69
367.278	88.69
367.505	81.69
367.731	86.69
367.957	91.69
368.184	77.69
368.41	81.69
368.636	104.69
368.862	119.69
369.089	105.69
369.315	97.69
369.541	86.69
369.767	75.69
369.993	95.69
370.219	88.69
370.445	78.69
370.672	87.69
370.898	76.69
371.124	86.69
371.35	84.69
371.576	84.69
371.802	92.69
372.028	75.69
372.254	83.69
372.48	79.69
372.706	79.69
372.932	85.69
373.158	80.69
373.384	89.69
373.61	84.69
373.835	78.69
374.061	90.69
374.287	87.69
374.513	81.69
374.739	90.69
374.965	78.69
375.191	78.69
375.416	79.69
375.642	89.69
375.868	88.69
376.094	67.69
376.319	97.69
376.545	83.69
376.771	87.69
376.997	78.69
377.222	81.69
377.448	77.69
377.674	94.69
377.899	77.69
378.125	77.69
378.35	73.69
378.576	76.69
378.802	88.69
379.027	102.69
379.253	112.69
379.478	81.69
379.704	101.69
379.929	71.69
380.155	89.69
380.38	109.69
380.606	87.69
380.831	88.69
381.057	88.69
381.282	99.69
381.507	95.69
381.733	84.69
381.958	85.69
382.184	78.69
382.409	90.69
382.634	83.69
382.86	99.69
383.085	103.69
383.31	95.69
383.535	90.69
383.761	89.69
383.986	100.69
384.211	105.69
384.436	95.69
384.662	83.69
384.887	97.69
385.112	99.69
385.337	97.69
385.562	113.69
385.787	98.69
386.013	94.69
386.238	96.69
386.463	87.69
386.688	96.69
386.913	84.69
387.138	89.69
387.363	94.69
387.588	80.69
387.813	96.69
388.038	100.69
388.263	102.69
388.488	92.69
388.713	88.69
388.938	79.69
389.163	98.69
389.387	95.69
389.612	84.69
389.837	79.69
390.062	81.69
390.287	76.69
390.512	88.69
390.736	79.69
390.961	96.69
391.186	80.69
391.411	93.69
391.636	95.69
391.86	84.69
392.085	84.69
392.31	87.69
392.534	92.69
392.759	97.69
392.984	89.69
393.208	84.69
393.433	81.69
393.658	91.69
393.882	91.69
394.107	83.69
394.331	86.69
394.556	77.69
394.78	91.69
395.005	83.69
395.229	95.69
395.454	87.69
395.678	88.69
395.903	83.69
396.127	87.69
396.352	88.69
396.576	69.69
396.801	80.69
397.025	91.69
397.249	76.69
397.474	97.69
397.698	74.69
397.922	103.69
398.147	60.69
398.371	84.69
398.595	77.69
398.82	84.69
399.044	89.69
399.268	80.69
399.492	86.69
399.717	81.69
399.941	79.69
400.165	100.69
400.389	81.69
400.613	74.69
400.837	84.69
401.062	72.69
401.286	72.69
401.51	85.69
401.734	92.69
401.958	92.69
402.182	108.69
402.406	149.69
402.63	111.69
402.854	79.69
403.078	99.69
403.302	89.69
403.526	83.69
403.75	94.69
403.974	79.69
404.198	70.69
404.422	85.69
404.645	85.69
404.869	99.69
405.093	90.69
405.317	89.69
405.541	93.69
405.765	100.69
405.988	106.69
406.212	167.69
406.436	210.69
406.66	147.69
406.883	96.69
407.107	85.69
407.331	89.69
407.555	86.69
407.778	79.69
408.002	75.69
408.226	71.69
408.449	70.69
408.673	84.69
408.896	87.69
409.12	89.69
409.344	92.69
409.567	95.69
409.791	85.69
410.014	82.69
410.238	84.69
410.461	83.69
410.685	97.69
410.908	91.69
411.132	93.69
411.355	91.69
411.578	105.69
411.802	82.69
412.025	93.69
412.249	80.69
412.472	77.69
412.695	87.69
412.919	89.69
413.142	71.69
413.365	81.69
413.589	99.69
413.812	77.69
414.035	76.69
414.258	76.69
414.482	77.69
414.705	90.69
414.928	80.69
415.151	99.69
415.374	92.69
415.597	97.69
415.821	90.69
416.044	102.69
416.267	81.69
416.49	91.69
416.713	87.69
416.936	90.69
417.159	88.69
417.382	77.69
417.605	69.69
417.828	80.69
418.051	86.69
418.274	80.69
418.497	85.69
418.72	96.69
418.943	82.69
419.166	85.69
419.389	91.69
419.611	79.69
419.834	84.69
420.057	91.69
420.28	89.69
420.503	83.69
420.726	80.69
420.948	81.69
421.171	84.69
421.394	101.69
421.617	92.69
421.839	94.69
422.062	77.69
422.285	81.69
422.507	94.69
422.73	102.69
422.953	94.69
423.175	84.69
423.398	94.69
423.621	99.69
423.843	86.69
424.066	78.69
424.288	90.69
424.511	81.69
424.733	81.69
424.956	120.69
425.178	109.69
425.401	101.69
425.623	104.69
425.846	70.69
426.068	99.69
426.291	72.69
426.513	95.69
426.735	85.69
426.958	85.69
427.18	92.69
427.402	123.69
427.625	163.69
427.847	113.69
428.069	106.69
428.292	74.69
428.514	78.69
428.736	92.69
428.958	69.69
429.181	74.69
429.403	75.69
429.625	97.69
429.847	83.69
430.069	91.69
430.292	81.69
430.514	85.69
430.736	72.69
430.958	92.69
431.18	79.69
431.402	92.69
431.624	88.69
431.846	88.69
432.068	89.69
432.29	93.69
432.512	87.69
432.734	67.69
432.956	95.69
433.178	102.69
433.4	97.69
433.622	82.69
433.844	84.69
434.066	90.69
434.287	92.69
434.509	76.69
434.731	86.69
434.953	100.69
435.175	84.69
435.397	85.69
435.618	94.69
435.84	106.69
436.062	110.69
436.284	113.69
436.505	93.69
436.727	68.69
436.949	76.69
437.17	99.69
437.392	88.69
437.614	92.69
437.835	109.69
438.057	114.69
438.278	91.69
438.5	86.69
438.721	108.69
438.943	117.69
439.165	103.69
439.386	94.69
439.608	92.69
439.829	102.69
440.05	127.69
440.272	129.69
440.493	96.69
440.715	83.69
440.936	84.69
441.158	84.69
441.379	87.69
441.6	84.69
441.822	93.69
442.043	99.69
442.264	100.69
442.486	95.69
442.707	81.69
442.928	109.69
443.149	125.69
443.371	131.69
443.592	112.69
443.813	107.69
444.034	91.69
444.255	79.69
444.476	80.69
444.698	91.69
444.919	88.69
445.14	135.69
445.361	121.69
445.582	116.69
445.803	129.69
446.024	137.69
446.245	131.69
446.466	107.69
446.687	74.69
446.908	85.69
447.129	86.69
447.35	73.69
447.571	81.69
447.792	90.69
448.013	94.69
448.234	119.69
448.455	109.69
448.675	102.69
448.896	117.69
449.117	94.69
449.338	100.69
449.559	129.69
449.779	123.69
450	97.69
450.221	89.69
450.442	93.69
450.662	87.69
450.883	93.69
451.104	99.69
451.324	79.69
451.545	88.69
451.766	74.69
451.986	93.69
452.207	83.69
452.428	87.69
452.648	94.69
452.869	107.69
453.089	121.69
453.31	141.69
453.53	87.69
453.751	86.69
453.971	102.69
454.192	113.69
454.412	98.69
454.633	81.69
454.853	89.69
455.073	82.69
455.294	92.69
455.514	95.69
455.734	81.69
455.955	86.69
456.175	82.69
456.395	72.69
456.616	93.69
456.836	79.69
457.056	78.69
457.276	93.69
457.497	96.69
457.717	82.69
457.937	80.69
458.157	83.69
458.377	78.69
458.598	101.69
458.818	164.69
459.038	164.69
459.258	119.69
459.478	80.69
459.698	96.69
459.918	77.69
460.138	84.69
460.358	86.69
460.578	77.69
460.798	81.69
461.018	87.69
461.238	87.69
461.458	78.69
461.678	82.69
461.898	88.69
462.118	88.69
462.338	85.69
462.558	92.69
462.777	103.69
462.997	73.69
463.217	85.69
463.437	94.69
463.657	81.69
463.876	57.69
464.096	87.69
464.316	95.69
464.536	91.69
464.755	93.69
464.975	104.69
465.195	159.69
465.414	163.69
465.634	106.69
465.854	88.69
466.073	85.69
466.293	92.69
466.512	85.69
466.732	88.69
466.951	87.69
467.171	85.69
467.391	83.69
467.61	103.69
467.829	81.69
468.049	89.69
468.268	81.69
468.488	69.69
468.707	75.69
468.927	74.69
469.146	87.69
469.365	83.69
469.585	80.69
469.804	94.69
470.023	91.69
470.243	88.69
470.462	103.69
470.681	101.69
470.901	87.69
471.12	80.69
471.339	108.69
471.558	95.69
471.777	70.69
471.997	78.69
472.216	79.69
472.435	85.69
472.654	87.69
472.873	78.69
473.092	74.69
473.311	84.69
473.53	83.69
473.749	78.69
473.968	89.69
474.187	109.69
474.406	97.69
474.625	75.69
474.844	74.69
475.063	93.69
475.282	95.69
475.501	79.69
475.72	78.69
475.939	89.69
476.158	89.69
476.377	92.69
476.596	86.69
476.814	67.69
477.033	70.69
477.252	79.69
477.471	75.69
477.69	77.69
477.908	92.69
478.127	73.69
478.346	84.69
478.564	80.69
478.783	96.69
479.002	92.69
479.22	88.69
479.439	110.69
479.658	87.69
479.876	96.69
480.095	97.69
480.313	88.69
480.532	96.69
480.751	107.69
480.969	82.69
481.188	93.69
481.406	89.69
481.624	94.69
481.843	90.69
482.061	98.69
482.28	86.69
482.498	81.69
482.717	75.69
482.935	74.69
483.153	101.69
483.372	88.69
483.59	87.69
483.808	76.69
484.027	92.69
484.245	96.69
484.463	84.69
484.681	104.69
484.9	85.69
485.118	96.69
485.336	85.69
485.554	93.69
485.772	93.69
485.99	106.69
486.209	94.69
486.427	91.69
486.645	110.69
486.863	124.69
487.081	96.69
487.299	82.69
487.517	93.69
487.735	89.69
487.953	97.69
488.171	93.69
488.389	90.69
488.607	96.69
488.825	89.69
489.043	88.69
489.261	91.69
489.479	77.69
489.696	95.69
489.914	80.69
490.132	83.69
490.35	93.69
490.568	81.69
490.786	78.69
491.003	80.69
491.221	84.69
491.439	94.69
491.657	98.69
491.874	101.69
492.092	91.69
492.31	84.69
492.527	78.69
492.745	80.69
492.963	95.69
493.18	88.69
493.398	94.69
493.615	91.69
493.833	92.69
494.05	91.69
494.268	95.69
494.485	87.69
494.703	103.69
494.92	89.69
495.138	84.69
495.355	79.69
495.573	83.69
495.79	77.69
496.008	83.69
496.225	78.69
496.442	95.69
496.66	103.69
496.877	89.69
497.094	84.69
497.312	89.69
497.529	83.69
497.746	82.69
497.963	93.69
498.181	90.69
498.398	100.69
498.615	96.69
498.832	98.69
499.049	91.69
499.267	77.69
499.484	95.69
499.701	102.69
499.918	95.69
500.135	85.69
500.352	81.69
500.569	79.69
500.786	90.69
501.003	87.69
501.22	96.69
501.437	88.69
501.654	81.69
501.871	103.69
502.088	95.69
502.305	80.69
502.522	72.69
502.739	96.69
502.956	89.69
503.172	77.69
503.389	83.69
503.606	111.69
503.823	107.69
504.04	87.69
504.256	94.69
504.473	89.69
504.69	97.69
504.907	98.69
505.123	75.69
505.34	71.69
505.557	85.69
505.773	97.69
505.99	92.69
506.207	85.69
506.423	83.69
506.64	93.69
506.856	81.69
507.073	82.69
507.289	93.69
507.506	96.69
507.722	89.69
507.939	94.69
508.155	104.69
508.372	97.69
508.588	91.69
508.805	89.69
509.021	81.69
509.238	98.69
509.454	103.69
509.67	102.69
509.887	102.69
510.103	106.69
510.319	225.69
510.536	795.69
510.752	2433.69
510.968	674.69
511.184	161.69
511.401	99.69
511.617	92.69
511.833	95.69
512.049	93.69
512.265	78.69
512.481	83.69
512.698	85.69
512.914	80.69
513.13	94.69
513.346	87.69
513.562	96.69
513.778	88.69
513.994	88.69
514.21	96.69
514.426	125.69
514.642	134.69
514.858	126.69
515.074	176.69
515.29	483.69
515.506	1565.69
515.721	578.69
515.937	159.69
516.153	109.69
516.369	91.69
516.585	69.69
516.801	81.69
517.016	78.69
