Data from Uncirc_2001_H10_HRD10591_00068.txt Node
Date: Wed Jan 03 10:44:10 EST 2024
User: Yrep
Spectrometer: HR+D1059
Trigger mode: 1
Integration Time (sec): 1.000000E-1
Scans to average: 1
Electric dark correction enabled: true
Nonlinearity correction enabled: false
Boxcar width: 0
XAxis mode: Wavelengths
Number of Pixels in Spectrum: 2048
>>>>>Begin Spectral Data<<<<<
223.165	-20.44
223.4	-20.44
223.635	-20.44
223.869	-15.44
224.104	-24.44
224.338	-22.44
224.573	-22.44
224.808	-14.44
225.042	-7.44
225.277	-4.44
225.511	-1.44
225.746	11.56
225.98	-0.44
226.215	16.56
226.449	28.56
226.683	26.56
226.918	22.56
227.152	27.56
227.387	27.56
227.621	34.56
227.856	39.56
228.09	44.56
228.324	42.56
228.559	49.56
228.793	54.56
229.027	79.56
229.262	57.56
229.496	71.56
229.73	74.56
229.964	92.56
230.199	84.56
230.433	75.56
230.667	83.56
230.901	78.56
231.136	73.56
231.37	87.56
231.604	74.56
231.838	62.56
232.072	79.56
232.306	78.56
232.541	84.56
232.775	77.56
233.009	85.56
233.243	77.56
233.477	70.56
233.711	75.56
233.945	68.56
234.179	78.56
234.413	79.56
234.647	87.56
234.881	75.56
235.115	92.56
235.349	81.56
235.583	89.56
235.817	82.56
236.051	79.56
236.285	75.56
236.519	69.56
236.753	63.56
236.987	84.56
237.221	81.56
237.455	103.56
237.689	82.56
237.922	81.56
238.156	73.56
238.39	70.56
238.624	80.56
238.858	82.56
239.091	90.56
239.325	79.56
239.559	95.56
239.793	85.56
240.027	80.56
240.26	66.56
240.494	91.56
240.728	71.56
240.961	64.56
241.195	68.56
241.429	76.56
241.662	65.56
241.896	80.56
242.13	85.56
242.363	71.56
242.597	70.56
242.83	62.56
243.064	67.56
243.298	77.56
243.531	72.56
243.765	58.56
243.998	69.56
244.232	78.56
244.465	89.56
244.699	84.56
244.932	78.56
245.166	79.56
245.399	86.56
245.633	76.56
245.866	75.56
246.099	67.56
246.333	68.56
246.566	94.56
246.8	73.56
247.033	65.56
247.266	73.56
247.5	84.56
247.733	81.56
247.966	74.56
248.2	75.56
248.433	76.56
248.666	82.56
248.899	75.56
249.133	84.56
249.366	92.56
249.599	86.56
249.832	82.56
250.066	73.56
250.299	79.56
250.532	64.56
250.765	70.56
250.998	78.56
251.231	75.56
251.465	67.56
251.698	71.56
251.931	83.56
252.164	83.56
252.397	71.56
252.63	87.56
252.863	89.56
253.096	78.56
253.329	65.56
253.562	80.56
253.795	84.56
254.028	83.56
254.261	73.56
254.494	72.56
254.727	85.56
254.96	76.56
255.193	86.56
255.426	82.56
255.659	79.56
255.892	71.56
256.124	88.56
256.357	92.56
256.59	77.56
256.823	82.56
257.056	79.56
257.289	80.56
257.521	78.56
257.754	78.56
257.987	85.56
258.22	83.56
258.452	86.56
258.685	78.56
258.918	76.56
259.151	86.56
259.383	79.56
259.616	88.56
259.849	79.56
260.081	80.56
260.314	78.56
260.547	81.56
260.779	95.56
261.012	64.56
261.244	70.56
261.477	96.56
261.71	87.56
261.942	107.56
262.175	110.56
262.407	82.56
262.64	88.56
262.872	68.56
263.105	78.56
263.337	75.56
263.57	66.56
263.802	79.56
264.035	78.56
264.267	78.56
264.499	87.56
264.732	88.56
264.964	81.56
265.197	82.56
265.429	81.56
265.661	75.56
265.894	85.56
266.126	78.56
266.358	95.56
266.591	80.56
266.823	78.56
267.055	82.56
267.287	75.56
267.52	89.56
267.752	79.56
267.984	78.56
268.216	91.56
268.448	97.56
268.681	93.56
268.913	84.56
269.145	84.56
269.377	80.56
269.609	74.56
269.841	89.56
270.073	91.56
270.306	86.56
270.538	75.56
270.77	86.56
271.002	86.56
271.234	88.56
271.466	97.56
271.698	80.56
271.93	86.56
272.162	85.56
272.394	89.56
272.626	74.56
272.858	86.56
273.09	84.56
273.322	91.56
273.553	94.56
273.785	78.56
274.017	75.56
274.249	95.56
274.481	90.56
274.713	70.56
274.945	85.56
275.176	72.56
275.408	88.56
275.64	88.56
275.872	85.56
276.104	100.56
276.335	93.56
276.567	100.56
276.799	110.56
277.031	102.56
277.262	88.56
277.494	96.56
277.726	104.56
277.957	85.56
278.189	71.56
278.421	73.56
278.652	82.56
278.884	70.56
279.115	72.56
279.347	76.56
279.579	76.56
279.81	80.56
280.042	80.56
280.273	89.56
280.505	89.56
280.736	89.56
280.968	75.56
281.199	96.56
281.431	105.56
281.662	88.56
281.894	89.56
282.125	95.56
282.356	127.56
282.588	138.56
282.819	102.56
283.051	80.56
283.282	85.56
283.513	89.56
283.745	92.56
283.976	91.56
284.207	73.56
284.439	89.56
284.67	85.56
284.901	91.56
285.132	65.56
285.364	89.56
285.595	78.56
285.826	91.56
286.057	78.56
286.288	90.56
286.52	89.56
286.751	83.56
286.982	82.56
287.213	88.56
287.444	90.56
287.675	91.56
287.906	80.56
288.138	79.56
288.369	90.56
288.6	98.56
288.831	86.56
289.062	90.56
289.293	89.56
289.524	76.56
289.755	91.56
289.986	94.56
290.217	83.56
290.448	84.56
290.679	92.56
290.91	89.56
291.141	78.56
291.371	105.56
291.602	81.56
291.833	91.56
292.064	113.56
292.295	90.56
292.526	105.56
292.757	90.56
292.987	95.56
293.218	83.56
293.449	92.56
293.68	83.56
293.91	100.56
294.141	95.56
294.372	77.56
294.603	82.56
294.833	85.56
295.064	87.56
295.295	82.56
295.525	91.56
295.756	101.56
295.987	109.56
296.217	128.56
296.448	118.56
296.679	85.56
296.909	80.56
297.14	72.56
297.37	86.56
297.601	88.56
297.831	80.56
298.062	93.56
298.292	93.56
298.523	78.56
298.753	81.56
298.984	92.56
299.214	83.56
299.445	75.56
299.675	99.56
299.905	94.56
300.136	82.56
300.366	90.56
300.597	87.56
300.827	81.56
301.057	95.56
301.288	103.56
301.518	74.56
301.748	89.56
301.979	88.56
302.209	76.56
302.439	89.56
302.669	85.56
302.9	71.56
303.13	91.56
303.36	87.56
303.59	94.56
303.82	106.56
304.051	95.56
304.281	95.56
304.511	91.56
304.741	90.56
304.971	97.56
305.201	96.56
305.431	86.56
305.661	84.56
305.891	75.56
306.121	101.56
306.352	106.56
306.582	112.56
306.812	98.56
307.042	73.56
307.272	90.56
307.502	94.56
307.731	79.56
307.961	99.56
308.191	94.56
308.421	89.56
308.651	81.56
308.881	86.56
309.111	72.56
309.341	99.56
309.571	99.56
309.8	95.56
310.03	109.56
310.26	88.56
310.49	102.56
310.72	112.56
310.949	103.56
311.179	102.56
311.409	103.56
311.639	92.56
311.868	109.56
312.098	85.56
312.328	99.56
312.557	95.56
312.787	88.56
313.017	112.56
313.246	94.56
313.476	84.56
313.706	90.56
313.935	99.56
314.165	102.56
314.394	101.56
314.624	95.56
314.853	94.56
315.083	76.56
315.312	99.56
315.542	90.56
315.771	84.56
316.001	92.56
316.23	96.56
316.46	96.56
316.689	88.56
316.919	98.56
317.148	92.56
317.377	94.56
317.607	89.56
317.836	94.56
318.065	91.56
318.295	82.56
318.524	87.56
318.753	89.56
318.983	106.56
319.212	99.56
319.441	106.56
319.67	107.56
319.9	98.56
320.129	85.56
320.358	100.56
320.587	89.56
320.816	97.56
321.046	93.56
321.275	100.56
321.504	94.56
321.733	91.56
321.962	102.56
322.191	99.56
322.42	93.56
322.649	122.56
322.878	121.56
323.108	101.56
323.337	122.56
323.566	144.56
323.795	142.56
324.024	187.56
324.253	372.56
324.482	757.56
324.71	1523.56
324.939	1966.56
325.168	727.56
325.397	215.56
325.626	131.56
325.855	116.56
326.084	123.56
326.313	145.56
326.542	144.56
326.77	219.56
326.999	427.56
327.228	848.56
327.457	1531.56
327.686	1191.56
327.914	343.56
328.143	197.56
328.372	129.56
328.6	120.56
328.829	105.56
329.058	119.56
329.287	119.56
329.515	102.56
329.744	107.56
329.972	95.56
330.201	115.56
330.43	127.56
330.658	119.56
330.887	130.56
331.115	122.56
331.344	90.56
331.572	94.56
331.801	103.56
332.03	96.56
332.258	90.56
332.486	97.56
332.715	86.56
332.943	93.56
333.172	99.56
333.4	100.56
333.629	109.56
333.857	122.56
334.085	86.56
334.314	101.56
334.542	105.56
334.771	96.56
334.999	102.56
335.227	93.56
335.455	101.56
335.684	87.56
335.912	92.56
336.14	113.56
336.369	88.56
336.597	83.56
336.825	86.56
337.053	75.56
337.281	99.56
337.51	87.56
337.738	92.56
337.966	84.56
338.194	92.56
338.422	106.56
338.65	94.56
338.878	96.56
339.106	94.56
339.334	103.56
339.562	81.56
339.79	90.56
340.018	92.56
340.246	89.56
340.474	90.56
340.702	95.56
340.93	86.56
341.158	89.56
341.386	95.56
341.614	99.56
341.842	88.56
342.07	81.56
342.298	102.56
342.526	101.56
342.754	91.56
342.981	83.56
343.209	87.56
343.437	116.56
343.665	78.56
343.893	96.56
344.12	85.56
344.348	80.56
344.576	81.56
344.804	89.56
345.031	97.56
345.259	98.56
345.487	91.56
345.714	95.56
345.942	95.56
346.17	108.56
346.397	110.56
346.625	94.56
346.853	87.56
347.08	97.56
347.308	89.56
347.535	76.56
347.763	104.56
347.99	87.56
348.218	103.56
348.445	105.56
348.673	98.56
348.9	89.56
349.128	92.56
349.355	85.56
349.583	89.56
349.81	112.56
350.037	99.56
350.265	85.56
350.492	91.56
350.72	99.56
350.947	99.56
351.174	84.56
351.402	106.56
351.629	98.56
351.856	89.56
352.083	105.56
352.311	110.56
352.538	99.56
352.765	98.56
352.992	111.56
353.22	108.56
353.447	106.56
353.674	91.56
353.901	91.56
354.128	99.56
354.355	82.56
354.583	87.56
354.81	97.56
355.037	89.56
355.264	103.56
355.491	94.56
355.718	86.56
355.945	94.56
356.172	103.56
356.399	83.56
356.626	81.56
356.853	92.56
357.08	88.56
357.307	90.56
357.534	98.56
357.761	83.56
357.988	95.56
358.215	96.56
358.441	97.56
358.668	98.56
358.895	104.56
359.122	85.56
359.349	87.56
359.576	83.56
359.802	102.56
360.029	107.56
360.256	115.56
360.483	99.56
360.709	91.56
360.936	100.56
361.163	90.56
361.39	92.56
361.616	81.56
361.843	74.56
362.07	87.56
362.296	96.56
362.523	92.56
362.749	86.56
362.976	96.56
363.203	91.56
363.429	97.56
363.656	90.56
363.882	84.56
364.109	85.56
364.335	104.56
364.562	86.56
364.788	77.56
365.015	76.56
365.241	83.56
365.468	98.56
365.694	92.56
365.92	89.56
366.147	96.56
366.373	84.56
366.599	89.56
366.826	81.56
367.052	75.56
367.278	102.56
367.505	91.56
367.731	88.56
367.957	92.56
368.184	86.56
368.41	105.56
368.636	110.56
368.862	115.56
369.089	103.56
369.315	107.56
369.541	90.56
369.767	98.56
369.993	95.56
370.219	100.56
370.445	92.56
370.672	96.56
370.898	75.56
371.124	98.56
371.35	93.56
371.576	75.56
371.802	73.56
372.028	92.56
372.254	80.56
372.48	82.56
372.706	75.56
372.932	90.56
373.158	88.56
373.384	92.56
373.61	92.56
373.835	94.56
374.061	94.56
374.287	93.56
374.513	74.56
374.739	89.56
374.965	87.56
375.191	87.56
375.416	94.56
375.642	88.56
375.868	95.56
376.094	92.56
376.319	92.56
376.545	74.56
376.771	76.56
376.997	82.56
377.222	81.56
377.448	87.56
377.674	87.56
377.899	100.56
378.125	92.56
378.35	83.56
378.576	91.56
378.802	83.56
379.027	81.56
379.253	99.56
379.478	96.56
379.704	92.56
379.929	98.56
380.155	102.56
380.38	116.56
380.606	87.56
380.831	93.56
381.057	96.56
381.282	99.56
381.507	96.56
381.733	103.56
381.958	76.56
382.184	88.56
382.409	103.56
382.634	95.56
382.86	99.56
383.085	87.56
383.31	103.56
383.535	104.56
383.761	111.56
383.986	89.56
384.211	88.56
384.436	75.56
384.662	85.56
384.887	107.56
385.112	102.56
385.337	110.56
385.562	90.56
385.787	96.56
386.013	110.56
386.238	99.56
386.463	96.56
386.688	118.56
386.913	98.56
387.138	90.56
387.363	103.56
387.588	103.56
387.813	111.56
388.038	101.56
388.263	104.56
388.488	89.56
388.713	101.56
388.938	83.56
389.163	104.56
389.387	98.56
389.612	98.56
389.837	97.56
390.062	88.56
390.287	85.56
390.512	88.56
390.736	84.56
390.961	85.56
391.186	85.56
391.411	87.56
391.636	99.56
391.86	91.56
392.085	80.56
392.31	79.56
392.534	87.56
392.759	80.56
392.984	76.56
393.208	92.56
393.433	82.56
393.658	77.56
393.882	78.56
394.107	78.56
394.331	94.56
394.556	92.56
394.78	97.56
395.005	72.56
395.229	72.56
395.454	83.56
395.678	91.56
395.903	75.56
396.127	72.56
396.352	87.56
396.576	74.56
396.801	89.56
397.025	85.56
397.249	75.56
397.474	105.56
397.698	96.56
397.922	96.56
398.147	91.56
398.371	81.56
398.595	86.56
398.82	97.56
399.044	100.56
399.268	72.56
399.492	70.56
399.717	77.56
399.941	85.56
400.165	85.56
400.389	93.56
400.613	91.56
400.837	79.56
401.062	82.56
401.286	84.56
401.51	89.56
401.734	79.56
401.958	94.56
402.182	106.56
402.406	152.56
402.63	121.56
402.854	93.56
403.078	96.56
403.302	82.56
403.526	89.56
403.75	95.56
403.974	84.56
404.198	90.56
404.422	82.56
404.645	106.56
404.869	93.56
405.093	97.56
405.317	97.56
405.541	97.56
405.765	96.56
405.988	107.56
406.212	162.56
406.436	217.56
406.66	138.56
406.883	105.56
407.107	94.56
407.331	87.56
407.555	106.56
407.778	92.56
408.002	75.56
408.226	98.56
408.449	81.56
408.673	85.56
408.896	102.56
409.12	99.56
409.344	90.56
409.567	78.56
409.791	80.56
410.014	78.56
410.238	90.56
410.461	80.56
410.685	81.56
410.908	90.56
411.132	104.56
411.355	98.56
411.578	88.56
411.802	71.56
412.025	88.56
412.249	82.56
412.472	107.56
412.695	93.56
412.919	86.56
413.142	71.56
413.365	88.56
413.589	79.56
413.812	81.56
414.035	96.56
414.258	80.56
414.482	86.56
414.705	90.56
414.928	86.56
415.151	78.56
415.374	86.56
415.597	71.56
415.821	87.56
416.044	76.56
416.267	79.56
416.49	85.56
416.713	90.56
416.936	90.56
417.159	83.56
417.382	80.56
417.605	104.56
417.828	79.56
418.051	82.56
418.274	102.56
418.497	94.56
418.72	79.56
418.943	82.56
419.166	87.56
419.389	75.56
419.611	79.56
419.834	90.56
420.057	75.56
420.28	84.56
420.503	74.56
420.726	83.56
420.948	75.56
421.171	72.56
421.394	95.56
421.617	97.56
421.839	81.56
422.062	90.56
422.285	88.56
422.507	94.56
422.73	97.56
422.953	92.56
423.175	88.56
423.398	85.56
423.621	89.56
423.843	90.56
424.066	86.56
424.288	89.56
424.511	78.56
424.733	91.56
424.956	114.56
425.178	88.56
425.401	95.56
425.623	88.56
425.846	85.56
426.068	99.56
426.291	79.56
426.513	77.56
426.735	96.56
426.958	102.56
427.18	101.56
427.402	114.56
427.625	160.56
427.847	126.56
428.069	90.56
428.292	79.56
428.514	87.56
428.736	83.56
428.958	84.56
429.181	75.56
429.403	95.56
429.625	88.56
429.847	91.56
430.069	103.56
430.292	84.56
430.514	76.56
430.736	85.56
430.958	74.56
431.18	77.56
431.402	84.56
431.624	79.56
431.846	85.56
432.068	87.56
432.29	90.56
432.512	88.56
432.734	76.56
432.956	86.56
433.178	100.56
433.4	93.56
433.622	87.56
433.844	87.56
434.066	89.56
434.287	92.56
434.509	91.56
434.731	84.56
434.953	83.56
435.175	75.56
435.397	95.56
435.618	98.56
435.84	89.56
436.062	108.56
436.284	110.56
436.505	96.56
436.727	100.56
436.949	109.56
437.17	79.56
437.392	86.56
437.614	88.56
437.835	113.56
438.057	119.56
438.278	111.56
438.5	112.56
438.721	105.56
438.943	92.56
439.165	88.56
439.386	93.56
439.608	86.56
439.829	92.56
440.05	123.56
440.272	138.56
440.493	91.56
440.715	90.56
440.936	88.56
441.158	91.56
441.379	95.56
441.6	90.56
441.822	77.56
442.043	94.56
442.264	97.56
442.486	97.56
442.707	92.56
442.928	103.56
443.149	126.56
443.371	131.56
443.592	106.56
443.813	116.56
444.034	109.56
444.255	81.56
444.476	108.56
444.698	78.56
444.919	73.56
445.14	116.56
445.361	124.56
445.582	119.56
445.803	123.56
446.024	138.56
446.245	122.56
446.466	101.56
446.687	79.56
446.908	73.56
447.129	95.56
447.35	83.56
447.571	96.56
447.792	100.56
448.013	98.56
448.234	97.56
448.455	89.56
448.675	93.56
448.896	119.56
449.117	97.56
449.338	106.56
449.559	107.56
449.779	104.56
450	94.56
450.221	73.56
450.442	75.56
450.662	101.56
450.883	107.56
451.104	110.56
451.324	96.56
451.545	96.56
451.766	82.56
451.986	84.56
452.207	75.56
452.428	86.56
452.648	87.56
452.869	107.56
453.089	122.56
453.31	118.56
453.53	94.56
453.751	97.56
453.971	103.56
454.192	103.56
454.412	82.56
454.633	80.56
454.853	91.56
455.073	82.56
455.294	91.56
455.514	108.56
455.734	78.56
455.955	81.56
456.175	87.56
456.395	82.56
456.616	74.56
456.836	69.56
457.056	85.56
457.276	92.56
457.497	73.56
457.717	74.56
457.937	83.56
458.157	72.56
458.377	78.56
458.598	114.56
458.818	148.56
459.038	151.56
459.258	129.56
459.478	108.56
459.698	88.56
459.918	88.56
460.138	81.56
460.358	83.56
460.578	81.56
460.798	87.56
461.018	81.56
461.238	79.56
461.458	90.56
461.678	82.56
461.898	89.56
462.118	91.56
462.338	86.56
462.558	89.56
462.777	79.56
462.997	78.56
463.217	74.56
463.437	58.56
463.657	81.56
463.876	77.56
464.096	92.56
464.316	92.56
464.536	95.56
464.755	93.56
464.975	109.56
465.195	151.56
465.414	153.56
465.634	85.56
465.854	88.56
466.073	76.56
466.293	95.56
466.512	85.56
466.732	78.56
466.951	90.56
467.171	91.56
467.391	100.56
467.61	108.56
467.829	90.56
468.049	98.56
468.268	90.56
468.488	78.56
468.707	87.56
468.927	84.56
469.146	83.56
469.365	96.56
469.585	83.56
469.804	88.56
470.023	91.56
470.243	89.56
470.462	97.56
470.681	103.56
470.901	75.56
471.12	89.56
471.339	82.56
471.558	73.56
471.777	95.56
471.997	87.56
472.216	84.56
472.435	104.56
472.654	79.56
472.873	81.56
473.092	81.56
473.311	86.56
473.53	90.56
473.749	83.56
473.968	103.56
474.187	103.56
474.406	93.56
474.625	86.56
474.844	91.56
475.063	77.56
475.282	78.56
475.501	84.56
475.72	88.56
475.939	94.56
476.158	87.56
476.377	96.56
476.596	96.56
476.814	106.56
477.033	80.56
477.252	86.56
477.471	78.56
477.69	82.56
477.908	82.56
478.127	87.56
478.346	77.56
478.564	89.56
478.783	97.56
479.002	92.56
479.22	92.56
479.439	95.56
479.658	86.56
479.876	82.56
480.095	101.56
480.313	85.56
480.532	98.56
480.751	94.56
480.969	80.56
481.188	99.56
481.406	98.56
481.624	89.56
481.843	84.56
482.061	97.56
482.28	97.56
482.498	89.56
482.717	76.56
482.935	96.56
483.153	83.56
483.372	74.56
483.59	84.56
483.808	100.56
484.027	101.56
484.245	95.56
484.463	96.56
484.681	88.56
484.9	86.56
485.118	91.56
485.336	90.56
485.554	88.56
485.772	89.56
485.99	103.56
486.209	79.56
486.427	113.56
486.645	112.56
486.863	99.56
487.081	95.56
487.299	88.56
487.517	101.56
487.735	90.56
487.953	103.56
488.171	95.56
488.389	86.56
488.607	104.56
488.825	81.56
489.043	87.56
489.261	89.56
489.479	84.56
489.696	89.56
489.914	96.56
490.132	81.56
490.35	95.56
490.568	80.56
490.786	93.56
491.003	89.56
491.221	102.56
491.439	96.56
491.657	87.56
491.874	92.56
492.092	73.56
492.31	90.56
492.527	92.56
492.745	96.56
492.963	82.56
493.18	91.56
493.398	97.56
493.615	98.56
493.833	85.56
494.05	80.56
494.268	99.56
494.485	97.56
494.703	85.56
494.92	82.56
495.138	83.56
495.355	96.56
495.573	90.56
495.79	83.56
496.008	94.56
496.225	87.56
496.442	80.56
496.66	92.56
496.877	96.56
497.094	92.56
497.312	86.56
497.529	80.56
497.746	74.56
497.963	88.56
498.181	93.56
498.398	98.56
498.615	101.56
498.832	100.56
499.049	84.56
499.267	95.56
499.484	80.56
499.701	87.56
499.918	81.56
500.135	95.56
500.352	82.56
500.569	94.56
500.786	91.56
501.003	91.56
501.22	94.56
501.437	79.56
501.654	106.56
501.871	102.56
502.088	84.56
502.305	84.56
502.522	86.56
502.739	92.56
502.956	98.56
503.172	91.56
503.389	86.56
503.606	106.56
503.823	92.56
504.04	92.56
504.256	92.56
504.473	90.56
504.69	95.56
504.907	91.56
505.123	76.56
505.34	80.56
505.557	87.56
505.773	74.56
505.99	82.56
506.207	79.56
506.423	83.56
506.64	76.56
506.856	76.56
507.073	92.56
507.289	94.56
507.506	88.56
507.722	100.56
507.939	105.56
508.155	98.56
508.372	80.56
508.588	94.56
508.805	91.56
509.021	103.56
509.238	89.56
509.454	102.56
509.67	96.56
509.887	110.56
510.103	123.56
510.319	206.56
510.536	782.56
510.752	2311.56
510.968	631.56
511.184	156.56
511.401	98.56
511.617	109.56
511.833	102.56
512.049	103.56
512.265	88.56
512.481	88.56
512.698	93.56
512.914	97.56
513.13	98.56
513.346	91.56
513.562	91.56
513.778	98.56
513.994	96.56
514.21	104.56
514.426	116.56
514.642	131.56
514.858	111.56
515.074	155.56
515.29	443.56
515.506	1475.56
515.721	535.56
515.937	166.56
516.153	99.56
516.369	103.56
