Data from Uncirc_2001_H10_HRD10591_00046.txt Node
Date: Wed Jan 03 10:44:06 EST 2024
User: Yrep
Spectrometer: HR+D1059
Trigger mode: 1
Integration Time (sec): 1.000000E-1
Scans to average: 1
Electric dark correction enabled: true
Nonlinearity correction enabled: false
Boxcar width: 0
XAxis mode: Wavelengths
Number of Pixels in Spectrum: 2048
>>>>>Begin Spectral Data<<<<<
223.165	-17.25
223.4	-17.25
223.635	-17.25
223.869	-13.25
224.104	-11.25
224.338	-20.25
224.573	-7.25
224.808	-5.25
225.042	-15.25
225.277	-22.25
225.511	4.75
225.746	-3.25
225.98	3.75
226.215	12.75
226.449	4.75
226.683	24.75
226.918	26.75
227.152	37.75
227.387	20.75
227.621	41.75
227.856	41.75
228.09	40.75
228.324	66.75
228.559	59.75
228.793	80.75
229.027	66.75
229.262	59.75
229.496	68.75
229.73	77.75
229.964	85.75
230.199	75.75
230.433	85.75
230.667	75.75
230.901	79.75
231.136	82.75
231.37	80.75
231.604	84.75
231.838	83.75
232.072	77.75
232.306	92.75
232.541	92.75
232.775	82.75
233.009	81.75
233.243	64.75
233.477	78.75
233.711	90.75
233.945	87.75
234.179	83.75
234.413	88.75
234.647	88.75
234.881	81.75
235.115	80.75
235.349	71.75
235.583	89.75
235.817	83.75
236.051	79.75
236.285	75.75
236.519	78.75
236.753	78.75
236.987	90.75
237.221	74.75
237.455	62.75
237.689	75.75
237.922	94.75
238.156	80.75
238.39	86.75
238.624	82.75
238.858	80.75
239.091	65.75
239.325	59.75
239.559	76.75
239.793	75.75
240.027	80.75
240.26	68.75
240.494	71.75
240.728	76.75
240.961	66.75
241.195	72.75
241.429	66.75
241.662	69.75
241.896	74.75
242.13	79.75
242.363	63.75
242.597	71.75
242.83	76.75
243.064	76.75
243.298	83.75
243.531	82.75
243.765	87.75
243.998	67.75
244.232	75.75
244.465	67.75
244.699	71.75
244.932	61.75
245.166	69.75
245.399	58.75
245.633	67.75
245.866	74.75
246.099	74.75
246.333	82.75
246.566	86.75
246.8	78.75
247.033	81.75
247.266	90.75
247.5	91.75
247.733	90.75
247.966	78.75
248.2	73.75
248.433	92.75
248.666	87.75
248.899	76.75
249.133	88.75
249.366	93.75
249.599	91.75
249.832	88.75
250.066	80.75
250.299	77.75
250.532	85.75
250.765	89.75
250.998	89.75
251.231	86.75
251.465	80.75
251.698	81.75
251.931	69.75
252.164	80.75
252.397	80.75
252.63	90.75
252.863	75.75
253.096	78.75
253.329	82.75
253.562	72.75
253.795	88.75
254.028	74.75
254.261	73.75
254.494	81.75
254.727	70.75
254.96	79.75
255.193	88.75
255.426	81.75
255.659	79.75
255.892	69.75
256.124	84.75
256.357	79.75
256.59	83.75
256.823	79.75
257.056	83.75
257.289	82.75
257.521	84.75
257.754	92.75
257.987	92.75
258.22	101.75
258.452	82.75
258.685	72.75
258.918	86.75
259.151	87.75
259.383	85.75
259.616	92.75
259.849	87.75
260.081	97.75
260.314	83.75
260.547	82.75
260.779	81.75
261.012	70.75
261.244	76.75
261.477	90.75
261.71	86.75
261.942	106.75
262.175	116.75
262.407	95.75
262.64	100.75
262.872	92.75
263.105	90.75
263.337	63.75
263.57	85.75
263.802	80.75
264.035	89.75
264.267	76.75
264.499	75.75
264.732	92.75
264.964	84.75
265.197	75.75
265.429	83.75
265.661	82.75
265.894	83.75
266.126	76.75
266.358	76.75
266.591	70.75
266.823	82.75
267.055	87.75
267.287	85.75
267.52	80.75
267.752	85.75
267.984	68.75
268.216	83.75
268.448	83.75
268.681	77.75
268.913	104.75
269.145	90.75
269.377	83.75
269.609	80.75
269.841	94.75
270.073	88.75
270.306	79.75
270.538	89.75
270.77	90.75
271.002	77.75
271.234	91.75
271.466	81.75
271.698	80.75
271.93	97.75
272.162	92.75
272.394	90.75
272.626	73.75
272.858	81.75
273.09	86.75
273.322	98.75
273.553	85.75
273.785	95.75
274.017	92.75
274.249	85.75
274.481	95.75
274.713	94.75
274.945	77.75
275.176	90.75
275.408	79.75
275.64	87.75
275.872	92.75
276.104	85.75
276.335	97.75
276.567	84.75
276.799	100.75
277.031	85.75
277.262	82.75
277.494	80.75
277.726	85.75
277.957	86.75
278.189	91.75
278.421	90.75
278.652	90.75
278.884	88.75
279.115	101.75
279.347	84.75
279.579	92.75
279.81	90.75
280.042	92.75
280.273	83.75
280.505	90.75
280.736	90.75
280.968	88.75
281.199	87.75
281.431	84.75
281.662	108.75
281.894	92.75
282.125	103.75
282.356	109.75
282.588	128.75
282.819	106.75
283.051	78.75
283.282	91.75
283.513	87.75
283.745	89.75
283.976	77.75
284.207	101.75
284.439	96.75
284.67	83.75
284.901	79.75
285.132	87.75
285.364	79.75
285.595	91.75
285.826	84.75
286.057	78.75
286.288	79.75
286.52	86.75
286.751	89.75
286.982	69.75
287.213	88.75
287.444	73.75
287.675	86.75
287.906	94.75
288.138	91.75
288.369	98.75
288.6	78.75
288.831	82.75
289.062	92.75
289.293	83.75
289.524	95.75
289.755	76.75
289.986	84.75
290.217	78.75
290.448	71.75
290.679	80.75
290.91	83.75
291.141	85.75
291.371	78.75
291.602	101.75
291.833	92.75
292.064	80.75
292.295	90.75
292.526	92.75
292.757	83.75
292.987	83.75
293.218	86.75
293.449	91.75
293.68	91.75
293.91	84.75
294.141	74.75
294.372	98.75
294.603	106.75
294.833	92.75
295.064	102.75
295.295	98.75
295.525	90.75
295.756	87.75
295.987	118.75
296.217	128.75
296.448	121.75
296.679	90.75
296.909	74.75
297.14	81.75
297.37	97.75
297.601	88.75
297.831	88.75
298.062	90.75
298.292	103.75
298.523	90.75
298.753	89.75
298.984	100.75
299.214	88.75
299.445	86.75
299.675	105.75
299.905	101.75
300.136	99.75
300.366	101.75
300.597	88.75
300.827	96.75
301.057	89.75
301.288	107.75
301.518	85.75
301.748	85.75
301.979	106.75
302.209	106.75
302.439	84.75
302.669	83.75
302.9	85.75
303.13	86.75
303.36	105.75
303.59	104.75
303.82	106.75
304.051	98.75
304.281	111.75
304.511	83.75
304.741	91.75
304.971	83.75
305.201	75.75
305.431	87.75
305.661	107.75
305.891	96.75
306.121	104.75
306.352	102.75
306.582	103.75
306.812	86.75
307.042	93.75
307.272	89.75
307.502	99.75
307.731	87.75
307.961	81.75
308.191	95.75
308.421	99.75
308.651	94.75
308.881	92.75
309.111	90.75
309.341	98.75
309.571	98.75
309.8	86.75
310.03	106.75
310.26	80.75
310.49	83.75
310.72	102.75
310.949	104.75
311.179	97.75
311.409	94.75
311.639	97.75
311.868	96.75
312.098	97.75
312.328	90.75
312.557	102.75
312.787	108.75
313.017	105.75
313.246	81.75
313.476	86.75
313.706	83.75
313.935	91.75
314.165	94.75
314.394	95.75
314.624	95.75
314.853	88.75
315.083	88.75
315.312	99.75
315.542	92.75
315.771	84.75
316.001	87.75
316.23	97.75
316.46	82.75
316.689	87.75
316.919	85.75
317.148	87.75
317.377	103.75
317.607	102.75
317.836	103.75
318.065	102.75
318.295	87.75
318.524	111.75
318.753	88.75
318.983	103.75
319.212	88.75
319.441	103.75
319.67	104.75
319.9	89.75
320.129	96.75
320.358	102.75
320.587	83.75
320.816	88.75
321.046	99.75
321.275	82.75
321.504	86.75
321.733	87.75
321.962	97.75
322.191	104.75
322.42	92.75
322.649	117.75
322.878	115.75
323.108	116.75
323.337	115.75
323.566	124.75
323.795	143.75
324.024	187.75
324.253	339.75
324.482	718.75
324.71	1443.75
324.939	1808.75
325.168	698.75
325.397	216.75
325.626	137.75
325.855	124.75
326.084	126.75
326.313	132.75
326.542	133.75
326.77	218.75
326.999	403.75
327.228	792.75
327.457	1398.75
327.686	1088.75
327.914	324.75
328.143	161.75
328.372	134.75
328.6	122.75
328.829	110.75
329.058	115.75
329.287	114.75
329.515	111.75
329.744	104.75
329.972	97.75
330.201	99.75
330.43	110.75
330.658	116.75
330.887	144.75
331.115	134.75
331.344	99.75
331.572	99.75
331.801	101.75
332.03	104.75
332.258	102.75
332.486	93.75
332.715	100.75
332.943	101.75
333.172	97.75
333.4	98.75
333.629	105.75
333.857	104.75
334.085	91.75
334.314	96.75
334.542	104.75
334.771	94.75
334.999	102.75
335.227	90.75
335.455	98.75
335.684	83.75
335.912	93.75
336.14	87.75
336.369	87.75
336.597	93.75
336.825	100.75
337.053	100.75
337.281	90.75
337.51	96.75
337.738	80.75
337.966	85.75
338.194	92.75
338.422	93.75
338.65	78.75
338.878	96.75
339.106	83.75
339.334	98.75
339.562	97.75
339.79	98.75
340.018	103.75
340.246	105.75
340.474	98.75
340.702	86.75
340.93	86.75
341.158	85.75
341.386	80.75
341.614	90.75
341.842	98.75
342.07	92.75
342.298	97.75
342.526	89.75
342.754	101.75
342.981	86.75
343.209	80.75
343.437	90.75
343.665	88.75
343.893	88.75
344.12	89.75
344.348	98.75
344.576	85.75
344.804	84.75
345.031	97.75
345.259	87.75
345.487	78.75
345.714	94.75
345.942	86.75
346.17	82.75
346.397	92.75
346.625	98.75
346.853	94.75
347.08	90.75
347.308	106.75
347.535	102.75
347.763	97.75
347.99	89.75
348.218	91.75
348.445	115.75
348.673	99.75
348.9	98.75
349.128	80.75
349.355	91.75
349.583	96.75
349.81	103.75
350.037	83.75
350.265	86.75
350.492	91.75
350.72	99.75
350.947	87.75
351.174	107.75
351.402	102.75
351.629	96.75
351.856	100.75
352.083	111.75
352.311	94.75
352.538	107.75
352.765	128.75
352.992	91.75
353.22	102.75
353.447	112.75
353.674	92.75
353.901	78.75
354.128	92.75
354.355	98.75
354.583	98.75
354.81	105.75
355.037	89.75
355.264	91.75
355.491	97.75
355.718	87.75
355.945	92.75
356.172	91.75
356.399	92.75
356.626	98.75
356.853	81.75
357.08	72.75
357.307	105.75
357.534	78.75
357.761	77.75
357.988	96.75
358.215	91.75
358.441	87.75
358.668	79.75
358.895	93.75
359.122	94.75
359.349	80.75
359.576	94.75
359.802	103.75
360.029	112.75
360.256	116.75
360.483	86.75
360.709	80.75
360.936	96.75
361.163	84.75
361.39	84.75
361.616	91.75
361.843	85.75
362.07	88.75
362.296	102.75
362.523	86.75
362.749	81.75
362.976	68.75
363.203	77.75
363.429	93.75
363.656	89.75
363.882	102.75
364.109	78.75
364.335	96.75
364.562	101.75
364.788	91.75
365.015	100.75
365.241	97.75
365.468	111.75
365.694	124.75
365.92	78.75
366.147	80.75
366.373	107.75
366.599	94.75
366.826	83.75
367.052	99.75
367.278	91.75
367.505	83.75
367.731	87.75
367.957	91.75
368.184	89.75
368.41	101.75
368.636	94.75
368.862	126.75
369.089	105.75
369.315	100.75
369.541	89.75
369.767	83.75
369.993	84.75
370.219	88.75
370.445	84.75
370.672	107.75
370.898	82.75
371.124	72.75
371.35	84.75
371.576	78.75
371.802	83.75
372.028	79.75
372.254	86.75
372.48	77.75
372.706	84.75
372.932	100.75
373.158	97.75
373.384	88.75
373.61	96.75
373.835	88.75
374.061	84.75
374.287	81.75
374.513	83.75
374.739	84.75
374.965	92.75
375.191	88.75
375.416	81.75
375.642	92.75
375.868	95.75
376.094	86.75
376.319	87.75
376.545	87.75
376.771	93.75
376.997	98.75
377.222	97.75
377.448	89.75
377.674	101.75
377.899	79.75
378.125	84.75
378.35	94.75
378.576	92.75
378.802	82.75
379.027	86.75
379.253	91.75
379.478	93.75
379.704	88.75
379.929	103.75
380.155	92.75
380.38	87.75
380.606	84.75
380.831	82.75
381.057	96.75
381.282	102.75
381.507	94.75
381.733	102.75
381.958	92.75
382.184	105.75
382.409	101.75
382.634	90.75
382.86	87.75
383.085	96.75
383.31	100.75
383.535	105.75
383.761	90.75
383.986	99.75
384.211	113.75
384.436	104.75
384.662	106.75
384.887	94.75
385.112	96.75
385.337	108.75
385.562	98.75
385.787	95.75
386.013	100.75
386.238	115.75
386.463	80.75
386.688	107.75
386.913	95.75
387.138	95.75
387.363	107.75
387.588	92.75
387.813	107.75
388.038	87.75
388.263	102.75
388.488	108.75
388.713	89.75
388.938	86.75
389.163	95.75
389.387	99.75
389.612	83.75
389.837	98.75
390.062	87.75
390.287	87.75
390.512	91.75
390.736	90.75
390.961	88.75
391.186	91.75
391.411	94.75
391.636	92.75
391.86	86.75
392.085	75.75
392.31	91.75
392.534	85.75
392.759	82.75
392.984	74.75
393.208	96.75
393.433	89.75
393.658	82.75
393.882	85.75
394.107	82.75
394.331	79.75
394.556	92.75
394.78	83.75
395.005	85.75
395.229	79.75
395.454	90.75
395.678	86.75
395.903	83.75
396.127	99.75
396.352	85.75
396.576	89.75
396.801	85.75
397.025	89.75
397.249	70.75
397.474	90.75
397.698	82.75
397.922	84.75
398.147	90.75
398.371	83.75
398.595	76.75
398.82	79.75
399.044	93.75
399.268	93.75
399.492	72.75
399.717	89.75
399.941	91.75
400.165	106.75
400.389	101.75
400.613	79.75
400.837	78.75
401.062	89.75
401.286	82.75
401.51	81.75
401.734	100.75
401.958	100.75
402.182	130.75
402.406	150.75
402.63	108.75
402.854	82.75
403.078	81.75
403.302	81.75
403.526	87.75
403.75	84.75
403.974	81.75
404.198	81.75
404.422	90.75
404.645	84.75
404.869	79.75
405.093	72.75
405.317	82.75
405.541	86.75
405.765	87.75
405.988	105.75
406.212	167.75
406.436	217.75
406.66	125.75
406.883	98.75
407.107	102.75
407.331	74.75
407.555	83.75
407.778	100.75
408.002	79.75
408.226	90.75
408.449	88.75
408.673	76.75
408.896	92.75
409.12	96.75
409.344	86.75
409.567	94.75
409.791	91.75
410.014	91.75
410.238	88.75
410.461	86.75
410.685	89.75
410.908	75.75
411.132	100.75
411.355	91.75
411.578	85.75
411.802	79.75
412.025	84.75
412.249	74.75
412.472	100.75
412.695	78.75
412.919	87.75
413.142	82.75
413.365	83.75
413.589	77.75
413.812	80.75
414.035	75.75
414.258	90.75
414.482	89.75
414.705	91.75
414.928	85.75
415.151	81.75
415.374	89.75
415.597	82.75
415.821	79.75
416.044	83.75
416.267	94.75
416.49	90.75
416.713	93.75
416.936	86.75
417.159	83.75
417.382	91.75
417.605	96.75
417.828	94.75
418.051	91.75
418.274	96.75
418.497	86.75
418.72	69.75
418.943	84.75
419.166	81.75
419.389	85.75
419.611	84.75
419.834	82.75
420.057	98.75
420.28	72.75
420.503	87.75
420.726	99.75
420.948	81.75
421.171	89.75
421.394	100.75
421.617	95.75
421.839	85.75
422.062	80.75
422.285	88.75
422.507	92.75
422.73	95.75
422.953	89.75
423.175	86.75
423.398	90.75
423.621	105.75
423.843	92.75
424.066	82.75
424.288	98.75
424.511	91.75
424.733	97.75
424.956	119.75
425.178	100.75
425.401	91.75
425.623	80.75
425.846	84.75
426.068	90.75
426.291	82.75
426.513	77.75
426.735	100.75
426.958	86.75
427.18	98.75
427.402	130.75
427.625	163.75
427.847	106.75
428.069	103.75
428.292	80.75
428.514	92.75
428.736	65.75
428.958	84.75
429.181	77.75
429.403	76.75
429.625	92.75
429.847	94.75
430.069	91.75
430.292	102.75
430.514	99.75
430.736	85.75
430.958	87.75
431.18	71.75
431.402	97.75
431.624	93.75
431.846	73.75
432.068	95.75
432.29	84.75
432.512	73.75
432.734	72.75
432.956	81.75
433.178	90.75
433.4	102.75
433.622	79.75
433.844	86.75
434.066	89.75
434.287	92.75
434.509	88.75
434.731	93.75
434.953	91.75
435.175	75.75
435.397	81.75
435.618	96.75
435.84	96.75
436.062	111.75
436.284	106.75
436.505	102.75
436.727	95.75
436.949	99.75
437.17	92.75
437.392	98.75
437.614	85.75
437.835	98.75
438.057	114.75
438.278	96.75
438.5	98.75
438.721	110.75
438.943	102.75
439.165	96.75
439.386	96.75
439.608	88.75
439.829	83.75
440.05	113.75
440.272	126.75
440.493	89.75
440.715	77.75
440.936	96.75
441.158	82.75
441.379	86.75
441.6	98.75
441.822	85.75
442.043	80.75
442.264	88.75
442.486	93.75
442.707	92.75
442.928	97.75
443.149	120.75
443.371	117.75
443.592	91.75
443.813	107.75
444.034	102.75
444.255	99.75
444.476	90.75
444.698	81.75
444.919	96.75
445.14	130.75
445.361	109.75
445.582	114.75
445.803	141.75
446.024	114.75
446.245	119.75
446.466	106.75
446.687	90.75
446.908	83.75
447.129	78.75
447.35	89.75
447.571	95.75
447.792	95.75
448.013	91.75
448.234	95.75
448.455	93.75
448.675	112.75
448.896	113.75
449.117	104.75
449.338	96.75
449.559	133.75
449.779	127.75
450	98.75
450.221	80.75
450.442	97.75
450.662	92.75
450.883	99.75
451.104	115.75
451.324	102.75
451.545	86.75
451.766	93.75
451.986	96.75
452.207	100.75
452.428	88.75
452.648	102.75
452.869	104.75
453.089	98.75
453.31	115.75
453.53	94.75
453.751	113.75
453.971	99.75
454.192	115.75
454.412	87.75
454.633	81.75
454.853	89.75
455.073	97.75
455.294	97.75
455.514	105.75
455.734	94.75
455.955	72.75
456.175	78.75
456.395	90.75
456.616	87.75
456.836	90.75
457.056	84.75
457.276	71.75
457.497	101.75
457.717	86.75
457.937	80.75
458.157	82.75
458.377	74.75
458.598	109.75
458.818	154.75
459.038	138.75
459.258	113.75
459.478	83.75
459.698	74.75
459.918	88.75
460.138	103.75
460.358	89.75
460.578	87.75
460.798	87.75
461.018	91.75
461.238	70.75
461.458	92.75
461.678	77.75
461.898	98.75
462.118	84.75
462.338	89.75
462.558	84.75
462.777	79.75
462.997	78.75
463.217	95.75
463.437	74.75
463.657	81.75
463.876	80.75
464.096	88.75
464.316	92.75
464.536	92.75
464.755	112.75
464.975	109.75
465.195	148.75
465.414	150.75
465.634	95.75
465.854	97.75
466.073	89.75
466.293	81.75
466.512	75.75
466.732	83.75
466.951	83.75
467.171	74.75
467.391	82.75
467.61	92.75
467.829	98.75
468.049	79.75
468.268	96.75
468.488	105.75
468.707	78.75
468.927	91.75
469.146	93.75
469.365	89.75
469.585	99.75
469.804	105.75
470.023	98.75
470.243	111.75
470.462	102.75
470.681	114.75
470.901	83.75
471.12	84.75
471.339	87.75
471.558	80.75
471.777	84.75
471.997	82.75
472.216	75.75
472.435	83.75
472.654	90.75
472.873	94.75
473.092	76.75
473.311	88.75
473.53	70.75
473.749	77.75
473.968	75.75
474.187	109.75
474.406	90.75
474.625	80.75
474.844	79.75
475.063	83.75
475.282	90.75
475.501	86.75
475.72	91.75
475.939	102.75
476.158	74.75
476.377	94.75
476.596	78.75
476.814	86.75
477.033	83.75
477.252	92.75
477.471	89.75
477.69	94.75
477.908	84.75
478.127	89.75
478.346	86.75
478.564	90.75
478.783	103.75
479.002	88.75
479.22	84.75
479.439	96.75
479.658	99.75
479.876	100.75
480.095	91.75
480.313	91.75
480.532	83.75
480.751	93.75
480.969	81.75
481.188	92.75
481.406	93.75
481.624	80.75
481.843	101.75
482.061	98.75
482.28	74.75
482.498	97.75
482.717	91.75
482.935	88.75
483.153	104.75
483.372	80.75
483.59	101.75
483.808	81.75
484.027	93.75
484.245	88.75
484.463	91.75
484.681	97.75
484.9	77.75
485.118	84.75
485.336	87.75
485.554	89.75
485.772	94.75
485.99	101.75
486.209	93.75
486.427	103.75
486.645	101.75
486.863	97.75
487.081	92.75
487.299	81.75
487.517	102.75
487.735	85.75
487.953	99.75
488.171	92.75
488.389	90.75
488.607	94.75
488.825	80.75
489.043	75.75
489.261	87.75
489.479	85.75
489.696	92.75
489.914	84.75
490.132	88.75
490.35	81.75
490.568	92.75
490.786	94.75
491.003	113.75
491.221	98.75
491.439	86.75
491.657	90.75
491.874	74.75
492.092	89.75
492.31	104.75
492.527	102.75
492.745	98.75
492.963	96.75
493.18	92.75
493.398	93.75
493.615	113.75
493.833	94.75
494.05	88.75
494.268	87.75
494.485	91.75
494.703	83.75
494.92	87.75
495.138	89.75
495.355	80.75
495.573	80.75
495.79	86.75
496.008	98.75
496.225	85.75
496.442	98.75
496.66	97.75
496.877	74.75
497.094	87.75
497.312	100.75
497.529	81.75
497.746	90.75
497.963	92.75
498.181	90.75
498.398	93.75
498.615	102.75
498.832	111.75
499.049	90.75
499.267	84.75
499.484	91.75
499.701	85.75
499.918	94.75
500.135	95.75
500.352	84.75
500.569	89.75
500.786	81.75
501.003	95.75
501.22	86.75
501.437	98.75
501.654	92.75
501.871	105.75
502.088	93.75
502.305	84.75
502.522	84.75
502.739	76.75
502.956	87.75
503.172	78.75
503.389	92.75
503.606	108.75
503.823	97.75
504.04	96.75
504.256	107.75
504.473	97.75
504.69	91.75
504.907	87.75
505.123	90.75
505.34	74.75
505.557	90.75
505.773	95.75
505.99	97.75
506.207	87.75
506.423	90.75
506.64	99.75
506.856	72.75
507.073	96.75
507.289	96.75
507.506	96.75
507.722	115.75
507.939	107.75
508.155	82.75
508.372	93.75
508.588	82.75
508.805	86.75
509.021	91.75
509.238	96.75
509.454	95.75
509.67	94.75
509.887	110.75
510.103	113.75
510.319	218.75
510.536	757.75
510.752	2231.75
510.968	632.75
511.184	150.75
511.401	122.75
511.617	102.75
511.833	86.75
512.049	99.75
512.265	81.75
512.481	93.75
512.698	87.75
512.914	94.75
513.13	92.75
513.346	105.75
513.562	99.75
513.778	103.75
513.994	86.75
514.21	106.75
514.426	119.75
514.642	124.75
514.858	128.75
515.074	154.75
515.29	443.75
515.506	1437.75
515.721	507.75
515.937	160.75
516.153	117.75
