Data from Uncirc_2001_H10_HRD10591_00012.txt Node
Date: Wed Jan 03 10:43:59 EST 2024
User: Yrep
Spectrometer: HR+D1059
Trigger mode: 1
Integration Time (sec): 1.000000E-1
Scans to average: 1
Electric dark correction enabled: true
Nonlinearity correction enabled: false
Boxcar width: 0
XAxis mode: Wavelengths
Number of Pixels in Spectrum: 2048
>>>>>Begin Spectral Data<<<<<
223.165	-10.12
223.4	-10.12
223.635	-10.12
223.869	7.88
224.104	-26.12
224.338	-21.12
224.573	-16.12
224.808	-3.12
225.042	-6.12
225.277	3.88
225.511	-10.12
225.746	-13.12
225.98	6.88
226.215	10.88
226.449	7.88
226.683	20.88
226.918	30.88
227.152	16.88
227.387	20.88
227.621	37.88
227.856	47.88
228.09	48.88
228.324	52.88
228.559	40.88
228.793	75.88
229.027	65.88
229.262	66.88
229.496	83.88
229.73	74.88
229.964	82.88
230.199	85.88
230.433	59.88
230.667	91.88
230.901	82.88
231.136	81.88
231.37	92.88
231.604	77.88
231.838	90.88
232.072	84.88
232.306	76.88
232.541	88.88
232.775	68.88
233.009	68.88
233.243	89.88
233.477	73.88
233.711	71.88
233.945	89.88
234.179	76.88
234.413	66.88
234.647	85.88
234.881	69.88
235.115	96.88
235.349	72.88
235.583	77.88
235.817	76.88
236.051	73.88
236.285	91.88
236.519	76.88
236.753	74.88
236.987	72.88
237.221	72.88
237.455	81.88
237.689	76.88
237.922	75.88
238.156	78.88
238.39	83.88
238.624	67.88
238.858	69.88
239.091	77.88
239.325	82.88
239.559	87.88
239.793	65.88
240.027	69.88
240.26	71.88
240.494	82.88
240.728	73.88
240.961	78.88
241.195	76.88
241.429	73.88
241.662	82.88
241.896	88.88
242.13	91.88
242.363	80.88
242.597	66.88
242.83	72.88
243.064	76.88
243.298	80.88
243.531	66.88
243.765	91.88
243.998	86.88
244.232	70.88
244.465	79.88
244.699	64.88
244.932	67.88
245.166	77.88
245.399	85.88
245.633	87.88
245.866	83.88
246.099	79.88
246.333	75.88
246.566	91.88
246.8	79.88
247.033	80.88
247.266	79.88
247.5	75.88
247.733	77.88
247.966	73.88
248.2	76.88
248.433	68.88
248.666	85.88
248.899	71.88
249.133	75.88
249.366	88.88
249.599	95.88
249.832	78.88
250.066	72.88
250.299	77.88
250.532	82.88
250.765	74.88
250.998	72.88
251.231	77.88
251.465	79.88
251.698	81.88
251.931	69.88
252.164	71.88
252.397	80.88
252.63	69.88
252.863	77.88
253.096	91.88
253.329	85.88
253.562	82.88
253.795	80.88
254.028	80.88
254.261	76.88
254.494	93.88
254.727	77.88
254.96	90.88
255.193	72.88
255.426	77.88
255.659	81.88
255.892	83.88
256.124	90.88
256.357	84.88
256.59	81.88
256.823	84.88
257.056	74.88
257.289	80.88
257.521	84.88
257.754	87.88
257.987	79.88
258.22	82.88
258.452	95.88
258.685	71.88
258.918	75.88
259.151	77.88
259.383	85.88
259.616	75.88
259.849	85.88
260.081	85.88
260.314	83.88
260.547	68.88
260.779	77.88
261.012	70.88
261.244	67.88
261.477	92.88
261.71	73.88
261.942	100.88
262.175	115.88
262.407	76.88
262.64	82.88
262.872	76.88
263.105	90.88
263.337	85.88
263.57	86.88
263.802	76.88
264.035	87.88
264.267	87.88
264.499	84.88
264.732	71.88
264.964	89.88
265.197	82.88
265.429	78.88
265.661	69.88
265.894	67.88
266.126	85.88
266.358	69.88
266.591	84.88
266.823	78.88
267.055	69.88
267.287	89.88
267.52	90.88
267.752	86.88
267.984	88.88
268.216	80.88
268.448	85.88
268.681	87.88
268.913	81.88
269.145	91.88
269.377	77.88
269.609	86.88
269.841	88.88
270.073	72.88
270.306	95.88
270.538	87.88
270.77	77.88
271.002	83.88
271.234	95.88
271.466	83.88
271.698	90.88
271.93	82.88
272.162	106.88
272.394	92.88
272.626	91.88
272.858	73.88
273.09	75.88
273.322	75.88
273.553	95.88
273.785	95.88
274.017	73.88
274.249	68.88
274.481	83.88
274.713	88.88
274.945	79.88
275.176	76.88
275.408	76.88
275.64	74.88
275.872	92.88
276.104	88.88
276.335	92.88
276.567	96.88
276.799	87.88
277.031	90.88
277.262	96.88
277.494	80.88
277.726	74.88
277.957	92.88
278.189	77.88
278.421	79.88
278.652	98.88
278.884	81.88
279.115	79.88
279.347	84.88
279.579	98.88
279.81	88.88
280.042	87.88
280.273	87.88
280.505	98.88
280.736	80.88
280.968	87.88
281.199	100.88
281.431	87.88
281.662	94.88
281.894	96.88
282.125	84.88
282.356	115.88
282.588	138.88
282.819	109.88
283.051	83.88
283.282	86.88
283.513	73.88
283.745	82.88
283.976	84.88
284.207	69.88
284.439	82.88
284.67	88.88
284.901	95.88
285.132	87.88
285.364	76.88
285.595	92.88
285.826	83.88
286.057	91.88
286.288	108.88
286.52	81.88
286.751	85.88
286.982	81.88
287.213	82.88
287.444	85.88
287.675	88.88
287.906	104.88
288.138	91.88
288.369	100.88
288.6	71.88
288.831	88.88
289.062	92.88
289.293	84.88
289.524	84.88
289.755	76.88
289.986	57.88
290.217	70.88
290.448	101.88
290.679	100.88
290.91	85.88
291.141	81.88
291.371	86.88
291.602	86.88
291.833	83.88
292.064	76.88
292.295	87.88
292.526	74.88
292.757	81.88
292.987	76.88
293.218	84.88
293.449	80.88
293.68	79.88
293.91	86.88
294.141	85.88
294.372	89.88
294.603	88.88
294.833	89.88
295.064	83.88
295.295	93.88
295.525	90.88
295.756	101.88
295.987	101.88
296.217	132.88
296.448	123.88
296.679	99.88
296.909	81.88
297.14	77.88
297.37	90.88
297.601	97.88
297.831	88.88
298.062	97.88
298.292	84.88
298.523	69.88
298.753	89.88
298.984	94.88
299.214	101.88
299.445	96.88
299.675	90.88
299.905	89.88
300.136	102.88
300.366	94.88
300.597	91.88
300.827	95.88
301.057	93.88
301.288	94.88
301.518	87.88
301.748	95.88
301.979	98.88
302.209	108.88
302.439	91.88
302.669	79.88
302.9	82.88
303.13	86.88
303.36	105.88
303.59	105.88
303.82	100.88
304.051	87.88
304.281	97.88
304.511	101.88
304.741	97.88
304.971	90.88
305.201	84.88
305.431	91.88
305.661	97.88
305.891	99.88
306.121	92.88
306.352	99.88
306.582	83.88
306.812	78.88
307.042	80.88
307.272	88.88
307.502	95.88
307.731	88.88
307.961	79.88
308.191	87.88
308.421	101.88
308.651	86.88
308.881	88.88
309.111	96.88
309.341	82.88
309.571	109.88
309.8	90.88
310.03	101.88
310.26	102.88
310.49	76.88
310.72	96.88
310.949	94.88
311.179	86.88
311.409	83.88
311.639	88.88
311.868	102.88
312.098	103.88
312.328	93.88
312.557	101.88
312.787	102.88
313.017	82.88
313.246	101.88
313.476	108.88
313.706	94.88
313.935	86.88
314.165	100.88
314.394	93.88
314.624	101.88
314.853	83.88
315.083	83.88
315.312	91.88
315.542	100.88
315.771	89.88
316.001	100.88
316.23	99.88
316.46	82.88
316.689	89.88
316.919	97.88
317.148	91.88
317.377	93.88
317.607	98.88
317.836	87.88
318.065	69.88
318.295	97.88
318.524	96.88
318.753	96.88
318.983	98.88
319.212	98.88
319.441	84.88
319.67	120.88
319.9	100.88
320.129	92.88
320.358	98.88
320.587	97.88
320.816	102.88
321.046	94.88
321.275	98.88
321.504	97.88
321.733	89.88
321.962	105.88
322.191	103.88
322.42	92.88
322.649	102.88
322.878	103.88
323.108	106.88
323.337	107.88
323.566	137.88
323.795	137.88
324.024	174.88
324.253	326.88
324.482	671.88
324.71	1359.88
324.939	1690.88
325.168	658.88
325.397	213.88
325.626	129.88
325.855	145.88
326.084	133.88
326.313	125.88
326.542	134.88
326.77	195.88
326.999	385.88
327.228	767.88
327.457	1287.88
327.686	1028.88
327.914	288.88
328.143	161.88
328.372	129.88
328.6	116.88
328.829	124.88
329.058	111.88
329.287	112.88
329.515	103.88
329.744	104.88
329.972	90.88
330.201	100.88
330.43	110.88
330.658	107.88
330.887	129.88
331.115	118.88
331.344	94.88
331.572	102.88
331.801	100.88
332.03	97.88
332.258	89.88
332.486	88.88
332.715	96.88
332.943	81.88
333.172	103.88
333.4	89.88
333.629	120.88
333.857	102.88
334.085	91.88
334.314	99.88
334.542	92.88
334.771	103.88
334.999	91.88
335.227	92.88
335.455	96.88
335.684	96.88
335.912	93.88
336.14	77.88
336.369	113.88
336.597	107.88
336.825	87.88
337.053	86.88
337.281	83.88
337.51	87.88
337.738	88.88
337.966	95.88
338.194	96.88
338.422	103.88
338.65	99.88
338.878	97.88
339.106	100.88
339.334	84.88
339.562	93.88
339.79	103.88
340.018	95.88
340.246	93.88
340.474	88.88
340.702	91.88
340.93	82.88
341.158	90.88
341.386	90.88
341.614	105.88
341.842	96.88
342.07	87.88
342.298	92.88
342.526	85.88
342.754	81.88
342.981	85.88
343.209	79.88
343.437	98.88
343.665	98.88
343.893	82.88
344.12	91.88
344.348	83.88
344.576	83.88
344.804	95.88
345.031	100.88
345.259	104.88
345.487	84.88
345.714	92.88
345.942	83.88
346.17	95.88
346.397	90.88
346.625	92.88
346.853	100.88
347.08	88.88
347.308	111.88
347.535	102.88
347.763	94.88
347.99	108.88
348.218	101.88
348.445	101.88
348.673	85.88
348.9	113.88
349.128	92.88
349.355	99.88
349.583	102.88
349.81	97.88
350.037	99.88
350.265	88.88
350.492	103.88
350.72	92.88
350.947	86.88
351.174	113.88
351.402	107.88
351.629	92.88
351.856	95.88
352.083	99.88
352.311	108.88
352.538	102.88
352.765	96.88
352.992	102.88
353.22	100.88
353.447	99.88
353.674	101.88
353.901	108.88
354.128	104.88
354.355	92.88
354.583	95.88
354.81	104.88
355.037	103.88
355.264	99.88
355.491	112.88
355.718	102.88
355.945	105.88
356.172	103.88
356.399	100.88
356.626	110.88
356.853	92.88
357.08	90.88
357.307	99.88
357.534	103.88
357.761	106.88
357.988	96.88
358.215	103.88
358.441	88.88
358.668	100.88
358.895	96.88
359.122	92.88
359.349	83.88
359.576	79.88
359.802	94.88
360.029	108.88
360.256	111.88
360.483	107.88
360.709	87.88
360.936	106.88
361.163	107.88
361.39	97.88
361.616	96.88
361.843	100.88
362.07	88.88
362.296	95.88
362.523	93.88
362.749	84.88
362.976	87.88
363.203	93.88
363.429	77.88
363.656	99.88
363.882	93.88
364.109	93.88
364.335	87.88
364.562	85.88
364.788	87.88
365.015	100.88
365.241	93.88
365.468	99.88
365.694	109.88
365.92	88.88
366.147	93.88
366.373	84.88
366.599	89.88
366.826	92.88
367.052	83.88
367.278	86.88
367.505	93.88
367.731	71.88
367.957	83.88
368.184	97.88
368.41	103.88
368.636	113.88
368.862	112.88
369.089	98.88
369.315	107.88
369.541	87.88
369.767	95.88
369.993	96.88
370.219	89.88
370.445	76.88
370.672	81.88
370.898	81.88
371.124	85.88
371.35	90.88
371.576	89.88
371.802	91.88
372.028	86.88
372.254	86.88
372.48	93.88
372.706	85.88
372.932	89.88
373.158	87.88
373.384	100.88
373.61	93.88
373.835	106.88
374.061	100.88
374.287	94.88
374.513	82.88
374.739	89.88
374.965	69.88
375.191	86.88
375.416	74.88
375.642	90.88
375.868	85.88
376.094	97.88
376.319	92.88
376.545	86.88
376.771	92.88
376.997	92.88
377.222	98.88
377.448	90.88
377.674	100.88
377.899	95.88
378.125	92.88
378.35	83.88
378.576	92.88
378.802	84.88
379.027	85.88
379.253	77.88
379.478	96.88
379.704	110.88
379.929	112.88
380.155	96.88
380.38	96.88
380.606	97.88
380.831	90.88
381.057	89.88
381.282	96.88
381.507	95.88
381.733	103.88
381.958	99.88
382.184	100.88
382.409	100.88
382.634	103.88
382.86	107.88
383.085	110.88
383.31	111.88
383.535	100.88
383.761	96.88
383.986	98.88
384.211	102.88
384.436	88.88
384.662	103.88
384.887	108.88
385.112	99.88
385.337	117.88
385.562	119.88
385.787	113.88
386.013	104.88
386.238	119.88
386.463	109.88
386.688	105.88
386.913	107.88
387.138	127.88
387.363	100.88
387.588	110.88
387.813	109.88
388.038	114.88
388.263	116.88
388.488	118.88
388.713	94.88
388.938	108.88
389.163	95.88
389.387	107.88
389.612	93.88
389.837	109.88
390.062	96.88
390.287	85.88
390.512	79.88
390.736	97.88
390.961	91.88
391.186	88.88
391.411	98.88
391.636	93.88
391.86	87.88
392.085	75.88
392.31	80.88
392.534	80.88
392.759	84.88
392.984	75.88
393.208	100.88
393.433	112.88
393.658	93.88
393.882	90.88
394.107	79.88
394.331	95.88
394.556	89.88
394.78	90.88
395.005	90.88
395.229	95.88
395.454	83.88
395.678	76.88
395.903	95.88
396.127	99.88
396.352	94.88
396.576	95.88
396.801	87.88
397.025	88.88
397.249	80.88
397.474	90.88
397.698	100.88
397.922	96.88
398.147	93.88
398.371	99.88
398.595	95.88
398.82	84.88
399.044	89.88
399.268	84.88
399.492	74.88
399.717	71.88
399.941	98.88
400.165	96.88
400.389	90.88
400.613	99.88
400.837	85.88
401.062	99.88
401.286	93.88
401.51	77.88
401.734	79.88
401.958	87.88
402.182	117.88
402.406	141.88
402.63	106.88
402.854	105.88
403.078	97.88
403.302	82.88
403.526	89.88
403.75	86.88
403.974	90.88
404.198	89.88
404.422	97.88
404.645	86.88
404.869	77.88
405.093	85.88
405.317	96.88
405.541	82.88
405.765	91.88
405.988	120.88
406.212	153.88
406.436	204.88
406.66	139.88
406.883	95.88
407.107	97.88
407.331	86.88
407.555	88.88
407.778	78.88
408.002	82.88
408.226	98.88
408.449	80.88
408.673	94.88
408.896	108.88
409.12	103.88
409.344	84.88
409.567	93.88
409.791	82.88
410.014	97.88
410.238	102.88
410.461	91.88
410.685	96.88
410.908	103.88
411.132	112.88
411.355	86.88
411.578	106.88
411.802	86.88
412.025	93.88
412.249	76.88
412.472	104.88
412.695	100.88
412.919	82.88
413.142	100.88
413.365	95.88
413.589	104.88
413.812	89.88
414.035	89.88
414.258	82.88
414.482	82.88
414.705	84.88
414.928	88.88
415.151	97.88
415.374	100.88
415.597	83.88
415.821	86.88
416.044	78.88
416.267	89.88
416.49	82.88
416.713	81.88
416.936	88.88
417.159	85.88
417.382	97.88
417.605	74.88
417.828	93.88
418.051	100.88
418.274	84.88
418.497	87.88
418.72	88.88
418.943	71.88
419.166	92.88
419.389	84.88
419.611	89.88
419.834	75.88
420.057	82.88
420.28	86.88
420.503	85.88
420.726	85.88
420.948	83.88
421.171	87.88
421.394	87.88
421.617	84.88
421.839	95.88
422.062	87.88
422.285	107.88
422.507	111.88
422.73	109.88
422.953	78.88
423.175	89.88
423.398	100.88
423.621	112.88
423.843	83.88
424.066	84.88
424.288	93.88
424.511	80.88
424.733	89.88
424.956	102.88
425.178	94.88
425.401	87.88
425.623	90.88
425.846	94.88
426.068	100.88
426.291	86.88
426.513	88.88
426.735	91.88
426.958	102.88
427.18	116.88
427.402	138.88
427.625	151.88
427.847	121.88
428.069	91.88
428.292	73.88
428.514	79.88
428.736	75.88
428.958	90.88
429.181	83.88
429.403	96.88
429.625	89.88
429.847	80.88
430.069	95.88
430.292	95.88
430.514	84.88
430.736	93.88
430.958	84.88
431.18	83.88
431.402	84.88
431.624	92.88
431.846	83.88
432.068	91.88
432.29	88.88
432.512	83.88
432.734	76.88
432.956	81.88
433.178	86.88
433.4	93.88
433.622	83.88
433.844	87.88
434.066	84.88
434.287	100.88
434.509	89.88
434.731	73.88
434.953	95.88
435.175	86.88
435.397	97.88
435.618	101.88
435.84	116.88
436.062	115.88
436.284	99.88
436.505	91.88
436.727	87.88
436.949	84.88
437.17	90.88
437.392	86.88
437.614	97.88
437.835	102.88
438.057	105.88
438.278	102.88
438.5	92.88
438.721	115.88
438.943	96.88
439.165	98.88
439.386	76.88
439.608	102.88
439.829	91.88
440.05	111.88
440.272	137.88
440.493	97.88
440.715	89.88
440.936	89.88
441.158	107.88
441.379	67.88
441.6	85.88
441.822	90.88
442.043	75.88
442.264	98.88
442.486	89.88
442.707	75.88
442.928	108.88
443.149	111.88
443.371	113.88
443.592	113.88
443.813	110.88
444.034	103.88
444.255	95.88
444.476	67.88
444.698	75.88
444.919	96.88
445.14	123.88
445.361	117.88
445.582	110.88
445.803	123.88
446.024	120.88
446.245	121.88
446.466	95.88
446.687	96.88
446.908	76.88
447.129	83.88
447.35	87.88
447.571	96.88
447.792	99.88
448.013	100.88
448.234	100.88
448.455	112.88
448.675	103.88
448.896	116.88
449.117	93.88
449.338	90.88
449.559	118.88
449.779	122.88
450	82.88
450.221	84.88
450.442	79.88
450.662	90.88
450.883	91.88
451.104	97.88
451.324	96.88
451.545	91.88
451.766	85.88
451.986	88.88
452.207	87.88
452.428	93.88
452.648	84.88
452.869	115.88
453.089	112.88
453.31	118.88
453.53	102.88
453.751	84.88
453.971	104.88
454.192	110.88
454.412	92.88
454.633	81.88
454.853	92.88
455.073	82.88
455.294	90.88
455.514	105.88
455.734	81.88
455.955	82.88
456.175	93.88
456.395	87.88
456.616	84.88
456.836	94.88
457.056	95.88
457.276	85.88
457.497	73.88
457.717	83.88
457.937	86.88
458.157	85.88
458.377	106.88
458.598	127.88
458.818	144.88
459.038	149.88
459.258	95.88
459.478	83.88
459.698	87.88
459.918	83.88
460.138	76.88
460.358	81.88
460.578	90.88
460.798	83.88
461.018	88.88
461.238	98.88
461.458	89.88
461.678	87.88
461.898	84.88
462.118	87.88
462.338	92.88
462.558	100.88
462.777	88.88
462.997	104.88
463.217	76.88
463.437	90.88
463.657	74.88
463.876	95.88
464.096	84.88
464.316	94.88
464.536	107.88
464.755	83.88
464.975	93.88
465.195	143.88
465.414	144.88
465.634	96.88
465.854	91.88
466.073	101.88
466.293	91.88
466.512	86.88
466.732	82.88
466.951	88.88
467.171	86.88
467.391	91.88
467.61	93.88
467.829	97.88
468.049	87.88
468.268	79.88
468.488	93.88
468.707	89.88
468.927	81.88
469.146	98.88
469.365	76.88
469.585	80.88
469.804	91.88
470.023	100.88
470.243	103.88
470.462	83.88
470.681	108.88
470.901	71.88
471.12	83.88
471.339	85.88
471.558	90.88
471.777	102.88
471.997	74.88
472.216	79.88
472.435	76.88
472.654	89.88
472.873	77.88
473.092	82.88
473.311	88.88
473.53	74.88
473.749	90.88
473.968	83.88
474.187	87.88
474.406	99.88
474.625	96.88
474.844	84.88
475.063	84.88
475.282	85.88
475.501	82.88
475.72	86.88
475.939	111.88
476.158	105.88
476.377	87.88
476.596	88.88
476.814	90.88
477.033	91.88
477.252	93.88
477.471	94.88
477.69	97.88
477.908	101.88
478.127	95.88
478.346	85.88
478.564	104.88
478.783	89.88
479.002	90.88
479.22	87.88
479.439	95.88
479.658	101.88
479.876	104.88
480.095	85.88
480.313	93.88
480.532	93.88
480.751	81.88
480.969	80.88
481.188	88.88
481.406	94.88
481.624	85.88
481.843	98.88
482.061	92.88
482.28	84.88
482.498	88.88
482.717	95.88
482.935	86.88
483.153	90.88
483.372	99.88
483.59	93.88
483.808	91.88
484.027	88.88
484.245	85.88
484.463	99.88
484.681	106.88
484.9	83.88
485.118	84.88
485.336	90.88
485.554	96.88
485.772	99.88
485.99	93.88
486.209	101.88
486.427	101.88
486.645	100.88
486.863	114.88
487.081	92.88
487.299	99.88
487.517	100.88
487.735	98.88
487.953	82.88
488.171	88.88
488.389	86.88
488.607	116.88
488.825	95.88
489.043	91.88
489.261	83.88
489.479	96.88
489.696	84.88
489.914	92.88
490.132	96.88
490.35	69.88
490.568	91.88
490.786	87.88
491.003	99.88
491.221	95.88
491.439	90.88
491.657	104.88
491.874	91.88
492.092	99.88
492.31	89.88
492.527	90.88
492.745	82.88
492.963	80.88
493.18	101.88
493.398	91.88
493.615	95.88
493.833	93.88
494.05	100.88
494.268	74.88
494.485	91.88
494.703	86.88
494.92	87.88
495.138	90.88
495.355	91.88
495.573	87.88
495.79	74.88
496.008	104.88
496.225	99.88
496.442	95.88
496.66	89.88
496.877	84.88
497.094	91.88
497.312	84.88
497.529	93.88
497.746	97.88
497.963	86.88
498.181	89.88
498.398	93.88
498.615	109.88
498.832	84.88
499.049	99.88
499.267	102.88
499.484	77.88
499.701	85.88
499.918	87.88
500.135	96.88
500.352	87.88
500.569	88.88
500.786	84.88
501.003	87.88
501.22	75.88
501.437	90.88
501.654	79.88
501.871	114.88
502.088	99.88
502.305	91.88
502.522	79.88
502.739	92.88
502.956	84.88
503.172	93.88
503.389	100.88
503.606	102.88
503.823	94.88
504.04	112.88
504.256	101.88
504.473	90.88
504.69	69.88
504.907	90.88
505.123	79.88
505.34	73.88
505.557	93.88
505.773	85.88
505.99	87.88
506.207	84.88
506.423	82.88
506.64	80.88
506.856	90.88
507.073	89.88
507.289	97.88
507.506	108.88
507.722	119.88
507.939	100.88
508.155	83.88
508.372	92.88
508.588	92.88
508.805	84.88
509.021	106.88
509.238	110.88
509.454	99.88
509.67	99.88
509.887	102.88
510.103	136.88
510.319	221.88
510.536	680.88
510.752	2069.88
510.968	579.88
511.184	143.88
511.401	103.88
511.617	90.88
511.833	79.88
512.049	98.88
512.265	83.88
512.481	88.88
512.698	88.88
512.914	91.88
513.13	98.88
513.346	95.88
513.562	81.88
513.778	97.88
513.994	87.88
514.21	86.88
514.426	123.88
514.642	120.88
514.858	120.88
515.074	143.88
515.29	413.88
515.506	1307.88
515.721	496.88
