Data from Uncirc_2001_H10_HRD10591_00081.txt Node
Date: Wed Jan 03 10:44:13 EST 2024
User: Yrep
Spectrometer: HR+D1059
Trigger mode: 1
Integration Time (sec): 1.000000E-1
Scans to average: 1
Electric dark correction enabled: true
Nonlinearity correction enabled: false
Boxcar width: 0
XAxis mode: Wavelengths
Number of Pixels in Spectrum: 2048
>>>>>Begin Spectral Data<<<<<
223.165	-9.12
223.4	-9.12
223.635	-9.12
223.869	-35.12
224.104	-19.12
224.338	-17.12
224.573	-3.12
224.808	-15.12
225.042	-8.12
225.277	-21.12
225.511	-5.12
225.746	7.88
225.98	11.88
226.215	21.88
226.449	22.88
226.683	22.88
226.918	8.88
227.152	36.88
227.387	26.88
227.621	30.88
227.856	29.88
228.09	36.88
228.324	57.88
228.559	45.88
228.793	58.88
229.027	60.88
229.262	71.88
229.496	66.88
229.73	96.88
229.964	90.88
230.199	67.88
230.433	69.88
230.667	83.88
230.901	86.88
231.136	83.88
231.37	84.88
231.604	72.88
231.838	76.88
232.072	86.88
232.306	88.88
232.541	69.88
232.775	85.88
233.009	74.88
233.243	84.88
233.477	89.88
233.711	84.88
233.945	80.88
234.179	92.88
234.413	83.88
234.647	76.88
234.881	72.88
235.115	57.88
235.349	71.88
235.583	73.88
235.817	85.88
236.051	76.88
236.285	74.88
236.519	88.88
236.753	71.88
236.987	69.88
237.221	82.88
237.455	85.88
237.689	71.88
237.922	80.88
238.156	82.88
238.39	74.88
238.624	81.88
238.858	76.88
239.091	68.88
239.325	84.88
239.559	79.88
239.793	71.88
240.027	72.88
240.26	82.88
240.494	82.88
240.728	82.88
240.961	75.88
241.195	76.88
241.429	75.88
241.662	83.88
241.896	77.88
242.13	66.88
242.363	78.88
242.597	62.88
242.83	86.88
243.064	83.88
243.298	69.88
243.531	85.88
243.765	87.88
243.998	85.88
244.232	93.88
244.465	84.88
244.699	82.88
244.932	71.88
245.166	82.88
245.399	85.88
245.633	88.88
245.866	74.88
246.099	83.88
246.333	86.88
246.566	82.88
246.8	83.88
247.033	80.88
247.266	72.88
247.5	76.88
247.733	69.88
247.966	88.88
248.2	76.88
248.433	70.88
248.666	66.88
248.899	84.88
249.133	81.88
249.366	95.88
249.599	101.88
249.832	82.88
250.066	87.88
250.299	85.88
250.532	75.88
250.765	88.88
250.998	83.88
251.231	86.88
251.465	89.88
251.698	89.88
251.931	57.88
252.164	81.88
252.397	91.88
252.63	81.88
252.863	79.88
253.096	77.88
253.329	70.88
253.562	85.88
253.795	87.88
254.028	88.88
254.261	90.88
254.494	86.88
254.727	84.88
254.96	82.88
255.193	67.88
255.426	78.88
255.659	94.88
255.892	88.88
256.124	83.88
256.357	90.88
256.59	80.88
256.823	90.88
257.056	92.88
257.289	96.88
257.521	78.88
257.754	79.88
257.987	84.88
258.22	80.88
258.452	76.88
258.685	72.88
258.918	102.88
259.151	86.88
259.383	89.88
259.616	93.88
259.849	69.88
260.081	76.88
260.314	82.88
260.547	68.88
260.779	83.88
261.012	98.88
261.244	95.88
261.477	92.88
261.71	88.88
261.942	108.88
262.175	111.88
262.407	77.88
262.64	91.88
262.872	83.88
263.105	88.88
263.337	79.88
263.57	86.88
263.802	76.88
264.035	89.88
264.267	82.88
264.499	73.88
264.732	89.88
264.964	97.88
265.197	89.88
265.429	79.88
265.661	81.88
265.894	89.88
266.126	61.88
266.358	90.88
266.591	86.88
266.823	87.88
267.055	84.88
267.287	95.88
267.52	83.88
267.752	91.88
267.984	93.88
268.216	85.88
268.448	85.88
268.681	91.88
268.913	78.88
269.145	93.88
269.377	90.88
269.609	85.88
269.841	71.88
270.073	70.88
270.306	88.88
270.538	92.88
270.77	94.88
271.002	80.88
271.234	83.88
271.466	76.88
271.698	80.88
271.93	71.88
272.162	74.88
272.394	84.88
272.626	73.88
272.858	82.88
273.09	76.88
273.322	90.88
273.553	84.88
273.785	85.88
274.017	89.88
274.249	85.88
274.481	81.88
274.713	99.88
274.945	87.88
275.176	76.88
275.408	89.88
275.64	92.88
275.872	89.88
276.104	85.88
276.335	93.88
276.567	97.88
276.799	102.88
277.031	88.88
277.262	94.88
277.494	93.88
277.726	87.88
277.957	82.88
278.189	85.88
278.421	80.88
278.652	83.88
278.884	85.88
279.115	87.88
279.347	90.88
279.579	87.88
279.81	80.88
280.042	87.88
280.273	83.88
280.505	69.88
280.736	89.88
280.968	97.88
281.199	87.88
281.431	90.88
281.662	84.88
281.894	94.88
282.125	102.88
282.356	104.88
282.588	125.88
282.819	108.88
283.051	86.88
283.282	88.88
283.513	101.88
283.745	87.88
283.976	97.88
284.207	82.88
284.439	87.88
284.67	90.88
284.901	84.88
285.132	81.88
285.364	77.88
285.595	86.88
285.826	99.88
286.057	86.88
286.288	92.88
286.52	82.88
286.751	101.88
286.982	76.88
287.213	94.88
287.444	80.88
287.675	91.88
287.906	100.88
288.138	84.88
288.369	81.88
288.6	90.88
288.831	83.88
289.062	90.88
289.293	87.88
289.524	88.88
289.755	89.88
289.986	77.88
290.217	80.88
290.448	76.88
290.679	90.88
290.91	87.88
291.141	92.88
291.371	98.88
291.602	85.88
291.833	83.88
292.064	84.88
292.295	86.88
292.526	93.88
292.757	90.88
292.987	91.88
293.218	84.88
293.449	91.88
293.68	85.88
293.91	88.88
294.141	94.88
294.372	86.88
294.603	81.88
294.833	96.88
295.064	94.88
295.295	102.88
295.525	101.88
295.756	103.88
295.987	115.88
296.217	114.88
296.448	118.88
296.679	103.88
296.909	87.88
297.14	91.88
297.37	88.88
297.601	86.88
297.831	85.88
298.062	70.88
298.292	80.88
298.523	92.88
298.753	94.88
298.984	87.88
299.214	78.88
299.445	97.88
299.675	95.88
299.905	84.88
300.136	92.88
300.366	97.88
300.597	86.88
300.827	94.88
301.057	87.88
301.288	97.88
301.518	91.88
301.748	78.88
301.979	97.88
302.209	77.88
302.439	86.88
302.669	96.88
302.9	108.88
303.13	98.88
303.36	89.88
303.59	89.88
303.82	98.88
304.051	105.88
304.281	79.88
304.511	93.88
304.741	86.88
304.971	76.88
305.201	82.88
305.431	94.88
305.661	83.88
305.891	86.88
306.121	93.88
306.352	90.88
306.582	96.88
306.812	92.88
307.042	84.88
307.272	87.88
307.502	85.88
307.731	94.88
307.961	104.88
308.191	103.88
308.421	100.88
308.651	77.88
308.881	87.88
309.111	86.88
309.341	95.88
309.571	107.88
309.8	101.88
310.03	94.88
310.26	90.88
310.49	92.88
310.72	100.88
310.949	106.88
311.179	93.88
311.409	98.88
311.639	88.88
311.868	94.88
312.098	95.88
312.328	107.88
312.557	112.88
312.787	108.88
313.017	87.88
313.246	104.88
313.476	97.88
313.706	96.88
313.935	106.88
314.165	90.88
314.394	97.88
314.624	109.88
314.853	87.88
315.083	98.88
315.312	105.88
315.542	88.88
315.771	83.88
316.001	108.88
316.23	93.88
316.46	79.88
316.689	98.88
316.919	88.88
317.148	90.88
317.377	89.88
317.607	101.88
317.836	96.88
318.065	98.88
318.295	101.88
318.524	98.88
318.753	92.88
318.983	93.88
319.212	97.88
319.441	94.88
319.67	93.88
319.9	87.88
320.129	103.88
320.358	91.88
320.587	94.88
320.816	101.88
321.046	112.88
321.275	89.88
321.504	97.88
321.733	109.88
321.962	99.88
322.191	99.88
322.42	88.88
322.649	107.88
322.878	114.88
323.108	115.88
323.337	112.88
323.566	146.88
323.795	137.88
324.024	180.88
324.253	354.88
324.482	741.88
324.71	1476.88
324.939	1804.88
325.168	674.88
325.397	219.88
325.626	150.88
325.855	128.88
326.084	122.88
326.313	134.88
326.542	158.88
326.77	218.88
326.999	399.88
327.228	804.88
327.457	1404.88
327.686	1114.88
327.914	317.88
328.143	172.88
328.372	130.88
328.6	122.88
328.829	120.88
329.058	121.88
329.287	124.88
329.515	102.88
329.744	106.88
329.972	97.88
330.201	88.88
330.43	113.88
330.658	116.88
330.887	146.88
331.115	133.88
331.344	95.88
331.572	108.88
331.801	101.88
332.03	118.88
332.258	83.88
332.486	97.88
332.715	88.88
332.943	86.88
333.172	83.88
333.4	88.88
333.629	105.88
333.857	109.88
334.085	102.88
334.314	81.88
334.542	108.88
334.771	98.88
334.999	93.88
335.227	109.88
335.455	106.88
335.684	98.88
335.912	92.88
336.14	83.88
336.369	98.88
336.597	110.88
336.825	110.88
337.053	85.88
337.281	105.88
337.51	84.88
337.738	107.88
337.966	83.88
338.194	97.88
338.422	102.88
338.65	104.88
338.878	102.88
339.106	98.88
339.334	86.88
339.562	90.88
339.79	83.88
340.018	85.88
340.246	94.88
340.474	100.88
340.702	91.88
340.93	94.88
341.158	92.88
341.386	99.88
341.614	98.88
341.842	98.88
342.07	78.88
342.298	97.88
342.526	84.88
342.754	90.88
342.981	78.88
343.209	76.88
343.437	89.88
343.665	89.88
343.893	86.88
344.12	91.88
344.348	100.88
344.576	92.88
344.804	101.88
345.031	94.88
345.259	123.88
345.487	97.88
345.714	90.88
345.942	82.88
346.17	98.88
346.397	103.88
346.625	88.88
346.853	84.88
347.08	80.88
347.308	98.88
347.535	112.88
347.763	110.88
347.99	114.88
348.218	102.88
348.445	103.88
348.673	87.88
348.9	108.88
349.128	94.88
349.355	102.88
349.583	104.88
349.81	86.88
350.037	109.88
350.265	107.88
350.492	98.88
350.72	104.88
350.947	116.88
351.174	113.88
351.402	106.88
351.629	111.88
351.856	96.88
352.083	99.88
352.311	111.88
352.538	106.88
352.765	100.88
352.992	104.88
353.22	101.88
353.447	109.88
353.674	102.88
353.901	100.88
354.128	103.88
354.355	95.88
354.583	92.88
354.81	94.88
355.037	99.88
355.264	92.88
355.491	88.88
355.718	102.88
355.945	88.88
356.172	104.88
356.399	108.88
356.626	90.88
356.853	99.88
357.08	85.88
357.307	90.88
357.534	75.88
357.761	77.88
357.988	83.88
358.215	95.88
358.441	81.88
358.668	78.88
358.895	82.88
359.122	92.88
359.349	91.88
359.576	94.88
359.802	97.88
360.029	96.88
360.256	102.88
360.483	88.88
360.709	92.88
360.936	97.88
361.163	107.88
361.39	100.88
361.616	98.88
361.843	80.88
362.07	93.88
362.296	108.88
362.523	98.88
362.749	91.88
362.976	91.88
363.203	94.88
363.429	74.88
363.656	95.88
363.882	84.88
364.109	92.88
364.335	93.88
364.562	89.88
364.788	86.88
365.015	94.88
365.241	106.88
365.468	97.88
365.694	94.88
365.92	95.88
366.147	95.88
366.373	83.88
366.599	90.88
366.826	85.88
367.052	90.88
367.278	69.88
367.505	82.88
367.731	106.88
367.957	92.88
368.184	100.88
368.41	106.88
368.636	114.88
368.862	122.88
369.089	119.88
369.315	93.88
369.541	101.88
369.767	94.88
369.993	84.88
370.219	95.88
370.445	93.88
370.672	82.88
370.898	103.88
371.124	93.88
371.35	79.88
371.576	89.88
371.802	83.88
372.028	97.88
372.254	97.88
372.48	92.88
372.706	82.88
372.932	88.88
373.158	83.88
373.384	97.88
373.61	82.88
373.835	98.88
374.061	80.88
374.287	90.88
374.513	93.88
374.739	88.88
374.965	79.88
375.191	88.88
375.416	67.88
375.642	67.88
375.868	88.88
376.094	94.88
376.319	85.88
376.545	85.88
376.771	98.88
376.997	87.88
377.222	98.88
377.448	78.88
377.674	89.88
377.899	76.88
378.125	90.88
378.35	91.88
378.576	99.88
378.802	90.88
379.027	88.88
379.253	94.88
379.478	82.88
379.704	82.88
379.929	102.88
380.155	95.88
380.38	81.88
380.606	87.88
380.831	92.88
381.057	92.88
381.282	79.88
381.507	97.88
381.733	101.88
381.958	86.88
382.184	103.88
382.409	92.88
382.634	104.88
382.86	108.88
383.085	104.88
383.31	91.88
383.535	98.88
383.761	92.88
383.986	112.88
384.211	106.88
384.436	85.88
384.662	100.88
384.887	111.88
385.112	107.88
385.337	108.88
385.562	83.88
385.787	102.88
386.013	113.88
386.238	115.88
386.463	117.88
386.688	98.88
386.913	108.88
387.138	105.88
387.363	100.88
387.588	104.88
387.813	92.88
388.038	108.88
388.263	99.88
388.488	93.88
388.713	96.88
388.938	95.88
389.163	94.88
389.387	99.88
389.612	85.88
389.837	92.88
390.062	88.88
390.287	84.88
390.512	95.88
390.736	87.88
390.961	93.88
391.186	81.88
391.411	102.88
391.636	97.88
391.86	84.88
392.085	89.88
392.31	93.88
392.534	82.88
392.759	88.88
392.984	93.88
393.208	68.88
393.433	80.88
393.658	99.88
393.882	70.88
394.107	99.88
394.331	91.88
394.556	73.88
394.78	80.88
395.005	91.88
395.229	97.88
395.454	97.88
395.678	92.88
395.903	68.88
396.127	83.88
396.352	91.88
396.576	83.88
396.801	81.88
397.025	90.88
397.249	77.88
397.474	92.88
397.698	93.88
397.922	80.88
398.147	84.88
398.371	84.88
398.595	82.88
398.82	97.88
399.044	89.88
399.268	83.88
399.492	91.88
399.717	93.88
399.941	86.88
400.165	93.88
400.389	98.88
400.613	89.88
400.837	87.88
401.062	97.88
401.286	85.88
401.51	88.88
401.734	95.88
401.958	100.88
402.182	117.88
402.406	160.88
402.63	113.88
402.854	85.88
403.078	88.88
403.302	81.88
403.526	81.88
403.75	87.88
403.974	90.88
404.198	85.88
404.422	81.88
404.645	84.88
404.869	82.88
405.093	83.88
405.317	84.88
405.541	90.88
405.765	93.88
405.988	122.88
406.212	153.88
406.436	237.88
406.66	156.88
406.883	97.88
407.107	87.88
407.331	76.88
407.555	109.88
407.778	110.88
408.002	91.88
408.226	92.88
408.449	84.88
408.673	93.88
408.896	93.88
409.12	94.88
409.344	83.88
409.567	87.88
409.791	82.88
410.014	97.88
410.238	87.88
410.461	92.88
410.685	107.88
410.908	96.88
411.132	114.88
411.355	101.88
411.578	84.88
411.802	92.88
412.025	98.88
412.249	92.88
412.472	79.88
412.695	94.88
412.919	72.88
413.142	79.88
413.365	100.88
413.589	92.88
413.812	83.88
414.035	91.88
414.258	90.88
414.482	101.88
414.705	80.88
414.928	86.88
415.151	93.88
415.374	94.88
415.597	86.88
415.821	74.88
416.044	82.88
416.267	89.88
416.49	68.88
416.713	75.88
416.936	90.88
417.159	96.88
417.382	88.88
417.605	94.88
417.828	88.88
418.051	89.88
418.274	85.88
418.497	78.88
418.72	88.88
418.943	82.88
419.166	82.88
419.389	78.88
419.611	104.88
419.834	90.88
420.057	83.88
420.28	92.88
420.503	85.88
420.726	96.88
420.948	100.88
421.171	86.88
421.394	86.88
421.617	77.88
421.839	93.88
422.062	92.88
422.285	93.88
422.507	88.88
422.73	95.88
422.953	95.88
423.175	102.88
423.398	80.88
423.621	73.88
423.843	88.88
424.066	86.88
424.288	83.88
424.511	84.88
424.733	102.88
424.956	120.88
425.178	105.88
425.401	114.88
425.623	92.88
425.846	101.88
426.068	100.88
426.291	91.88
426.513	88.88
426.735	90.88
426.958	95.88
427.18	96.88
427.402	132.88
427.625	160.88
427.847	128.88
428.069	113.88
428.292	92.88
428.514	89.88
428.736	76.88
428.958	77.88
429.181	70.88
429.403	81.88
429.625	80.88
429.847	91.88
430.069	100.88
430.292	98.88
430.514	83.88
430.736	70.88
430.958	81.88
431.18	93.88
431.402	73.88
431.624	73.88
431.846	81.88
432.068	78.88
432.29	78.88
432.512	100.88
432.734	77.88
432.956	92.88
433.178	104.88
433.4	87.88
433.622	77.88
433.844	81.88
434.066	97.88
434.287	99.88
434.509	85.88
434.731	79.88
434.953	93.88
435.175	101.88
435.397	84.88
435.618	96.88
435.84	106.88
436.062	116.88
436.284	97.88
436.505	90.88
436.727	91.88
436.949	95.88
437.17	85.88
437.392	87.88
437.614	92.88
437.835	108.88
438.057	122.88
438.278	110.88
438.5	130.88
438.721	117.88
438.943	91.88
439.165	99.88
439.386	98.88
439.608	97.88
439.829	96.88
440.05	122.88
440.272	139.88
440.493	87.88
440.715	93.88
440.936	74.88
441.158	94.88
441.379	83.88
441.6	93.88
441.822	97.88
442.043	104.88
442.264	99.88
442.486	100.88
442.707	90.88
442.928	97.88
443.149	116.88
443.371	131.88
443.592	102.88
443.813	123.88
444.034	101.88
444.255	96.88
444.476	90.88
444.698	95.88
444.919	78.88
445.14	125.88
445.361	109.88
445.582	104.88
445.803	132.88
446.024	134.88
446.245	134.88
446.466	102.88
446.687	89.88
446.908	103.88
447.129	85.88
447.35	73.88
447.571	82.88
447.792	100.88
448.013	100.88
448.234	107.88
448.455	111.88
448.675	102.88
448.896	113.88
449.117	88.88
449.338	84.88
449.559	100.88
449.779	121.88
450	92.88
450.221	107.88
450.442	103.88
450.662	101.88
450.883	106.88
451.104	108.88
451.324	93.88
451.545	94.88
451.766	84.88
451.986	76.88
452.207	85.88
452.428	98.88
452.648	116.88
452.869	112.88
453.089	123.88
453.31	131.88
453.53	89.88
453.751	82.88
453.971	89.88
454.192	109.88
454.412	94.88
454.633	99.88
454.853	91.88
455.073	83.88
455.294	84.88
455.514	77.88
455.734	90.88
455.955	73.88
456.175	87.88
456.395	84.88
456.616	75.88
456.836	82.88
457.056	89.88
457.276	92.88
457.497	91.88
457.717	94.88
457.937	97.88
458.157	89.88
458.377	93.88
458.598	100.88
458.818	156.88
459.038	151.88
459.258	113.88
459.478	82.88
459.698	99.88
459.918	87.88
460.138	99.88
460.358	93.88
460.578	84.88
460.798	103.88
461.018	89.88
461.238	85.88
461.458	95.88
461.678	91.88
461.898	68.88
462.118	99.88
462.338	93.88
462.558	85.88
462.777	88.88
462.997	80.88
463.217	73.88
463.437	88.88
463.657	85.88
463.876	92.88
464.096	86.88
464.316	76.88
464.536	93.88
464.755	98.88
464.975	106.88
465.195	177.88
465.414	180.88
465.634	84.88
465.854	86.88
466.073	83.88
466.293	88.88
466.512	96.88
466.732	98.88
466.951	80.88
467.171	83.88
467.391	98.88
467.61	118.88
467.829	98.88
468.049	92.88
468.268	95.88
468.488	83.88
468.707	79.88
468.927	76.88
469.146	88.88
469.365	93.88
469.585	91.88
469.804	89.88
470.023	90.88
470.243	91.88
470.462	99.88
470.681	115.88
470.901	76.88
471.12	83.88
471.339	88.88
471.558	93.88
471.777	90.88
471.997	92.88
472.216	93.88
472.435	94.88
472.654	86.88
472.873	82.88
473.092	86.88
473.311	100.88
473.53	80.88
473.749	91.88
473.968	98.88
474.187	91.88
474.406	101.88
474.625	87.88
474.844	76.88
475.063	92.88
475.282	89.88
475.501	90.88
475.72	90.88
475.939	76.88
476.158	86.88
476.377	91.88
476.596	89.88
476.814	93.88
477.033	88.88
477.252	85.88
477.471	96.88
477.69	92.88
477.908	99.88
478.127	95.88
478.346	75.88
478.564	104.88
478.783	82.88
479.002	89.88
479.22	92.88
479.439	114.88
479.658	100.88
479.876	91.88
480.095	77.88
480.313	91.88
480.532	100.88
480.751	98.88
480.969	101.88
481.188	92.88
481.406	100.88
481.624	102.88
481.843	80.88
482.061	93.88
482.28	96.88
482.498	90.88
482.717	94.88
482.935	93.88
483.153	95.88
483.372	80.88
483.59	97.88
483.808	86.88
484.027	91.88
484.245	99.88
484.463	90.88
484.681	91.88
484.9	93.88
485.118	93.88
485.336	86.88
485.554	93.88
485.772	93.88
485.99	93.88
486.209	99.88
486.427	98.88
486.645	110.88
486.863	99.88
487.081	102.88
487.299	90.88
487.517	99.88
487.735	90.88
487.953	96.88
488.171	95.88
488.389	97.88
488.607	92.88
488.825	106.88
489.043	95.88
489.261	82.88
489.479	90.88
489.696	97.88
489.914	97.88
490.132	92.88
490.35	103.88
490.568	92.88
490.786	88.88
491.003	91.88
491.221	89.88
491.439	83.88
491.657	84.88
491.874	95.88
492.092	82.88
492.31	92.88
492.527	86.88
492.745	76.88
492.963	88.88
493.18	99.88
493.398	92.88
493.615	90.88
493.833	100.88
494.05	80.88
494.268	84.88
494.485	90.88
494.703	86.88
494.92	74.88
495.138	91.88
495.355	85.88
495.573	92.88
495.79	81.88
496.008	79.88
496.225	80.88
496.442	89.88
496.66	93.88
496.877	89.88
497.094	102.88
497.312	92.88
497.529	95.88
497.746	88.88
497.963	103.88
498.181	91.88
498.398	94.88
498.615	91.88
498.832	94.88
499.049	100.88
499.267	96.88
499.484	98.88
499.701	87.88
499.918	90.88
500.135	86.88
500.352	109.88
500.569	91.88
500.786	90.88
501.003	88.88
501.22	84.88
501.437	97.88
501.654	107.88
501.871	105.88
502.088	85.88
502.305	93.88
502.522	80.88
502.739	101.88
502.956	89.88
503.172	92.88
503.389	85.88
503.606	109.88
503.823	93.88
504.04	88.88
504.256	91.88
504.473	100.88
504.69	85.88
504.907	96.88
505.123	98.88
505.34	87.88
505.557	89.88
505.773	88.88
505.99	87.88
506.207	90.88
506.423	85.88
506.64	92.88
506.856	99.88
507.073	93.88
507.289	88.88
507.506	80.88
507.722	105.88
507.939	110.88
508.155	101.88
508.372	93.88
508.588	95.88
508.805	102.88
509.021	99.88
509.238	104.88
509.454	105.88
509.67	90.88
509.887	99.88
510.103	126.88
510.319	221.88
510.536	754.88
510.752	2368.88
510.968	655.88
511.184	155.88
511.401	104.88
511.617	98.88
511.833	85.88
512.049	92.88
512.265	101.88
512.481	78.88
512.698	88.88
512.914	83.88
513.13	81.88
513.346	84.88
513.562	96.88
513.778	99.88
513.994	90.88
514.21	107.88
514.426	113.88
514.642	141.88
514.858	124.88
515.074	170.88
515.29	471.88
515.506	1499.88
515.721	546.88
515.937	152.88
