Data from Uncirc_2001_H10_HRD10591_00064.txt Node
Date: Wed Jan 03 10:44:09 EST 2024
User: Yrep
Spectrometer: HR+D1059
Trigger mode: 1
Integration Time (sec): 1.000000E-1
Scans to average: 1
Electric dark correction enabled: true
Nonlinearity correction enabled: false
Boxcar width: 0
XAxis mode: Wavelengths
Number of Pixels in Spectrum: 2048
>>>>>Begin Spectral Data<<<<<
223.165	-15.31
223.4	-15.31
223.635	-15.31
223.869	-18.31
224.104	-11.31
224.338	-24.31
224.573	-16.31
224.808	5.69
225.042	-2.31
225.277	-11.31
225.511	2.69
225.746	-5.31
225.98	5.69
226.215	9.69
226.449	3.69
226.683	18.69
226.918	32.69
227.152	25.69
227.387	43.69
227.621	25.69
227.856	43.69
228.09	38.69
228.324	53.69
228.559	64.69
228.793	44.69
229.027	65.69
229.262	58.69
229.496	93.69
229.73	99.69
229.964	89.69
230.199	80.69
230.433	83.69
230.667	77.69
230.901	82.69
231.136	81.69
231.37	81.69
231.604	93.69
231.838	88.69
232.072	90.69
232.306	86.69
232.541	83.69
232.775	84.69
233.009	86.69
233.243	75.69
233.477	94.69
233.711	71.69
233.945	93.69
234.179	79.69
234.413	76.69
234.647	88.69
234.881	74.69
235.115	82.69
235.349	85.69
235.583	70.69
235.817	76.69
236.051	103.69
236.285	69.69
236.519	78.69
236.753	83.69
236.987	81.69
237.221	82.69
237.455	84.69
237.689	85.69
237.922	83.69
238.156	72.69
238.39	78.69
238.624	81.69
238.858	87.69
239.091	94.69
239.325	79.69
239.559	68.69
239.793	79.69
240.027	73.69
240.26	62.69
240.494	78.69
240.728	79.69
240.961	76.69
241.195	72.69
241.429	63.69
241.662	76.69
241.896	71.69
242.13	74.69
242.363	89.69
242.597	75.69
242.83	83.69
243.064	91.69
243.298	75.69
243.531	68.69
243.765	88.69
243.998	76.69
244.232	75.69
244.465	72.69
244.699	78.69
244.932	82.69
245.166	71.69
245.399	77.69
245.633	94.69
245.866	77.69
246.099	76.69
246.333	68.69
246.566	74.69
246.8	89.69
247.033	85.69
247.266	85.69
247.5	86.69
247.733	78.69
247.966	82.69
248.2	78.69
248.433	77.69
248.666	81.69
248.899	91.69
249.133	94.69
249.366	99.69
249.599	97.69
249.832	74.69
250.066	75.69
250.299	80.69
250.532	83.69
250.765	80.69
250.998	71.69
251.231	77.69
251.465	69.69
251.698	87.69
251.931	68.69
252.164	83.69
252.397	89.69
252.63	93.69
252.863	82.69
253.096	79.69
253.329	94.69
253.562	100.69
253.795	83.69
254.028	89.69
254.261	104.69
254.494	79.69
254.727	86.69
254.96	85.69
255.193	90.69
255.426	80.69
255.659	81.69
255.892	83.69
256.124	97.69
256.357	76.69
256.59	86.69
256.823	81.69
257.056	77.69
257.289	81.69
257.521	92.69
257.754	83.69
257.987	71.69
258.22	83.69
258.452	82.69
258.685	81.69
258.918	68.69
259.151	66.69
259.383	95.69
259.616	86.69
259.849	89.69
260.081	66.69
260.314	91.69
260.547	87.69
260.779	78.69
261.012	67.69
261.244	86.69
261.477	83.69
261.71	94.69
261.942	110.69
262.175	114.69
262.407	98.69
262.64	104.69
262.872	95.69
263.105	89.69
263.337	93.69
263.57	84.69
263.802	89.69
264.035	84.69
264.267	90.69
264.499	78.69
264.732	79.69
264.964	90.69
265.197	95.69
265.429	87.69
265.661	81.69
265.894	81.69
266.126	89.69
266.358	79.69
266.591	101.69
266.823	94.69
267.055	93.69
267.287	79.69
267.52	81.69
267.752	76.69
267.984	74.69
268.216	82.69
268.448	79.69
268.681	85.69
268.913	95.69
269.145	89.69
269.377	88.69
269.609	89.69
269.841	79.69
270.073	85.69
270.306	86.69
270.538	93.69
270.77	84.69
271.002	94.69
271.234	99.69
271.466	91.69
271.698	81.69
271.93	77.69
272.162	93.69
272.394	78.69
272.626	85.69
272.858	97.69
273.09	92.69
273.322	92.69
273.553	85.69
273.785	85.69
274.017	89.69
274.249	89.69
274.481	96.69
274.713	84.69
274.945	81.69
275.176	79.69
275.408	86.69
275.64	91.69
275.872	93.69
276.104	82.69
276.335	91.69
276.567	96.69
276.799	120.69
277.031	82.69
277.262	77.69
277.494	86.69
277.726	79.69
277.957	95.69
278.189	87.69
278.421	90.69
278.652	107.69
278.884	79.69
279.115	86.69
279.347	77.69
279.579	89.69
279.81	94.69
280.042	90.69
280.273	86.69
280.505	89.69
280.736	85.69
280.968	105.69
281.199	89.69
281.431	77.69
281.662	88.69
281.894	88.69
282.125	106.69
282.356	116.69
282.588	134.69
282.819	124.69
283.051	90.69
283.282	92.69
283.513	81.69
283.745	86.69
283.976	86.69
284.207	85.69
284.439	86.69
284.67	91.69
284.901	100.69
285.132	95.69
285.364	91.69
285.595	89.69
285.826	90.69
286.057	83.69
286.288	85.69
286.52	75.69
286.751	90.69
286.982	94.69
287.213	91.69
287.444	84.69
287.675	102.69
287.906	99.69
288.138	98.69
288.369	90.69
288.6	105.69
288.831	87.69
289.062	94.69
289.293	83.69
289.524	86.69
289.755	83.69
289.986	94.69
290.217	100.69
290.448	90.69
290.679	101.69
290.91	86.69
291.141	89.69
291.371	82.69
291.602	79.69
291.833	96.69
292.064	92.69
292.295	100.69
292.526	83.69
292.757	92.69
292.987	99.69
293.218	90.69
293.449	87.69
293.68	94.69
293.91	89.69
294.141	83.69
294.372	81.69
294.603	84.69
294.833	90.69
295.064	81.69
295.295	85.69
295.525	113.69
295.756	106.69
295.987	105.69
296.217	131.69
296.448	117.69
296.679	102.69
296.909	77.69
297.14	90.69
297.37	93.69
297.601	86.69
297.831	96.69
298.062	100.69
298.292	88.69
298.523	103.69
298.753	96.69
298.984	105.69
299.214	100.69
299.445	88.69
299.675	88.69
299.905	94.69
300.136	91.69
300.366	88.69
300.597	95.69
300.827	89.69
301.057	102.69
301.288	105.69
301.518	84.69
301.748	92.69
301.979	96.69
302.209	109.69
302.439	81.69
302.669	93.69
302.9	93.69
303.13	95.69
303.36	95.69
303.59	100.69
303.82	91.69
304.051	89.69
304.281	86.69
304.511	92.69
304.741	93.69
304.971	87.69
305.201	79.69
305.431	94.69
305.661	89.69
305.891	86.69
306.121	79.69
306.352	98.69
306.582	116.69
306.812	100.69
307.042	89.69
307.272	87.69
307.502	91.69
307.731	92.69
307.961	94.69
308.191	86.69
308.421	76.69
308.651	83.69
308.881	87.69
309.111	91.69
309.341	103.69
309.571	85.69
309.8	104.69
310.03	86.69
310.26	89.69
310.49	102.69
310.72	105.69
310.949	96.69
311.179	99.69
311.409	94.69
311.639	101.69
311.868	96.69
312.098	86.69
312.328	92.69
312.557	105.69
312.787	106.69
313.017	99.69
313.246	98.69
313.476	104.69
313.706	98.69
313.935	90.69
314.165	107.69
314.394	102.69
314.624	94.69
314.853	99.69
315.083	94.69
315.312	105.69
315.542	100.69
315.771	91.69
316.001	90.69
316.23	94.69
316.46	93.69
316.689	95.69
316.919	95.69
317.148	98.69
317.377	104.69
317.607	94.69
317.836	86.69
318.065	82.69
318.295	84.69
318.524	83.69
318.753	89.69
318.983	97.69
319.212	106.69
319.441	101.69
319.67	94.69
319.9	105.69
320.129	99.69
320.358	89.69
320.587	108.69
320.816	99.69
321.046	113.69
321.275	102.69
321.504	90.69
321.733	108.69
321.962	95.69
322.191	90.69
322.42	111.69
322.649	105.69
322.878	114.69
323.108	123.69
323.337	127.69
323.566	140.69
323.795	140.69
324.024	189.69
324.253	342.69
324.482	721.69
324.71	1422.69
324.939	1810.69
325.168	676.69
325.397	217.69
325.626	134.69
325.855	113.69
326.084	124.69
326.313	118.69
326.542	145.69
326.77	206.69
326.999	405.69
327.228	788.69
327.457	1417.69
327.686	1131.69
327.914	314.69
328.143	186.69
328.372	129.69
328.6	126.69
328.829	117.69
329.058	114.69
329.287	118.69
329.515	118.69
329.744	114.69
329.972	91.69
330.201	99.69
330.43	107.69
330.658	132.69
330.887	133.69
331.115	130.69
331.344	104.69
331.572	110.69
331.801	96.69
332.03	84.69
332.258	98.69
332.486	100.69
332.715	102.69
332.943	108.69
333.172	102.69
333.4	105.69
333.629	93.69
333.857	108.69
334.085	101.69
334.314	110.69
334.542	105.69
334.771	103.69
334.999	90.69
335.227	89.69
335.455	96.69
335.684	103.69
335.912	98.69
336.14	77.69
336.369	97.69
336.597	87.69
336.825	109.69
337.053	87.69
337.281	92.69
337.51	85.69
337.738	97.69
337.966	92.69
338.194	86.69
338.422	103.69
338.65	95.69
338.878	90.69
339.106	90.69
339.334	96.69
339.562	98.69
339.79	82.69
340.018	102.69
340.246	94.69
340.474	115.69
340.702	82.69
340.93	104.69
341.158	111.69
341.386	104.69
341.614	87.69
341.842	102.69
342.07	82.69
342.298	91.69
342.526	89.69
342.754	112.69
342.981	97.69
343.209	78.69
343.437	97.69
343.665	99.69
343.893	101.69
344.12	86.69
344.348	79.69
344.576	77.69
344.804	96.69
345.031	93.69
345.259	95.69
345.487	97.69
345.714	99.69
345.942	99.69
346.17	94.69
346.397	98.69
346.625	94.69
346.853	99.69
347.08	98.69
347.308	93.69
347.535	94.69
347.763	86.69
347.99	90.69
348.218	95.69
348.445	111.69
348.673	105.69
348.9	107.69
349.128	77.69
349.355	93.69
349.583	98.69
349.81	86.69
350.037	95.69
350.265	98.69
350.492	91.69
350.72	89.69
350.947	96.69
351.174	99.69
351.402	114.69
351.629	109.69
351.856	93.69
352.083	102.69
352.311	114.69
352.538	100.69
352.765	103.69
352.992	101.69
353.22	100.69
353.447	98.69
353.674	100.69
353.901	92.69
354.128	95.69
354.355	98.69
354.583	111.69
354.81	101.69
355.037	89.69
355.264	104.69
355.491	83.69
355.718	88.69
355.945	90.69
356.172	96.69
356.399	107.69
356.626	98.69
356.853	85.69
357.08	73.69
357.307	97.69
357.534	83.69
357.761	92.69
357.988	102.69
358.215	102.69
358.441	102.69
358.668	85.69
358.895	77.69
359.122	85.69
359.349	75.69
359.576	107.69
359.802	106.69
360.029	129.69
360.256	107.69
360.483	103.69
360.709	95.69
360.936	110.69
361.163	63.69
361.39	97.69
361.616	76.69
361.843	95.69
362.07	97.69
362.296	100.69
362.523	82.69
362.749	83.69
362.976	87.69
363.203	110.69
363.429	93.69
363.656	79.69
363.882	82.69
364.109	94.69
364.335	90.69
364.562	104.69
364.788	85.69
365.015	97.69
365.241	96.69
365.468	89.69
365.694	99.69
365.92	88.69
366.147	95.69
366.373	108.69
366.599	87.69
366.826	91.69
367.052	102.69
367.278	93.69
367.505	105.69
367.731	108.69
367.957	95.69
368.184	95.69
368.41	107.69
368.636	110.69
368.862	121.69
369.089	101.69
369.315	94.69
369.541	99.69
369.767	98.69
369.993	81.69
370.219	97.69
370.445	87.69
370.672	89.69
370.898	108.69
371.124	94.69
371.35	88.69
371.576	78.69
371.802	86.69
372.028	94.69
372.254	92.69
372.48	79.69
372.706	89.69
372.932	93.69
373.158	99.69
373.384	103.69
373.61	91.69
373.835	94.69
374.061	88.69
374.287	91.69
374.513	74.69
374.739	86.69
374.965	94.69
375.191	93.69
375.416	84.69
375.642	88.69
375.868	96.69
376.094	95.69
376.319	96.69
376.545	87.69
376.771	90.69
376.997	105.69
377.222	97.69
377.448	96.69
377.674	93.69
377.899	103.69
378.125	83.69
378.35	86.69
378.576	93.69
378.802	91.69
379.027	89.69
379.253	96.69
379.478	76.69
379.704	106.69
379.929	90.69
380.155	88.69
380.38	84.69
380.606	107.69
380.831	87.69
381.057	106.69
381.282	96.69
381.507	84.69
381.733	90.69
381.958	98.69
382.184	113.69
382.409	88.69
382.634	95.69
382.86	115.69
383.085	105.69
383.31	99.69
383.535	89.69
383.761	105.69
383.986	114.69
384.211	103.69
384.436	101.69
384.662	85.69
384.887	94.69
385.112	96.69
385.337	92.69
385.562	122.69
385.787	116.69
386.013	113.69
386.238	122.69
386.463	108.69
386.688	115.69
386.913	108.69
387.138	107.69
387.363	102.69
387.588	106.69
387.813	111.69
388.038	119.69
388.263	113.69
388.488	115.69
388.713	109.69
388.938	94.69
389.163	78.69
389.387	108.69
389.612	102.69
389.837	104.69
390.062	85.69
390.287	81.69
390.512	89.69
390.736	84.69
390.961	106.69
391.186	92.69
391.411	98.69
391.636	85.69
391.86	88.69
392.085	90.69
392.31	93.69
392.534	104.69
392.759	91.69
392.984	92.69
393.208	93.69
393.433	94.69
393.658	98.69
393.882	93.69
394.107	89.69
394.331	93.69
394.556	79.69
394.78	79.69
395.005	85.69
395.229	82.69
395.454	94.69
395.678	81.69
395.903	104.69
396.127	102.69
396.352	102.69
396.576	90.69
396.801	91.69
397.025	90.69
397.249	77.69
397.474	96.69
397.698	95.69
397.922	95.69
398.147	90.69
398.371	88.69
398.595	86.69
398.82	94.69
399.044	87.69
399.268	85.69
399.492	81.69
399.717	91.69
399.941	87.69
400.165	89.69
400.389	77.69
400.613	80.69
400.837	99.69
401.062	82.69
401.286	95.69
401.51	99.69
401.734	94.69
401.958	105.69
402.182	130.69
402.406	137.69
402.63	129.69
402.854	75.69
403.078	89.69
403.302	88.69
403.526	78.69
403.75	94.69
403.974	85.69
404.198	82.69
404.422	77.69
404.645	86.69
404.869	97.69
405.093	93.69
405.317	85.69
405.541	94.69
405.765	107.69
405.988	120.69
406.212	164.69
406.436	205.69
406.66	137.69
406.883	99.69
407.107	95.69
407.331	95.69
407.555	94.69
407.778	107.69
408.002	90.69
408.226	88.69
408.449	74.69
408.673	86.69
408.896	107.69
409.12	89.69
409.344	93.69
409.567	97.69
409.791	97.69
410.014	95.69
410.238	97.69
410.461	73.69
410.685	103.69
410.908	101.69
411.132	108.69
411.355	102.69
411.578	105.69
411.802	83.69
412.025	81.69
412.249	91.69
412.472	95.69
412.695	103.69
412.919	92.69
413.142	97.69
413.365	89.69
413.589	83.69
413.812	78.69
414.035	101.69
414.258	96.69
414.482	106.69
414.705	85.69
414.928	90.69
415.151	99.69
415.374	100.69
415.597	89.69
415.821	87.69
416.044	77.69
416.267	94.69
416.49	96.69
416.713	90.69
416.936	94.69
417.159	92.69
417.382	91.69
417.605	89.69
417.828	101.69
418.051	94.69
418.274	88.69
418.497	107.69
418.72	87.69
418.943	83.69
419.166	76.69
419.389	95.69
419.611	87.69
419.834	89.69
420.057	79.69
420.28	91.69
420.503	80.69
420.726	105.69
420.948	92.69
421.171	101.69
421.394	86.69
421.617	98.69
421.839	81.69
422.062	83.69
422.285	89.69
422.507	99.69
422.73	106.69
422.953	82.69
423.175	93.69
423.398	90.69
423.621	100.69
423.843	87.69
424.066	86.69
424.288	84.69
424.511	89.69
424.733	105.69
424.956	117.69
425.178	110.69
425.401	93.69
425.623	99.69
425.846	116.69
426.068	99.69
426.291	98.69
426.513	80.69
426.735	96.69
426.958	84.69
427.18	118.69
427.402	123.69
427.625	157.69
427.847	126.69
428.069	98.69
428.292	97.69
428.514	82.69
428.736	88.69
428.958	87.69
429.181	92.69
429.403	88.69
429.625	81.69
429.847	78.69
430.069	93.69
430.292	78.69
430.514	90.69
430.736	98.69
430.958	99.69
431.18	79.69
431.402	83.69
431.624	96.69
431.846	77.69
432.068	87.69
432.29	71.69
432.512	81.69
432.734	90.69
432.956	83.69
433.178	106.69
433.4	101.69
433.622	97.69
433.844	97.69
434.066	102.69
434.287	93.69
434.509	98.69
434.731	93.69
434.953	87.69
435.175	85.69
435.397	90.69
435.618	110.69
435.84	100.69
436.062	116.69
436.284	113.69
436.505	95.69
436.727	106.69
436.949	108.69
437.17	78.69
437.392	101.69
437.614	105.69
437.835	97.69
438.057	126.69
438.278	105.69
438.5	99.69
438.721	118.69
438.943	99.69
439.165	98.69
439.386	70.69
439.608	91.69
439.829	104.69
440.05	129.69
440.272	145.69
440.493	115.69
440.715	89.69
440.936	94.69
441.158	91.69
441.379	87.69
441.6	94.69
441.822	92.69
442.043	87.69
442.264	96.69
442.486	97.69
442.707	106.69
442.928	104.69
443.149	115.69
443.371	121.69
443.592	95.69
443.813	116.69
444.034	101.69
444.255	93.69
444.476	94.69
444.698	81.69
444.919	86.69
445.14	134.69
445.361	109.69
445.582	112.69
445.803	137.69
446.024	126.69
446.245	130.69
446.466	92.69
446.687	84.69
446.908	96.69
447.129	83.69
447.35	85.69
447.571	99.69
447.792	96.69
448.013	95.69
448.234	105.69
448.455	98.69
448.675	102.69
448.896	117.69
449.117	101.69
449.338	108.69
449.559	120.69
449.779	122.69
450	90.69
450.221	86.69
450.442	92.69
450.662	105.69
450.883	106.69
451.104	113.69
451.324	97.69
451.545	86.69
451.766	84.69
451.986	83.69
452.207	93.69
452.428	97.69
452.648	85.69
452.869	120.69
453.089	103.69
453.31	106.69
453.53	99.69
453.751	103.69
453.971	103.69
454.192	111.69
454.412	95.69
454.633	90.69
454.853	82.69
455.073	107.69
455.294	83.69
455.514	103.69
455.734	91.69
455.955	92.69
456.175	82.69
456.395	89.69
456.616	83.69
456.836	79.69
457.056	72.69
457.276	85.69
457.497	87.69
457.717	80.69
457.937	89.69
458.157	85.69
458.377	100.69
458.598	117.69
458.818	149.69
459.038	136.69
459.258	110.69
459.478	91.69
459.698	68.69
459.918	76.69
460.138	79.69
460.358	97.69
460.578	93.69
460.798	78.69
461.018	93.69
461.238	93.69
461.458	84.69
461.678	83.69
461.898	84.69
462.118	81.69
462.338	91.69
462.558	85.69
462.777	90.69
462.997	97.69
463.217	89.69
463.437	83.69
463.657	85.69
463.876	95.69
464.096	99.69
464.316	102.69
464.536	92.69
464.755	93.69
464.975	102.69
465.195	152.69
465.414	155.69
465.634	90.69
465.854	92.69
466.073	77.69
466.293	76.69
466.512	90.69
466.732	83.69
466.951	95.69
467.171	92.69
467.391	90.69
467.61	105.69
467.829	93.69
468.049	77.69
468.268	84.69
468.488	97.69
468.707	93.69
468.927	94.69
469.146	88.69
469.365	99.69
469.585	77.69
469.804	94.69
470.023	93.69
470.243	88.69
470.462	93.69
470.681	98.69
470.901	81.69
471.12	90.69
471.339	90.69
471.558	79.69
471.777	86.69
471.997	108.69
472.216	95.69
472.435	79.69
472.654	85.69
472.873	82.69
473.092	95.69
473.311	76.69
473.53	90.69
473.749	88.69
473.968	94.69
474.187	103.69
474.406	113.69
474.625	94.69
474.844	80.69
475.063	95.69
475.282	73.69
475.501	81.69
475.72	97.69
475.939	89.69
476.158	73.69
476.377	86.69
476.596	78.69
476.814	81.69
477.033	86.69
477.252	86.69
477.471	100.69
477.69	86.69
477.908	89.69
478.127	96.69
478.346	75.69
478.564	85.69
478.783	96.69
479.002	88.69
479.22	86.69
479.439	107.69
479.658	101.69
479.876	87.69
480.095	89.69
480.313	82.69
480.532	95.69
480.751	90.69
480.969	78.69
481.188	99.69
481.406	101.69
481.624	97.69
481.843	94.69
482.061	94.69
482.28	85.69
482.498	76.69
482.717	94.69
482.935	90.69
483.153	95.69
483.372	90.69
483.59	80.69
483.808	86.69
484.027	97.69
484.245	102.69
484.463	92.69
484.681	91.69
484.9	81.69
485.118	90.69
485.336	93.69
485.554	85.69
485.772	94.69
485.99	92.69
486.209	102.69
486.427	91.69
486.645	84.69
486.863	95.69
487.081	90.69
487.299	95.69
487.517	80.69
487.735	89.69
487.953	102.69
488.171	92.69
488.389	97.69
488.607	90.69
488.825	93.69
489.043	103.69
489.261	93.69
489.479	93.69
489.696	93.69
489.914	92.69
490.132	93.69
490.35	89.69
490.568	93.69
490.786	78.69
491.003	91.69
491.221	85.69
491.439	96.69
491.657	89.69
491.874	92.69
492.092	99.69
492.31	85.69
492.527	87.69
492.745	84.69
492.963	88.69
493.18	87.69
493.398	100.69
493.615	87.69
493.833	88.69
494.05	90.69
494.268	91.69
494.485	106.69
494.703	80.69
494.92	89.69
495.138	95.69
495.355	94.69
495.573	98.69
495.79	94.69
496.008	85.69
496.225	105.69
496.442	94.69
496.66	102.69
496.877	98.69
497.094	99.69
497.312	109.69
497.529	89.69
497.746	103.69
497.963	100.69
498.181	97.69
498.398	84.69
498.615	95.69
498.832	118.69
499.049	93.69
499.267	91.69
499.484	92.69
499.701	96.69
499.918	95.69
500.135	87.69
500.352	97.69
500.569	93.69
500.786	91.69
501.003	97.69
501.22	117.69
501.437	101.69
501.654	99.69
501.871	108.69
502.088	104.69
502.305	94.69
502.522	86.69
502.739	95.69
502.956	103.69
503.172	93.69
503.389	82.69
503.606	100.69
503.823	99.69
504.04	85.69
504.256	93.69
504.473	89.69
504.69	84.69
504.907	91.69
505.123	94.69
505.34	96.69
505.557	108.69
505.773	105.69
505.99	105.69
506.207	95.69
506.423	94.69
506.64	90.69
506.856	101.69
507.073	94.69
507.289	107.69
507.506	101.69
507.722	110.69
507.939	124.69
508.155	89.69
508.372	104.69
508.588	81.69
508.805	88.69
509.021	87.69
509.238	102.69
509.454	86.69
509.67	101.69
509.887	109.69
510.103	129.69
510.319	223.69
510.536	728.69
510.752	2253.69
510.968	634.69
511.184	153.69
511.401	94.69
511.617	91.69
511.833	83.69
512.049	94.69
512.265	82.69
512.481	100.69
512.698	92.69
512.914	93.69
513.13	79.69
513.346	87.69
513.562	91.69
513.778	86.69
513.994	101.69
514.21	100.69
514.426	124.69
514.642	133.69
514.858	133.69
515.074	147.69
515.29	422.69
