Data from Uncirc_2001_H10_HRD10591_00039.txt Node
Date: Wed Jan 03 10:44:04 EST 2024
User: Yrep
Spectrometer: HR+D1059
Trigger mode: 1
Integration Time (sec): 1.000000E-1
Scans to average: 1
Electric dark correction enabled: true
Nonlinearity correction enabled: false
Boxcar width: 0
XAxis mode: Wavelengths
Number of Pixels in Spectrum: 2048
>>>>>Begin Spectral Data<<<<<
223.165	-20.19
223.4	-20.19
223.635	-20.19
223.869	-19.19
224.104	-20.19
224.338	-10.19
224.573	-9.19
224.808	-1.19
225.042	-19.19
225.277	-8.19
225.511	-1.19
225.746	-5.19
225.98	10.81
226.215	23.81
226.449	13.81
226.683	14.81
226.918	31.81
227.152	18.81
227.387	36.81
227.621	35.81
227.856	48.81
228.09	31.81
228.324	37.81
228.559	59.81
228.793	60.81
229.027	65.81
229.262	50.81
229.496	76.81
229.73	75.81
229.964	89.81
230.199	81.81
230.433	88.81
230.667	82.81
230.901	78.81
231.136	74.81
231.37	83.81
231.604	80.81
231.838	78.81
232.072	78.81
232.306	73.81
232.541	82.81
232.775	89.81
233.009	78.81
233.243	84.81
233.477	76.81
233.711	88.81
233.945	74.81
234.179	82.81
234.413	83.81
234.647	96.81
234.881	81.81
235.115	79.81
235.349	77.81
235.583	81.81
235.817	84.81
236.051	86.81
236.285	70.81
236.519	74.81
236.753	77.81
236.987	78.81
237.221	97.81
237.455	83.81
237.689	79.81
237.922	81.81
238.156	72.81
238.39	84.81
238.624	87.81
238.858	78.81
239.091	73.81
239.325	79.81
239.559	84.81
239.793	90.81
240.027	94.81
240.26	70.81
240.494	73.81
240.728	70.81
240.961	81.81
241.195	87.81
241.429	76.81
241.662	88.81
241.896	79.81
242.13	70.81
242.363	77.81
242.597	75.81
242.83	85.81
243.064	80.81
243.298	77.81
243.531	65.81
243.765	63.81
243.998	72.81
244.232	77.81
244.465	71.81
244.699	67.81
244.932	65.81
245.166	76.81
245.399	81.81
245.633	75.81
245.866	84.81
246.099	87.81
246.333	70.81
246.566	81.81
246.8	81.81
247.033	82.81
247.266	81.81
247.5	77.81
247.733	84.81
247.966	77.81
248.2	76.81
248.433	88.81
248.666	87.81
248.899	80.81
249.133	84.81
249.366	82.81
249.599	96.81
249.832	82.81
250.066	74.81
250.299	73.81
250.532	77.81
250.765	88.81
250.998	85.81
251.231	81.81
251.465	90.81
251.698	79.81
251.931	89.81
252.164	90.81
252.397	91.81
252.63	88.81
252.863	65.81
253.096	73.81
253.329	61.81
253.562	82.81
253.795	83.81
254.028	93.81
254.261	78.81
254.494	94.81
254.727	90.81
254.96	83.81
255.193	68.81
255.426	73.81
255.659	72.81
255.892	77.81
256.124	83.81
256.357	74.81
256.59	71.81
256.823	81.81
257.056	84.81
257.289	76.81
257.521	99.81
257.754	86.81
257.987	79.81
258.22	94.81
258.452	79.81
258.685	90.81
258.918	76.81
259.151	71.81
259.383	83.81
259.616	72.81
259.849	76.81
260.081	85.81
260.314	87.81
260.547	89.81
260.779	88.81
261.012	86.81
261.244	81.81
261.477	106.81
261.71	92.81
261.942	98.81
262.175	102.81
262.407	86.81
262.64	93.81
262.872	100.81
263.105	85.81
263.337	83.81
263.57	75.81
263.802	77.81
264.035	85.81
264.267	94.81
264.499	88.81
264.732	78.81
264.964	77.81
265.197	84.81
265.429	76.81
265.661	83.81
265.894	80.81
266.126	83.81
266.358	91.81
266.591	86.81
266.823	94.81
267.055	90.81
267.287	101.81
267.52	76.81
267.752	82.81
267.984	90.81
268.216	80.81
268.448	77.81
268.681	91.81
268.913	91.81
269.145	80.81
269.377	83.81
269.609	79.81
269.841	89.81
270.073	80.81
270.306	94.81
270.538	93.81
270.77	68.81
271.002	100.81
271.234	104.81
271.466	92.81
271.698	94.81
271.93	104.81
272.162	87.81
272.394	94.81
272.626	90.81
272.858	94.81
273.09	94.81
273.322	90.81
273.553	89.81
273.785	87.81
274.017	80.81
274.249	75.81
274.481	77.81
274.713	92.81
274.945	98.81
275.176	92.81
275.408	78.81
275.64	81.81
275.872	91.81
276.104	80.81
276.335	97.81
276.567	99.81
276.799	111.81
277.031	105.81
277.262	93.81
277.494	87.81
277.726	80.81
277.957	83.81
278.189	96.81
278.421	93.81
278.652	80.81
278.884	84.81
279.115	98.81
279.347	82.81
279.579	97.81
279.81	78.81
280.042	92.81
280.273	85.81
280.505	90.81
280.736	94.81
280.968	81.81
281.199	101.81
281.431	97.81
281.662	97.81
281.894	80.81
282.125	92.81
282.356	114.81
282.588	141.81
282.819	113.81
283.051	91.81
283.282	83.81
283.513	80.81
283.745	93.81
283.976	78.81
284.207	93.81
284.439	79.81
284.67	72.81
284.901	83.81
285.132	72.81
285.364	101.81
285.595	94.81
285.826	71.81
286.057	80.81
286.288	94.81
286.52	84.81
286.751	96.81
286.982	100.81
287.213	74.81
287.444	82.81
287.675	80.81
287.906	84.81
288.138	85.81
288.369	106.81
288.6	99.81
288.831	98.81
289.062	94.81
289.293	82.81
289.524	93.81
289.755	67.81
289.986	99.81
290.217	87.81
290.448	98.81
290.679	98.81
290.91	90.81
291.141	73.81
291.371	94.81
291.602	77.81
291.833	106.81
292.064	95.81
292.295	88.81
292.526	94.81
292.757	84.81
292.987	82.81
293.218	89.81
293.449	95.81
293.68	101.81
293.91	90.81
294.141	92.81
294.372	94.81
294.603	94.81
294.833	89.81
295.064	88.81
295.295	85.81
295.525	87.81
295.756	93.81
295.987	110.81
296.217	138.81
296.448	107.81
296.679	104.81
296.909	91.81
297.14	89.81
297.37	80.81
297.601	94.81
297.831	94.81
298.062	84.81
298.292	83.81
298.523	98.81
298.753	105.81
298.984	83.81
299.214	88.81
299.445	92.81
299.675	86.81
299.905	86.81
300.136	100.81
300.366	84.81
300.597	96.81
300.827	86.81
301.057	110.81
301.288	88.81
301.518	86.81
301.748	91.81
301.979	102.81
302.209	84.81
302.439	99.81
302.669	82.81
302.9	86.81
303.13	90.81
303.36	100.81
303.59	105.81
303.82	106.81
304.051	100.81
304.281	86.81
304.511	98.81
304.741	110.81
304.971	91.81
305.201	102.81
305.431	85.81
305.661	90.81
305.891	91.81
306.121	90.81
306.352	106.81
306.582	104.81
306.812	107.81
307.042	97.81
307.272	93.81
307.502	92.81
307.731	89.81
307.961	97.81
308.191	101.81
308.421	100.81
308.651	86.81
308.881	87.81
309.111	96.81
309.341	97.81
309.571	96.81
309.8	104.81
310.03	119.81
310.26	88.81
310.49	102.81
310.72	88.81
310.949	98.81
311.179	102.81
311.409	104.81
311.639	94.81
311.868	118.81
312.098	94.81
312.328	99.81
312.557	98.81
312.787	108.81
313.017	89.81
313.246	90.81
313.476	83.81
313.706	82.81
313.935	99.81
314.165	83.81
314.394	102.81
314.624	96.81
314.853	100.81
315.083	96.81
315.312	100.81
315.542	81.81
315.771	88.81
316.001	76.81
316.23	99.81
316.46	95.81
316.689	112.81
316.919	102.81
317.148	105.81
317.377	90.81
317.607	85.81
317.836	99.81
318.065	99.81
318.295	84.81
318.524	88.81
318.753	88.81
318.983	89.81
319.212	108.81
319.441	111.81
319.67	102.81
319.9	88.81
320.129	91.81
320.358	102.81
320.587	94.81
320.816	94.81
321.046	103.81
321.275	100.81
321.504	91.81
321.733	103.81
321.962	100.81
322.191	97.81
322.42	106.81
322.649	104.81
322.878	106.81
323.108	130.81
323.337	117.81
323.566	128.81
323.795	144.81
324.024	199.81
324.253	365.81
324.482	704.81
324.71	1410.81
324.939	1813.81
325.168	671.81
325.397	203.81
325.626	146.81
325.855	128.81
326.084	117.81
326.313	134.81
326.542	137.81
326.77	221.81
326.999	423.81
327.228	796.81
327.457	1433.81
327.686	1107.81
327.914	314.81
328.143	173.81
328.372	130.81
328.6	132.81
328.829	107.81
329.058	122.81
329.287	129.81
329.515	106.81
329.744	108.81
329.972	115.81
330.201	90.81
330.43	101.81
330.658	128.81
330.887	138.81
331.115	118.81
331.344	97.81
331.572	101.81
331.801	93.81
332.03	93.81
332.258	94.81
332.486	91.81
332.715	95.81
332.943	96.81
333.172	112.81
333.4	106.81
333.629	112.81
333.857	107.81
334.085	98.81
334.314	86.81
334.542	104.81
334.771	97.81
334.999	100.81
335.227	94.81
335.455	88.81
335.684	105.81
335.912	93.81
336.14	88.81
336.369	91.81
336.597	99.81
336.825	93.81
337.053	95.81
337.281	111.81
337.51	98.81
337.738	103.81
337.966	110.81
338.194	109.81
338.422	109.81
338.65	96.81
338.878	106.81
339.106	97.81
339.334	99.81
339.562	85.81
339.79	88.81
340.018	93.81
340.246	102.81
340.474	90.81
340.702	100.81
340.93	90.81
341.158	90.81
341.386	105.81
341.614	105.81
341.842	92.81
342.07	99.81
342.298	88.81
342.526	93.81
342.754	90.81
342.981	91.81
343.209	87.81
343.437	104.81
343.665	78.81
343.893	82.81
344.12	99.81
344.348	81.81
344.576	92.81
344.804	103.81
345.031	99.81
345.259	96.81
345.487	103.81
345.714	94.81
345.942	97.81
346.17	94.81
346.397	98.81
346.625	97.81
346.853	102.81
347.08	96.81
347.308	93.81
347.535	93.81
347.763	94.81
347.99	105.81
348.218	104.81
348.445	85.81
348.673	99.81
348.9	87.81
349.128	92.81
349.355	94.81
349.583	84.81
349.81	82.81
350.037	98.81
350.265	117.81
350.492	95.81
350.72	104.81
350.947	108.81
351.174	116.81
351.402	113.81
351.629	106.81
351.856	94.81
352.083	109.81
352.311	107.81
352.538	107.81
352.765	114.81
352.992	115.81
353.22	107.81
353.447	112.81
353.674	104.81
353.901	91.81
354.128	104.81
354.355	92.81
354.583	98.81
354.81	100.81
355.037	106.81
355.264	105.81
355.491	87.81
355.718	105.81
355.945	115.81
356.172	94.81
356.399	93.81
356.626	92.81
356.853	93.81
357.08	97.81
357.307	97.81
357.534	76.81
357.761	96.81
357.988	86.81
358.215	96.81
358.441	93.81
358.668	95.81
358.895	94.81
359.122	88.81
359.349	104.81
359.576	101.81
359.802	91.81
360.029	113.81
360.256	87.81
360.483	98.81
360.709	109.81
360.936	101.81
361.163	91.81
361.39	96.81
361.616	92.81
361.843	93.81
362.07	103.81
362.296	88.81
362.523	100.81
362.749	82.81
362.976	86.81
363.203	83.81
363.429	86.81
363.656	93.81
363.882	91.81
364.109	99.81
364.335	94.81
364.562	79.81
364.788	101.81
365.015	104.81
365.241	96.81
365.468	103.81
365.694	109.81
365.92	87.81
366.147	94.81
366.373	99.81
366.599	102.81
366.826	91.81
367.052	99.81
367.278	93.81
367.505	103.81
367.731	95.81
367.957	81.81
368.184	86.81
368.41	102.81
368.636	111.81
368.862	124.81
369.089	104.81
369.315	88.81
369.541	87.81
369.767	101.81
369.993	88.81
370.219	78.81
370.445	83.81
370.672	96.81
370.898	87.81
371.124	93.81
371.35	94.81
371.576	94.81
371.802	81.81
372.028	94.81
372.254	87.81
372.48	89.81
372.706	97.81
372.932	89.81
373.158	85.81
373.384	94.81
373.61	83.81
373.835	86.81
374.061	89.81
374.287	88.81
374.513	102.81
374.739	89.81
374.965	82.81
375.191	93.81
375.416	100.81
375.642	89.81
375.868	98.81
376.094	100.81
376.319	77.81
376.545	72.81
376.771	84.81
376.997	90.81
377.222	108.81
377.448	88.81
377.674	87.81
377.899	86.81
378.125	97.81
378.35	90.81
378.576	88.81
378.802	88.81
379.027	100.81
379.253	96.81
379.478	90.81
379.704	90.81
379.929	92.81
380.155	84.81
380.38	97.81
380.606	87.81
380.831	97.81
381.057	83.81
381.282	76.81
381.507	102.81
381.733	99.81
381.958	97.81
382.184	106.81
382.409	99.81
382.634	105.81
382.86	103.81
383.085	96.81
383.31	93.81
383.535	97.81
383.761	86.81
383.986	95.81
384.211	92.81
384.436	98.81
384.662	120.81
384.887	96.81
385.112	101.81
385.337	101.81
385.562	92.81
385.787	112.81
386.013	106.81
386.238	120.81
386.463	114.81
386.688	110.81
386.913	112.81
387.138	104.81
387.363	89.81
387.588	92.81
387.813	95.81
388.038	111.81
388.263	107.81
388.488	113.81
388.713	98.81
388.938	101.81
389.163	89.81
389.387	92.81
389.612	78.81
389.837	94.81
390.062	96.81
390.287	91.81
390.512	93.81
390.736	90.81
390.961	89.81
391.186	92.81
391.411	116.81
391.636	104.81
391.86	108.81
392.085	87.81
392.31	84.81
392.534	74.81
392.759	84.81
392.984	86.81
393.208	91.81
393.433	92.81
393.658	99.81
393.882	102.81
394.107	80.81
394.331	89.81
394.556	90.81
394.78	79.81
395.005	88.81
395.229	77.81
395.454	85.81
395.678	88.81
395.903	100.81
396.127	109.81
396.352	89.81
396.576	92.81
396.801	99.81
397.025	100.81
397.249	98.81
397.474	92.81
397.698	77.81
397.922	89.81
398.147	79.81
398.371	88.81
398.595	89.81
398.82	84.81
399.044	88.81
399.268	83.81
399.492	87.81
399.717	91.81
399.941	93.81
400.165	95.81
400.389	85.81
400.613	88.81
400.837	79.81
401.062	96.81
401.286	98.81
401.51	83.81
401.734	92.81
401.958	91.81
402.182	127.81
402.406	144.81
402.63	121.81
402.854	107.81
403.078	88.81
403.302	92.81
403.526	88.81
403.75	92.81
403.974	80.81
404.198	85.81
404.422	83.81
404.645	75.81
404.869	84.81
405.093	87.81
405.317	93.81
405.541	99.81
405.765	87.81
405.988	128.81
406.212	165.81
406.436	228.81
406.66	133.81
406.883	109.81
407.107	97.81
407.331	89.81
407.555	93.81
407.778	102.81
408.002	90.81
408.226	93.81
408.449	93.81
408.673	84.81
408.896	73.81
409.12	101.81
409.344	89.81
409.567	85.81
409.791	91.81
410.014	97.81
410.238	74.81
410.461	93.81
410.685	93.81
410.908	103.81
411.132	93.81
411.355	118.81
411.578	98.81
411.802	99.81
412.025	92.81
412.249	89.81
412.472	88.81
412.695	78.81
412.919	82.81
413.142	84.81
413.365	84.81
413.589	86.81
413.812	96.81
414.035	92.81
414.258	85.81
414.482	96.81
414.705	92.81
414.928	95.81
415.151	87.81
415.374	97.81
415.597	94.81
415.821	100.81
416.044	89.81
416.267	88.81
416.49	95.81
416.713	105.81
416.936	95.81
417.159	97.81
417.382	100.81
417.605	98.81
417.828	92.81
418.051	97.81
418.274	92.81
418.497	80.81
418.72	104.81
418.943	89.81
419.166	80.81
419.389	92.81
419.611	92.81
419.834	95.81
420.057	94.81
420.28	82.81
420.503	99.81
420.726	93.81
420.948	97.81
421.171	107.81
421.394	101.81
421.617	92.81
421.839	96.81
422.062	82.81
422.285	80.81
422.507	94.81
422.73	92.81
422.953	93.81
423.175	98.81
423.398	88.81
423.621	86.81
423.843	97.81
424.066	93.81
424.288	87.81
424.511	102.81
424.733	97.81
424.956	105.81
425.178	98.81
425.401	95.81
425.623	98.81
425.846	86.81
426.068	72.81
426.291	93.81
426.513	101.81
426.735	82.81
426.958	100.81
427.18	98.81
427.402	132.81
427.625	156.81
427.847	131.81
428.069	99.81
428.292	98.81
428.514	95.81
428.736	95.81
428.958	82.81
429.181	76.81
429.403	87.81
429.625	88.81
429.847	98.81
430.069	93.81
430.292	86.81
430.514	84.81
430.736	91.81
430.958	72.81
431.18	100.81
431.402	95.81
431.624	60.81
431.846	77.81
432.068	85.81
432.29	83.81
432.512	98.81
432.734	78.81
432.956	107.81
433.178	101.81
433.4	88.81
433.622	81.81
433.844	90.81
434.066	91.81
434.287	89.81
434.509	101.81
434.731	93.81
434.953	84.81
435.175	92.81
435.397	87.81
435.618	87.81
435.84	105.81
436.062	124.81
436.284	114.81
436.505	98.81
436.727	103.81
436.949	101.81
437.17	85.81
437.392	81.81
437.614	79.81
437.835	96.81
438.057	124.81
438.278	97.81
438.5	108.81
438.721	105.81
438.943	97.81
439.165	73.81
439.386	98.81
439.608	85.81
439.829	107.81
440.05	117.81
440.272	142.81
440.493	100.81
440.715	98.81
440.936	88.81
441.158	72.81
441.379	92.81
441.6	98.81
441.822	100.81
442.043	98.81
442.264	114.81
442.486	100.81
442.707	90.81
442.928	106.81
443.149	119.81
443.371	128.81
443.592	109.81
443.813	103.81
444.034	100.81
444.255	104.81
444.476	83.81
444.698	81.81
444.919	92.81
445.14	113.81
445.361	113.81
445.582	119.81
445.803	135.81
446.024	130.81
446.245	136.81
446.466	105.81
446.687	94.81
446.908	87.81
447.129	84.81
447.35	87.81
447.571	97.81
447.792	95.81
448.013	109.81
448.234	101.81
448.455	103.81
448.675	109.81
448.896	124.81
449.117	103.81
449.338	104.81
449.559	116.81
449.779	128.81
450	93.81
450.221	91.81
450.442	92.81
450.662	93.81
450.883	105.81
451.104	106.81
451.324	94.81
451.545	84.81
451.766	73.81
451.986	81.81
452.207	100.81
452.428	101.81
452.648	98.81
452.869	110.81
453.089	121.81
453.31	118.81
453.53	102.81
453.751	95.81
453.971	98.81
454.192	116.81
454.412	92.81
454.633	87.81
454.853	93.81
455.073	89.81
455.294	94.81
455.514	105.81
455.734	89.81
455.955	73.81
456.175	86.81
456.395	101.81
456.616	99.81
456.836	78.81
457.056	84.81
457.276	88.81
457.497	80.81
457.717	94.81
457.937	90.81
458.157	89.81
458.377	98.81
458.598	102.81
458.818	141.81
459.038	153.81
459.258	106.81
459.478	94.81
459.698	93.81
459.918	96.81
460.138	69.81
460.358	92.81
460.578	81.81
460.798	101.81
461.018	86.81
461.238	91.81
461.458	86.81
461.678	87.81
461.898	95.81
462.118	81.81
462.338	90.81
462.558	76.81
462.777	82.81
462.997	86.81
463.217	101.81
463.437	88.81
463.657	96.81
463.876	86.81
464.096	80.81
464.316	86.81
464.536	75.81
464.755	93.81
464.975	107.81
465.195	168.81
465.414	163.81
465.634	102.81
465.854	84.81
466.073	89.81
466.293	93.81
466.512	85.81
466.732	76.81
466.951	94.81
467.171	85.81
467.391	105.81
467.61	107.81
467.829	90.81
468.049	87.81
468.268	74.81
468.488	80.81
468.707	82.81
468.927	86.81
469.146	85.81
469.365	89.81
469.585	77.81
469.804	102.81
470.023	93.81
470.243	90.81
470.462	102.81
470.681	117.81
470.901	93.81
471.12	89.81
471.339	88.81
471.558	83.81
471.777	82.81
471.997	92.81
472.216	84.81
472.435	94.81
472.654	83.81
472.873	92.81
473.092	74.81
473.311	85.81
473.53	80.81
473.749	89.81
473.968	89.81
474.187	104.81
474.406	104.81
474.625	82.81
474.844	82.81
475.063	95.81
475.282	104.81
475.501	93.81
475.72	90.81
475.939	89.81
476.158	91.81
476.377	76.81
476.596	96.81
476.814	105.81
477.033	89.81
477.252	86.81
477.471	95.81
477.69	83.81
477.908	87.81
478.127	93.81
478.346	99.81
478.564	93.81
478.783	104.81
479.002	99.81
479.22	91.81
479.439	98.81
479.658	105.81
479.876	84.81
480.095	82.81
480.313	102.81
480.532	89.81
480.751	100.81
480.969	96.81
481.188	93.81
481.406	84.81
481.624	95.81
481.843	91.81
482.061	89.81
482.28	74.81
482.498	97.81
482.717	80.81
482.935	94.81
483.153	93.81
483.372	100.81
483.59	93.81
483.808	91.81
484.027	100.81
484.245	85.81
484.463	87.81
484.681	88.81
484.9	102.81
485.118	88.81
485.336	93.81
485.554	86.81
485.772	96.81
485.99	92.81
486.209	111.81
486.427	93.81
486.645	111.81
486.863	100.81
487.081	101.81
487.299	93.81
487.517	91.81
487.735	101.81
487.953	99.81
488.171	90.81
488.389	89.81
488.607	113.81
488.825	103.81
489.043	97.81
489.261	90.81
489.479	91.81
489.696	97.81
489.914	80.81
490.132	86.81
490.35	95.81
490.568	87.81
490.786	91.81
491.003	88.81
491.221	84.81
491.439	89.81
491.657	107.81
491.874	89.81
492.092	84.81
492.31	91.81
492.527	88.81
492.745	89.81
492.963	82.81
493.18	82.81
493.398	86.81
493.615	87.81
493.833	103.81
494.05	93.81
494.268	95.81
494.485	81.81
494.703	72.81
494.92	83.81
495.138	89.81
495.355	88.81
495.573	78.81
495.79	94.81
496.008	88.81
496.225	104.81
496.442	94.81
496.66	85.81
496.877	95.81
497.094	85.81
497.312	94.81
497.529	86.81
497.746	80.81
497.963	88.81
498.181	94.81
498.398	99.81
498.615	111.81
498.832	94.81
499.049	94.81
499.267	101.81
499.484	92.81
499.701	96.81
499.918	99.81
500.135	91.81
500.352	87.81
500.569	94.81
500.786	91.81
501.003	102.81
501.22	92.81
501.437	82.81
501.654	100.81
501.871	107.81
502.088	101.81
502.305	93.81
502.522	106.81
502.739	91.81
502.956	97.81
503.172	91.81
503.389	105.81
503.606	109.81
503.823	80.81
504.04	91.81
504.256	90.81
504.473	91.81
504.69	87.81
504.907	98.81
505.123	100.81
505.34	94.81
505.557	93.81
505.773	102.81
505.99	83.81
506.207	108.81
506.423	87.81
506.64	86.81
506.856	90.81
507.073	85.81
507.289	88.81
507.506	92.81
507.722	108.81
507.939	112.81
508.155	100.81
508.372	86.81
508.588	99.81
508.805	87.81
509.021	102.81
509.238	91.81
509.454	93.81
509.67	88.81
509.887	101.81
510.103	122.81
510.319	233.81
510.536	748.81
510.752	2294.81
510.968	631.81
511.184	151.81
511.401	104.81
511.617	103.81
511.833	82.81
512.049	89.81
512.265	86.81
512.481	85.81
512.698	104.81
512.914	95.81
513.13	95.81
513.346	90.81
513.562	93.81
513.778	106.81
513.994	102.81
514.21	108.81
514.426	121.81
514.642	123.81
514.858	125.81
515.074	162.81
515.29	427.81
