Data from Uncirc_2001_H10_HRD10591_00002.txt Node
Date: Wed Jan 03 10:43:57 EST 2024
User: Yrep
Spectrometer: HR+D1059
Trigger mode: 1
Integration Time (sec): 1.000000E-1
Scans to average: 1
Electric dark correction enabled: true
Nonlinearity correction enabled: false
Boxcar width: 0
XAxis mode: Wavelengths
Number of Pixels in Spectrum: 2048
>>>>>Begin Spectral Data<<<<<
223.165	-23.94
223.4	-23.94
223.635	-23.94
223.869	-11.94
224.104	-6.94
224.338	-14.94
224.573	-37.94
224.808	-15.94
225.042	-2.94
225.277	5.06
225.511	6.06
225.746	2.06
225.98	12.06
226.215	0.06
226.449	7.06
226.683	14.06
226.918	30.06
227.152	38.06
227.387	36.06
227.621	40.06
227.856	49.06
228.09	55.06
228.324	49.06
228.559	56.06
228.793	55.06
229.027	70.06
229.262	61.06
229.496	65.06
229.73	76.06
229.964	88.06
230.199	67.06
230.433	68.06
230.667	69.06
230.901	70.06
231.136	73.06
231.37	91.06
231.604	87.06
231.838	74.06
232.072	102.06
232.306	68.06
232.541	87.06
232.775	84.06
233.009	76.06
233.243	98.06
233.477	96.06
233.711	77.06
233.945	92.06
234.179	92.06
234.413	84.06
234.647	77.06
234.881	76.06
235.115	85.06
235.349	73.06
235.583	87.06
235.817	81.06
236.051	65.06
236.285	78.06
236.519	92.06
236.753	75.06
236.987	80.06
237.221	83.06
237.455	78.06
237.689	77.06
237.922	72.06
238.156	75.06
238.39	80.06
238.624	70.06
238.858	68.06
239.091	73.06
239.325	85.06
239.559	78.06
239.793	73.06
240.027	76.06
240.26	83.06
240.494	71.06
240.728	66.06
240.961	76.06
241.195	78.06
241.429	82.06
241.662	75.06
241.896	64.06
242.13	64.06
242.363	69.06
242.597	70.06
242.83	85.06
243.064	81.06
243.298	73.06
243.531	77.06
243.765	88.06
243.998	88.06
244.232	92.06
244.465	91.06
244.699	77.06
244.932	80.06
245.166	78.06
245.399	73.06
245.633	81.06
245.866	72.06
246.099	71.06
246.333	91.06
246.566	84.06
246.8	72.06
247.033	73.06
247.266	77.06
247.5	89.06
247.733	86.06
247.966	81.06
248.2	85.06
248.433	82.06
248.666	88.06
248.899	86.06
249.133	72.06
249.366	84.06
249.599	77.06
249.832	86.06
250.066	84.06
250.299	73.06
250.532	85.06
250.765	91.06
250.998	71.06
251.231	73.06
251.465	76.06
251.698	92.06
251.931	75.06
252.164	84.06
252.397	66.06
252.63	66.06
252.863	67.06
253.096	77.06
253.329	84.06
253.562	82.06
253.795	85.06
254.028	78.06
254.261	77.06
254.494	77.06
254.727	81.06
254.96	75.06
255.193	83.06
255.426	69.06
255.659	81.06
255.892	74.06
256.124	77.06
256.357	77.06
256.59	81.06
256.823	85.06
257.056	74.06
257.289	67.06
257.521	68.06
257.754	81.06
257.987	75.06
258.22	85.06
258.452	91.06
258.685	84.06
258.918	79.06
259.151	76.06
259.383	83.06
259.616	84.06
259.849	89.06
260.081	90.06
260.314	81.06
260.547	87.06
260.779	93.06
261.012	87.06
261.244	90.06
261.477	93.06
261.71	84.06
261.942	85.06
262.175	107.06
262.407	92.06
262.64	72.06
262.872	83.06
263.105	87.06
263.337	91.06
263.57	90.06
263.802	93.06
264.035	87.06
264.267	85.06
264.499	94.06
264.732	85.06
264.964	68.06
265.197	86.06
265.429	77.06
265.661	84.06
265.894	82.06
266.126	89.06
266.358	88.06
266.591	72.06
266.823	91.06
267.055	83.06
267.287	81.06
267.52	92.06
267.752	71.06
267.984	77.06
268.216	78.06
268.448	87.06
268.681	82.06
268.913	101.06
269.145	83.06
269.377	82.06
269.609	81.06
269.841	74.06
270.073	94.06
270.306	81.06
270.538	85.06
270.77	82.06
271.002	78.06
271.234	99.06
271.466	74.06
271.698	77.06
271.93	85.06
272.162	89.06
272.394	84.06
272.626	89.06
272.858	78.06
273.09	83.06
273.322	78.06
273.553	88.06
273.785	88.06
274.017	99.06
274.249	105.06
274.481	85.06
274.713	83.06
274.945	109.06
275.176	78.06
275.408	81.06
275.64	89.06
275.872	78.06
276.104	83.06
276.335	75.06
276.567	89.06
276.799	93.06
277.031	89.06
277.262	69.06
277.494	79.06
277.726	75.06
277.957	91.06
278.189	100.06
278.421	94.06
278.652	80.06
278.884	82.06
279.115	94.06
279.347	86.06
279.579	72.06
279.81	78.06
280.042	89.06
280.273	88.06
280.505	82.06
280.736	84.06
280.968	74.06
281.199	79.06
281.431	81.06
281.662	93.06
281.894	72.06
282.125	98.06
282.356	104.06
282.588	97.06
282.819	93.06
283.051	89.06
283.282	97.06
283.513	82.06
283.745	88.06
283.976	76.06
284.207	84.06
284.439	89.06
284.67	96.06
284.901	80.06
285.132	90.06
285.364	82.06
285.595	92.06
285.826	76.06
286.057	91.06
286.288	81.06
286.52	88.06
286.751	81.06
286.982	91.06
287.213	75.06
287.444	84.06
287.675	87.06
287.906	107.06
288.138	92.06
288.369	90.06
288.6	100.06
288.831	81.06
289.062	97.06
289.293	85.06
289.524	84.06
289.755	86.06
289.986	86.06
290.217	88.06
290.448	102.06
290.679	105.06
290.91	93.06
291.141	77.06
291.371	85.06
291.602	83.06
291.833	88.06
292.064	88.06
292.295	82.06
292.526	91.06
292.757	86.06
292.987	80.06
293.218	90.06
293.449	87.06
293.68	96.06
293.91	84.06
294.141	83.06
294.372	86.06
294.603	89.06
294.833	89.06
295.064	93.06
295.295	98.06
295.525	86.06
295.756	90.06
295.987	103.06
296.217	113.06
296.448	111.06
296.679	86.06
296.909	101.06
297.14	93.06
297.37	90.06
297.601	94.06
297.831	90.06
298.062	94.06
298.292	100.06
298.523	88.06
298.753	98.06
298.984	89.06
299.214	83.06
299.445	86.06
299.675	87.06
299.905	104.06
300.136	87.06
300.366	84.06
300.597	99.06
300.827	98.06
301.057	87.06
301.288	89.06
301.518	92.06
301.748	106.06
301.979	107.06
302.209	94.06
302.439	85.06
302.669	78.06
302.9	96.06
303.13	102.06
303.36	90.06
303.59	93.06
303.82	96.06
304.051	74.06
304.281	87.06
304.511	86.06
304.741	89.06
304.971	87.06
305.201	92.06
305.431	93.06
305.661	87.06
305.891	84.06
306.121	96.06
306.352	85.06
306.582	111.06
306.812	101.06
307.042	75.06
307.272	93.06
307.502	84.06
307.731	87.06
307.961	94.06
308.191	98.06
308.421	78.06
308.651	89.06
308.881	93.06
309.111	94.06
309.341	100.06
309.571	93.06
309.8	88.06
310.03	108.06
310.26	104.06
310.49	91.06
310.72	89.06
310.949	84.06
311.179	96.06
311.409	84.06
311.639	93.06
311.868	94.06
312.098	93.06
312.328	85.06
312.557	96.06
312.787	89.06
313.017	86.06
313.246	94.06
313.476	95.06
313.706	90.06
313.935	85.06
314.165	100.06
314.394	98.06
314.624	101.06
314.853	105.06
315.083	94.06
315.312	106.06
315.542	92.06
315.771	95.06
316.001	101.06
316.23	103.06
316.46	98.06
316.689	84.06
316.919	83.06
317.148	94.06
317.377	88.06
317.607	97.06
317.836	103.06
318.065	91.06
318.295	92.06
318.524	94.06
318.753	86.06
318.983	102.06
319.212	91.06
319.441	106.06
319.67	95.06
319.9	89.06
320.129	93.06
320.358	101.06
320.587	106.06
320.816	99.06
321.046	94.06
321.275	110.06
321.504	94.06
321.733	98.06
321.962	88.06
322.191	101.06
322.42	88.06
322.649	113.06
322.878	110.06
323.108	112.06
323.337	100.06
323.566	113.06
323.795	134.06
324.024	156.06
324.253	269.06
324.482	522.06
324.71	991.06
324.939	1260.06
325.168	484.06
325.397	159.06
325.626	131.06
325.855	108.06
326.084	101.06
326.313	122.06
326.542	121.06
326.77	171.06
326.999	321.06
327.228	586.06
327.457	997.06
327.686	806.06
327.914	258.06
328.143	150.06
328.372	112.06
328.6	108.06
328.829	92.06
329.058	104.06
329.287	110.06
329.515	105.06
329.744	86.06
329.972	93.06
330.201	99.06
330.43	107.06
330.658	108.06
330.887	108.06
331.115	102.06
331.344	112.06
331.572	105.06
331.801	94.06
332.03	105.06
332.258	94.06
332.486	107.06
332.715	91.06
332.943	93.06
333.172	104.06
333.4	90.06
333.629	105.06
333.857	105.06
334.085	105.06
334.314	107.06
334.542	88.06
334.771	98.06
334.999	100.06
335.227	92.06
335.455	98.06
335.684	101.06
335.912	97.06
336.14	90.06
336.369	93.06
336.597	109.06
336.825	100.06
337.053	80.06
337.281	96.06
337.51	94.06
337.738	96.06
337.966	95.06
338.194	89.06
338.422	92.06
338.65	99.06
338.878	88.06
339.106	87.06
339.334	105.06
339.562	83.06
339.79	105.06
340.018	91.06
340.246	104.06
340.474	94.06
340.702	96.06
340.93	96.06
341.158	99.06
341.386	102.06
341.614	86.06
341.842	93.06
342.07	107.06
342.298	108.06
342.526	94.06
342.754	96.06
342.981	85.06
343.209	87.06
343.437	88.06
343.665	82.06
343.893	88.06
344.12	97.06
344.348	89.06
344.576	93.06
344.804	96.06
345.031	86.06
345.259	91.06
345.487	87.06
345.714	99.06
345.942	79.06
346.17	76.06
346.397	92.06
346.625	89.06
346.853	95.06
347.08	87.06
347.308	96.06
347.535	106.06
347.763	101.06
347.99	98.06
348.218	100.06
348.445	99.06
348.673	88.06
348.9	86.06
349.128	97.06
349.355	80.06
349.583	98.06
349.81	106.06
350.037	109.06
350.265	102.06
350.492	82.06
350.72	102.06
350.947	89.06
351.174	104.06
351.402	93.06
351.629	95.06
351.856	96.06
352.083	85.06
352.311	94.06
352.538	103.06
352.765	99.06
352.992	103.06
353.22	114.06
353.447	99.06
353.674	99.06
353.901	113.06
354.128	105.06
354.355	107.06
354.583	100.06
354.81	113.06
355.037	99.06
355.264	104.06
355.491	86.06
355.718	91.06
355.945	98.06
356.172	120.06
356.399	115.06
356.626	98.06
356.853	81.06
357.08	89.06
357.307	106.06
357.534	97.06
357.761	92.06
357.988	98.06
358.215	117.06
358.441	108.06
358.668	114.06
358.895	102.06
359.122	100.06
359.349	97.06
359.576	90.06
359.802	99.06
360.029	109.06
360.256	107.06
360.483	88.06
360.709	92.06
360.936	102.06
361.163	115.06
361.39	109.06
361.616	95.06
361.843	89.06
362.07	106.06
362.296	85.06
362.523	100.06
362.749	86.06
362.976	97.06
363.203	100.06
363.429	79.06
363.656	76.06
363.882	93.06
364.109	95.06
364.335	86.06
364.562	88.06
364.788	92.06
365.015	95.06
365.241	91.06
365.468	89.06
365.694	104.06
365.92	102.06
366.147	94.06
366.373	72.06
366.599	84.06
366.826	93.06
367.052	91.06
367.278	89.06
367.505	79.06
367.731	89.06
367.957	89.06
368.184	86.06
368.41	95.06
368.636	99.06
368.862	114.06
369.089	103.06
369.315	98.06
369.541	85.06
369.767	100.06
369.993	94.06
370.219	89.06
370.445	90.06
370.672	86.06
370.898	85.06
371.124	88.06
371.35	87.06
371.576	93.06
371.802	103.06
372.028	76.06
372.254	112.06
372.48	88.06
372.706	83.06
372.932	93.06
373.158	102.06
373.384	100.06
373.61	96.06
373.835	98.06
374.061	94.06
374.287	107.06
374.513	97.06
374.739	93.06
374.965	97.06
375.191	83.06
375.416	84.06
375.642	109.06
375.868	99.06
376.094	91.06
376.319	87.06
376.545	93.06
376.771	116.06
376.997	97.06
377.222	96.06
377.448	102.06
377.674	98.06
377.899	93.06
378.125	98.06
378.35	95.06
378.576	92.06
378.802	93.06
379.027	96.06
379.253	94.06
379.478	112.06
379.704	100.06
379.929	110.06
380.155	109.06
380.38	105.06
380.606	116.06
380.831	102.06
381.057	100.06
381.282	108.06
381.507	117.06
381.733	96.06
381.958	106.06
382.184	97.06
382.409	104.06
382.634	100.06
382.86	112.06
383.085	134.06
383.31	124.06
383.535	126.06
383.761	116.06
383.986	115.06
384.211	125.06
384.436	129.06
384.662	118.06
384.887	130.06
385.112	130.06
385.337	129.06
385.562	133.06
385.787	147.06
386.013	119.06
386.238	119.06
386.463	125.06
386.688	138.06
386.913	135.06
387.138	137.06
387.363	133.06
387.588	113.06
387.813	113.06
388.038	131.06
388.263	161.06
388.488	149.06
388.713	105.06
388.938	100.06
389.163	103.06
389.387	101.06
389.612	99.06
389.837	89.06
390.062	101.06
390.287	102.06
390.512	85.06
390.736	93.06
390.961	92.06
391.186	93.06
391.411	105.06
391.636	96.06
391.86	99.06
392.085	77.06
392.31	99.06
392.534	89.06
392.759	92.06
392.984	88.06
393.208	102.06
393.433	110.06
393.658	103.06
393.882	91.06
394.107	93.06
394.331	71.06
394.556	78.06
394.78	100.06
395.005	106.06
395.229	81.06
395.454	88.06
395.678	88.06
395.903	95.06
396.127	87.06
396.352	85.06
396.576	88.06
396.801	104.06
397.025	81.06
397.249	97.06
397.474	82.06
397.698	83.06
397.922	83.06
398.147	89.06
398.371	91.06
398.595	91.06
398.82	93.06
399.044	97.06
399.268	102.06
399.492	93.06
399.717	93.06
399.941	93.06
400.165	88.06
400.389	100.06
400.613	97.06
400.837	92.06
401.062	103.06
401.286	93.06
401.51	85.06
401.734	80.06
401.958	100.06
402.182	101.06
402.406	111.06
402.63	112.06
402.854	95.06
403.078	88.06
403.302	86.06
403.526	80.06
403.75	84.06
403.974	81.06
404.198	87.06
404.422	83.06
404.645	77.06
404.869	92.06
405.093	94.06
405.317	86.06
405.541	85.06
405.765	93.06
405.988	111.06
406.212	143.06
406.436	159.06
406.66	119.06
406.883	86.06
407.107	88.06
407.331	77.06
407.555	93.06
407.778	107.06
408.002	87.06
408.226	80.06
408.449	78.06
408.673	95.06
408.896	89.06
409.12	91.06
409.344	91.06
409.567	77.06
409.791	100.06
410.014	94.06
410.238	99.06
410.461	84.06
410.685	104.06
410.908	84.06
411.132	115.06
411.355	98.06
411.578	84.06
411.802	92.06
412.025	89.06
412.249	103.06
412.472	84.06
412.695	91.06
412.919	100.06
413.142	106.06
413.365	89.06
413.589	87.06
413.812	99.06
414.035	110.06
414.258	96.06
414.482	87.06
414.705	103.06
414.928	89.06
415.151	93.06
415.374	94.06
415.597	103.06
415.821	106.06
416.044	98.06
416.267	77.06
416.49	82.06
416.713	97.06
416.936	95.06
417.159	98.06
417.382	99.06
417.605	84.06
417.828	94.06
418.051	100.06
418.274	98.06
418.497	83.06
418.72	98.06
418.943	96.06
419.166	82.06
419.389	95.06
419.611	76.06
419.834	78.06
420.057	93.06
420.28	85.06
420.503	86.06
420.726	85.06
420.948	89.06
421.171	94.06
421.394	98.06
421.617	99.06
421.839	86.06
422.062	95.06
422.285	94.06
422.507	98.06
422.73	107.06
422.953	97.06
423.175	105.06
423.398	87.06
423.621	97.06
423.843	90.06
424.066	89.06
424.288	84.06
424.511	83.06
424.733	88.06
424.956	90.06
425.178	84.06
425.401	98.06
425.623	96.06
425.846	81.06
426.068	97.06
426.291	82.06
426.513	77.06
426.735	86.06
426.958	93.06
427.18	83.06
427.402	116.06
427.625	130.06
427.847	89.06
428.069	96.06
428.292	96.06
428.514	85.06
428.736	85.06
428.958	90.06
429.181	82.06
429.403	83.06
429.625	98.06
429.847	70.06
430.069	80.06
430.292	95.06
430.514	106.06
430.736	78.06
430.958	94.06
431.18	91.06
431.402	81.06
431.624	82.06
431.846	94.06
432.068	97.06
432.29	94.06
432.512	99.06
432.734	88.06
432.956	92.06
433.178	97.06
433.4	108.06
433.622	92.06
433.844	97.06
434.066	72.06
434.287	93.06
434.509	99.06
434.731	89.06
434.953	96.06
435.175	85.06
435.397	80.06
435.618	85.06
435.84	108.06
436.062	109.06
436.284	89.06
436.505	95.06
436.727	89.06
436.949	93.06
437.17	81.06
437.392	74.06
437.614	93.06
437.835	104.06
438.057	106.06
438.278	103.06
438.5	88.06
438.721	98.06
438.943	103.06
439.165	88.06
439.386	86.06
439.608	84.06
439.829	92.06
440.05	102.06
440.272	106.06
440.493	99.06
440.715	88.06
440.936	68.06
441.158	89.06
441.379	96.06
441.6	93.06
441.822	97.06
442.043	85.06
442.264	91.06
442.486	90.06
442.707	94.06
442.928	111.06
443.149	107.06
443.371	107.06
443.592	84.06
443.813	103.06
444.034	85.06
444.255	93.06
444.476	73.06
444.698	82.06
444.919	93.06
445.14	134.06
445.361	118.06
445.582	103.06
445.803	131.06
446.024	103.06
446.245	108.06
446.466	85.06
446.687	92.06
446.908	76.06
447.129	86.06
447.35	99.06
447.571	85.06
447.792	94.06
448.013	88.06
448.234	100.06
448.455	91.06
448.675	97.06
448.896	105.06
449.117	95.06
449.338	98.06
449.559	107.06
449.779	99.06
450	79.06
450.221	80.06
450.442	86.06
450.662	89.06
450.883	82.06
451.104	96.06
451.324	77.06
451.545	92.06
451.766	79.06
451.986	85.06
452.207	89.06
452.428	84.06
452.648	87.06
452.869	103.06
453.089	101.06
453.31	101.06
453.53	89.06
453.751	97.06
453.971	107.06
454.192	87.06
454.412	86.06
454.633	86.06
454.853	91.06
455.073	96.06
455.294	90.06
455.514	105.06
455.734	84.06
455.955	76.06
456.175	89.06
456.395	80.06
456.616	76.06
456.836	82.06
457.056	102.06
457.276	94.06
457.497	78.06
457.717	77.06
457.937	92.06
458.157	102.06
458.377	88.06
458.598	102.06
458.818	117.06
459.038	115.06
459.258	88.06
459.478	68.06
459.698	85.06
459.918	76.06
460.138	88.06
460.358	90.06
460.578	81.06
460.798	89.06
461.018	84.06
461.238	90.06
461.458	80.06
461.678	76.06
461.898	80.06
462.118	78.06
462.338	95.06
462.558	81.06
462.777	99.06
462.997	88.06
463.217	83.06
463.437	89.06
463.657	77.06
463.876	94.06
464.096	80.06
464.316	94.06
464.536	75.06
464.755	92.06
464.975	93.06
465.195	121.06
465.414	117.06
465.634	85.06
465.854	68.06
466.073	78.06
466.293	89.06
466.512	86.06
466.732	82.06
466.951	93.06
467.171	86.06
467.391	98.06
467.61	86.06
467.829	77.06
468.049	76.06
468.268	86.06
468.488	84.06
468.707	91.06
468.927	83.06
469.146	82.06
469.365	77.06
469.585	80.06
469.804	89.06
470.023	86.06
470.243	80.06
470.462	76.06
470.681	101.06
470.901	83.06
471.12	101.06
471.339	96.06
471.558	97.06
471.777	90.06
471.997	93.06
472.216	89.06
472.435	84.06
472.654	88.06
472.873	80.06
473.092	86.06
473.311	83.06
473.53	74.06
473.749	88.06
473.968	94.06
474.187	93.06
474.406	94.06
474.625	94.06
474.844	91.06
475.063	82.06
475.282	95.06
475.501	99.06
475.72	86.06
475.939	89.06
476.158	98.06
476.377	83.06
476.596	93.06
476.814	85.06
477.033	88.06
477.252	85.06
477.471	85.06
477.69	92.06
477.908	85.06
478.127	88.06
478.346	84.06
478.564	93.06
478.783	90.06
479.002	81.06
479.22	91.06
479.439	105.06
479.658	111.06
479.876	76.06
480.095	100.06
480.313	89.06
480.532	87.06
480.751	94.06
480.969	95.06
481.188	100.06
481.406	94.06
481.624	103.06
481.843	90.06
482.061	90.06
482.28	88.06
482.498	94.06
482.717	88.06
482.935	71.06
483.153	88.06
483.372	78.06
483.59	86.06
483.808	81.06
484.027	89.06
484.245	98.06
484.463	87.06
484.681	98.06
484.9	92.06
485.118	90.06
485.336	102.06
485.554	101.06
485.772	92.06
485.99	89.06
486.209	98.06
486.427	94.06
486.645	105.06
486.863	91.06
487.081	100.06
487.299	98.06
487.517	86.06
487.735	99.06
487.953	112.06
488.171	99.06
488.389	99.06
488.607	86.06
488.825	91.06
489.043	92.06
489.261	86.06
489.479	93.06
489.696	93.06
489.914	95.06
490.132	103.06
490.35	101.06
490.568	107.06
490.786	87.06
491.003	78.06
491.221	93.06
491.439	93.06
491.657	75.06
491.874	76.06
492.092	74.06
492.31	98.06
492.527	104.06
492.745	82.06
492.963	91.06
493.18	95.06
493.398	91.06
493.615	112.06
493.833	89.06
494.05	88.06
494.268	78.06
494.485	87.06
494.703	94.06
494.92	72.06
495.138	90.06
495.355	99.06
495.573	84.06
495.79	76.06
496.008	99.06
496.225	81.06
496.442	90.06
496.66	96.06
496.877	91.06
497.094	89.06
497.312	89.06
497.529	78.06
497.746	90.06
497.963	97.06
498.181	88.06
498.398	106.06
498.615	104.06
498.832	86.06
499.049	104.06
499.267	99.06
499.484	93.06
499.701	102.06
499.918	86.06
500.135	76.06
500.352	99.06
500.569	88.06
500.786	92.06
501.003	76.06
501.22	93.06
501.437	91.06
501.654	89.06
501.871	92.06
502.088	94.06
502.305	82.06
502.522	91.06
502.739	104.06
502.956	90.06
503.172	89.06
503.389	100.06
503.606	112.06
503.823	97.06
504.04	100.06
504.256	108.06
504.473	104.06
504.69	60.06
504.907	87.06
505.123	84.06
505.34	85.06
505.557	94.06
505.773	93.06
505.99	79.06
506.207	96.06
506.423	81.06
506.64	86.06
506.856	80.06
507.073	92.06
507.289	76.06
507.506	96.06
507.722	106.06
507.939	104.06
508.155	102.06
508.372	99.06
508.588	103.06
508.805	92.06
509.021	87.06
509.238	87.06
509.454	113.06
509.67	99.06
509.887	102.06
510.103	117.06
510.319	167.06
510.536	516.06
510.752	1401.06
510.968	422.06
511.184	134.06
511.401	101.06
511.617	80.06
511.833	90.06
512.049	89.06
512.265	101.06
512.481	82.06
512.698	88.06
512.914	85.06
513.13	86.06
513.346	89.06
513.562	94.06
513.778	91.06
513.994	98.06
514.21	85.06
514.426	94.06
514.642	114.06
514.858	103.06
515.074	134.06
515.29	299.06
515.506	861.06
515.721	336.06
515.937	122.06
