Data from Uncirc_2001_H10_HRD10591_00097.txt Node
Date: Wed Jan 03 10:44:16 EST 2024
User: Yrep
Spectrometer: HR+D1059
Trigger mode: 1
Integration Time (sec): 1.000000E-1
Scans to average: 1
Electric dark correction enabled: true
Nonlinearity correction enabled: false
Boxcar width: 0
XAxis mode: Wavelengths
Number of Pixels in Spectrum: 2048
>>>>>Begin Spectral Data<<<<<
223.165	-12.81
223.4	-12.81
223.635	-12.81
223.869	-19.81
224.104	-20.81
224.338	-14.81
224.573	-7.81
224.808	-2.81
225.042	-6.81
225.277	-12.81
225.511	-0.81
225.746	10.19
225.98	-4.81
226.215	-1.81
226.449	21.19
226.683	20.19
226.918	20.19
227.152	34.19
227.387	39.19
227.621	24.19
227.856	48.19
228.09	43.19
228.324	38.19
228.559	52.19
228.793	67.19
229.027	63.19
229.262	65.19
229.496	85.19
229.73	80.19
229.964	83.19
230.199	72.19
230.433	64.19
230.667	81.19
230.901	87.19
231.136	80.19
231.37	85.19
231.604	84.19
231.838	66.19
232.072	85.19
232.306	85.19
232.541	70.19
232.775	92.19
233.009	87.19
233.243	84.19
233.477	83.19
233.711	85.19
233.945	75.19
234.179	72.19
234.413	86.19
234.647	88.19
234.881	88.19
235.115	77.19
235.349	68.19
235.583	84.19
235.817	79.19
236.051	67.19
236.285	72.19
236.519	84.19
236.753	94.19
236.987	77.19
237.221	81.19
237.455	82.19
237.689	70.19
237.922	84.19
238.156	84.19
238.39	68.19
238.624	81.19
238.858	83.19
239.091	63.19
239.325	68.19
239.559	85.19
239.793	84.19
240.027	89.19
240.26	71.19
240.494	74.19
240.728	90.19
240.961	80.19
241.195	78.19
241.429	87.19
241.662	84.19
241.896	91.19
242.13	87.19
242.363	66.19
242.597	72.19
242.83	81.19
243.064	74.19
243.298	80.19
243.531	70.19
243.765	84.19
243.998	82.19
244.232	82.19
244.465	89.19
244.699	76.19
244.932	78.19
245.166	74.19
245.399	73.19
245.633	85.19
245.866	85.19
246.099	70.19
246.333	80.19
246.566	72.19
246.8	75.19
247.033	61.19
247.266	85.19
247.5	70.19
247.733	81.19
247.966	96.19
248.2	74.19
248.433	81.19
248.666	82.19
248.899	75.19
249.133	86.19
249.366	97.19
249.599	82.19
249.832	80.19
250.066	80.19
250.299	90.19
250.532	91.19
250.765	85.19
250.998	87.19
251.231	84.19
251.465	88.19
251.698	95.19
251.931	87.19
252.164	77.19
252.397	91.19
252.63	73.19
252.863	82.19
253.096	69.19
253.329	80.19
253.562	91.19
253.795	93.19
254.028	80.19
254.261	90.19
254.494	91.19
254.727	81.19
254.96	88.19
255.193	92.19
255.426	76.19
255.659	80.19
255.892	87.19
256.124	83.19
256.357	87.19
256.59	84.19
256.823	90.19
257.056	84.19
257.289	93.19
257.521	94.19
257.754	81.19
257.987	76.19
258.22	88.19
258.452	76.19
258.685	86.19
258.918	73.19
259.151	101.19
259.383	77.19
259.616	78.19
259.849	76.19
260.081	81.19
260.314	93.19
260.547	85.19
260.779	88.19
261.012	81.19
261.244	88.19
261.477	90.19
261.71	94.19
261.942	99.19
262.175	120.19
262.407	89.19
262.64	77.19
262.872	84.19
263.105	70.19
263.337	85.19
263.57	79.19
263.802	89.19
264.035	77.19
264.267	84.19
264.499	89.19
264.732	89.19
264.964	92.19
265.197	91.19
265.429	81.19
265.661	75.19
265.894	82.19
266.126	77.19
266.358	89.19
266.591	90.19
266.823	84.19
267.055	82.19
267.287	69.19
267.52	81.19
267.752	83.19
267.984	91.19
268.216	81.19
268.448	80.19
268.681	87.19
268.913	88.19
269.145	78.19
269.377	83.19
269.609	81.19
269.841	85.19
270.073	90.19
270.306	93.19
270.538	84.19
270.77	72.19
271.002	81.19
271.234	91.19
271.466	100.19
271.698	80.19
271.93	88.19
272.162	94.19
272.394	93.19
272.626	85.19
272.858	94.19
273.09	81.19
273.322	76.19
273.553	89.19
273.785	98.19
274.017	85.19
274.249	82.19
274.481	81.19
274.713	88.19
274.945	101.19
275.176	74.19
275.408	84.19
275.64	92.19
275.872	75.19
276.104	96.19
276.335	80.19
276.567	93.19
276.799	110.19
277.031	104.19
277.262	98.19
277.494	86.19
277.726	90.19
277.957	86.19
278.189	87.19
278.421	91.19
278.652	89.19
278.884	77.19
279.115	84.19
279.347	87.19
279.579	69.19
279.81	94.19
280.042	83.19
280.273	104.19
280.505	93.19
280.736	87.19
280.968	72.19
281.199	82.19
281.431	91.19
281.662	87.19
281.894	100.19
282.125	92.19
282.356	112.19
282.588	123.19
282.819	118.19
283.051	86.19
283.282	79.19
283.513	85.19
283.745	93.19
283.976	83.19
284.207	81.19
284.439	83.19
284.67	95.19
284.901	88.19
285.132	77.19
285.364	84.19
285.595	92.19
285.826	90.19
286.057	93.19
286.288	88.19
286.52	92.19
286.751	90.19
286.982	94.19
287.213	84.19
287.444	88.19
287.675	86.19
287.906	77.19
288.138	81.19
288.369	85.19
288.6	86.19
288.831	83.19
289.062	72.19
289.293	84.19
289.524	85.19
289.755	97.19
289.986	87.19
290.217	87.19
290.448	70.19
290.679	89.19
290.91	91.19
291.141	79.19
291.371	105.19
291.602	93.19
291.833	80.19
292.064	90.19
292.295	90.19
292.526	103.19
292.757	90.19
292.987	92.19
293.218	97.19
293.449	87.19
293.68	84.19
293.91	84.19
294.141	94.19
294.372	101.19
294.603	93.19
294.833	90.19
295.064	75.19
295.295	92.19
295.525	98.19
295.756	101.19
295.987	106.19
296.217	138.19
296.448	120.19
296.679	99.19
296.909	82.19
297.14	85.19
297.37	90.19
297.601	92.19
297.831	86.19
298.062	83.19
298.292	96.19
298.523	105.19
298.753	84.19
298.984	98.19
299.214	83.19
299.445	96.19
299.675	89.19
299.905	97.19
300.136	107.19
300.366	90.19
300.597	90.19
300.827	102.19
301.057	99.19
301.288	112.19
301.518	104.19
301.748	101.19
301.979	102.19
302.209	93.19
302.439	94.19
302.669	83.19
302.9	91.19
303.13	94.19
303.36	77.19
303.59	111.19
303.82	103.19
304.051	90.19
304.281	96.19
304.511	84.19
304.741	87.19
304.971	77.19
305.201	93.19
305.431	72.19
305.661	81.19
305.891	90.19
306.121	94.19
306.352	111.19
306.582	88.19
306.812	99.19
307.042	95.19
307.272	98.19
307.502	90.19
307.731	98.19
307.961	91.19
308.191	84.19
308.421	91.19
308.651	99.19
308.881	96.19
309.111	97.19
309.341	84.19
309.571	98.19
309.8	101.19
310.03	103.19
310.26	92.19
310.49	86.19
310.72	100.19
310.949	94.19
311.179	88.19
311.409	96.19
311.639	94.19
311.868	105.19
312.098	90.19
312.328	99.19
312.557	100.19
312.787	96.19
313.017	92.19
313.246	77.19
313.476	93.19
313.706	112.19
313.935	92.19
314.165	93.19
314.394	100.19
314.624	100.19
314.853	94.19
315.083	87.19
315.312	98.19
315.542	98.19
315.771	88.19
316.001	90.19
316.23	82.19
316.46	93.19
316.689	92.19
316.919	91.19
317.148	89.19
317.377	96.19
317.607	105.19
317.836	87.19
318.065	88.19
318.295	98.19
318.524	94.19
318.753	93.19
318.983	85.19
319.212	90.19
319.441	116.19
319.67	114.19
319.9	101.19
320.129	105.19
320.358	104.19
320.587	102.19
320.816	109.19
321.046	105.19
321.275	87.19
321.504	96.19
321.733	95.19
321.962	92.19
322.191	103.19
322.42	100.19
322.649	97.19
322.878	122.19
323.108	108.19
323.337	122.19
323.566	124.19
323.795	160.19
324.024	216.19
324.253	377.19
324.482	780.19
324.71	1574.19
324.939	1996.19
325.168	743.19
325.397	211.19
325.626	160.19
325.855	116.19
326.084	114.19
326.313	129.19
326.542	144.19
326.77	214.19
326.999	454.19
327.228	874.19
327.457	1536.19
327.686	1235.19
327.914	349.19
328.143	199.19
328.372	152.19
328.6	110.19
328.829	109.19
329.058	120.19
329.287	137.19
329.515	99.19
329.744	103.19
329.972	105.19
330.201	118.19
330.43	113.19
330.658	123.19
330.887	146.19
331.115	122.19
331.344	95.19
331.572	113.19
331.801	130.19
332.03	113.19
332.258	111.19
332.486	84.19
332.715	94.19
332.943	97.19
333.172	90.19
333.4	103.19
333.629	100.19
333.857	102.19
334.085	98.19
334.314	93.19
334.542	113.19
334.771	103.19
334.999	97.19
335.227	101.19
335.455	94.19
335.684	96.19
335.912	96.19
336.14	99.19
336.369	90.19
336.597	94.19
336.825	86.19
337.053	101.19
337.281	106.19
337.51	96.19
337.738	92.19
337.966	97.19
338.194	102.19
338.422	85.19
338.65	86.19
338.878	87.19
339.106	84.19
339.334	94.19
339.562	96.19
339.79	94.19
340.018	90.19
340.246	97.19
340.474	96.19
340.702	98.19
340.93	94.19
341.158	108.19
341.386	91.19
341.614	107.19
341.842	95.19
342.07	89.19
342.298	97.19
342.526	89.19
342.754	82.19
342.981	85.19
343.209	93.19
343.437	83.19
343.665	101.19
343.893	96.19
344.12	100.19
344.348	90.19
344.576	90.19
344.804	100.19
345.031	97.19
345.259	107.19
345.487	89.19
345.714	103.19
345.942	102.19
346.17	100.19
346.397	84.19
346.625	98.19
346.853	85.19
347.08	91.19
347.308	91.19
347.535	86.19
347.763	93.19
347.99	100.19
348.218	94.19
348.445	99.19
348.673	93.19
348.9	101.19
349.128	83.19
349.355	75.19
349.583	102.19
349.81	92.19
350.037	103.19
350.265	88.19
350.492	91.19
350.72	100.19
350.947	97.19
351.174	112.19
351.402	119.19
351.629	105.19
351.856	100.19
352.083	105.19
352.311	105.19
352.538	108.19
352.765	124.19
352.992	115.19
353.22	112.19
353.447	118.19
353.674	105.19
353.901	103.19
354.128	110.19
354.355	90.19
354.583	94.19
354.81	99.19
355.037	98.19
355.264	81.19
355.491	100.19
355.718	86.19
355.945	104.19
356.172	81.19
356.399	102.19
356.626	98.19
356.853	85.19
357.08	97.19
357.307	89.19
357.534	97.19
357.761	98.19
357.988	97.19
358.215	99.19
358.441	83.19
358.668	94.19
358.895	90.19
359.122	104.19
359.349	83.19
359.576	86.19
359.802	108.19
360.029	117.19
360.256	109.19
360.483	112.19
360.709	77.19
360.936	94.19
361.163	85.19
361.39	101.19
361.616	97.19
361.843	95.19
362.07	93.19
362.296	95.19
362.523	92.19
362.749	93.19
362.976	103.19
363.203	99.19
363.429	93.19
363.656	90.19
363.882	95.19
364.109	106.19
364.335	96.19
364.562	99.19
364.788	87.19
365.015	88.19
365.241	109.19
365.468	112.19
365.694	107.19
365.92	100.19
366.147	95.19
366.373	73.19
366.599	96.19
366.826	77.19
367.052	98.19
367.278	98.19
367.505	98.19
367.731	86.19
367.957	99.19
368.184	98.19
368.41	109.19
368.636	120.19
368.862	117.19
369.089	104.19
369.315	98.19
369.541	82.19
369.767	87.19
369.993	92.19
370.219	90.19
370.445	98.19
370.672	83.19
370.898	78.19
371.124	82.19
371.35	91.19
371.576	100.19
371.802	106.19
372.028	80.19
372.254	93.19
372.48	86.19
372.706	90.19
372.932	84.19
373.158	74.19
373.384	100.19
373.61	92.19
373.835	99.19
374.061	101.19
374.287	93.19
374.513	93.19
374.739	89.19
374.965	94.19
375.191	80.19
375.416	102.19
375.642	81.19
375.868	92.19
376.094	94.19
376.319	76.19
376.545	90.19
376.771	98.19
376.997	98.19
377.222	84.19
377.448	91.19
377.674	101.19
377.899	80.19
378.125	98.19
378.35	100.19
378.576	89.19
378.802	92.19
379.027	80.19
379.253	89.19
379.478	94.19
379.704	99.19
379.929	76.19
380.155	90.19
380.38	83.19
380.606	83.19
380.831	93.19
381.057	94.19
381.282	97.19
381.507	100.19
381.733	93.19
381.958	81.19
382.184	105.19
382.409	85.19
382.634	91.19
382.86	94.19
383.085	73.19
383.31	100.19
383.535	88.19
383.761	88.19
383.986	96.19
384.211	100.19
384.436	101.19
384.662	88.19
384.887	102.19
385.112	103.19
385.337	109.19
385.562	94.19
385.787	96.19
386.013	117.19
386.238	103.19
386.463	109.19
386.688	101.19
386.913	108.19
387.138	91.19
387.363	97.19
387.588	98.19
387.813	103.19
388.038	110.19
388.263	105.19
388.488	89.19
388.713	97.19
388.938	115.19
389.163	92.19
389.387	96.19
389.612	91.19
389.837	86.19
390.062	82.19
390.287	100.19
390.512	91.19
390.736	90.19
390.961	92.19
391.186	93.19
391.411	106.19
391.636	87.19
391.86	87.19
392.085	81.19
392.31	82.19
392.534	95.19
392.759	91.19
392.984	89.19
393.208	83.19
393.433	88.19
393.658	89.19
393.882	89.19
394.107	90.19
394.331	87.19
394.556	83.19
394.78	91.19
395.005	94.19
395.229	81.19
395.454	92.19
395.678	94.19
395.903	77.19
396.127	99.19
396.352	92.19
396.576	95.19
396.801	87.19
397.025	83.19
397.249	79.19
397.474	86.19
397.698	79.19
397.922	86.19
398.147	85.19
398.371	86.19
398.595	84.19
398.82	96.19
399.044	80.19
399.268	74.19
399.492	98.19
399.717	76.19
399.941	89.19
400.165	87.19
400.389	91.19
400.613	77.19
400.837	95.19
401.062	89.19
401.286	98.19
401.51	101.19
401.734	86.19
401.958	96.19
402.182	125.19
402.406	157.19
402.63	117.19
402.854	112.19
403.078	88.19
403.302	86.19
403.526	82.19
403.75	94.19
403.974	73.19
404.198	89.19
404.422	99.19
404.645	96.19
404.869	92.19
405.093	92.19
405.317	98.19
405.541	94.19
405.765	102.19
405.988	116.19
406.212	194.19
406.436	241.19
406.66	144.19
406.883	95.19
407.107	106.19
407.331	97.19
407.555	110.19
407.778	102.19
408.002	90.19
408.226	87.19
408.449	90.19
408.673	87.19
408.896	92.19
409.12	95.19
409.344	80.19
409.567	87.19
409.791	92.19
410.014	105.19
410.238	92.19
410.461	89.19
410.685	97.19
410.908	97.19
411.132	113.19
411.355	113.19
411.578	97.19
411.802	88.19
412.025	91.19
412.249	103.19
412.472	93.19
412.695	92.19
412.919	87.19
413.142	85.19
413.365	91.19
413.589	86.19
413.812	87.19
414.035	103.19
414.258	101.19
414.482	87.19
414.705	100.19
414.928	81.19
415.151	81.19
415.374	97.19
415.597	91.19
415.821	85.19
416.044	95.19
416.267	89.19
416.49	76.19
416.713	88.19
416.936	84.19
417.159	77.19
417.382	73.19
417.605	88.19
417.828	94.19
418.051	96.19
418.274	87.19
418.497	79.19
418.72	90.19
418.943	95.19
419.166	93.19
419.389	94.19
419.611	99.19
419.834	91.19
420.057	82.19
420.28	84.19
420.503	82.19
420.726	72.19
420.948	97.19
421.171	71.19
421.394	105.19
421.617	87.19
421.839	94.19
422.062	85.19
422.285	85.19
422.507	94.19
422.73	94.19
422.953	97.19
423.175	86.19
423.398	101.19
423.621	90.19
423.843	85.19
424.066	87.19
424.288	84.19
424.511	95.19
424.733	95.19
424.956	109.19
425.178	109.19
425.401	73.19
425.623	104.19
425.846	91.19
426.068	109.19
426.291	94.19
426.513	89.19
426.735	83.19
426.958	94.19
427.18	120.19
427.402	144.19
427.625	181.19
427.847	133.19
428.069	96.19
428.292	88.19
428.514	80.19
428.736	83.19
428.958	83.19
429.181	87.19
429.403	70.19
429.625	100.19
429.847	89.19
430.069	100.19
430.292	101.19
430.514	87.19
430.736	83.19
430.958	84.19
431.18	94.19
431.402	102.19
431.624	90.19
431.846	68.19
432.068	72.19
432.29	88.19
432.512	80.19
432.734	88.19
432.956	97.19
433.178	103.19
433.4	112.19
433.622	94.19
433.844	93.19
434.066	87.19
434.287	106.19
434.509	87.19
434.731	82.19
434.953	93.19
435.175	99.19
435.397	88.19
435.618	83.19
435.84	109.19
436.062	114.19
436.284	89.19
436.505	95.19
436.727	93.19
436.949	86.19
437.17	96.19
437.392	103.19
437.614	104.19
437.835	111.19
438.057	125.19
438.278	100.19
438.5	98.19
438.721	128.19
438.943	105.19
439.165	103.19
439.386	103.19
439.608	89.19
439.829	98.19
440.05	131.19
440.272	115.19
440.493	113.19
440.715	82.19
440.936	82.19
441.158	101.19
441.379	73.19
441.6	82.19
441.822	92.19
442.043	97.19
442.264	96.19
442.486	111.19
442.707	89.19
442.928	104.19
443.149	126.19
443.371	118.19
443.592	94.19
443.813	117.19
444.034	109.19
444.255	99.19
444.476	88.19
444.698	86.19
444.919	98.19
445.14	136.19
445.361	118.19
445.582	112.19
445.803	123.19
446.024	133.19
446.245	136.19
446.466	88.19
446.687	81.19
446.908	75.19
447.129	89.19
447.35	98.19
447.571	101.19
447.792	88.19
448.013	105.19
448.234	97.19
448.455	92.19
448.675	122.19
448.896	115.19
449.117	101.19
449.338	117.19
449.559	126.19
449.779	135.19
450	102.19
450.221	99.19
450.442	91.19
450.662	89.19
450.883	101.19
451.104	115.19
451.324	104.19
451.545	94.19
451.766	88.19
451.986	82.19
452.207	94.19
452.428	100.19
452.648	109.19
452.869	107.19
453.089	110.19
453.31	109.19
453.53	89.19
453.751	74.19
453.971	109.19
454.192	98.19
454.412	92.19
454.633	90.19
454.853	102.19
455.073	101.19
455.294	101.19
455.514	97.19
455.734	88.19
455.955	85.19
456.175	79.19
456.395	81.19
456.616	92.19
456.836	75.19
457.056	79.19
457.276	85.19
457.497	101.19
457.717	86.19
457.937	82.19
458.157	85.19
458.377	106.19
458.598	120.19
458.818	168.19
459.038	154.19
459.258	123.19
459.478	82.19
459.698	94.19
459.918	90.19
460.138	100.19
460.358	84.19
460.578	85.19
460.798	97.19
461.018	77.19
461.238	82.19
461.458	77.19
461.678	77.19
461.898	67.19
462.118	89.19
462.338	92.19
462.558	92.19
462.777	83.19
462.997	86.19
463.217	76.19
463.437	82.19
463.657	88.19
463.876	88.19
464.096	91.19
464.316	102.19
464.536	109.19
464.755	97.19
464.975	104.19
465.195	166.19
465.414	161.19
465.634	89.19
465.854	91.19
466.073	95.19
466.293	93.19
466.512	89.19
466.732	93.19
466.951	89.19
467.171	104.19
467.391	99.19
467.61	104.19
467.829	99.19
468.049	91.19
468.268	89.19
468.488	86.19
468.707	84.19
468.927	87.19
469.146	91.19
469.365	90.19
469.585	107.19
469.804	94.19
470.023	109.19
470.243	93.19
470.462	111.19
470.681	118.19
470.901	95.19
471.12	99.19
471.339	95.19
471.558	98.19
471.777	87.19
471.997	94.19
472.216	98.19
472.435	86.19
472.654	85.19
472.873	90.19
473.092	95.19
473.311	92.19
473.53	89.19
473.749	92.19
473.968	85.19
474.187	99.19
474.406	97.19
474.625	94.19
474.844	90.19
475.063	88.19
475.282	80.19
475.501	73.19
475.72	87.19
475.939	80.19
476.158	92.19
476.377	85.19
476.596	92.19
476.814	87.19
477.033	85.19
477.252	81.19
477.471	85.19
477.69	99.19
477.908	91.19
478.127	89.19
478.346	93.19
478.564	88.19
478.783	103.19
479.002	103.19
479.22	81.19
479.439	106.19
479.658	96.19
479.876	102.19
480.095	100.19
480.313	89.19
480.532	92.19
480.751	78.19
480.969	94.19
481.188	97.19
481.406	95.19
481.624	87.19
481.843	100.19
482.061	77.19
482.28	89.19
482.498	83.19
482.717	88.19
482.935	91.19
483.153	83.19
483.372	88.19
483.59	105.19
483.808	70.19
484.027	90.19
484.245	101.19
484.463	99.19
484.681	91.19
484.9	97.19
485.118	98.19
485.336	89.19
485.554	99.19
485.772	105.19
485.99	106.19
486.209	121.19
486.427	106.19
486.645	99.19
486.863	113.19
487.081	83.19
487.299	94.19
487.517	88.19
487.735	87.19
487.953	89.19
488.171	107.19
488.389	95.19
488.607	96.19
488.825	81.19
489.043	80.19
489.261	81.19
489.479	91.19
489.696	97.19
489.914	76.19
490.132	88.19
490.35	98.19
490.568	78.19
490.786	95.19
491.003	94.19
491.221	89.19
491.439	104.19
491.657	86.19
491.874	81.19
492.092	91.19
492.31	101.19
492.527	87.19
492.745	83.19
492.963	92.19
493.18	97.19
493.398	85.19
493.615	92.19
493.833	106.19
494.05	90.19
494.268	84.19
494.485	87.19
494.703	84.19
494.92	84.19
495.138	79.19
495.355	86.19
495.573	92.19
495.79	77.19
496.008	91.19
496.225	88.19
496.442	80.19
496.66	82.19
496.877	95.19
497.094	89.19
497.312	97.19
497.529	102.19
497.746	94.19
497.963	81.19
498.181	94.19
498.398	113.19
498.615	111.19
498.832	96.19
499.049	96.19
499.267	101.19
499.484	90.19
499.701	87.19
499.918	100.19
500.135	99.19
500.352	86.19
500.569	94.19
500.786	99.19
501.003	94.19
501.22	86.19
501.437	95.19
501.654	100.19
501.871	121.19
502.088	91.19
502.305	96.19
502.522	95.19
502.739	83.19
502.956	101.19
503.172	84.19
503.389	89.19
503.606	104.19
503.823	93.19
504.04	89.19
504.256	97.19
504.473	80.19
504.69	84.19
504.907	93.19
505.123	88.19
505.34	89.19
505.557	97.19
505.773	93.19
505.99	93.19
506.207	100.19
506.423	91.19
506.64	88.19
506.856	86.19
507.073	95.19
507.289	86.19
507.506	101.19
507.722	103.19
507.939	110.19
508.155	109.19
508.372	83.19
508.588	88.19
508.805	86.19
509.021	98.19
509.238	104.19
509.454	107.19
509.67	100.19
509.887	108.19
510.103	145.19
510.319	214.19
510.536	844.19
510.752	2558.19
510.968	690.19
511.184	165.19
511.401	118.19
511.617	97.19
511.833	95.19
512.049	98.19
512.265	87.19
512.481	89.19
512.698	101.19
512.914	104.19
513.13	94.19
513.346	102.19
513.562	93.19
513.778	68.19
513.994	97.19
514.21	105.19
514.426	117.19
514.642	148.19
514.858	144.19
515.074	185.19
515.29	486.19
515.506	1604.19
