Data from Uncirc_2001_H10_HRD10591_00079.txt Node
Date: Wed Jan 03 10:44:12 EST 2024
User: Yrep
Spectrometer: HR+D1059
Trigger mode: 1
Integration Time (sec): 1.000000E-1
Scans to average: 1
Electric dark correction enabled: true
Nonlinearity correction enabled: false
Boxcar width: 0
XAxis mode: Wavelengths
Number of Pixels in Spectrum: 2048
>>>>>Begin Spectral Data<<<<<
223.165	-9.62
223.4	-9.62
223.635	-9.62
223.869	-16.62
224.104	-14.62
224.338	-12.62
224.573	-16.62
224.808	-11.62
225.042	-9.62
225.277	-8.62
225.511	-10.62
225.746	2.38
225.98	11.38
226.215	9.38
226.449	9.38
226.683	11.38
226.918	34.38
227.152	32.38
227.387	41.38
227.621	32.38
227.856	47.38
228.09	50.38
228.324	50.38
228.559	51.38
228.793	76.38
229.027	67.38
229.262	63.38
229.496	75.38
229.73	91.38
229.964	84.38
230.199	67.38
230.433	75.38
230.667	75.38
230.901	71.38
231.136	78.38
231.37	66.38
231.604	68.38
231.838	85.38
232.072	83.38
232.306	77.38
232.541	81.38
232.775	94.38
233.009	85.38
233.243	85.38
233.477	95.38
233.711	67.38
233.945	83.38
234.179	96.38
234.413	76.38
234.647	70.38
234.881	83.38
235.115	84.38
235.349	67.38
235.583	68.38
235.817	77.38
236.051	80.38
236.285	80.38
236.519	78.38
236.753	89.38
236.987	77.38
237.221	80.38
237.455	76.38
237.689	76.38
237.922	97.38
238.156	82.38
238.39	70.38
238.624	71.38
238.858	86.38
239.091	75.38
239.325	66.38
239.559	80.38
239.793	77.38
240.027	60.38
240.26	82.38
240.494	76.38
240.728	78.38
240.961	78.38
241.195	71.38
241.429	72.38
241.662	95.38
241.896	79.38
242.13	75.38
242.363	81.38
242.597	66.38
242.83	70.38
243.064	67.38
243.298	74.38
243.531	92.38
243.765	75.38
243.998	74.38
244.232	78.38
244.465	72.38
244.699	71.38
244.932	79.38
245.166	86.38
245.399	72.38
245.633	70.38
245.866	82.38
246.099	81.38
246.333	80.38
246.566	70.38
246.8	75.38
247.033	76.38
247.266	64.38
247.5	68.38
247.733	79.38
247.966	67.38
248.2	67.38
248.433	76.38
248.666	80.38
248.899	75.38
249.133	93.38
249.366	97.38
249.599	82.38
249.832	80.38
250.066	79.38
250.299	74.38
250.532	75.38
250.765	81.38
250.998	80.38
251.231	73.38
251.465	79.38
251.698	83.38
251.931	62.38
252.164	71.38
252.397	83.38
252.63	79.38
252.863	62.38
253.096	75.38
253.329	72.38
253.562	57.38
253.795	74.38
254.028	80.38
254.261	66.38
254.494	58.38
254.727	86.38
254.96	78.38
255.193	84.38
255.426	82.38
255.659	76.38
255.892	83.38
256.124	79.38
256.357	70.38
256.59	85.38
256.823	66.38
257.056	78.38
257.289	80.38
257.521	83.38
257.754	82.38
257.987	101.38
258.22	72.38
258.452	75.38
258.685	86.38
258.918	85.38
259.151	78.38
259.383	82.38
259.616	85.38
259.849	71.38
260.081	90.38
260.314	78.38
260.547	74.38
260.779	70.38
261.012	87.38
261.244	81.38
261.477	74.38
261.71	92.38
261.942	105.38
262.175	118.38
262.407	86.38
262.64	75.38
262.872	75.38
263.105	92.38
263.337	81.38
263.57	71.38
263.802	90.38
264.035	74.38
264.267	74.38
264.499	77.38
264.732	87.38
264.964	98.38
265.197	78.38
265.429	80.38
265.661	76.38
265.894	77.38
266.126	67.38
266.358	79.38
266.591	83.38
266.823	80.38
267.055	65.38
267.287	82.38
267.52	86.38
267.752	83.38
267.984	86.38
268.216	85.38
268.448	78.38
268.681	95.38
268.913	82.38
269.145	86.38
269.377	76.38
269.609	75.38
269.841	64.38
270.073	90.38
270.306	90.38
270.538	77.38
270.77	81.38
271.002	79.38
271.234	58.38
271.466	86.38
271.698	86.38
271.93	74.38
272.162	75.38
272.394	94.38
272.626	90.38
272.858	74.38
273.09	60.38
273.322	74.38
273.553	90.38
273.785	84.38
274.017	80.38
274.249	76.38
274.481	80.38
274.713	92.38
274.945	83.38
275.176	89.38
275.408	85.38
275.64	84.38
275.872	74.38
276.104	90.38
276.335	98.38
276.567	89.38
276.799	96.38
277.031	87.38
277.262	86.38
277.494	85.38
277.726	82.38
277.957	79.38
278.189	88.38
278.421	87.38
278.652	96.38
278.884	74.38
279.115	92.38
279.347	75.38
279.579	76.38
279.81	92.38
280.042	74.38
280.273	83.38
280.505	80.38
280.736	84.38
280.968	74.38
281.199	88.38
281.431	84.38
281.662	73.38
281.894	91.38
282.125	103.38
282.356	110.38
282.588	133.38
282.819	118.38
283.051	88.38
283.282	76.38
283.513	83.38
283.745	75.38
283.976	82.38
284.207	66.38
284.439	59.38
284.67	87.38
284.901	84.38
285.132	89.38
285.364	75.38
285.595	86.38
285.826	77.38
286.057	67.38
286.288	81.38
286.52	76.38
286.751	86.38
286.982	77.38
287.213	88.38
287.444	83.38
287.675	85.38
287.906	84.38
288.138	103.38
288.369	87.38
288.6	92.38
288.831	91.38
289.062	81.38
289.293	98.38
289.524	83.38
289.755	77.38
289.986	102.38
290.217	88.38
290.448	84.38
290.679	88.38
290.91	98.38
291.141	86.38
291.371	71.38
291.602	91.38
291.833	86.38
292.064	103.38
292.295	82.38
292.526	86.38
292.757	84.38
292.987	86.38
293.218	74.38
293.449	75.38
293.68	80.38
293.91	74.38
294.141	90.38
294.372	80.38
294.603	89.38
294.833	86.38
295.064	90.38
295.295	80.38
295.525	100.38
295.756	100.38
295.987	107.38
296.217	122.38
296.448	116.38
296.679	81.38
296.909	80.38
297.14	91.38
297.37	88.38
297.601	85.38
297.831	84.38
298.062	99.38
298.292	81.38
298.523	80.38
298.753	94.38
298.984	99.38
299.214	84.38
299.445	99.38
299.675	99.38
299.905	90.38
300.136	95.38
300.366	86.38
300.597	101.38
300.827	82.38
301.057	94.38
301.288	95.38
301.518	95.38
301.748	76.38
301.979	97.38
302.209	76.38
302.439	85.38
302.669	89.38
302.9	90.38
303.13	92.38
303.36	99.38
303.59	96.38
303.82	98.38
304.051	84.38
304.281	84.38
304.511	87.38
304.741	80.38
304.971	86.38
305.201	94.38
305.431	80.38
305.661	81.38
305.891	88.38
306.121	97.38
306.352	94.38
306.582	89.38
306.812	102.38
307.042	100.38
307.272	89.38
307.502	90.38
307.731	95.38
307.961	91.38
308.191	96.38
308.421	66.38
308.651	92.38
308.881	90.38
309.111	80.38
309.341	86.38
309.571	90.38
309.8	85.38
310.03	97.38
310.26	84.38
310.49	99.38
310.72	99.38
310.949	79.38
311.179	119.38
311.409	94.38
311.639	91.38
311.868	98.38
312.098	94.38
312.328	97.38
312.557	95.38
312.787	124.38
313.017	114.38
313.246	83.38
313.476	82.38
313.706	85.38
313.935	99.38
314.165	98.38
314.394	95.38
314.624	99.38
314.853	98.38
315.083	85.38
315.312	88.38
315.542	105.38
315.771	96.38
316.001	89.38
316.23	89.38
316.46	92.38
316.689	78.38
316.919	89.38
317.148	89.38
317.377	92.38
317.607	83.38
317.836	74.38
318.065	94.38
318.295	103.38
318.524	87.38
318.753	74.38
318.983	87.38
319.212	104.38
319.441	118.38
319.67	96.38
319.9	86.38
320.129	89.38
320.358	82.38
320.587	89.38
320.816	96.38
321.046	103.38
321.275	119.38
321.504	104.38
321.733	94.38
321.962	85.38
322.191	85.38
322.42	111.38
322.649	106.38
322.878	113.38
323.108	103.38
323.337	107.38
323.566	111.38
323.795	135.38
324.024	200.38
324.253	375.38
324.482	799.38
324.71	1622.38
324.939	2066.38
325.168	763.38
325.397	218.38
325.626	148.38
325.855	112.38
326.084	115.38
326.313	133.38
326.542	158.38
326.77	218.38
326.999	452.38
327.228	914.38
327.457	1585.38
327.686	1264.38
327.914	350.38
328.143	187.38
328.372	146.38
328.6	140.38
328.829	120.38
329.058	124.38
329.287	133.38
329.515	101.38
329.744	95.38
329.972	104.38
330.201	91.38
330.43	103.38
330.658	127.38
330.887	145.38
331.115	147.38
331.344	101.38
331.572	105.38
331.801	102.38
332.03	88.38
332.258	107.38
332.486	95.38
332.715	86.38
332.943	86.38
333.172	97.38
333.4	89.38
333.629	100.38
333.857	94.38
334.085	102.38
334.314	104.38
334.542	89.38
334.771	81.38
334.999	92.38
335.227	87.38
335.455	96.38
335.684	92.38
335.912	94.38
336.14	107.38
336.369	94.38
336.597	94.38
336.825	97.38
337.053	96.38
337.281	99.38
337.51	86.38
337.738	108.38
337.966	83.38
338.194	98.38
338.422	100.38
338.65	95.38
338.878	88.38
339.106	88.38
339.334	97.38
339.562	90.38
339.79	102.38
340.018	83.38
340.246	73.38
340.474	94.38
340.702	89.38
340.93	105.38
341.158	84.38
341.386	100.38
341.614	98.38
341.842	91.38
342.07	89.38
342.298	97.38
342.526	90.38
342.754	82.38
342.981	94.38
343.209	81.38
343.437	93.38
343.665	74.38
343.893	87.38
344.12	99.38
344.348	88.38
344.576	93.38
344.804	104.38
345.031	99.38
345.259	89.38
345.487	94.38
345.714	90.38
345.942	80.38
346.17	97.38
346.397	92.38
346.625	83.38
346.853	92.38
347.08	86.38
347.308	90.38
347.535	89.38
347.763	93.38
347.99	117.38
348.218	98.38
348.445	108.38
348.673	94.38
348.9	90.38
349.128	93.38
349.355	94.38
349.583	85.38
349.81	77.38
350.037	100.38
350.265	99.38
350.492	100.38
350.72	89.38
350.947	97.38
351.174	98.38
351.402	104.38
351.629	100.38
351.856	96.38
352.083	89.38
352.311	117.38
352.538	103.38
352.765	111.38
352.992	119.38
353.22	100.38
353.447	94.38
353.674	98.38
353.901	87.38
354.128	86.38
354.355	94.38
354.583	95.38
354.81	87.38
355.037	93.38
355.264	90.38
355.491	92.38
355.718	99.38
355.945	93.38
356.172	115.38
356.399	101.38
356.626	103.38
356.853	96.38
357.08	74.38
357.307	86.38
357.534	82.38
357.761	75.38
357.988	94.38
358.215	89.38
358.441	87.38
358.668	80.38
358.895	74.38
359.122	70.38
359.349	72.38
359.576	93.38
359.802	108.38
360.029	108.38
360.256	111.38
360.483	86.38
360.709	95.38
360.936	87.38
361.163	101.38
361.39	84.38
361.616	87.38
361.843	85.38
362.07	96.38
362.296	94.38
362.523	92.38
362.749	100.38
362.976	89.38
363.203	95.38
363.429	97.38
363.656	98.38
363.882	76.38
364.109	84.38
364.335	89.38
364.562	93.38
364.788	103.38
365.015	93.38
365.241	93.38
365.468	101.38
365.694	106.38
365.92	95.38
366.147	98.38
366.373	81.38
366.599	80.38
366.826	84.38
367.052	78.38
367.278	103.38
367.505	100.38
367.731	99.38
367.957	104.38
368.184	110.38
368.41	103.38
368.636	96.38
368.862	130.38
369.089	105.38
369.315	83.38
369.541	80.38
369.767	94.38
369.993	96.38
370.219	101.38
370.445	96.38
370.672	79.38
370.898	94.38
371.124	77.38
371.35	93.38
371.576	86.38
371.802	89.38
372.028	79.38
372.254	85.38
372.48	92.38
372.706	73.38
372.932	90.38
373.158	98.38
373.384	86.38
373.61	88.38
373.835	83.38
374.061	90.38
374.287	94.38
374.513	84.38
374.739	74.38
374.965	93.38
375.191	98.38
375.416	86.38
375.642	89.38
375.868	90.38
376.094	86.38
376.319	86.38
376.545	89.38
376.771	97.38
376.997	79.38
377.222	87.38
377.448	102.38
377.674	75.38
377.899	81.38
378.125	78.38
378.35	87.38
378.576	81.38
378.802	79.38
379.027	79.38
379.253	91.38
379.478	88.38
379.704	85.38
379.929	81.38
380.155	96.38
380.38	80.38
380.606	84.38
380.831	103.38
381.057	93.38
381.282	90.38
381.507	98.38
381.733	75.38
381.958	92.38
382.184	95.38
382.409	94.38
382.634	103.38
382.86	86.38
383.085	88.38
383.31	87.38
383.535	88.38
383.761	97.38
383.986	97.38
384.211	100.38
384.436	93.38
384.662	96.38
384.887	100.38
385.112	94.38
385.337	104.38
385.562	97.38
385.787	91.38
386.013	96.38
386.238	129.38
386.463	100.38
386.688	99.38
386.913	94.38
387.138	80.38
387.363	85.38
387.588	92.38
387.813	101.38
388.038	107.38
388.263	96.38
388.488	99.38
388.713	83.38
388.938	91.38
389.163	77.38
389.387	90.38
389.612	103.38
389.837	98.38
390.062	80.38
390.287	89.38
390.512	91.38
390.736	86.38
390.961	86.38
391.186	98.38
391.411	90.38
391.636	91.38
391.86	106.38
392.085	87.38
392.31	80.38
392.534	92.38
392.759	91.38
392.984	88.38
393.208	90.38
393.433	99.38
393.658	98.38
393.882	82.38
394.107	85.38
394.331	83.38
394.556	79.38
394.78	81.38
395.005	86.38
395.229	89.38
395.454	94.38
395.678	97.38
395.903	83.38
396.127	84.38
396.352	83.38
396.576	83.38
396.801	86.38
397.025	80.38
397.249	73.38
397.474	86.38
397.698	80.38
397.922	88.38
398.147	83.38
398.371	77.38
398.595	85.38
398.82	81.38
399.044	88.38
399.268	73.38
399.492	79.38
399.717	76.38
399.941	94.38
400.165	95.38
400.389	78.38
400.613	81.38
400.837	84.38
401.062	80.38
401.286	89.38
401.51	89.38
401.734	88.38
401.958	98.38
402.182	129.38
402.406	163.38
402.63	133.38
402.854	77.38
403.078	90.38
403.302	84.38
403.526	81.38
403.75	92.38
403.974	82.38
404.198	91.38
404.422	76.38
404.645	105.38
404.869	85.38
405.093	91.38
405.317	117.38
405.541	95.38
405.765	85.38
405.988	128.38
406.212	174.38
406.436	227.38
406.66	155.38
406.883	115.38
407.107	89.38
407.331	89.38
407.555	97.38
407.778	97.38
408.002	88.38
408.226	83.38
408.449	88.38
408.673	97.38
408.896	95.38
409.12	88.38
409.344	81.38
409.567	78.38
409.791	88.38
410.014	88.38
410.238	92.38
410.461	79.38
410.685	91.38
410.908	91.38
411.132	99.38
411.355	95.38
411.578	91.38
411.802	76.38
412.025	106.38
412.249	89.38
412.472	86.38
412.695	90.38
412.919	90.38
413.142	95.38
413.365	89.38
413.589	98.38
413.812	95.38
414.035	85.38
414.258	97.38
414.482	82.38
414.705	91.38
414.928	84.38
415.151	92.38
415.374	80.38
415.597	84.38
415.821	93.38
416.044	94.38
416.267	74.38
416.49	74.38
416.713	93.38
416.936	84.38
417.159	89.38
417.382	100.38
417.605	89.38
417.828	94.38
418.051	80.38
418.274	91.38
418.497	73.38
418.72	76.38
418.943	82.38
419.166	74.38
419.389	85.38
419.611	75.38
419.834	75.38
420.057	82.38
420.28	91.38
420.503	76.38
420.726	89.38
420.948	81.38
421.171	103.38
421.394	90.38
421.617	88.38
421.839	84.38
422.062	81.38
422.285	89.38
422.507	102.38
422.73	91.38
422.953	92.38
423.175	68.38
423.398	96.38
423.621	100.38
423.843	83.38
424.066	82.38
424.288	75.38
424.511	91.38
424.733	100.38
424.956	102.38
425.178	111.38
425.401	95.38
425.623	98.38
425.846	97.38
426.068	86.38
426.291	78.38
426.513	81.38
426.735	94.38
426.958	92.38
427.18	106.38
427.402	124.38
427.625	166.38
427.847	128.38
428.069	98.38
428.292	87.38
428.514	89.38
428.736	83.38
428.958	94.38
429.181	80.38
429.403	80.38
429.625	78.38
429.847	92.38
430.069	101.38
430.292	86.38
430.514	92.38
430.736	74.38
430.958	97.38
431.18	85.38
431.402	74.38
431.624	80.38
431.846	74.38
432.068	76.38
432.29	93.38
432.512	83.38
432.734	98.38
432.956	84.38
433.178	100.38
433.4	107.38
433.622	79.38
433.844	96.38
434.066	107.38
434.287	93.38
434.509	78.38
434.731	76.38
434.953	100.38
435.175	89.38
435.397	98.38
435.618	110.38
435.84	102.38
436.062	115.38
436.284	112.38
436.505	100.38
436.727	90.38
436.949	93.38
437.17	97.38
437.392	84.38
437.614	96.38
437.835	112.38
438.057	106.38
438.278	107.38
438.5	103.38
438.721	138.38
438.943	93.38
439.165	99.38
439.386	86.38
439.608	81.38
439.829	101.38
440.05	123.38
440.272	151.38
440.493	100.38
440.715	83.38
440.936	99.38
441.158	99.38
441.379	97.38
441.6	92.38
441.822	95.38
442.043	92.38
442.264	108.38
442.486	96.38
442.707	94.38
442.928	107.38
443.149	130.38
443.371	142.38
443.592	110.38
443.813	116.38
444.034	99.38
444.255	99.38
444.476	90.38
444.698	96.38
444.919	78.38
445.14	129.38
445.361	121.38
445.582	121.38
445.803	143.38
446.024	128.38
446.245	131.38
446.466	89.38
446.687	96.38
446.908	86.38
447.129	91.38
447.35	96.38
447.571	94.38
447.792	83.38
448.013	94.38
448.234	110.38
448.455	86.38
448.675	104.38
448.896	113.38
449.117	106.38
449.338	98.38
449.559	114.38
449.779	120.38
450	80.38
450.221	87.38
450.442	87.38
450.662	101.38
450.883	104.38
451.104	106.38
451.324	96.38
451.545	95.38
451.766	78.38
451.986	93.38
452.207	92.38
452.428	106.38
452.648	78.38
452.869	108.38
453.089	104.38
453.31	99.38
453.53	102.38
453.751	84.38
453.971	99.38
454.192	110.38
454.412	83.38
454.633	83.38
454.853	91.38
455.073	81.38
455.294	90.38
455.514	97.38
455.734	98.38
455.955	82.38
456.175	87.38
456.395	84.38
456.616	68.38
456.836	74.38
457.056	88.38
457.276	84.38
457.497	101.38
457.717	90.38
457.937	80.38
458.157	86.38
458.377	100.38
458.598	96.38
458.818	151.38
459.038	160.38
459.258	118.38
459.478	99.38
459.698	87.38
459.918	73.38
460.138	80.38
460.358	90.38
460.578	88.38
460.798	84.38
461.018	82.38
461.238	85.38
461.458	79.38
461.678	87.38
461.898	83.38
462.118	94.38
462.338	80.38
462.558	85.38
462.777	97.38
462.997	88.38
463.217	81.38
463.437	85.38
463.657	86.38
463.876	90.38
464.096	86.38
464.316	89.38
464.536	96.38
464.755	78.38
464.975	106.38
465.195	165.38
465.414	158.38
465.634	92.38
465.854	88.38
466.073	77.38
466.293	86.38
466.512	79.38
466.732	98.38
466.951	85.38
467.171	93.38
467.391	80.38
467.61	116.38
467.829	94.38
468.049	86.38
468.268	99.38
468.488	96.38
468.707	91.38
468.927	80.38
469.146	84.38
469.365	90.38
469.585	95.38
469.804	95.38
470.023	88.38
470.243	99.38
470.462	106.38
470.681	111.38
470.901	85.38
471.12	88.38
471.339	88.38
471.558	95.38
471.777	102.38
471.997	68.38
472.216	87.38
472.435	94.38
472.654	82.38
472.873	95.38
473.092	80.38
473.311	75.38
473.53	76.38
473.749	78.38
473.968	87.38
474.187	109.38
474.406	106.38
474.625	86.38
474.844	93.38
475.063	93.38
475.282	82.38
475.501	81.38
475.72	102.38
475.939	97.38
476.158	75.38
476.377	81.38
476.596	89.38
476.814	83.38
477.033	96.38
477.252	91.38
477.471	86.38
477.69	85.38
477.908	87.38
478.127	93.38
478.346	91.38
478.564	83.38
478.783	99.38
479.002	106.38
479.22	100.38
479.439	101.38
479.658	95.38
479.876	99.38
480.095	74.38
480.313	94.38
480.532	89.38
480.751	91.38
480.969	92.38
481.188	105.38
481.406	87.38
481.624	106.38
481.843	90.38
482.061	82.38
482.28	90.38
482.498	91.38
482.717	89.38
482.935	92.38
483.153	91.38
483.372	67.38
483.59	98.38
483.808	90.38
484.027	85.38
484.245	95.38
484.463	89.38
484.681	84.38
484.9	84.38
485.118	90.38
485.336	79.38
485.554	92.38
485.772	83.38
485.99	103.38
486.209	97.38
486.427	97.38
486.645	98.38
486.863	106.38
487.081	102.38
487.299	90.38
487.517	94.38
487.735	89.38
487.953	89.38
488.171	98.38
488.389	102.38
488.607	99.38
488.825	91.38
489.043	91.38
489.261	101.38
489.479	83.38
489.696	91.38
489.914	83.38
490.132	77.38
490.35	82.38
490.568	84.38
490.786	81.38
491.003	85.38
491.221	92.38
491.439	83.38
491.657	91.38
491.874	89.38
492.092	89.38
492.31	85.38
492.527	83.38
492.745	94.38
492.963	84.38
493.18	92.38
493.398	101.38
493.615	100.38
493.833	78.38
494.05	91.38
494.268	84.38
494.485	82.38
494.703	83.38
494.92	83.38
495.138	90.38
495.355	98.38
495.573	92.38
495.79	87.38
496.008	102.38
496.225	88.38
496.442	79.38
496.66	83.38
496.877	89.38
497.094	96.38
497.312	81.38
497.529	79.38
497.746	86.38
497.963	89.38
498.181	85.38
498.398	96.38
498.615	95.38
498.832	98.38
499.049	96.38
499.267	89.38
499.484	79.38
499.701	90.38
499.918	85.38
500.135	81.38
500.352	90.38
500.569	86.38
500.786	107.38
501.003	97.38
501.22	78.38
501.437	82.38
501.654	95.38
501.871	96.38
502.088	86.38
502.305	87.38
502.522	95.38
502.739	94.38
502.956	88.38
503.172	77.38
503.389	84.38
503.606	117.38
503.823	89.38
504.04	95.38
504.256	98.38
504.473	89.38
504.69	82.38
504.907	99.38
505.123	96.38
505.34	92.38
505.557	99.38
505.773	96.38
505.99	100.38
506.207	83.38
506.423	81.38
506.64	98.38
506.856	106.38
507.073	87.38
507.289	82.38
507.506	107.38
507.722	127.38
507.939	98.38
508.155	92.38
508.372	96.38
508.588	85.38
508.805	95.38
509.021	96.38
509.238	104.38
509.454	100.38
509.67	105.38
509.887	118.38
510.103	129.38
510.319	214.38
510.536	807.38
510.752	2451.38
510.968	676.38
511.184	156.38
511.401	120.38
511.617	98.38
511.833	96.38
512.049	97.38
512.265	92.38
512.481	86.38
512.698	94.38
512.914	87.38
513.13	103.38
513.346	96.38
513.562	97.38
513.778	85.38
513.994	101.38
514.21	106.38
514.426	122.38
514.642	129.38
514.858	126.38
515.074	177.38
515.29	483.38
515.506	1560.38
515.721	557.38
515.937	159.38
516.153	127.38
516.369	98.38
516.585	90.38
