Data from Uncirc_2001_H10_HRD10591_00022.txt Node
Date: Wed Jan 03 10:44:01 EST 2024
User: Yrep
Spectrometer: HR+D1059
Trigger mode: 1
Integration Time (sec): 1.000000E-1
Scans to average: 1
Electric dark correction enabled: true
Nonlinearity correction enabled: false
Boxcar width: 0
XAxis mode: Wavelengths
Number of Pixels in Spectrum: 2048
>>>>>Begin Spectral Data<<<<<
223.165	-13
223.4	-13
223.635	-13
223.869	-18
224.104	-34
224.338	-23
224.573	-8
224.808	2
225.042	-1
225.277	-16
225.511	-2
225.746	3
225.98	3
226.215	10
226.449	17
226.683	26
226.918	34
227.152	20
227.387	42
227.621	27
227.856	49
228.09	42
228.324	42
228.559	51
228.793	48
229.027	62
229.262	52
229.496	76
229.73	83
229.964	74
230.199	78
230.433	71
230.667	73
230.901	73
231.136	88
231.37	82
231.604	81
231.838	81
232.072	92
232.306	75
232.541	92
232.775	72
233.009	84
233.243	83
233.477	87
233.711	83
233.945	94
234.179	75
234.413	75
234.647	70
234.881	79
235.115	86
235.349	71
235.583	81
235.817	79
236.051	81
236.285	78
236.519	90
236.753	75
236.987	88
237.221	75
237.455	69
237.689	82
237.922	73
238.156	66
238.39	79
238.624	73
238.858	68
239.091	76
239.325	69
239.559	74
239.793	81
240.027	84
240.26	74
240.494	80
240.728	65
240.961	72
241.195	68
241.429	67
241.662	73
241.896	81
242.13	70
242.363	73
242.597	73
242.83	68
243.064	66
243.298	79
243.531	70
243.765	72
243.998	75
244.232	79
244.465	85
244.699	92
244.932	74
245.166	86
245.399	83
245.633	61
245.866	90
246.099	73
246.333	88
246.566	78
246.8	75
247.033	78
247.266	76
247.5	96
247.733	86
247.966	92
248.2	89
248.433	88
248.666	75
248.899	87
249.133	88
249.366	96
249.599	97
249.832	83
250.066	81
250.299	74
250.532	77
250.765	82
250.998	76
251.231	79
251.465	75
251.698	64
251.931	84
252.164	86
252.397	80
252.63	78
252.863	72
253.096	85
253.329	79
253.562	84
253.795	78
254.028	74
254.261	81
254.494	62
254.727	72
254.96	73
255.193	68
255.426	84
255.659	60
255.892	79
256.124	76
256.357	91
256.59	87
256.823	84
257.056	84
257.289	78
257.521	97
257.754	83
257.987	76
258.22	86
258.452	83
258.685	74
258.918	83
259.151	100
259.383	79
259.616	95
259.849	98
260.081	90
260.314	82
260.547	65
260.779	84
261.012	86
261.244	87
261.477	73
261.71	85
261.942	103
262.175	107
262.407	92
262.64	89
262.872	83
263.105	88
263.337	93
263.57	82
263.802	77
264.035	95
264.267	95
264.499	80
264.732	91
264.964	85
265.197	71
265.429	86
265.661	82
265.894	80
266.126	89
266.358	78
266.591	89
266.823	79
267.055	98
267.287	72
267.52	78
267.752	84
267.984	75
268.216	80
268.448	92
268.681	80
268.913	90
269.145	93
269.377	81
269.609	92
269.841	72
270.073	86
270.306	92
270.538	90
270.77	99
271.002	91
271.234	84
271.466	88
271.698	85
271.93	95
272.162	90
272.394	83
272.626	100
272.858	76
273.09	88
273.322	67
273.553	63
273.785	87
274.017	82
274.249	73
274.481	82
274.713	88
274.945	88
275.176	90
275.408	87
275.64	74
275.872	85
276.104	105
276.335	92
276.567	107
276.799	93
277.031	94
277.262	101
277.494	92
277.726	87
277.957	98
278.189	80
278.421	92
278.652	86
278.884	84
279.115	78
279.347	88
279.579	84
279.81	100
280.042	91
280.273	102
280.505	90
280.736	96
280.968	80
281.199	86
281.431	96
281.662	87
281.894	86
282.125	91
282.356	106
282.588	118
282.819	115
283.051	99
283.282	93
283.513	88
283.745	90
283.976	97
284.207	78
284.439	100
284.67	84
284.901	81
285.132	83
285.364	82
285.595	66
285.826	92
286.057	93
286.288	85
286.52	91
286.751	90
286.982	73
287.213	92
287.444	92
287.675	79
287.906	81
288.138	93
288.369	101
288.6	91
288.831	88
289.062	84
289.293	73
289.524	79
289.755	68
289.986	83
290.217	74
290.448	74
290.679	92
290.91	87
291.141	88
291.371	79
291.602	84
291.833	80
292.064	91
292.295	82
292.526	87
292.757	90
292.987	90
293.218	88
293.449	94
293.68	83
293.91	99
294.141	79
294.372	102
294.603	84
294.833	96
295.064	90
295.295	82
295.525	88
295.756	105
295.987	110
296.217	137
296.448	117
296.679	90
296.909	81
297.14	92
297.37	73
297.601	96
297.831	88
298.062	93
298.292	88
298.523	89
298.753	96
298.984	85
299.214	83
299.445	85
299.675	94
299.905	75
300.136	83
300.366	89
300.597	96
300.827	96
301.057	98
301.288	99
301.518	91
301.748	89
301.979	104
302.209	92
302.439	93
302.669	92
302.9	83
303.13	99
303.36	75
303.59	90
303.82	94
304.051	95
304.281	91
304.511	102
304.741	100
304.971	85
305.201	99
305.431	89
305.661	96
305.891	82
306.121	100
306.352	117
306.582	86
306.812	97
307.042	114
307.272	93
307.502	90
307.731	100
307.961	95
308.191	85
308.421	93
308.651	85
308.881	94
309.111	81
309.341	96
309.571	98
309.8	88
310.03	94
310.26	91
310.49	97
310.72	90
310.949	95
311.179	86
311.409	88
311.639	74
311.868	92
312.098	108
312.328	99
312.557	103
312.787	90
313.017	103
313.246	92
313.476	93
313.706	89
313.935	94
314.165	88
314.394	86
314.624	101
314.853	93
315.083	92
315.312	83
315.542	83
315.771	85
316.001	86
316.23	82
316.46	87
316.689	97
316.919	93
317.148	91
317.377	86
317.607	90
317.836	87
318.065	102
318.295	92
318.524	92
318.753	74
318.983	100
319.212	102
319.441	108
319.67	106
319.9	100
320.129	87
320.358	78
320.587	85
320.816	85
321.046	97
321.275	92
321.504	90
321.733	90
321.962	111
322.191	96
322.42	107
322.649	88
322.878	102
323.108	111
323.337	121
323.566	134
323.795	142
324.024	186
324.253	335
324.482	691
324.71	1307
324.939	1658
325.168	638
325.397	220
325.626	154
325.855	130
326.084	119
326.313	115
326.542	147
326.77	202
326.999	348
327.228	721
327.457	1280
327.686	1014
327.914	279
328.143	164
328.372	148
328.6	102
328.829	119
329.058	113
329.287	113
329.515	97
329.744	95
329.972	101
330.201	95
330.43	106
330.658	121
330.887	132
331.115	110
331.344	86
331.572	115
331.801	115
332.03	106
332.258	89
332.486	87
332.715	92
332.943	99
333.172	100
333.4	78
333.629	104
333.857	91
334.085	87
334.314	92
334.542	110
334.771	100
334.999	94
335.227	101
335.455	85
335.684	90
335.912	96
336.14	91
336.369	98
336.597	101
336.825	107
337.053	113
337.281	83
337.51	79
337.738	103
337.966	83
338.194	92
338.422	89
338.65	111
338.878	94
339.106	96
339.334	89
339.562	108
339.79	89
340.018	94
340.246	91
340.474	96
340.702	98
340.93	95
341.158	96
341.386	98
341.614	108
341.842	76
342.07	84
342.298	98
342.526	80
342.754	97
342.981	82
343.209	99
343.437	102
343.665	77
343.893	95
344.12	92
344.348	88
344.576	89
344.804	99
345.031	100
345.259	94
345.487	98
345.714	90
345.942	93
346.17	86
346.397	111
346.625	99
346.853	94
347.08	79
347.308	59
347.535	87
347.763	89
347.99	97
348.218	92
348.445	97
348.673	106
348.9	102
349.128	112
349.355	93
349.583	104
349.81	91
350.037	93
350.265	89
350.492	94
350.72	95
350.947	95
351.174	95
351.402	93
351.629	99
351.856	91
352.083	87
352.311	106
352.538	110
352.765	91
352.992	109
353.22	96
353.447	106
353.674	97
353.901	113
354.128	99
354.355	101
354.583	106
354.81	92
355.037	92
355.264	99
355.491	97
355.718	91
355.945	105
356.172	99
356.399	98
356.626	107
356.853	92
357.08	92
357.307	98
357.534	83
357.761	97
357.988	101
358.215	99
358.441	92
358.668	84
358.895	88
359.122	73
359.349	98
359.576	88
359.802	97
360.029	115
360.256	104
360.483	90
360.709	91
360.936	101
361.163	100
361.39	102
361.616	85
361.843	98
362.07	86
362.296	104
362.523	92
362.749	97
362.976	100
363.203	85
363.429	82
363.656	71
363.882	82
364.109	98
364.335	97
364.562	83
364.788	91
365.015	106
365.241	102
365.468	111
365.694	96
365.92	99
366.147	83
366.373	86
366.599	83
366.826	89
367.052	86
367.278	85
367.505	90
367.731	97
367.957	88
368.184	86
368.41	107
368.636	114
368.862	113
369.089	123
369.315	99
369.541	91
369.767	92
369.993	97
370.219	98
370.445	83
370.672	76
370.898	84
371.124	92
371.35	90
371.576	91
371.802	84
372.028	97
372.254	95
372.48	91
372.706	87
372.932	93
373.158	98
373.384	97
373.61	90
373.835	83
374.061	92
374.287	89
374.513	82
374.739	97
374.965	79
375.191	88
375.416	85
375.642	92
375.868	100
376.094	76
376.319	90
376.545	90
376.771	96
376.997	85
377.222	86
377.448	97
377.674	89
377.899	100
378.125	107
378.35	109
378.576	92
378.802	90
379.027	78
379.253	90
379.478	90
379.704	93
379.929	83
380.155	93
380.38	80
380.606	85
380.831	87
381.057	90
381.282	92
381.507	83
381.733	98
381.958	97
382.184	101
382.409	106
382.634	101
382.86	103
383.085	99
383.31	94
383.535	113
383.761	101
383.986	111
384.211	92
384.436	89
384.662	87
384.887	99
385.112	95
385.337	97
385.562	101
385.787	106
386.013	99
386.238	118
386.463	91
386.688	110
386.913	110
387.138	106
387.363	113
387.588	94
387.813	94
388.038	111
388.263	106
388.488	122
388.713	81
388.938	94
389.163	85
389.387	87
389.612	104
389.837	106
390.062	91
390.287	92
390.512	76
390.736	84
390.961	95
391.186	102
391.411	94
391.636	87
391.86	88
392.085	95
392.31	88
392.534	92
392.759	75
392.984	94
393.208	99
393.433	92
393.658	92
393.882	96
394.107	86
394.331	81
394.556	90
394.78	72
395.005	89
395.229	75
395.454	97
395.678	72
395.903	90
396.127	100
396.352	87
396.576	88
396.801	90
397.025	90
397.249	74
397.474	83
397.698	85
397.922	88
398.147	74
398.371	79
398.595	90
398.82	90
399.044	91
399.268	87
399.492	102
399.717	86
399.941	92
400.165	91
400.389	95
400.613	82
400.837	73
401.062	89
401.286	81
401.51	92
401.734	90
401.958	99
402.182	119
402.406	137
402.63	122
402.854	102
403.078	75
403.302	92
403.526	84
403.75	85
403.974	97
404.198	90
404.422	92
404.645	94
404.869	85
405.093	84
405.317	98
405.541	93
405.765	100
405.988	103
406.212	157
406.436	195
406.66	142
406.883	98
407.107	98
407.331	93
407.555	102
407.778	84
408.002	76
408.226	95
408.449	77
408.673	87
408.896	90
409.12	84
409.344	82
409.567	93
409.791	92
410.014	96
410.238	83
410.461	82
410.685	82
410.908	95
411.132	100
411.355	103
411.578	95
411.802	100
412.025	71
412.249	82
412.472	90
412.695	105
412.919	87
413.142	96
413.365	79
413.589	74
413.812	92
414.035	92
414.258	77
414.482	80
414.705	86
414.928	88
415.151	106
415.374	103
415.597	86
415.821	105
416.044	89
416.267	91
416.49	86
416.713	91
416.936	88
417.159	86
417.382	106
417.605	99
417.828	95
418.051	87
418.274	99
418.497	73
418.72	79
418.943	86
419.166	92
419.389	77
419.611	75
419.834	83
420.057	80
420.28	86
420.503	97
420.726	92
420.948	90
421.171	84
421.394	83
421.617	87
421.839	99
422.062	86
422.285	89
422.507	98
422.73	84
422.953	93
423.175	96
423.398	102
423.621	88
423.843	78
424.066	86
424.288	92
424.511	76
424.733	84
424.956	90
425.178	108
425.401	89
425.623	77
425.846	92
426.068	98
426.291	79
426.513	87
426.735	90
426.958	93
427.18	112
427.402	124
427.625	147
427.847	107
428.069	95
428.292	89
428.514	89
428.736	96
428.958	86
429.181	101
429.403	79
429.625	67
429.847	86
430.069	82
430.292	106
430.514	75
430.736	79
430.958	73
431.18	78
431.402	93
431.624	72
431.846	100
432.068	101
432.29	74
432.512	78
432.734	92
432.956	76
433.178	82
433.4	80
433.622	89
433.844	80
434.066	79
434.287	97
434.509	96
434.731	91
434.953	78
435.175	86
435.397	82
435.618	81
435.84	105
436.062	117
436.284	105
436.505	102
436.727	93
436.949	87
437.17	83
437.392	83
437.614	81
437.835	96
438.057	110
438.278	98
438.5	109
438.721	111
438.943	102
439.165	91
439.386	74
439.608	91
439.829	94
440.05	104
440.272	134
440.493	98
440.715	96
440.936	86
441.158	79
441.379	85
441.6	89
441.822	88
442.043	85
442.264	89
442.486	99
442.707	93
442.928	108
443.149	116
443.371	112
443.592	107
443.813	113
444.034	103
444.255	109
444.476	83
444.698	88
444.919	101
445.14	120
445.361	102
445.582	106
445.803	118
446.024	113
446.245	121
446.466	122
446.687	85
446.908	81
447.129	88
447.35	84
447.571	96
447.792	106
448.013	95
448.234	91
448.455	100
448.675	94
448.896	90
449.117	102
449.338	102
449.559	130
449.779	120
450	89
450.221	89
450.442	90
450.662	98
450.883	99
451.104	110
451.324	95
451.545	83
451.766	98
451.986	83
452.207	100
452.428	95
452.648	104
452.869	106
453.089	115
453.31	98
453.53	94
453.751	91
453.971	108
454.192	100
454.412	102
454.633	81
454.853	95
455.073	92
455.294	93
455.514	86
455.734	87
455.955	93
456.175	81
456.395	80
456.616	72
456.836	72
457.056	76
457.276	95
457.497	79
457.717	84
457.937	80
458.157	107
458.377	105
458.598	80
458.818	145
459.038	146
459.258	110
459.478	82
459.698	86
459.918	83
460.138	86
460.358	104
460.578	73
460.798	97
461.018	86
461.238	88
461.458	90
461.678	77
461.898	92
462.118	88
462.338	97
462.558	91
462.777	89
462.997	91
463.217	79
463.437	92
463.657	85
463.876	94
464.096	82
464.316	91
464.536	95
464.755	96
464.975	100
465.195	153
465.414	137
465.634	97
465.854	91
466.073	89
466.293	91
466.512	80
466.732	77
466.951	92
467.171	92
467.391	97
467.61	94
467.829	105
468.049	95
468.268	84
468.488	75
468.707	86
468.927	92
469.146	87
469.365	78
469.585	78
469.804	84
470.023	113
470.243	102
470.462	92
470.681	105
470.901	87
471.12	91
471.339	83
471.558	73
471.777	87
471.997	85
472.216	81
472.435	94
472.654	74
472.873	82
473.092	95
473.311	84
473.53	85
473.749	92
473.968	87
474.187	106
474.406	109
474.625	84
474.844	88
475.063	74
475.282	83
475.501	70
475.72	79
475.939	88
476.158	75
476.377	81
476.596	78
476.814	81
477.033	86
477.252	80
477.471	78
477.69	90
477.908	81
478.127	71
478.346	97
478.564	82
478.783	111
479.002	88
479.22	85
479.439	87
479.658	91
479.876	92
480.095	99
480.313	94
480.532	98
480.751	101
480.969	90
481.188	93
481.406	88
481.624	97
481.843	80
482.061	91
482.28	101
482.498	86
482.717	83
482.935	86
483.153	84
483.372	93
483.59	85
483.808	98
484.027	99
484.245	92
484.463	91
484.681	81
484.9	83
485.118	86
485.336	89
485.554	100
485.772	100
485.99	87
486.209	98
486.427	100
486.645	101
486.863	101
487.081	110
487.299	102
487.517	98
487.735	79
487.953	94
488.171	102
488.389	97
488.607	85
488.825	93
489.043	95
489.261	87
489.479	101
489.696	103
489.914	81
490.132	80
490.35	90
490.568	96
490.786	82
491.003	86
491.221	87
491.439	87
491.657	93
491.874	87
492.092	103
492.31	88
492.527	96
492.745	84
492.963	83
493.18	91
493.398	90
493.615	98
493.833	103
494.05	90
494.268	71
494.485	94
494.703	91
494.92	86
495.138	86
495.355	83
495.573	75
495.79	82
496.008	87
496.225	85
496.442	90
496.66	88
496.877	78
497.094	91
497.312	106
497.529	86
497.746	92
497.963	97
498.181	91
498.398	103
498.615	110
498.832	92
499.049	99
499.267	92
499.484	96
499.701	96
499.918	98
500.135	91
500.352	89
500.569	79
500.786	95
501.003	84
501.22	80
501.437	97
501.654	90
501.871	92
502.088	88
502.305	95
502.522	99
502.739	83
502.956	97
503.172	90
503.389	103
503.606	101
503.823	99
504.04	83
504.256	101
504.473	93
504.69	104
504.907	88
505.123	82
505.34	89
505.557	103
505.773	93
505.99	90
506.207	96
506.423	92
506.64	102
506.856	95
507.073	93
507.289	90
507.506	90
507.722	103
507.939	100
508.155	95
508.372	80
508.588	79
508.805	94
509.021	105
509.238	102
509.454	98
509.67	100
509.887	114
510.103	139
510.319	224
510.536	674
510.752	2085
510.968	594
511.184	164
511.401	100
511.617	99
511.833	93
512.049	97
512.265	91
512.481	85
512.698	90
512.914	99
513.13	91
513.346	82
513.562	80
513.778	110
513.994	97
514.21	85
514.426	109
514.642	119
514.858	116
515.074	167
515.29	414
515.506	1284
515.721	480
515.937	148
516.153	110
516.369	78
516.585	98
516.801	100
517.016	84
517.232	79
517.448	83
517.664	94
517.879	104
518.095	97
518.311	91
518.527	96
518.742	101
518.958	94
519.173	85
519.389	92
519.605	102
519.82	101
520.036	106
520.251	120
520.467	107
520.682	112
520.898	96
521.113	106
521.329	125
521.544	200
521.76	536
521.975	2156
522.19	1290
522.406	275
522.621	124
522.836	111
523.052	105
523.267	87
523.482	95
523.698	102
523.913	116
524.128	97
524.343	96
524.559	81
524.774	95
524.989	96
525.204	92
525.419	94
525.634	89
525.849	95
526.064	87
526.28	96
526.495	90
526.71	79
526.925	79
527.14	93
527.355	91
527.57	95
527.785	85
527.999	89
528.214	73
528.429	113
528.644	78
528.859	91
529.074	116
529.289	120
529.503	172
529.718	86
529.933	71
530.148	84
530.363	88
530.577	92
530.792	105
531.007	84
531.221	102
531.436	89
531.651	101
531.865	83
532.08	96
532.295	95
532.509	94
532.724	84
532.938	108
533.153	92
533.367	94
533.582	87
533.796	97
534.011	93
534.225	90
534.44	82
534.654	92
534.868	89
535.083	102
535.297	90
535.511	98
535.726	92
535.94	111
536.154	101
536.369	95
536.583	89
536.797	84
537.011	96
537.225	90
537.44	92
537.654	98
537.868	91
538.082	87
538.296	87
538.51	91
538.724	89
538.938	105
539.153	86
539.367	95
539.581	95
539.795	83
540.009	101
540.222	93
540.436	82
540.65	93
540.864	84
541.078	105
541.292	83
541.506	116
541.72	91
541.934	90
542.147	81
542.361	92
542.575	88
542.789	93
543.002	72
543.216	84
543.43	106
543.644	86
543.857	84
544.071	83
544.285	96
544.498	90
544.712	95
544.925	88
545.139	99
545.352	92
545.566	89
545.779	85
545.993	79
546.206	103
546.42	86
546.633	87
546.847	81
547.06	81
547.274	91
547.487	89
547.7	96
547.914	96
548.127	85
548.34	83
548.554	92
548.767	94
548.98	90
549.193	87
549.407	89
549.62	93
549.833	91
550.046	92
550.259	94
550.473	87
550.686	92
550.899	80
551.112	93
551.325	83
551.538	95
551.751	94
551.964	74
552.177	87
552.39	75
552.603	75
552.816	82
553.029	95
553.242	95
553.455	96
553.667	108
553.88	108
554.093	99
554.306	90
554.519	100
554.732	100
554.944	97
555.157	106
555.37	90
555.583	99
555.795	93
556.008	76
556.221	82
556.433	94
556.646	99
556.859	102
557.071	91
557.284	90
557.496	87
557.709	95
557.921	99
558.134	92
558.346	96
558.559	95
558.771	86
558.984	84
559.196	72
559.409	84
559.621	98
559.833	95
560.046	70
560.258	90
560.47	86
560.683	87
560.895	80
561.107	92
561.32	70
561.532	104
561.744	84
561.956	101
562.168	86
562.381	90
562.593	72
562.805	103
563.017	84
563.229	98
563.441	96
563.653	95
563.865	93
564.077	89
564.289	105
564.501	81
564.713	92
564.925	72
565.137	87
565.349	101
565.561	97
565.773	86
565.985	84
566.197	98
566.408	96
566.62	80
566.832	75
567.044	78
567.255	77
567.467	99
567.679	56
567.891	80
568.102	95
568.314	97
568.526	95
568.737	90
568.949	86
569.161	88
569.372	80
569.584	84
569.795	99
570.007	122
570.218	226
570.43	123
570.641	85
570.853	97
571.064	81
571.276	96
571.487	91
571.698	93
571.91	85
572.121	91
572.333	80
572.544	95
572.755	85
572.966	84
573.178	92
573.389	78
573.6	95
573.811	83
574.023	86
574.234	90
574.445	83
574.656	83
574.867	91
575.078	72
575.289	71
575.501	98
575.712	91
575.923	115
576.134	80
576.345	94
576.556	97
576.767	82
576.978	78
577.188	87
577.399	100
577.61	85
577.821	91
578.032	91
578.243	256
578.454	684
578.665	203
578.875	107
579.086	82
579.297	86
579.508	76
579.718	79
579.929	88
580.14	83
580.35	85
580.561	90
580.772	83
580.982	90
581.193	97
581.403	90
581.614	100
581.825	92
582.035	100
582.246	102
582.456	91
582.667	89
582.877	104
583.087	87
583.298	96
583.508	88
583.719	95
583.929	88
584.139	89
584.35	79
584.56	87
584.77	87
584.981	93
