Data from Uncirc_2001_H10_HRD10591_00069.txt Node
Date: Wed Jan 03 10:44:10 EST 2024
User: Yrep
Spectrometer: HR+D1059
Trigger mode: 1
Integration Time (sec): 1.000000E-1
Scans to average: 1
Electric dark correction enabled: true
Nonlinearity correction enabled: false
Boxcar width: 0
XAxis mode: Wavelengths
Number of Pixels in Spectrum: 2048
>>>>>Begin Spectral Data<<<<<
223.165	-9.94
223.4	-9.94
223.635	-9.94
223.869	-20.94
224.104	-20.94
224.338	-17.94
224.573	-12.94
224.808	-11.94
225.042	-9.94
225.277	-6.94
225.511	-17.94
225.746	4.06
225.98	12.06
226.215	17.06
226.449	16.06
226.683	39.06
226.918	18.06
227.152	23.06
227.387	33.06
227.621	40.06
227.856	37.06
228.09	32.06
228.324	40.06
228.559	59.06
228.793	53.06
229.027	47.06
229.262	50.06
229.496	69.06
229.73	63.06
229.964	71.06
230.199	63.06
230.433	68.06
230.667	73.06
230.901	71.06
231.136	71.06
231.37	82.06
231.604	70.06
231.838	82.06
232.072	87.06
232.306	76.06
232.541	90.06
232.775	80.06
233.009	77.06
233.243	81.06
233.477	85.06
233.711	76.06
233.945	77.06
234.179	81.06
234.413	80.06
234.647	79.06
234.881	68.06
235.115	66.06
235.349	82.06
235.583	88.06
235.817	79.06
236.051	88.06
236.285	84.06
236.519	90.06
236.753	80.06
236.987	68.06
237.221	77.06
237.455	90.06
237.689	84.06
237.922	76.06
238.156	81.06
238.39	72.06
238.624	75.06
238.858	74.06
239.091	69.06
239.325	81.06
239.559	83.06
239.793	83.06
240.027	86.06
240.26	68.06
240.494	82.06
240.728	72.06
240.961	84.06
241.195	81.06
241.429	78.06
241.662	74.06
241.896	81.06
242.13	71.06
242.363	90.06
242.597	65.06
242.83	71.06
243.064	68.06
243.298	78.06
243.531	68.06
243.765	83.06
243.998	78.06
244.232	70.06
244.465	76.06
244.699	90.06
244.932	81.06
245.166	76.06
245.399	88.06
245.633	72.06
245.866	77.06
246.099	78.06
246.333	70.06
246.566	78.06
246.8	90.06
247.033	77.06
247.266	70.06
247.5	84.06
247.733	82.06
247.966	74.06
248.2	84.06
248.433	75.06
248.666	75.06
248.899	88.06
249.133	86.06
249.366	92.06
249.599	87.06
249.832	69.06
250.066	82.06
250.299	75.06
250.532	79.06
250.765	83.06
250.998	79.06
251.231	75.06
251.465	64.06
251.698	83.06
251.931	83.06
252.164	84.06
252.397	82.06
252.63	75.06
252.863	66.06
253.096	73.06
253.329	85.06
253.562	69.06
253.795	73.06
254.028	74.06
254.261	83.06
254.494	85.06
254.727	80.06
254.96	72.06
255.193	84.06
255.426	89.06
255.659	67.06
255.892	84.06
256.124	72.06
256.357	81.06
256.59	80.06
256.823	80.06
257.056	86.06
257.289	76.06
257.521	82.06
257.754	81.06
257.987	77.06
258.22	68.06
258.452	88.06
258.685	79.06
258.918	88.06
259.151	60.06
259.383	82.06
259.616	84.06
259.849	74.06
260.081	86.06
260.314	84.06
260.547	80.06
260.779	65.06
261.012	73.06
261.244	76.06
261.477	104.06
261.71	99.06
261.942	105.06
262.175	112.06
262.407	96.06
262.64	76.06
262.872	72.06
263.105	79.06
263.337	89.06
263.57	79.06
263.802	82.06
264.035	64.06
264.267	83.06
264.499	87.06
264.732	102.06
264.964	75.06
265.197	74.06
265.429	76.06
265.661	78.06
265.894	79.06
266.126	76.06
266.358	79.06
266.591	84.06
266.823	84.06
267.055	93.06
267.287	80.06
267.52	87.06
267.752	80.06
267.984	98.06
268.216	84.06
268.448	85.06
268.681	92.06
268.913	91.06
269.145	82.06
269.377	91.06
269.609	83.06
269.841	69.06
270.073	86.06
270.306	69.06
270.538	83.06
270.77	81.06
271.002	80.06
271.234	90.06
271.466	86.06
271.698	78.06
271.93	88.06
272.162	83.06
272.394	77.06
272.626	77.06
272.858	81.06
273.09	78.06
273.322	92.06
273.553	77.06
273.785	82.06
274.017	84.06
274.249	80.06
274.481	80.06
274.713	79.06
274.945	99.06
275.176	93.06
275.408	74.06
275.64	85.06
275.872	91.06
276.104	84.06
276.335	86.06
276.567	97.06
276.799	119.06
277.031	108.06
277.262	94.06
277.494	80.06
277.726	83.06
277.957	88.06
278.189	89.06
278.421	73.06
278.652	71.06
278.884	87.06
279.115	76.06
279.347	98.06
279.579	77.06
279.81	69.06
280.042	90.06
280.273	88.06
280.505	68.06
280.736	76.06
280.968	83.06
281.199	101.06
281.431	75.06
281.662	107.06
281.894	89.06
282.125	89.06
282.356	116.06
282.588	148.06
282.819	108.06
283.051	94.06
283.282	78.06
283.513	74.06
283.745	92.06
283.976	87.06
284.207	82.06
284.439	82.06
284.67	82.06
284.901	70.06
285.132	89.06
285.364	84.06
285.595	95.06
285.826	92.06
286.057	79.06
286.288	72.06
286.52	83.06
286.751	70.06
286.982	93.06
287.213	85.06
287.444	98.06
287.675	91.06
287.906	84.06
288.138	90.06
288.369	86.06
288.6	75.06
288.831	91.06
289.062	76.06
289.293	89.06
289.524	93.06
289.755	93.06
289.986	100.06
290.217	89.06
290.448	89.06
290.679	80.06
290.91	99.06
291.141	82.06
291.371	86.06
291.602	82.06
291.833	77.06
292.064	83.06
292.295	79.06
292.526	93.06
292.757	86.06
292.987	90.06
293.218	75.06
293.449	87.06
293.68	92.06
293.91	80.06
294.141	96.06
294.372	82.06
294.603	96.06
294.833	87.06
295.064	88.06
295.295	92.06
295.525	102.06
295.756	100.06
295.987	109.06
296.217	131.06
296.448	121.06
296.679	81.06
296.909	100.06
297.14	85.06
297.37	78.06
297.601	91.06
297.831	90.06
298.062	90.06
298.292	79.06
298.523	89.06
298.753	106.06
298.984	81.06
299.214	97.06
299.445	90.06
299.675	81.06
299.905	104.06
300.136	84.06
300.366	75.06
300.597	88.06
300.827	82.06
301.057	98.06
301.288	91.06
301.518	86.06
301.748	79.06
301.979	94.06
302.209	82.06
302.439	80.06
302.669	95.06
302.9	88.06
303.13	87.06
303.36	91.06
303.59	101.06
303.82	96.06
304.051	84.06
304.281	78.06
304.511	102.06
304.741	104.06
304.971	93.06
305.201	89.06
305.431	85.06
305.661	85.06
305.891	82.06
306.121	91.06
306.352	106.06
306.582	102.06
306.812	103.06
307.042	89.06
307.272	80.06
307.502	72.06
307.731	97.06
307.961	83.06
308.191	81.06
308.421	97.06
308.651	92.06
308.881	90.06
309.111	89.06
309.341	89.06
309.571	89.06
309.8	99.06
310.03	92.06
310.26	101.06
310.49	84.06
310.72	92.06
310.949	101.06
311.179	98.06
311.409	99.06
311.639	102.06
311.868	96.06
312.098	87.06
312.328	90.06
312.557	96.06
312.787	107.06
313.017	102.06
313.246	95.06
313.476	92.06
313.706	96.06
313.935	95.06
314.165	96.06
314.394	101.06
314.624	91.06
314.853	103.06
315.083	93.06
315.312	84.06
315.542	91.06
315.771	85.06
316.001	87.06
316.23	84.06
316.46	94.06
316.689	83.06
316.919	106.06
317.148	103.06
317.377	89.06
317.607	83.06
317.836	87.06
318.065	85.06
318.295	86.06
318.524	89.06
318.753	86.06
318.983	94.06
319.212	114.06
319.441	104.06
319.67	112.06
319.9	88.06
320.129	79.06
320.358	92.06
320.587	88.06
320.816	97.06
321.046	103.06
321.275	92.06
321.504	89.06
321.733	91.06
321.962	96.06
322.191	98.06
322.42	108.06
322.649	106.06
322.878	101.06
323.108	106.06
323.337	139.06
323.566	132.06
323.795	155.06
324.024	184.06
324.253	368.06
324.482	759.06
324.71	1551.06
324.939	1998.06
325.168	730.06
325.397	234.06
325.626	127.06
325.855	117.06
326.084	111.06
326.313	124.06
326.542	142.06
326.77	217.06
326.999	431.06
327.228	856.06
327.457	1513.06
327.686	1162.06
327.914	348.06
328.143	183.06
328.372	137.06
328.6	117.06
328.829	108.06
329.058	132.06
329.287	130.06
329.515	115.06
329.744	87.06
329.972	96.06
330.201	79.06
330.43	119.06
330.658	126.06
330.887	155.06
331.115	111.06
331.344	109.06
331.572	110.06
331.801	105.06
332.03	92.06
332.258	88.06
332.486	81.06
332.715	79.06
332.943	85.06
333.172	88.06
333.4	96.06
333.629	117.06
333.857	121.06
334.085	108.06
334.314	87.06
334.542	96.06
334.771	100.06
334.999	101.06
335.227	85.06
335.455	88.06
335.684	82.06
335.912	91.06
336.14	94.06
336.369	88.06
336.597	103.06
336.825	89.06
337.053	107.06
337.281	87.06
337.51	95.06
337.738	85.06
337.966	88.06
338.194	91.06
338.422	95.06
338.65	104.06
338.878	83.06
339.106	80.06
339.334	95.06
339.562	89.06
339.79	88.06
340.018	91.06
340.246	85.06
340.474	98.06
340.702	96.06
340.93	90.06
341.158	93.06
341.386	91.06
341.614	107.06
341.842	92.06
342.07	102.06
342.298	89.06
342.526	77.06
342.754	82.06
342.981	87.06
343.209	90.06
343.437	94.06
343.665	90.06
343.893	89.06
344.12	81.06
344.348	93.06
344.576	95.06
344.804	90.06
345.031	78.06
345.259	88.06
345.487	88.06
345.714	96.06
345.942	86.06
346.17	99.06
346.397	93.06
346.625	80.06
346.853	92.06
347.08	100.06
347.308	94.06
347.535	97.06
347.763	100.06
347.99	99.06
348.218	90.06
348.445	94.06
348.673	103.06
348.9	90.06
349.128	94.06
349.355	86.06
349.583	93.06
349.81	90.06
350.037	88.06
350.265	83.06
350.492	85.06
350.72	94.06
350.947	99.06
351.174	114.06
351.402	112.06
351.629	101.06
351.856	96.06
352.083	101.06
352.311	114.06
352.538	118.06
352.765	111.06
352.992	98.06
353.22	106.06
353.447	89.06
353.674	102.06
353.901	100.06
354.128	93.06
354.355	82.06
354.583	90.06
354.81	91.06
355.037	92.06
355.264	90.06
355.491	84.06
355.718	89.06
355.945	82.06
356.172	74.06
356.399	88.06
356.626	102.06
356.853	82.06
357.08	97.06
357.307	82.06
357.534	100.06
357.761	98.06
357.988	94.06
358.215	81.06
358.441	88.06
358.668	88.06
358.895	76.06
359.122	83.06
359.349	83.06
359.576	87.06
359.802	89.06
360.029	107.06
360.256	108.06
360.483	103.06
360.709	92.06
360.936	111.06
361.163	93.06
361.39	94.06
361.616	86.06
361.843	88.06
362.07	94.06
362.296	106.06
362.523	92.06
362.749	91.06
362.976	91.06
363.203	92.06
363.429	84.06
363.656	88.06
363.882	81.06
364.109	82.06
364.335	103.06
364.562	89.06
364.788	88.06
365.015	86.06
365.241	83.06
365.468	98.06
365.694	87.06
365.92	86.06
366.147	87.06
366.373	91.06
366.599	84.06
366.826	79.06
367.052	98.06
367.278	94.06
367.505	84.06
367.731	88.06
367.957	78.06
368.184	90.06
368.41	107.06
368.636	107.06
368.862	128.06
369.089	112.06
369.315	99.06
369.541	92.06
369.767	87.06
369.993	99.06
370.219	83.06
370.445	88.06
370.672	96.06
370.898	87.06
371.124	94.06
371.35	82.06
371.576	87.06
371.802	90.06
372.028	90.06
372.254	79.06
372.48	77.06
372.706	87.06
372.932	79.06
373.158	81.06
373.384	91.06
373.61	94.06
373.835	85.06
374.061	95.06
374.287	96.06
374.513	85.06
374.739	92.06
374.965	93.06
375.191	86.06
375.416	88.06
375.642	98.06
375.868	94.06
376.094	89.06
376.319	87.06
376.545	93.06
376.771	90.06
376.997	78.06
377.222	89.06
377.448	97.06
377.674	75.06
377.899	85.06
378.125	92.06
378.35	83.06
378.576	81.06
378.802	82.06
379.027	89.06
379.253	103.06
379.478	83.06
379.704	82.06
379.929	91.06
380.155	106.06
380.38	89.06
380.606	98.06
380.831	89.06
381.057	84.06
381.282	87.06
381.507	87.06
381.733	97.06
381.958	94.06
382.184	90.06
382.409	84.06
382.634	97.06
382.86	97.06
383.085	96.06
383.31	101.06
383.535	88.06
383.761	88.06
383.986	84.06
384.211	89.06
384.436	89.06
384.662	95.06
384.887	102.06
385.112	106.06
385.337	107.06
385.562	110.06
385.787	98.06
386.013	108.06
386.238	106.06
386.463	101.06
386.688	96.06
386.913	101.06
387.138	90.06
387.363	105.06
387.588	96.06
387.813	97.06
388.038	93.06
388.263	92.06
388.488	96.06
388.713	102.06
388.938	89.06
389.163	96.06
389.387	101.06
389.612	89.06
389.837	84.06
390.062	91.06
390.287	91.06
390.512	90.06
390.736	81.06
390.961	89.06
391.186	78.06
391.411	91.06
391.636	94.06
391.86	86.06
392.085	88.06
392.31	86.06
392.534	91.06
392.759	75.06
392.984	75.06
393.208	86.06
393.433	101.06
393.658	89.06
393.882	99.06
394.107	88.06
394.331	88.06
394.556	67.06
394.78	70.06
395.005	87.06
395.229	80.06
395.454	82.06
395.678	85.06
395.903	71.06
396.127	76.06
396.352	81.06
396.576	85.06
396.801	90.06
397.025	92.06
397.249	81.06
397.474	82.06
397.698	84.06
397.922	89.06
398.147	87.06
398.371	81.06
398.595	84.06
398.82	88.06
399.044	75.06
399.268	94.06
399.492	83.06
399.717	91.06
399.941	92.06
400.165	87.06
400.389	76.06
400.613	82.06
400.837	86.06
401.062	71.06
401.286	85.06
401.51	96.06
401.734	91.06
401.958	103.06
402.182	117.06
402.406	158.06
402.63	115.06
402.854	85.06
403.078	104.06
403.302	93.06
403.526	101.06
403.75	85.06
403.974	87.06
404.198	87.06
404.422	79.06
404.645	74.06
404.869	85.06
405.093	94.06
405.317	80.06
405.541	94.06
405.765	90.06
405.988	102.06
406.212	171.06
406.436	247.06
406.66	145.06
406.883	104.06
407.107	86.06
407.331	84.06
407.555	104.06
407.778	102.06
408.002	89.06
408.226	90.06
408.449	80.06
408.673	76.06
408.896	86.06
409.12	81.06
409.344	85.06
409.567	80.06
409.791	86.06
410.014	90.06
410.238	78.06
410.461	85.06
410.685	79.06
410.908	108.06
411.132	94.06
411.355	96.06
411.578	102.06
411.802	97.06
412.025	100.06
412.249	96.06
412.472	90.06
412.695	86.06
412.919	103.06
413.142	83.06
413.365	92.06
413.589	91.06
413.812	91.06
414.035	92.06
414.258	81.06
414.482	75.06
414.705	83.06
414.928	82.06
415.151	89.06
415.374	103.06
415.597	74.06
415.821	94.06
416.044	89.06
416.267	89.06
416.49	115.06
416.713	96.06
416.936	92.06
417.159	92.06
417.382	81.06
417.605	83.06
417.828	95.06
418.051	90.06
418.274	83.06
418.497	82.06
418.72	75.06
418.943	86.06
419.166	92.06
419.389	73.06
419.611	90.06
419.834	80.06
420.057	98.06
420.28	105.06
420.503	93.06
420.726	81.06
420.948	84.06
421.171	98.06
421.394	84.06
421.617	80.06
421.839	95.06
422.062	87.06
422.285	75.06
422.507	102.06
422.73	89.06
422.953	85.06
423.175	82.06
423.398	84.06
423.621	85.06
423.843	91.06
424.066	73.06
424.288	85.06
424.511	87.06
424.733	95.06
424.956	81.06
425.178	87.06
425.401	106.06
425.623	104.06
425.846	96.06
426.068	90.06
426.291	91.06
426.513	82.06
426.735	98.06
426.958	99.06
427.18	103.06
427.402	138.06
427.625	160.06
427.847	116.06
428.069	91.06
428.292	89.06
428.514	91.06
428.736	87.06
428.958	75.06
429.181	84.06
429.403	82.06
429.625	89.06
429.847	86.06
430.069	97.06
430.292	92.06
430.514	87.06
430.736	82.06
430.958	86.06
431.18	76.06
431.402	84.06
431.624	79.06
431.846	89.06
432.068	77.06
432.29	95.06
432.512	87.06
432.734	84.06
432.956	79.06
433.178	83.06
433.4	99.06
433.622	91.06
433.844	83.06
434.066	96.06
434.287	89.06
434.509	85.06
434.731	80.06
434.953	110.06
435.175	86.06
435.397	89.06
435.618	91.06
435.84	92.06
436.062	118.06
436.284	107.06
436.505	79.06
436.727	92.06
436.949	83.06
437.17	84.06
437.392	101.06
437.614	92.06
437.835	103.06
438.057	101.06
438.278	123.06
438.5	87.06
438.721	123.06
438.943	101.06
439.165	78.06
439.386	70.06
439.608	86.06
439.829	112.06
440.05	126.06
440.272	131.06
440.493	90.06
440.715	79.06
440.936	94.06
441.158	81.06
441.379	96.06
441.6	94.06
441.822	82.06
442.043	97.06
442.264	103.06
442.486	97.06
442.707	97.06
442.928	110.06
443.149	108.06
443.371	121.06
443.592	100.06
443.813	113.06
444.034	93.06
444.255	94.06
444.476	79.06
444.698	76.06
444.919	92.06
445.14	120.06
445.361	115.06
445.582	115.06
445.803	134.06
446.024	124.06
446.245	128.06
446.466	106.06
446.687	82.06
446.908	90.06
447.129	83.06
447.35	88.06
447.571	88.06
447.792	77.06
448.013	105.06
448.234	115.06
448.455	88.06
448.675	103.06
448.896	102.06
449.117	90.06
449.338	99.06
449.559	129.06
449.779	108.06
450	92.06
450.221	87.06
450.442	87.06
450.662	85.06
450.883	113.06
451.104	89.06
451.324	96.06
451.545	87.06
451.766	71.06
451.986	92.06
452.207	79.06
452.428	80.06
452.648	93.06
452.869	103.06
453.089	86.06
453.31	117.06
453.53	86.06
453.751	91.06
453.971	104.06
454.192	109.06
454.412	79.06
454.633	72.06
454.853	83.06
455.073	84.06
455.294	88.06
455.514	106.06
455.734	96.06
455.955	84.06
456.175	83.06
456.395	99.06
456.616	100.06
456.836	80.06
457.056	80.06
457.276	73.06
457.497	80.06
457.717	91.06
457.937	82.06
458.157	90.06
458.377	86.06
458.598	101.06
458.818	170.06
459.038	164.06
459.258	130.06
459.478	91.06
459.698	88.06
459.918	95.06
460.138	89.06
460.358	76.06
460.578	89.06
460.798	81.06
461.018	91.06
461.238	88.06
461.458	90.06
461.678	76.06
461.898	92.06
462.118	74.06
462.338	87.06
462.558	72.06
462.777	68.06
462.997	86.06
463.217	84.06
463.437	91.06
463.657	89.06
463.876	92.06
464.096	74.06
464.316	92.06
464.536	90.06
464.755	91.06
464.975	107.06
465.195	165.06
465.414	152.06
465.634	93.06
465.854	89.06
466.073	66.06
466.293	97.06
466.512	80.06
466.732	87.06
466.951	89.06
467.171	87.06
467.391	95.06
467.61	89.06
467.829	95.06
468.049	86.06
468.268	84.06
468.488	88.06
468.707	80.06
468.927	95.06
469.146	78.06
469.365	74.06
469.585	95.06
469.804	98.06
470.023	92.06
470.243	88.06
470.462	107.06
470.681	104.06
470.901	104.06
471.12	88.06
471.339	91.06
471.558	82.06
471.777	86.06
471.997	78.06
472.216	73.06
472.435	85.06
472.654	75.06
472.873	79.06
473.092	99.06
473.311	80.06
473.53	82.06
473.749	86.06
473.968	91.06
474.187	103.06
474.406	83.06
474.625	86.06
474.844	82.06
475.063	103.06
475.282	82.06
475.501	93.06
475.72	81.06
475.939	95.06
476.158	80.06
476.377	87.06
476.596	88.06
476.814	89.06
477.033	92.06
477.252	83.06
477.471	88.06
477.69	76.06
477.908	86.06
478.127	102.06
478.346	92.06
478.564	84.06
478.783	91.06
479.002	80.06
479.22	79.06
479.439	102.06
479.658	96.06
479.876	95.06
480.095	87.06
480.313	83.06
480.532	87.06
480.751	78.06
480.969	95.06
481.188	98.06
481.406	113.06
481.624	89.06
481.843	80.06
482.061	95.06
482.28	94.06
482.498	76.06
482.717	84.06
482.935	89.06
483.153	87.06
483.372	79.06
483.59	82.06
483.808	79.06
484.027	79.06
484.245	72.06
484.463	106.06
484.681	102.06
484.9	86.06
485.118	78.06
485.336	91.06
485.554	92.06
485.772	95.06
485.99	87.06
486.209	107.06
486.427	98.06
486.645	83.06
486.863	108.06
487.081	83.06
487.299	89.06
487.517	112.06
487.735	105.06
487.953	91.06
488.171	80.06
488.389	105.06
488.607	107.06
488.825	98.06
489.043	81.06
489.261	90.06
489.479	83.06
489.696	85.06
489.914	84.06
490.132	87.06
490.35	70.06
490.568	82.06
490.786	80.06
491.003	95.06
491.221	83.06
491.439	88.06
491.657	86.06
491.874	97.06
492.092	77.06
492.31	85.06
492.527	92.06
492.745	89.06
492.963	102.06
493.18	89.06
493.398	91.06
493.615	94.06
493.833	92.06
494.05	80.06
494.268	79.06
494.485	91.06
494.703	83.06
494.92	95.06
495.138	90.06
495.355	95.06
495.573	83.06
495.79	98.06
496.008	86.06
496.225	91.06
496.442	87.06
496.66	81.06
496.877	99.06
497.094	86.06
497.312	84.06
497.529	91.06
497.746	103.06
497.963	93.06
498.181	99.06
498.398	102.06
498.615	103.06
498.832	92.06
499.049	91.06
499.267	91.06
499.484	94.06
499.701	85.06
499.918	92.06
500.135	77.06
500.352	75.06
500.569	86.06
500.786	93.06
501.003	87.06
501.22	89.06
501.437	78.06
501.654	82.06
501.871	96.06
502.088	96.06
502.305	94.06
502.522	69.06
502.739	70.06
502.956	80.06
503.172	100.06
503.389	95.06
503.606	105.06
503.823	99.06
504.04	78.06
504.256	88.06
504.473	89.06
504.69	91.06
504.907	90.06
505.123	103.06
505.34	94.06
505.557	82.06
505.773	91.06
505.99	80.06
506.207	95.06
506.423	92.06
506.64	84.06
506.856	79.06
507.073	86.06
507.289	107.06
507.506	101.06
507.722	122.06
507.939	116.06
508.155	89.06
508.372	95.06
508.588	101.06
508.805	106.06
509.021	112.06
509.238	104.06
509.454	108.06
509.67	105.06
509.887	108.06
510.103	133.06
510.319	213.06
510.536	797.06
510.752	2475.06
510.968	673.06
511.184	160.06
511.401	100.06
511.617	94.06
511.833	102.06
512.049	90.06
512.265	112.06
512.481	91.06
512.698	84.06
512.914	102.06
513.13	87.06
513.346	89.06
513.562	81.06
513.778	93.06
513.994	86.06
514.21	107.06
514.426	126.06
514.642	129.06
514.858	115.06
515.074	180.06
515.29	481.06
515.506	1562.06
515.721	594.06
515.937	148.06
516.153	105.06
516.369	95.06
