Data from Uncirc_2001_H10_HRD10591_00009.txt Node
Date: Wed Jan 03 10:43:58 EST 2024
User: Yrep
Spectrometer: HR+D1059
Trigger mode: 1
Integration Time (sec): 1.000000E-1
Scans to average: 1
Electric dark correction enabled: true
Nonlinearity correction enabled: false
Boxcar width: 0
XAxis mode: Wavelengths
Number of Pixels in Spectrum: 2048
>>>>>Begin Spectral Data<<<<<
223.165	-23.56
223.4	-23.56
223.635	-23.56
223.869	-14.56
224.104	-19.56
224.338	-18.56
224.573	-21.56
224.808	-8.56
225.042	-5.56
225.277	-11.56
225.511	-1.56
225.746	6.44
225.98	17.44
226.215	12.44
226.449	10.44
226.683	16.44
226.918	36.44
227.152	25.44
227.387	41.44
227.621	51.44
227.856	48.44
228.09	47.44
228.324	64.44
228.559	55.44
228.793	74.44
229.027	58.44
229.262	74.44
229.496	59.44
229.73	86.44
229.964	74.44
230.199	68.44
230.433	73.44
230.667	83.44
230.901	76.44
231.136	86.44
231.37	86.44
231.604	58.44
231.838	95.44
232.072	72.44
232.306	78.44
232.541	91.44
232.775	82.44
233.009	103.44
233.243	90.44
233.477	66.44
233.711	80.44
233.945	94.44
234.179	99.44
234.413	79.44
234.647	90.44
234.881	88.44
235.115	72.44
235.349	73.44
235.583	74.44
235.817	68.44
236.051	88.44
236.285	63.44
236.519	79.44
236.753	76.44
236.987	74.44
237.221	82.44
237.455	82.44
237.689	80.44
237.922	80.44
238.156	71.44
238.39	80.44
238.624	82.44
238.858	89.44
239.091	76.44
239.325	75.44
239.559	84.44
239.793	86.44
240.027	62.44
240.26	80.44
240.494	79.44
240.728	74.44
240.961	72.44
241.195	84.44
241.429	72.44
241.662	72.44
241.896	74.44
242.13	56.44
242.363	73.44
242.597	68.44
242.83	76.44
243.064	67.44
243.298	79.44
243.531	79.44
243.765	84.44
243.998	71.44
244.232	71.44
244.465	78.44
244.699	81.44
244.932	91.44
245.166	88.44
245.399	71.44
245.633	79.44
245.866	65.44
246.099	72.44
246.333	83.44
246.566	69.44
246.8	81.44
247.033	80.44
247.266	83.44
247.5	82.44
247.733	74.44
247.966	83.44
248.2	79.44
248.433	88.44
248.666	88.44
248.899	84.44
249.133	89.44
249.366	98.44
249.599	86.44
249.832	70.44
250.066	65.44
250.299	83.44
250.532	79.44
250.765	77.44
250.998	86.44
251.231	85.44
251.465	79.44
251.698	82.44
251.931	75.44
252.164	72.44
252.397	71.44
252.63	95.44
252.863	85.44
253.096	91.44
253.329	87.44
253.562	85.44
253.795	79.44
254.028	87.44
254.261	90.44
254.494	82.44
254.727	75.44
254.96	71.44
255.193	86.44
255.426	71.44
255.659	77.44
255.892	85.44
256.124	68.44
256.357	81.44
256.59	80.44
256.823	74.44
257.056	74.44
257.289	73.44
257.521	78.44
257.754	75.44
257.987	64.44
258.22	90.44
258.452	76.44
258.685	83.44
258.918	88.44
259.151	77.44
259.383	86.44
259.616	87.44
259.849	91.44
260.081	68.44
260.314	69.44
260.547	88.44
260.779	73.44
261.012	83.44
261.244	78.44
261.477	76.44
261.71	90.44
261.942	102.44
262.175	98.44
262.407	84.44
262.64	79.44
262.872	88.44
263.105	85.44
263.337	89.44
263.57	83.44
263.802	85.44
264.035	88.44
264.267	76.44
264.499	89.44
264.732	94.44
264.964	88.44
265.197	80.44
265.429	82.44
265.661	69.44
265.894	74.44
266.126	79.44
266.358	94.44
266.591	92.44
266.823	87.44
267.055	80.44
267.287	81.44
267.52	86.44
267.752	89.44
267.984	73.44
268.216	90.44
268.448	76.44
268.681	89.44
268.913	82.44
269.145	81.44
269.377	90.44
269.609	76.44
269.841	75.44
270.073	84.44
270.306	91.44
270.538	86.44
270.77	86.44
271.002	80.44
271.234	89.44
271.466	89.44
271.698	71.44
271.93	93.44
272.162	95.44
272.394	86.44
272.626	102.44
272.858	92.44
273.09	84.44
273.322	89.44
273.553	89.44
273.785	87.44
274.017	73.44
274.249	61.44
274.481	66.44
274.713	82.44
274.945	86.44
275.176	84.44
275.408	86.44
275.64	85.44
275.872	90.44
276.104	97.44
276.335	92.44
276.567	86.44
276.799	105.44
277.031	84.44
277.262	89.44
277.494	82.44
277.726	82.44
277.957	83.44
278.189	82.44
278.421	85.44
278.652	100.44
278.884	81.44
279.115	82.44
279.347	64.44
279.579	76.44
279.81	70.44
280.042	88.44
280.273	85.44
280.505	96.44
280.736	69.44
280.968	82.44
281.199	80.44
281.431	83.44
281.662	103.44
281.894	79.44
282.125	89.44
282.356	92.44
282.588	102.44
282.819	91.44
283.051	73.44
283.282	85.44
283.513	92.44
283.745	97.44
283.976	73.44
284.207	71.44
284.439	101.44
284.67	91.44
284.901	93.44
285.132	78.44
285.364	89.44
285.595	96.44
285.826	94.44
286.057	70.44
286.288	99.44
286.52	78.44
286.751	99.44
286.982	84.44
287.213	95.44
287.444	78.44
287.675	89.44
287.906	92.44
288.138	87.44
288.369	90.44
288.6	71.44
288.831	79.44
289.062	96.44
289.293	88.44
289.524	92.44
289.755	86.44
289.986	86.44
290.217	77.44
290.448	98.44
290.679	96.44
290.91	82.44
291.141	91.44
291.371	83.44
291.602	86.44
291.833	91.44
292.064	72.44
292.295	92.44
292.526	79.44
292.757	76.44
292.987	72.44
293.218	88.44
293.449	92.44
293.68	91.44
293.91	89.44
294.141	102.44
294.372	79.44
294.603	88.44
294.833	92.44
295.064	89.44
295.295	88.44
295.525	81.44
295.756	80.44
295.987	97.44
296.217	118.44
296.448	98.44
296.679	87.44
296.909	81.44
297.14	77.44
297.37	87.44
297.601	79.44
297.831	93.44
298.062	82.44
298.292	83.44
298.523	91.44
298.753	95.44
298.984	92.44
299.214	80.44
299.445	99.44
299.675	98.44
299.905	108.44
300.136	102.44
300.366	85.44
300.597	90.44
300.827	101.44
301.057	98.44
301.288	97.44
301.518	91.44
301.748	82.44
301.979	103.44
302.209	84.44
302.439	82.44
302.669	95.44
302.9	86.44
303.13	92.44
303.36	86.44
303.59	90.44
303.82	91.44
304.051	70.44
304.281	80.44
304.511	99.44
304.741	85.44
304.971	89.44
305.201	87.44
305.431	82.44
305.661	88.44
305.891	87.44
306.121	100.44
306.352	108.44
306.582	116.44
306.812	97.44
307.042	98.44
307.272	86.44
307.502	90.44
307.731	80.44
307.961	85.44
308.191	83.44
308.421	90.44
308.651	88.44
308.881	88.44
309.111	84.44
309.341	92.44
309.571	96.44
309.8	89.44
310.03	91.44
310.26	88.44
310.49	88.44
310.72	97.44
310.949	87.44
311.179	99.44
311.409	87.44
311.639	91.44
311.868	89.44
312.098	97.44
312.328	84.44
312.557	106.44
312.787	101.44
313.017	101.44
313.246	88.44
313.476	88.44
313.706	84.44
313.935	85.44
314.165	92.44
314.394	91.44
314.624	104.44
314.853	107.44
315.083	80.44
315.312	101.44
315.542	83.44
315.771	88.44
316.001	88.44
316.23	85.44
316.46	81.44
316.689	78.44
316.919	84.44
317.148	80.44
317.377	102.44
317.607	89.44
317.836	84.44
318.065	73.44
318.295	83.44
318.524	90.44
318.753	86.44
318.983	87.44
319.212	103.44
319.441	98.44
319.67	94.44
319.9	107.44
320.129	84.44
320.358	87.44
320.587	91.44
320.816	112.44
321.046	107.44
321.275	82.44
321.504	95.44
321.733	98.44
321.962	98.44
322.191	82.44
322.42	92.44
322.649	96.44
322.878	105.44
323.108	102.44
323.337	106.44
323.566	115.44
323.795	118.44
324.024	165.44
324.253	271.44
324.482	587.44
324.71	1132.44
324.939	1450.44
325.168	550.44
325.397	178.44
325.626	134.44
325.855	108.44
326.084	107.44
326.313	118.44
326.542	139.44
326.77	173.44
326.999	334.44
327.228	650.44
327.457	1143.44
327.686	864.44
327.914	256.44
328.143	133.44
328.372	119.44
328.6	113.44
328.829	121.44
329.058	112.44
329.287	109.44
329.515	87.44
329.744	104.44
329.972	94.44
330.201	84.44
330.43	100.44
330.658	114.44
330.887	115.44
331.115	119.44
331.344	93.44
331.572	86.44
331.801	84.44
332.03	82.44
332.258	89.44
332.486	91.44
332.715	81.44
332.943	96.44
333.172	80.44
333.4	91.44
333.629	100.44
333.857	98.44
334.085	73.44
334.314	107.44
334.542	106.44
334.771	89.44
334.999	93.44
335.227	76.44
335.455	91.44
335.684	86.44
335.912	82.44
336.14	105.44
336.369	105.44
336.597	90.44
336.825	84.44
337.053	88.44
337.281	87.44
337.51	82.44
337.738	100.44
337.966	94.44
338.194	95.44
338.422	91.44
338.65	104.44
338.878	81.44
339.106	94.44
339.334	104.44
339.562	100.44
339.79	91.44
340.018	82.44
340.246	95.44
340.474	91.44
340.702	92.44
340.93	92.44
341.158	91.44
341.386	84.44
341.614	77.44
341.842	78.44
342.07	86.44
342.298	89.44
342.526	89.44
342.754	72.44
342.981	82.44
343.209	91.44
343.437	107.44
343.665	91.44
343.893	89.44
344.12	89.44
344.348	82.44
344.576	93.44
344.804	84.44
345.031	84.44
345.259	91.44
345.487	87.44
345.714	89.44
345.942	81.44
346.17	86.44
346.397	95.44
346.625	104.44
346.853	89.44
347.08	91.44
347.308	77.44
347.535	89.44
347.763	81.44
347.99	73.44
348.218	98.44
348.445	112.44
348.673	94.44
348.9	92.44
349.128	101.44
349.355	97.44
349.583	94.44
349.81	98.44
350.037	94.44
350.265	96.44
350.492	89.44
350.72	92.44
350.947	94.44
351.174	104.44
351.402	106.44
351.629	100.44
351.856	91.44
352.083	91.44
352.311	94.44
352.538	99.44
352.765	94.44
352.992	103.44
353.22	106.44
353.447	95.44
353.674	99.44
353.901	99.44
354.128	95.44
354.355	104.44
354.583	103.44
354.81	96.44
355.037	107.44
355.264	97.44
355.491	101.44
355.718	98.44
355.945	90.44
356.172	77.44
356.399	96.44
356.626	105.44
356.853	85.44
357.08	75.44
357.307	86.44
357.534	98.44
357.761	90.44
357.988	90.44
358.215	86.44
358.441	84.44
358.668	95.44
358.895	81.44
359.122	86.44
359.349	79.44
359.576	78.44
359.802	88.44
360.029	106.44
360.256	94.44
360.483	87.44
360.709	89.44
360.936	100.44
361.163	106.44
361.39	95.44
361.616	82.44
361.843	90.44
362.07	84.44
362.296	81.44
362.523	95.44
362.749	78.44
362.976	80.44
363.203	106.44
363.429	97.44
363.656	97.44
363.882	92.44
364.109	86.44
364.335	83.44
364.562	76.44
364.788	98.44
365.015	97.44
365.241	103.44
365.468	99.44
365.694	91.44
365.92	88.44
366.147	88.44
366.373	93.44
366.599	90.44
366.826	84.44
367.052	92.44
367.278	85.44
367.505	83.44
367.731	83.44
367.957	87.44
368.184	85.44
368.41	100.44
368.636	97.44
368.862	108.44
369.089	100.44
369.315	84.44
369.541	91.44
369.767	89.44
369.993	92.44
370.219	91.44
370.445	84.44
370.672	72.44
370.898	82.44
371.124	78.44
371.35	79.44
371.576	85.44
371.802	75.44
372.028	80.44
372.254	98.44
372.48	102.44
372.706	74.44
372.932	94.44
373.158	85.44
373.384	88.44
373.61	72.44
373.835	89.44
374.061	95.44
374.287	92.44
374.513	88.44
374.739	90.44
374.965	98.44
375.191	107.44
375.416	75.44
375.642	78.44
375.868	89.44
376.094	86.44
376.319	89.44
376.545	104.44
376.771	90.44
376.997	96.44
377.222	96.44
377.448	86.44
377.674	87.44
377.899	90.44
378.125	84.44
378.35	110.44
378.576	89.44
378.802	90.44
379.027	89.44
379.253	81.44
379.478	88.44
379.704	99.44
379.929	97.44
380.155	88.44
380.38	82.44
380.606	89.44
380.831	92.44
381.057	104.44
381.282	78.44
381.507	91.44
381.733	101.44
381.958	97.44
382.184	97.44
382.409	110.44
382.634	93.44
382.86	107.44
383.085	99.44
383.31	115.44
383.535	103.44
383.761	97.44
383.986	103.44
384.211	95.44
384.436	108.44
384.662	107.44
384.887	101.44
385.112	109.44
385.337	123.44
385.562	110.44
385.787	108.44
386.013	111.44
386.238	118.44
386.463	105.44
386.688	115.44
386.913	105.44
387.138	123.44
387.363	109.44
387.588	107.44
387.813	106.44
388.038	105.44
388.263	122.44
388.488	116.44
388.713	91.44
388.938	105.44
389.163	99.44
389.387	102.44
389.612	99.44
389.837	90.44
390.062	90.44
390.287	99.44
390.512	91.44
390.736	96.44
390.961	77.44
391.186	90.44
391.411	75.44
391.636	94.44
391.86	79.44
392.085	87.44
392.31	82.44
392.534	84.44
392.759	91.44
392.984	78.44
393.208	82.44
393.433	100.44
393.658	91.44
393.882	86.44
394.107	77.44
394.331	73.44
394.556	96.44
394.78	89.44
395.005	89.44
395.229	88.44
395.454	89.44
395.678	81.44
395.903	68.44
396.127	96.44
396.352	96.44
396.576	78.44
396.801	89.44
397.025	93.44
397.249	76.44
397.474	86.44
397.698	86.44
397.922	81.44
398.147	89.44
398.371	81.44
398.595	81.44
398.82	89.44
399.044	89.44
399.268	78.44
399.492	75.44
399.717	82.44
399.941	86.44
400.165	104.44
400.389	88.44
400.613	86.44
400.837	76.44
401.062	90.44
401.286	102.44
401.51	97.44
401.734	84.44
401.958	85.44
402.182	103.44
402.406	121.44
402.63	117.44
402.854	100.44
403.078	84.44
403.302	77.44
403.526	83.44
403.75	90.44
403.974	90.44
404.198	89.44
404.422	87.44
404.645	78.44
404.869	87.44
405.093	70.44
405.317	90.44
405.541	89.44
405.765	103.44
405.988	106.44
406.212	140.44
406.436	174.44
406.66	118.44
406.883	100.44
407.107	88.44
407.331	100.44
407.555	94.44
407.778	97.44
408.002	96.44
408.226	94.44
408.449	92.44
408.673	100.44
408.896	96.44
409.12	83.44
409.344	82.44
409.567	88.44
409.791	78.44
410.014	81.44
410.238	98.44
410.461	86.44
410.685	72.44
410.908	89.44
411.132	106.44
411.355	91.44
411.578	70.44
411.802	88.44
412.025	87.44
412.249	99.44
412.472	91.44
412.695	91.44
412.919	84.44
413.142	83.44
413.365	96.44
413.589	80.44
413.812	109.44
414.035	90.44
414.258	88.44
414.482	87.44
414.705	83.44
414.928	70.44
415.151	92.44
415.374	103.44
415.597	88.44
415.821	93.44
416.044	90.44
416.267	99.44
416.49	71.44
416.713	69.44
416.936	83.44
417.159	90.44
417.382	83.44
417.605	87.44
417.828	76.44
418.051	98.44
418.274	85.44
418.497	84.44
418.72	85.44
418.943	83.44
419.166	88.44
419.389	92.44
419.611	87.44
419.834	84.44
420.057	72.44
420.28	81.44
420.503	79.44
420.726	80.44
420.948	84.44
421.171	77.44
421.394	88.44
421.617	86.44
421.839	91.44
422.062	88.44
422.285	83.44
422.507	97.44
422.73	110.44
422.953	93.44
423.175	77.44
423.398	82.44
423.621	98.44
423.843	84.44
424.066	82.44
424.288	71.44
424.511	81.44
424.733	91.44
424.956	92.44
425.178	106.44
425.401	99.44
425.623	99.44
425.846	90.44
426.068	97.44
426.291	85.44
426.513	104.44
426.735	96.44
426.958	86.44
427.18	89.44
427.402	118.44
427.625	138.44
427.847	100.44
428.069	96.44
428.292	83.44
428.514	70.44
428.736	94.44
428.958	86.44
429.181	76.44
429.403	94.44
429.625	90.44
429.847	82.44
430.069	103.44
430.292	88.44
430.514	87.44
430.736	88.44
430.958	79.44
431.18	78.44
431.402	92.44
431.624	88.44
431.846	94.44
432.068	83.44
432.29	102.44
432.512	90.44
432.734	88.44
432.956	85.44
433.178	90.44
433.4	102.44
433.622	90.44
433.844	75.44
434.066	81.44
434.287	91.44
434.509	79.44
434.731	86.44
434.953	83.44
435.175	74.44
435.397	80.44
435.618	90.44
435.84	74.44
436.062	97.44
436.284	98.44
436.505	81.44
436.727	102.44
436.949	99.44
437.17	93.44
437.392	90.44
437.614	72.44
437.835	90.44
438.057	102.44
438.278	94.44
438.5	85.44
438.721	97.44
438.943	98.44
439.165	92.44
439.386	80.44
439.608	88.44
439.829	93.44
440.05	113.44
440.272	124.44
440.493	91.44
440.715	79.44
440.936	90.44
441.158	82.44
441.379	88.44
441.6	91.44
441.822	92.44
442.043	92.44
442.264	73.44
442.486	96.44
442.707	99.44
442.928	103.44
443.149	110.44
443.371	114.44
443.592	105.44
443.813	97.44
444.034	89.44
444.255	92.44
444.476	90.44
444.698	84.44
444.919	97.44
445.14	126.44
445.361	106.44
445.582	111.44
445.803	98.44
446.024	115.44
446.245	119.44
446.466	98.44
446.687	102.44
446.908	87.44
447.129	84.44
447.35	82.44
447.571	78.44
447.792	100.44
448.013	91.44
448.234	93.44
448.455	91.44
448.675	114.44
448.896	113.44
449.117	97.44
449.338	104.44
449.559	129.44
449.779	97.44
450	92.44
450.221	78.44
450.442	91.44
450.662	95.44
450.883	102.44
451.104	116.44
451.324	88.44
451.545	89.44
451.766	90.44
451.986	72.44
452.207	86.44
452.428	91.44
452.648	94.44
452.869	110.44
453.089	87.44
453.31	107.44
453.53	89.44
453.751	100.44
453.971	93.44
454.192	91.44
454.412	87.44
454.633	91.44
454.853	92.44
455.073	82.44
455.294	93.44
455.514	90.44
455.734	82.44
455.955	95.44
456.175	92.44
456.395	74.44
456.616	77.44
456.836	87.44
457.056	68.44
457.276	84.44
457.497	105.44
457.717	81.44
457.937	84.44
458.157	94.44
458.377	96.44
458.598	111.44
458.818	121.44
459.038	142.44
459.258	102.44
459.478	86.44
459.698	80.44
459.918	78.44
460.138	98.44
460.358	103.44
460.578	87.44
460.798	80.44
461.018	79.44
461.238	97.44
461.458	88.44
461.678	75.44
461.898	78.44
462.118	90.44
462.338	90.44
462.558	82.44
462.777	82.44
462.997	95.44
463.217	84.44
463.437	80.44
463.657	79.44
463.876	96.44
464.096	85.44
464.316	90.44
464.536	78.44
464.755	86.44
464.975	99.44
465.195	135.44
465.414	136.44
465.634	95.44
465.854	95.44
466.073	79.44
466.293	80.44
466.512	70.44
466.732	89.44
466.951	77.44
467.171	91.44
467.391	94.44
467.61	96.44
467.829	83.44
468.049	96.44
468.268	87.44
468.488	77.44
468.707	75.44
468.927	91.44
469.146	74.44
469.365	83.44
469.585	81.44
469.804	89.44
470.023	99.44
470.243	92.44
470.462	100.44
470.681	103.44
470.901	96.44
471.12	82.44
471.339	89.44
471.558	84.44
471.777	81.44
471.997	86.44
472.216	88.44
472.435	76.44
472.654	81.44
472.873	76.44
473.092	87.44
473.311	87.44
473.53	83.44
473.749	87.44
473.968	82.44
474.187	87.44
474.406	98.44
474.625	74.44
474.844	84.44
475.063	74.44
475.282	87.44
475.501	94.44
475.72	104.44
475.939	92.44
476.158	85.44
476.377	84.44
476.596	83.44
476.814	94.44
477.033	76.44
477.252	92.44
477.471	90.44
477.69	87.44
477.908	102.44
478.127	86.44
478.346	75.44
478.564	80.44
478.783	96.44
479.002	91.44
479.22	92.44
479.439	96.44
479.658	92.44
479.876	92.44
480.095	96.44
480.313	100.44
480.532	93.44
480.751	98.44
480.969	90.44
481.188	100.44
481.406	94.44
481.624	79.44
481.843	76.44
482.061	87.44
482.28	84.44
482.498	95.44
482.717	81.44
482.935	99.44
483.153	83.44
483.372	92.44
483.59	85.44
483.808	85.44
484.027	81.44
484.245	84.44
484.463	88.44
484.681	94.44
484.9	73.44
485.118	89.44
485.336	100.44
485.554	88.44
485.772	81.44
485.99	103.44
486.209	90.44
486.427	95.44
486.645	118.44
486.863	96.44
487.081	92.44
487.299	86.44
487.517	95.44
487.735	103.44
487.953	78.44
488.171	84.44
488.389	80.44
488.607	98.44
488.825	86.44
489.043	94.44
489.261	97.44
489.479	115.44
489.696	80.44
489.914	89.44
490.132	79.44
490.35	90.44
490.568	94.44
490.786	85.44
491.003	92.44
491.221	90.44
491.439	91.44
491.657	90.44
491.874	92.44
492.092	96.44
492.31	83.44
492.527	86.44
492.745	96.44
492.963	86.44
493.18	84.44
493.398	92.44
493.615	92.44
493.833	92.44
494.05	88.44
494.268	79.44
494.485	91.44
494.703	88.44
494.92	91.44
495.138	112.44
495.355	86.44
495.573	88.44
495.79	89.44
496.008	82.44
496.225	86.44
496.442	83.44
496.66	101.44
496.877	86.44
497.094	85.44
497.312	93.44
497.529	92.44
497.746	92.44
497.963	92.44
498.181	95.44
498.398	94.44
498.615	100.44
498.832	100.44
499.049	75.44
499.267	84.44
499.484	98.44
499.701	80.44
499.918	82.44
500.135	87.44
500.352	97.44
500.569	68.44
500.786	69.44
501.003	94.44
501.22	87.44
501.437	94.44
501.654	87.44
501.871	104.44
502.088	84.44
502.305	86.44
502.522	92.44
502.739	78.44
502.956	101.44
503.172	89.44
503.389	91.44
503.606	106.44
503.823	94.44
504.04	82.44
504.256	85.44
504.473	83.44
504.69	78.44
504.907	94.44
505.123	80.44
505.34	90.44
505.557	81.44
505.773	83.44
505.99	86.44
506.207	89.44
506.423	79.44
506.64	79.44
506.856	93.44
507.073	95.44
507.289	82.44
507.506	85.44
507.722	106.44
507.939	98.44
508.155	97.44
508.372	92.44
508.588	96.44
508.805	94.44
509.021	94.44
509.238	93.44
509.454	92.44
509.67	97.44
509.887	83.44
510.103	120.44
510.319	170.44
510.536	562.44
510.752	1608.44
510.968	484.44
511.184	142.44
511.401	110.44
511.617	98.44
511.833	90.44
512.049	80.44
512.265	94.44
512.481	79.44
512.698	90.44
512.914	96.44
513.13	97.44
513.346	94.44
513.562	79.44
513.778	92.44
513.994	80.44
514.21	101.44
514.426	96.44
514.642	121.44
514.858	115.44
515.074	142.44
515.29	328.44
515.506	1003.44
515.721	386.44
515.937	131.44
516.153	94.44
516.369	90.44
516.585	97.44
516.801	79.44
517.016	98.44
