Data from Uncirc_2001_H10_HRD10591_00011.txt Node
Date: Wed Jan 03 10:43:59 EST 2024
User: Yrep
Spectrometer: HR+D1059
Trigger mode: 1
Integration Time (sec): 1.000000E-1
Scans to average: 1
Electric dark correction enabled: true
Nonlinearity correction enabled: false
Boxcar width: 0
XAxis mode: Wavelengths
Number of Pixels in Spectrum: 2048
>>>>>Begin Spectral Data<<<<<
223.165	-23.25
223.4	-23.25
223.635	-23.25
223.869	-21.25
224.104	-23.25
224.338	-16.25
224.573	-25.25
224.808	1.75
225.042	-13.25
225.277	0.75
225.511	7.75
225.746	-0.25
225.98	11.75
226.215	3.75
226.449	15.75
226.683	22.75
226.918	22.75
227.152	35.75
227.387	49.75
227.621	37.75
227.856	31.75
228.09	49.75
228.324	52.75
228.559	66.75
228.793	60.75
229.027	50.75
229.262	47.75
229.496	70.75
229.73	84.75
229.964	77.75
230.199	71.75
230.433	75.75
230.667	68.75
230.901	62.75
231.136	82.75
231.37	85.75
231.604	86.75
231.838	75.75
232.072	74.75
232.306	76.75
232.541	84.75
232.775	79.75
233.009	88.75
233.243	90.75
233.477	74.75
233.711	76.75
233.945	84.75
234.179	91.75
234.413	89.75
234.647	81.75
234.881	66.75
235.115	78.75
235.349	80.75
235.583	83.75
235.817	91.75
236.051	71.75
236.285	76.75
236.519	88.75
236.753	76.75
236.987	78.75
237.221	82.75
237.455	88.75
237.689	80.75
237.922	74.75
238.156	75.75
238.39	84.75
238.624	72.75
238.858	65.75
239.091	82.75
239.325	70.75
239.559	71.75
239.793	75.75
240.027	83.75
240.26	88.75
240.494	79.75
240.728	79.75
240.961	88.75
241.195	58.75
241.429	88.75
241.662	88.75
241.896	74.75
242.13	69.75
242.363	85.75
242.597	82.75
242.83	81.75
243.064	85.75
243.298	66.75
243.531	78.75
243.765	71.75
243.998	88.75
244.232	70.75
244.465	77.75
244.699	73.75
244.932	75.75
245.166	88.75
245.399	66.75
245.633	79.75
245.866	83.75
246.099	87.75
246.333	75.75
246.566	69.75
246.8	86.75
247.033	66.75
247.266	84.75
247.5	79.75
247.733	82.75
247.966	64.75
248.2	79.75
248.433	82.75
248.666	86.75
248.899	81.75
249.133	85.75
249.366	76.75
249.599	85.75
249.832	94.75
250.066	84.75
250.299	85.75
250.532	82.75
250.765	82.75
250.998	85.75
251.231	96.75
251.465	84.75
251.698	81.75
251.931	85.75
252.164	69.75
252.397	93.75
252.63	82.75
252.863	83.75
253.096	80.75
253.329	82.75
253.562	75.75
253.795	73.75
254.028	76.75
254.261	91.75
254.494	81.75
254.727	85.75
254.96	68.75
255.193	81.75
255.426	82.75
255.659	82.75
255.892	75.75
256.124	78.75
256.357	74.75
256.59	76.75
256.823	78.75
257.056	73.75
257.289	98.75
257.521	74.75
257.754	98.75
257.987	79.75
258.22	91.75
258.452	88.75
258.685	78.75
258.918	80.75
259.151	84.75
259.383	80.75
259.616	89.75
259.849	80.75
260.081	82.75
260.314	84.75
260.547	83.75
260.779	80.75
261.012	77.75
261.244	80.75
261.477	86.75
261.71	92.75
261.942	112.75
262.175	104.75
262.407	92.75
262.64	82.75
262.872	94.75
263.105	87.75
263.337	77.75
263.57	82.75
263.802	87.75
264.035	92.75
264.267	98.75
264.499	90.75
264.732	101.75
264.964	70.75
265.197	76.75
265.429	86.75
265.661	81.75
265.894	91.75
266.126	83.75
266.358	88.75
266.591	77.75
266.823	76.75
267.055	78.75
267.287	88.75
267.52	78.75
267.752	78.75
267.984	75.75
268.216	87.75
268.448	74.75
268.681	81.75
268.913	87.75
269.145	77.75
269.377	100.75
269.609	55.75
269.841	74.75
270.073	98.75
270.306	87.75
270.538	83.75
270.77	83.75
271.002	88.75
271.234	91.75
271.466	85.75
271.698	81.75
271.93	89.75
272.162	84.75
272.394	79.75
272.626	80.75
272.858	82.75
273.09	90.75
273.322	84.75
273.553	84.75
273.785	88.75
274.017	85.75
274.249	90.75
274.481	84.75
274.713	89.75
274.945	83.75
275.176	85.75
275.408	87.75
275.64	86.75
275.872	88.75
276.104	96.75
276.335	82.75
276.567	91.75
276.799	86.75
277.031	86.75
277.262	76.75
277.494	78.75
277.726	80.75
277.957	98.75
278.189	76.75
278.421	96.75
278.652	78.75
278.884	77.75
279.115	88.75
279.347	70.75
279.579	75.75
279.81	83.75
280.042	86.75
280.273	87.75
280.505	87.75
280.736	92.75
280.968	94.75
281.199	81.75
281.431	87.75
281.662	85.75
281.894	85.75
282.125	106.75
282.356	103.75
282.588	115.75
282.819	91.75
283.051	77.75
283.282	81.75
283.513	84.75
283.745	97.75
283.976	75.75
284.207	76.75
284.439	89.75
284.67	92.75
284.901	94.75
285.132	75.75
285.364	86.75
285.595	85.75
285.826	78.75
286.057	95.75
286.288	86.75
286.52	90.75
286.751	70.75
286.982	76.75
287.213	81.75
287.444	96.75
287.675	100.75
287.906	86.75
288.138	89.75
288.369	88.75
288.6	88.75
288.831	92.75
289.062	89.75
289.293	88.75
289.524	86.75
289.755	94.75
289.986	84.75
290.217	89.75
290.448	73.75
290.679	74.75
290.91	88.75
291.141	91.75
291.371	96.75
291.602	83.75
291.833	70.75
292.064	92.75
292.295	90.75
292.526	90.75
292.757	99.75
292.987	72.75
293.218	75.75
293.449	80.75
293.68	80.75
293.91	82.75
294.141	98.75
294.372	87.75
294.603	81.75
294.833	89.75
295.064	76.75
295.295	70.75
295.525	81.75
295.756	99.75
295.987	107.75
296.217	114.75
296.448	114.75
296.679	83.75
296.909	90.75
297.14	82.75
297.37	82.75
297.601	86.75
297.831	79.75
298.062	98.75
298.292	86.75
298.523	100.75
298.753	93.75
298.984	83.75
299.214	74.75
299.445	88.75
299.675	96.75
299.905	98.75
300.136	118.75
300.366	88.75
300.597	89.75
300.827	96.75
301.057	104.75
301.288	103.75
301.518	82.75
301.748	88.75
301.979	91.75
302.209	95.75
302.439	79.75
302.669	95.75
302.9	82.75
303.13	80.75
303.36	87.75
303.59	88.75
303.82	88.75
304.051	84.75
304.281	92.75
304.511	96.75
304.741	83.75
304.971	94.75
305.201	89.75
305.431	97.75
305.661	90.75
305.891	84.75
306.121	91.75
306.352	92.75
306.582	98.75
306.812	106.75
307.042	89.75
307.272	88.75
307.502	88.75
307.731	100.75
307.961	78.75
308.191	84.75
308.421	94.75
308.651	88.75
308.881	98.75
309.111	89.75
309.341	104.75
309.571	87.75
309.8	103.75
310.03	97.75
310.26	102.75
310.49	99.75
310.72	88.75
310.949	95.75
311.179	94.75
311.409	101.75
311.639	98.75
311.868	103.75
312.098	97.75
312.328	91.75
312.557	91.75
312.787	96.75
313.017	85.75
313.246	88.75
313.476	87.75
313.706	81.75
313.935	98.75
314.165	74.75
314.394	100.75
314.624	89.75
314.853	93.75
315.083	97.75
315.312	79.75
315.542	97.75
315.771	100.75
316.001	105.75
316.23	87.75
316.46	85.75
316.689	88.75
316.919	94.75
317.148	77.75
317.377	83.75
317.607	102.75
317.836	72.75
318.065	95.75
318.295	86.75
318.524	102.75
318.753	95.75
318.983	89.75
319.212	122.75
319.441	102.75
319.67	101.75
319.9	109.75
320.129	85.75
320.358	95.75
320.587	99.75
320.816	96.75
321.046	86.75
321.275	98.75
321.504	84.75
321.733	88.75
321.962	101.75
322.191	107.75
322.42	103.75
322.649	98.75
322.878	93.75
323.108	97.75
323.337	95.75
323.566	119.75
323.795	136.75
324.024	166.75
324.253	296.75
324.482	586.75
324.71	1148.75
324.939	1459.75
325.168	551.75
325.397	196.75
325.626	133.75
325.855	119.75
326.084	122.75
326.313	116.75
326.542	122.75
326.77	184.75
326.999	325.75
327.228	636.75
327.457	1147.75
327.686	911.75
327.914	263.75
328.143	155.75
328.372	126.75
328.6	105.75
328.829	108.75
329.058	109.75
329.287	116.75
329.515	107.75
329.744	97.75
329.972	99.75
330.201	84.75
330.43	81.75
330.658	120.75
330.887	127.75
331.115	120.75
331.344	108.75
331.572	96.75
331.801	106.75
332.03	92.75
332.258	92.75
332.486	88.75
332.715	87.75
332.943	105.75
333.172	86.75
333.4	96.75
333.629	102.75
333.857	97.75
334.085	108.75
334.314	108.75
334.542	88.75
334.771	88.75
334.999	98.75
335.227	80.75
335.455	102.75
335.684	105.75
335.912	86.75
336.14	107.75
336.369	83.75
336.597	95.75
336.825	98.75
337.053	85.75
337.281	96.75
337.51	102.75
337.738	103.75
337.966	93.75
338.194	82.75
338.422	94.75
338.65	88.75
338.878	85.75
339.106	89.75
339.334	102.75
339.562	90.75
339.79	76.75
340.018	91.75
340.246	88.75
340.474	85.75
340.702	83.75
340.93	77.75
341.158	92.75
341.386	89.75
341.614	92.75
341.842	89.75
342.07	93.75
342.298	95.75
342.526	108.75
342.754	112.75
342.981	92.75
343.209	96.75
343.437	98.75
343.665	93.75
343.893	88.75
344.12	107.75
344.348	80.75
344.576	85.75
344.804	81.75
345.031	92.75
345.259	90.75
345.487	89.75
345.714	96.75
345.942	78.75
346.17	76.75
346.397	85.75
346.625	80.75
346.853	103.75
347.08	82.75
347.308	86.75
347.535	93.75
347.763	99.75
347.99	100.75
348.218	98.75
348.445	92.75
348.673	92.75
348.9	92.75
349.128	92.75
349.355	92.75
349.583	78.75
349.81	89.75
350.037	92.75
350.265	98.75
350.492	93.75
350.72	107.75
350.947	102.75
351.174	98.75
351.402	99.75
351.629	104.75
351.856	106.75
352.083	91.75
352.311	119.75
352.538	108.75
352.765	97.75
352.992	118.75
353.22	103.75
353.447	107.75
353.674	104.75
353.901	80.75
354.128	92.75
354.355	91.75
354.583	91.75
354.81	78.75
355.037	87.75
355.264	90.75
355.491	100.75
355.718	96.75
355.945	95.75
356.172	91.75
356.399	89.75
356.626	100.75
356.853	72.75
357.08	108.75
357.307	103.75
357.534	106.75
357.761	100.75
357.988	100.75
358.215	92.75
358.441	106.75
358.668	100.75
358.895	96.75
359.122	88.75
359.349	88.75
359.576	98.75
359.802	101.75
360.029	95.75
360.256	105.75
360.483	114.75
360.709	90.75
360.936	98.75
361.163	90.75
361.39	96.75
361.616	91.75
361.843	89.75
362.07	89.75
362.296	84.75
362.523	84.75
362.749	87.75
362.976	91.75
363.203	86.75
363.429	94.75
363.656	90.75
363.882	98.75
364.109	94.75
364.335	78.75
364.562	91.75
364.788	92.75
365.015	96.75
365.241	101.75
365.468	90.75
365.694	77.75
365.92	84.75
366.147	85.75
366.373	95.75
366.599	82.75
366.826	87.75
367.052	91.75
367.278	97.75
367.505	101.75
367.731	100.75
367.957	100.75
368.184	93.75
368.41	92.75
368.636	98.75
368.862	100.75
369.089	88.75
369.315	86.75
369.541	97.75
369.767	76.75
369.993	99.75
370.219	95.75
370.445	91.75
370.672	88.75
370.898	89.75
371.124	86.75
371.35	82.75
371.576	80.75
371.802	93.75
372.028	89.75
372.254	87.75
372.48	95.75
372.706	89.75
372.932	98.75
373.158	83.75
373.384	104.75
373.61	83.75
373.835	92.75
374.061	93.75
374.287	83.75
374.513	93.75
374.739	76.75
374.965	83.75
375.191	85.75
375.416	82.75
375.642	106.75
375.868	96.75
376.094	88.75
376.319	97.75
376.545	100.75
376.771	90.75
376.997	92.75
377.222	82.75
377.448	98.75
377.674	84.75
377.899	87.75
378.125	88.75
378.35	84.75
378.576	93.75
378.802	76.75
379.027	82.75
379.253	100.75
379.478	86.75
379.704	89.75
379.929	100.75
380.155	108.75
380.38	96.75
380.606	83.75
380.831	88.75
381.057	110.75
381.282	102.75
381.507	104.75
381.733	101.75
381.958	91.75
382.184	107.75
382.409	95.75
382.634	95.75
382.86	101.75
383.085	104.75
383.31	108.75
383.535	106.75
383.761	105.75
383.986	112.75
384.211	104.75
384.436	103.75
384.662	106.75
384.887	110.75
385.112	97.75
385.337	113.75
385.562	110.75
385.787	108.75
386.013	126.75
386.238	112.75
386.463	122.75
386.688	114.75
386.913	103.75
387.138	107.75
387.363	113.75
387.588	101.75
387.813	117.75
388.038	103.75
388.263	105.75
388.488	126.75
388.713	82.75
388.938	98.75
389.163	90.75
389.387	80.75
389.612	91.75
389.837	85.75
390.062	92.75
390.287	91.75
390.512	91.75
390.736	104.75
390.961	101.75
391.186	95.75
391.411	112.75
391.636	83.75
391.86	94.75
392.085	66.75
392.31	82.75
392.534	94.75
392.759	99.75
392.984	80.75
393.208	84.75
393.433	98.75
393.658	102.75
393.882	88.75
394.107	74.75
394.331	76.75
394.556	72.75
394.78	90.75
395.005	87.75
395.229	81.75
395.454	96.75
395.678	84.75
395.903	98.75
396.127	102.75
396.352	97.75
396.576	92.75
396.801	82.75
397.025	87.75
397.249	88.75
397.474	87.75
397.698	94.75
397.922	78.75
398.147	71.75
398.371	91.75
398.595	98.75
398.82	84.75
399.044	70.75
399.268	86.75
399.492	82.75
399.717	86.75
399.941	101.75
400.165	84.75
400.389	98.75
400.613	103.75
400.837	97.75
401.062	96.75
401.286	90.75
401.51	89.75
401.734	82.75
401.958	89.75
402.182	118.75
402.406	142.75
402.63	96.75
402.854	86.75
403.078	94.75
403.302	85.75
403.526	96.75
403.75	98.75
403.974	90.75
404.198	98.75
404.422	87.75
404.645	104.75
404.869	90.75
405.093	98.75
405.317	89.75
405.541	90.75
405.765	75.75
405.988	110.75
406.212	153.75
406.436	171.75
406.66	130.75
406.883	95.75
407.107	99.75
407.331	85.75
407.555	84.75
407.778	102.75
408.002	99.75
408.226	91.75
408.449	82.75
408.673	89.75
408.896	88.75
409.12	85.75
409.344	95.75
409.567	83.75
409.791	84.75
410.014	102.75
410.238	103.75
410.461	91.75
410.685	96.75
410.908	106.75
411.132	92.75
411.355	96.75
411.578	88.75
411.802	77.75
412.025	88.75
412.249	98.75
412.472	102.75
412.695	83.75
412.919	91.75
413.142	100.75
413.365	96.75
413.589	97.75
413.812	102.75
414.035	95.75
414.258	102.75
414.482	91.75
414.705	109.75
414.928	88.75
415.151	89.75
415.374	85.75
415.597	88.75
415.821	88.75
416.044	84.75
416.267	94.75
416.49	96.75
416.713	95.75
416.936	91.75
417.159	84.75
417.382	85.75
417.605	88.75
417.828	102.75
418.051	90.75
418.274	93.75
418.497	83.75
418.72	93.75
418.943	82.75
419.166	93.75
419.389	87.75
419.611	86.75
419.834	90.75
420.057	101.75
420.28	80.75
420.503	95.75
420.726	91.75
420.948	82.75
421.171	83.75
421.394	101.75
421.617	84.75
421.839	91.75
422.062	100.75
422.285	79.75
422.507	106.75
422.73	113.75
422.953	93.75
423.175	72.75
423.398	75.75
423.621	92.75
423.843	84.75
424.066	80.75
424.288	89.75
424.511	98.75
424.733	87.75
424.956	104.75
425.178	89.75
425.401	92.75
425.623	98.75
425.846	91.75
426.068	86.75
426.291	81.75
426.513	92.75
426.735	94.75
426.958	89.75
427.18	91.75
427.402	113.75
427.625	123.75
427.847	115.75
428.069	95.75
428.292	81.75
428.514	86.75
428.736	88.75
428.958	86.75
429.181	86.75
429.403	98.75
429.625	78.75
429.847	95.75
430.069	99.75
430.292	107.75
430.514	77.75
430.736	81.75
430.958	82.75
431.18	94.75
431.402	75.75
431.624	89.75
431.846	87.75
432.068	87.75
432.29	86.75
432.512	87.75
432.734	94.75
432.956	68.75
433.178	83.75
433.4	74.75
433.622	79.75
433.844	89.75
434.066	91.75
434.287	92.75
434.509	84.75
434.731	92.75
434.953	90.75
435.175	77.75
435.397	97.75
435.618	78.75
435.84	94.75
436.062	115.75
436.284	97.75
436.505	95.75
436.727	101.75
436.949	92.75
437.17	86.75
437.392	83.75
437.614	83.75
437.835	95.75
438.057	106.75
438.278	92.75
438.5	103.75
438.721	111.75
438.943	100.75
439.165	70.75
439.386	98.75
439.608	95.75
439.829	106.75
440.05	98.75
440.272	111.75
440.493	96.75
440.715	88.75
440.936	89.75
441.158	82.75
441.379	86.75
441.6	85.75
441.822	79.75
442.043	86.75
442.264	85.75
442.486	90.75
442.707	95.75
442.928	104.75
443.149	115.75
443.371	116.75
443.592	97.75
443.813	115.75
444.034	106.75
444.255	94.75
444.476	82.75
444.698	83.75
444.919	95.75
445.14	123.75
445.361	111.75
445.582	96.75
445.803	119.75
446.024	110.75
446.245	115.75
446.466	97.75
446.687	79.75
446.908	91.75
447.129	95.75
447.35	101.75
447.571	99.75
447.792	100.75
448.013	96.75
448.234	109.75
448.455	92.75
448.675	95.75
448.896	102.75
449.117	90.75
449.338	92.75
449.559	123.75
449.779	132.75
450	83.75
450.221	88.75
450.442	79.75
450.662	83.75
450.883	112.75
451.104	107.75
451.324	89.75
451.545	93.75
451.766	87.75
451.986	78.75
452.207	88.75
452.428	98.75
452.648	103.75
452.869	105.75
453.089	105.75
453.31	105.75
453.53	91.75
453.751	92.75
453.971	90.75
454.192	101.75
454.412	78.75
454.633	89.75
454.853	89.75
455.073	84.75
455.294	101.75
455.514	101.75
455.734	93.75
455.955	80.75
456.175	88.75
456.395	101.75
456.616	95.75
456.836	92.75
457.056	103.75
457.276	91.75
457.497	82.75
457.717	97.75
457.937	96.75
458.157	80.75
458.377	87.75
458.598	92.75
458.818	114.75
459.038	146.75
459.258	105.75
459.478	90.75
459.698	79.75
459.918	93.75
460.138	94.75
460.358	94.75
460.578	94.75
460.798	90.75
461.018	88.75
461.238	101.75
461.458	86.75
461.678	72.75
461.898	88.75
462.118	76.75
462.338	85.75
462.558	91.75
462.777	87.75
462.997	82.75
463.217	73.75
463.437	92.75
463.657	93.75
463.876	90.75
464.096	89.75
464.316	87.75
464.536	100.75
464.755	105.75
464.975	100.75
465.195	150.75
465.414	119.75
465.634	87.75
465.854	82.75
466.073	90.75
466.293	93.75
466.512	84.75
466.732	85.75
466.951	84.75
467.171	87.75
467.391	96.75
467.61	90.75
467.829	99.75
468.049	98.75
468.268	78.75
468.488	107.75
468.707	94.75
468.927	85.75
469.146	87.75
469.365	90.75
469.585	95.75
469.804	83.75
470.023	86.75
470.243	95.75
470.462	100.75
470.681	106.75
470.901	80.75
471.12	87.75
471.339	85.75
471.558	99.75
471.777	75.75
471.997	79.75
472.216	77.75
472.435	88.75
472.654	83.75
472.873	78.75
473.092	90.75
473.311	75.75
473.53	90.75
473.749	93.75
473.968	88.75
474.187	91.75
474.406	94.75
474.625	75.75
474.844	80.75
475.063	78.75
475.282	89.75
475.501	99.75
475.72	87.75
475.939	83.75
476.158	81.75
476.377	75.75
476.596	76.75
476.814	88.75
477.033	92.75
477.252	102.75
477.471	88.75
477.69	82.75
477.908	95.75
478.127	87.75
478.346	75.75
478.564	92.75
478.783	84.75
479.002	81.75
479.22	90.75
479.439	94.75
479.658	88.75
479.876	100.75
480.095	93.75
480.313	94.75
480.532	84.75
480.751	104.75
480.969	97.75
481.188	86.75
481.406	108.75
481.624	87.75
481.843	89.75
482.061	89.75
482.28	85.75
482.498	91.75
482.717	72.75
482.935	86.75
483.153	93.75
483.372	88.75
483.59	100.75
483.808	88.75
484.027	97.75
484.245	97.75
484.463	91.75
484.681	84.75
484.9	103.75
485.118	90.75
485.336	101.75
485.554	99.75
485.772	104.75
485.99	104.75
486.209	104.75
486.427	109.75
486.645	114.75
486.863	102.75
487.081	88.75
487.299	100.75
487.517	100.75
487.735	94.75
487.953	94.75
488.171	92.75
488.389	91.75
488.607	94.75
488.825	82.75
489.043	95.75
489.261	82.75
489.479	87.75
489.696	95.75
489.914	99.75
490.132	75.75
490.35	88.75
490.568	78.75
490.786	90.75
491.003	107.75
491.221	96.75
491.439	87.75
491.657	88.75
491.874	91.75
492.092	57.75
492.31	90.75
492.527	85.75
492.745	92.75
492.963	97.75
493.18	101.75
493.398	85.75
493.615	98.75
493.833	86.75
494.05	81.75
494.268	92.75
494.485	84.75
494.703	85.75
494.92	87.75
495.138	97.75
495.355	82.75
495.573	97.75
495.79	81.75
496.008	87.75
496.225	90.75
496.442	96.75
496.66	97.75
496.877	92.75
497.094	89.75
497.312	83.75
497.529	95.75
497.746	104.75
497.963	90.75
498.181	91.75
498.398	90.75
498.615	94.75
498.832	113.75
499.049	101.75
499.267	80.75
499.484	88.75
499.701	85.75
499.918	103.75
500.135	90.75
500.352	83.75
500.569	107.75
500.786	98.75
501.003	85.75
501.22	84.75
501.437	84.75
501.654	90.75
501.871	80.75
502.088	99.75
502.305	93.75
502.522	82.75
502.739	84.75
502.956	92.75
503.172	108.75
503.389	107.75
503.606	87.75
503.823	91.75
504.04	91.75
504.256	89.75
504.473	95.75
504.69	90.75
504.907	89.75
505.123	86.75
505.34	110.75
505.557	92.75
505.773	81.75
505.99	99.75
506.207	90.75
506.423	86.75
506.64	99.75
506.856	80.75
507.073	91.75
507.289	86.75
507.506	87.75
507.722	91.75
507.939	92.75
508.155	85.75
508.372	102.75
508.588	89.75
508.805	88.75
509.021	95.75
509.238	92.75
509.454	98.75
509.67	98.75
509.887	99.75
510.103	118.75
510.319	187.75
510.536	584.75
510.752	1667.75
510.968	485.75
511.184	135.75
511.401	100.75
511.617	116.75
511.833	96.75
512.049	72.75
512.265	81.75
512.481	85.75
512.698	85.75
512.914	94.75
513.13	87.75
513.346	92.75
513.562	104.75
513.778	92.75
513.994	89.75
514.21	102.75
514.426	110.75
514.642	119.75
514.858	120.75
515.074	128.75
515.29	361.75
515.506	1017.75
515.721	402.75
515.937	135.75
516.153	112.75
