Data from Uncirc_2001_H10_HRD10591_00028.txt Node
Date: Wed Jan 03 10:44:02 EST 2024
User: Yrep
Spectrometer: HR+D1059
Trigger mode: 1
Integration Time (sec): 1.000000E-1
Scans to average: 1
Electric dark correction enabled: true
Nonlinearity correction enabled: false
Boxcar width: 0
XAxis mode: Wavelengths
Number of Pixels in Spectrum: 2048
>>>>>Begin Spectral Data<<<<<
223.165	-21.31
223.4	-21.31
223.635	-21.31
223.869	-21.31
224.104	-22.31
224.338	-31.31
224.573	-23.31
224.808	-11.31
225.042	-8.31
225.277	7.69
225.511	5.69
225.746	0.69
225.98	12.69
226.215	30.69
226.449	2.69
226.683	22.69
226.918	30.69
227.152	25.69
227.387	35.69
227.621	40.69
227.856	44.69
228.09	39.69
228.324	60.69
228.559	63.69
228.793	69.69
229.027	58.69
229.262	66.69
229.496	75.69
229.73	81.69
229.964	84.69
230.199	77.69
230.433	73.69
230.667	78.69
230.901	81.69
231.136	64.69
231.37	60.69
231.604	83.69
231.838	87.69
232.072	83.69
232.306	81.69
232.541	92.69
232.775	82.69
233.009	88.69
233.243	59.69
233.477	80.69
233.711	88.69
233.945	93.69
234.179	86.69
234.413	69.69
234.647	83.69
234.881	84.69
235.115	82.69
235.349	79.69
235.583	93.69
235.817	80.69
236.051	74.69
236.285	81.69
236.519	82.69
236.753	83.69
236.987	77.69
237.221	71.69
237.455	90.69
237.689	76.69
237.922	89.69
238.156	81.69
238.39	69.69
238.624	80.69
238.858	75.69
239.091	80.69
239.325	79.69
239.559	86.69
239.793	81.69
240.027	75.69
240.26	75.69
240.494	75.69
240.728	83.69
240.961	66.69
241.195	79.69
241.429	76.69
241.662	78.69
241.896	74.69
242.13	82.69
242.363	84.69
242.597	69.69
242.83	77.69
243.064	63.69
243.298	81.69
243.531	75.69
243.765	82.69
243.998	76.69
244.232	79.69
244.465	80.69
244.699	85.69
244.932	74.69
245.166	78.69
245.399	92.69
245.633	75.69
245.866	83.69
246.099	85.69
246.333	80.69
246.566	75.69
246.8	57.69
247.033	67.69
247.266	85.69
247.5	88.69
247.733	100.69
247.966	80.69
248.2	82.69
248.433	92.69
248.666	79.69
248.899	74.69
249.133	83.69
249.366	74.69
249.599	84.69
249.832	79.69
250.066	79.69
250.299	70.69
250.532	91.69
250.765	84.69
250.998	67.69
251.231	89.69
251.465	73.69
251.698	83.69
251.931	69.69
252.164	67.69
252.397	92.69
252.63	80.69
252.863	84.69
253.096	74.69
253.329	86.69
253.562	71.69
253.795	72.69
254.028	88.69
254.261	86.69
254.494	89.69
254.727	89.69
254.96	75.69
255.193	74.69
255.426	61.69
255.659	76.69
255.892	73.69
256.124	78.69
256.357	71.69
256.59	69.69
256.823	69.69
257.056	70.69
257.289	75.69
257.521	68.69
257.754	95.69
257.987	76.69
258.22	80.69
258.452	75.69
258.685	77.69
258.918	78.69
259.151	75.69
259.383	69.69
259.616	90.69
259.849	72.69
260.081	83.69
260.314	74.69
260.547	69.69
260.779	85.69
261.012	80.69
261.244	95.69
261.477	106.69
261.71	102.69
261.942	105.69
262.175	116.69
262.407	80.69
262.64	93.69
262.872	98.69
263.105	85.69
263.337	82.69
263.57	80.69
263.802	78.69
264.035	90.69
264.267	91.69
264.499	82.69
264.732	76.69
264.964	79.69
265.197	66.69
265.429	84.69
265.661	83.69
265.894	91.69
266.126	83.69
266.358	77.69
266.591	76.69
266.823	89.69
267.055	78.69
267.287	82.69
267.52	78.69
267.752	81.69
267.984	86.69
268.216	87.69
268.448	76.69
268.681	94.69
268.913	93.69
269.145	91.69
269.377	83.69
269.609	85.69
269.841	76.69
270.073	85.69
270.306	79.69
270.538	87.69
270.77	76.69
271.002	81.69
271.234	72.69
271.466	85.69
271.698	97.69
271.93	85.69
272.162	87.69
272.394	83.69
272.626	95.69
272.858	82.69
273.09	83.69
273.322	88.69
273.553	78.69
273.785	80.69
274.017	77.69
274.249	73.69
274.481	76.69
274.713	83.69
274.945	111.69
275.176	84.69
275.408	78.69
275.64	81.69
275.872	76.69
276.104	88.69
276.335	102.69
276.567	89.69
276.799	108.69
277.031	98.69
277.262	84.69
277.494	104.69
277.726	95.69
277.957	85.69
278.189	97.69
278.421	84.69
278.652	91.69
278.884	91.69
279.115	72.69
279.347	79.69
279.579	84.69
279.81	87.69
280.042	82.69
280.273	95.69
280.505	95.69
280.736	71.69
280.968	78.69
281.199	82.69
281.431	77.69
281.662	78.69
281.894	80.69
282.125	88.69
282.356	111.69
282.588	137.69
282.819	112.69
283.051	86.69
283.282	89.69
283.513	86.69
283.745	73.69
283.976	86.69
284.207	98.69
284.439	96.69
284.67	83.69
284.901	93.69
285.132	104.69
285.364	89.69
285.595	89.69
285.826	80.69
286.057	87.69
286.288	77.69
286.52	83.69
286.751	86.69
286.982	81.69
287.213	82.69
287.444	84.69
287.675	81.69
287.906	88.69
288.138	98.69
288.369	72.69
288.6	91.69
288.831	97.69
289.062	78.69
289.293	84.69
289.524	92.69
289.755	86.69
289.986	93.69
290.217	85.69
290.448	83.69
290.679	98.69
290.91	80.69
291.141	91.69
291.371	92.69
291.602	88.69
291.833	84.69
292.064	88.69
292.295	86.69
292.526	83.69
292.757	69.69
292.987	92.69
293.218	89.69
293.449	66.69
293.68	83.69
293.91	92.69
294.141	88.69
294.372	84.69
294.603	89.69
294.833	100.69
295.064	91.69
295.295	88.69
295.525	82.69
295.756	117.69
295.987	120.69
296.217	114.69
296.448	117.69
296.679	81.69
296.909	111.69
297.14	83.69
297.37	90.69
297.601	70.69
297.831	85.69
298.062	79.69
298.292	85.69
298.523	91.69
298.753	88.69
298.984	87.69
299.214	73.69
299.445	88.69
299.675	87.69
299.905	93.69
300.136	93.69
300.366	99.69
300.597	87.69
300.827	104.69
301.057	99.69
301.288	94.69
301.518	96.69
301.748	90.69
301.979	82.69
302.209	94.69
302.439	91.69
302.669	77.69
302.9	93.69
303.13	88.69
303.36	92.69
303.59	101.69
303.82	103.69
304.051	90.69
304.281	82.69
304.511	89.69
304.741	93.69
304.971	97.69
305.201	91.69
305.431	89.69
305.661	95.69
305.891	101.69
306.121	99.69
306.352	87.69
306.582	100.69
306.812	85.69
307.042	83.69
307.272	93.69
307.502	104.69
307.731	101.69
307.961	88.69
308.191	92.69
308.421	93.69
308.651	86.69
308.881	91.69
309.111	93.69
309.341	96.69
309.571	99.69
309.8	92.69
310.03	93.69
310.26	96.69
310.49	97.69
310.72	95.69
310.949	111.69
311.179	88.69
311.409	91.69
311.639	94.69
311.868	100.69
312.098	106.69
312.328	89.69
312.557	106.69
312.787	116.69
313.017	104.69
313.246	89.69
313.476	93.69
313.706	87.69
313.935	98.69
314.165	113.69
314.394	92.69
314.624	96.69
314.853	104.69
315.083	92.69
315.312	99.69
315.542	82.69
315.771	105.69
316.001	80.69
316.23	95.69
316.46	86.69
316.689	86.69
316.919	96.69
317.148	97.69
317.377	67.69
317.607	91.69
317.836	76.69
318.065	85.69
318.295	99.69
318.524	93.69
318.753	96.69
318.983	105.69
319.212	96.69
319.441	95.69
319.67	118.69
319.9	84.69
320.129	90.69
320.358	91.69
320.587	96.69
320.816	108.69
321.046	97.69
321.275	83.69
321.504	114.69
321.733	97.69
321.962	92.69
322.191	97.69
322.42	85.69
322.649	96.69
322.878	91.69
323.108	111.69
323.337	117.69
323.566	116.69
323.795	129.69
324.024	187.69
324.253	352.69
324.482	744.69
324.71	1441.69
324.939	1831.69
325.168	698.69
325.397	218.69
325.626	141.69
325.855	124.69
326.084	118.69
326.313	134.69
326.542	138.69
326.77	213.69
326.999	400.69
327.228	805.69
327.457	1441.69
327.686	1111.69
327.914	329.69
328.143	171.69
328.372	141.69
328.6	115.69
328.829	107.69
329.058	127.69
329.287	131.69
329.515	105.69
329.744	105.69
329.972	107.69
330.201	101.69
330.43	107.69
330.658	123.69
330.887	136.69
331.115	115.69
331.344	98.69
331.572	105.69
331.801	103.69
332.03	100.69
332.258	100.69
332.486	77.69
332.715	91.69
332.943	102.69
333.172	81.69
333.4	82.69
333.629	113.69
333.857	103.69
334.085	107.69
334.314	87.69
334.542	86.69
334.771	88.69
334.999	92.69
335.227	91.69
335.455	80.69
335.684	88.69
335.912	91.69
336.14	89.69
336.369	86.69
336.597	92.69
336.825	90.69
337.053	85.69
337.281	88.69
337.51	97.69
337.738	82.69
337.966	87.69
338.194	96.69
338.422	101.69
338.65	90.69
338.878	94.69
339.106	72.69
339.334	90.69
339.562	67.69
339.79	82.69
340.018	95.69
340.246	84.69
340.474	95.69
340.702	95.69
340.93	99.69
341.158	83.69
341.386	104.69
341.614	96.69
341.842	88.69
342.07	102.69
342.298	98.69
342.526	93.69
342.754	87.69
342.981	89.69
343.209	90.69
343.437	91.69
343.665	93.69
343.893	83.69
344.12	82.69
344.348	89.69
344.576	100.69
344.804	86.69
345.031	79.69
345.259	85.69
345.487	90.69
345.714	88.69
345.942	97.69
346.17	84.69
346.397	93.69
346.625	90.69
346.853	84.69
347.08	91.69
347.308	111.69
347.535	101.69
347.763	105.69
347.99	95.69
348.218	102.69
348.445	112.69
348.673	111.69
348.9	97.69
349.128	85.69
349.355	96.69
349.583	90.69
349.81	97.69
350.037	108.69
350.265	98.69
350.492	103.69
350.72	101.69
350.947	119.69
351.174	114.69
351.402	115.69
351.629	96.69
351.856	111.69
352.083	97.69
352.311	109.69
352.538	101.69
352.765	90.69
352.992	108.69
353.22	110.69
353.447	99.69
353.674	79.69
353.901	86.69
354.128	112.69
354.355	88.69
354.583	87.69
354.81	92.69
355.037	87.69
355.264	84.69
355.491	78.69
355.718	98.69
355.945	86.69
356.172	99.69
356.399	97.69
356.626	88.69
356.853	82.69
357.08	96.69
357.307	89.69
357.534	89.69
357.761	85.69
357.988	92.69
358.215	93.69
358.441	74.69
358.668	94.69
358.895	98.69
359.122	87.69
359.349	87.69
359.576	96.69
359.802	106.69
360.029	105.69
360.256	117.69
360.483	69.69
360.709	81.69
360.936	95.69
361.163	99.69
361.39	99.69
361.616	90.69
361.843	102.69
362.07	94.69
362.296	92.69
362.523	97.69
362.749	83.69
362.976	81.69
363.203	92.69
363.429	92.69
363.656	104.69
363.882	90.69
364.109	91.69
364.335	87.69
364.562	100.69
364.788	87.69
365.015	106.69
365.241	101.69
365.468	99.69
365.694	108.69
365.92	97.69
366.147	80.69
366.373	85.69
366.599	82.69
366.826	83.69
367.052	83.69
367.278	82.69
367.505	94.69
367.731	85.69
367.957	101.69
368.184	84.69
368.41	100.69
368.636	116.69
368.862	113.69
369.089	101.69
369.315	103.69
369.541	92.69
369.767	93.69
369.993	83.69
370.219	91.69
370.445	97.69
370.672	92.69
370.898	93.69
371.124	75.69
371.35	78.69
371.576	93.69
371.802	81.69
372.028	85.69
372.254	92.69
372.48	79.69
372.706	80.69
372.932	96.69
373.158	79.69
373.384	98.69
373.61	99.69
373.835	92.69
374.061	102.69
374.287	88.69
374.513	83.69
374.739	81.69
374.965	80.69
375.191	96.69
375.416	83.69
375.642	84.69
375.868	87.69
376.094	87.69
376.319	87.69
376.545	107.69
376.771	92.69
376.997	89.69
377.222	96.69
377.448	98.69
377.674	97.69
377.899	89.69
378.125	78.69
378.35	85.69
378.576	77.69
378.802	83.69
379.027	83.69
379.253	84.69
379.478	98.69
379.704	92.69
379.929	82.69
380.155	92.69
380.38	101.69
380.606	90.69
380.831	99.69
381.057	87.69
381.282	90.69
381.507	92.69
381.733	100.69
381.958	96.69
382.184	92.69
382.409	100.69
382.634	89.69
382.86	88.69
383.085	97.69
383.31	100.69
383.535	111.69
383.761	102.69
383.986	107.69
384.211	98.69
384.436	93.69
384.662	92.69
384.887	105.69
385.112	116.69
385.337	106.69
385.562	107.69
385.787	115.69
386.013	112.69
386.238	115.69
386.463	97.69
386.688	114.69
386.913	95.69
387.138	104.69
387.363	104.69
387.588	120.69
387.813	90.69
388.038	99.69
388.263	106.69
388.488	100.69
388.713	82.69
388.938	97.69
389.163	87.69
389.387	101.69
389.612	93.69
389.837	93.69
390.062	90.69
390.287	78.69
390.512	92.69
390.736	95.69
390.961	80.69
391.186	86.69
391.411	104.69
391.636	93.69
391.86	83.69
392.085	81.69
392.31	76.69
392.534	91.69
392.759	77.69
392.984	85.69
393.208	101.69
393.433	105.69
393.658	91.69
393.882	87.69
394.107	81.69
394.331	86.69
394.556	91.69
394.78	89.69
395.005	93.69
395.229	82.69
395.454	88.69
395.678	84.69
395.903	83.69
396.127	95.69
396.352	90.69
396.576	88.69
396.801	88.69
397.025	89.69
397.249	87.69
397.474	89.69
397.698	74.69
397.922	75.69
398.147	89.69
398.371	80.69
398.595	96.69
398.82	86.69
399.044	92.69
399.268	77.69
399.492	79.69
399.717	89.69
399.941	82.69
400.165	95.69
400.389	89.69
400.613	95.69
400.837	85.69
401.062	93.69
401.286	73.69
401.51	99.69
401.734	88.69
401.958	84.69
402.182	137.69
402.406	154.69
402.63	108.69
402.854	85.69
403.078	85.69
403.302	80.69
403.526	92.69
403.75	78.69
403.974	76.69
404.198	75.69
404.422	98.69
404.645	83.69
404.869	89.69
405.093	91.69
405.317	98.69
405.541	96.69
405.765	110.69
405.988	119.69
406.212	153.69
406.436	217.69
406.66	148.69
406.883	88.69
407.107	92.69
407.331	97.69
407.555	101.69
407.778	91.69
408.002	72.69
408.226	83.69
408.449	99.69
408.673	91.69
408.896	83.69
409.12	82.69
409.344	75.69
409.567	94.69
409.791	85.69
410.014	88.69
410.238	84.69
410.461	105.69
410.685	99.69
410.908	99.69
411.132	96.69
411.355	93.69
411.578	85.69
411.802	82.69
412.025	103.69
412.249	94.69
412.472	91.69
412.695	93.69
412.919	82.69
413.142	91.69
413.365	95.69
413.589	76.69
413.812	91.69
414.035	98.69
414.258	87.69
414.482	102.69
414.705	88.69
414.928	84.69
415.151	87.69
415.374	99.69
415.597	79.69
415.821	91.69
416.044	98.69
416.267	89.69
416.49	84.69
416.713	93.69
416.936	94.69
417.159	87.69
417.382	79.69
417.605	89.69
417.828	91.69
418.051	101.69
418.274	97.69
418.497	83.69
418.72	83.69
418.943	91.69
419.166	83.69
419.389	91.69
419.611	92.69
419.834	90.69
420.057	78.69
420.28	83.69
420.503	84.69
420.726	81.69
420.948	89.69
421.171	85.69
421.394	94.69
421.617	92.69
421.839	100.69
422.062	89.69
422.285	85.69
422.507	88.69
422.73	103.69
422.953	93.69
423.175	93.69
423.398	99.69
423.621	97.69
423.843	85.69
424.066	82.69
424.288	82.69
424.511	98.69
424.733	92.69
424.956	111.69
425.178	90.69
425.401	83.69
425.623	100.69
425.846	95.69
426.068	78.69
426.291	68.69
426.513	84.69
426.735	93.69
426.958	79.69
427.18	107.69
427.402	136.69
427.625	140.69
427.847	119.69
428.069	104.69
428.292	93.69
428.514	85.69
428.736	74.69
428.958	88.69
429.181	96.69
429.403	74.69
429.625	82.69
429.847	88.69
430.069	105.69
430.292	92.69
430.514	94.69
430.736	87.69
430.958	87.69
431.18	89.69
431.402	87.69
431.624	90.69
431.846	88.69
432.068	87.69
432.29	79.69
432.512	77.69
432.734	97.69
432.956	87.69
433.178	93.69
433.4	99.69
433.622	103.69
433.844	90.69
434.066	93.69
434.287	95.69
434.509	87.69
434.731	93.69
434.953	81.69
435.175	80.69
435.397	91.69
435.618	88.69
435.84	107.69
436.062	120.69
436.284	101.69
436.505	100.69
436.727	98.69
436.949	93.69
437.17	83.69
437.392	82.69
437.614	95.69
437.835	119.69
438.057	105.69
438.278	110.69
438.5	108.69
438.721	99.69
438.943	102.69
439.165	78.69
439.386	100.69
439.608	97.69
439.829	82.69
440.05	103.69
440.272	124.69
440.493	92.69
440.715	88.69
440.936	99.69
441.158	82.69
441.379	101.69
441.6	97.69
441.822	97.69
442.043	92.69
442.264	98.69
442.486	105.69
442.707	91.69
442.928	93.69
443.149	120.69
443.371	131.69
443.592	110.69
443.813	117.69
444.034	110.69
444.255	83.69
444.476	88.69
444.698	74.69
444.919	84.69
445.14	124.69
445.361	104.69
445.582	104.69
445.803	128.69
446.024	114.69
446.245	129.69
446.466	93.69
446.687	84.69
446.908	95.69
447.129	84.69
447.35	87.69
447.571	99.69
447.792	86.69
448.013	88.69
448.234	109.69
448.455	104.69
448.675	104.69
448.896	113.69
449.117	107.69
449.338	92.69
449.559	129.69
449.779	121.69
450	99.69
450.221	87.69
450.442	83.69
450.662	87.69
450.883	107.69
451.104	106.69
451.324	81.69
451.545	84.69
451.766	88.69
451.986	89.69
452.207	96.69
452.428	89.69
452.648	87.69
452.869	103.69
453.089	120.69
453.31	115.69
453.53	88.69
453.751	71.69
453.971	99.69
454.192	91.69
454.412	85.69
454.633	90.69
454.853	98.69
455.073	76.69
455.294	86.69
455.514	104.69
455.734	74.69
455.955	79.69
456.175	82.69
456.395	77.69
456.616	96.69
456.836	87.69
457.056	95.69
457.276	79.69
457.497	81.69
457.717	83.69
457.937	85.69
458.157	92.69
458.377	96.69
458.598	101.69
458.818	138.69
459.038	155.69
459.258	111.69
459.478	77.69
459.698	94.69
459.918	94.69
460.138	79.69
460.358	79.69
460.578	85.69
460.798	88.69
461.018	86.69
461.238	87.69
461.458	93.69
461.678	76.69
461.898	75.69
462.118	75.69
462.338	92.69
462.558	88.69
462.777	99.69
462.997	89.69
463.217	92.69
463.437	63.69
463.657	75.69
463.876	80.69
464.096	91.69
464.316	83.69
464.536	97.69
464.755	88.69
464.975	103.69
465.195	158.69
465.414	145.69
465.634	107.69
465.854	101.69
466.073	86.69
466.293	83.69
466.512	84.69
466.732	103.69
466.951	82.69
467.171	96.69
467.391	80.69
467.61	109.69
467.829	85.69
468.049	84.69
468.268	84.69
468.488	73.69
468.707	85.69
468.927	85.69
469.146	92.69
469.365	85.69
469.585	101.69
469.804	94.69
470.023	100.69
470.243	83.69
470.462	98.69
470.681	92.69
470.901	91.69
471.12	84.69
471.339	90.69
471.558	81.69
471.777	86.69
471.997	83.69
472.216	84.69
472.435	95.69
472.654	87.69
472.873	83.69
473.092	66.69
473.311	90.69
473.53	77.69
473.749	90.69
473.968	95.69
474.187	119.69
474.406	92.69
474.625	88.69
474.844	87.69
475.063	73.69
475.282	96.69
475.501	85.69
475.72	90.69
475.939	97.69
476.158	85.69
476.377	80.69
476.596	74.69
476.814	116.69
477.033	91.69
477.252	85.69
477.471	96.69
477.69	84.69
477.908	90.69
478.127	98.69
478.346	97.69
478.564	81.69
478.783	77.69
479.002	76.69
479.22	83.69
479.439	101.69
479.658	113.69
479.876	98.69
480.095	92.69
480.313	85.69
480.532	79.69
480.751	83.69
480.969	80.69
481.188	88.69
481.406	91.69
481.624	96.69
481.843	88.69
482.061	91.69
482.28	102.69
482.498	77.69
482.717	86.69
482.935	79.69
483.153	84.69
483.372	82.69
483.59	92.69
483.808	90.69
484.027	74.69
484.245	84.69
484.463	90.69
484.681	91.69
484.9	92.69
485.118	92.69
485.336	97.69
485.554	81.69
485.772	88.69
485.99	102.69
486.209	97.69
486.427	93.69
486.645	112.69
486.863	114.69
487.081	103.69
487.299	100.69
487.517	96.69
487.735	98.69
487.953	91.69
488.171	79.69
488.389	92.69
488.607	88.69
488.825	80.69
489.043	91.69
489.261	92.69
489.479	97.69
489.696	81.69
489.914	91.69
490.132	84.69
490.35	90.69
490.568	92.69
490.786	92.69
491.003	90.69
491.221	77.69
491.439	97.69
491.657	98.69
491.874	97.69
492.092	100.69
492.31	82.69
492.527	75.69
492.745	98.69
492.963	108.69
493.18	98.69
493.398	96.69
493.615	76.69
493.833	105.69
494.05	85.69
494.268	74.69
494.485	85.69
494.703	78.69
494.92	84.69
495.138	90.69
495.355	95.69
495.573	95.69
495.79	82.69
496.008	103.69
496.225	94.69
496.442	93.69
496.66	85.69
496.877	107.69
497.094	102.69
497.312	102.69
497.529	95.69
497.746	76.69
497.963	83.69
498.181	87.69
498.398	101.69
498.615	115.69
498.832	94.69
499.049	84.69
499.267	90.69
499.484	96.69
499.701	71.69
499.918	96.69
500.135	91.69
500.352	79.69
500.569	87.69
500.786	105.69
501.003	89.69
501.22	87.69
501.437	85.69
501.654	91.69
501.871	109.69
502.088	91.69
502.305	91.69
502.522	89.69
502.739	88.69
502.956	74.69
503.172	86.69
503.389	94.69
503.606	108.69
503.823	97.69
504.04	99.69
504.256	68.69
504.473	83.69
504.69	91.69
504.907	99.69
505.123	93.69
505.34	98.69
505.557	107.69
505.773	79.69
505.99	100.69
506.207	87.69
506.423	95.69
506.64	93.69
506.856	83.69
507.073	82.69
507.289	88.69
507.506	89.69
507.722	108.69
507.939	95.69
508.155	103.69
508.372	101.69
508.588	91.69
508.805	114.69
509.021	91.69
509.238	96.69
509.454	99.69
509.67	101.69
509.887	104.69
510.103	133.69
510.319	211.69
510.536	758.69
510.752	2290.69
510.968	620.69
511.184	155.69
511.401	121.69
511.617	97.69
511.833	97.69
512.049	106.69
512.265	87.69
512.481	92.69
512.698	75.69
512.914	93.69
513.13	107.69
513.346	89.69
513.562	91.69
513.778	84.69
513.994	106.69
514.21	101.69
514.426	116.69
514.642	139.69
514.858	107.69
515.074	180.69
515.29	464.69
515.506	1447.69
515.721	513.69
515.937	147.69
516.153	92.69
