Data from Uncirc_2001_H10_HRD10591_00071.txt Node
Date: Wed Jan 03 10:44:11 EST 2024
User: Yrep
Spectrometer: HR+D1059
Trigger mode: 1
Integration Time (sec): 1.000000E-1
Scans to average: 1
Electric dark correction enabled: true
Nonlinearity correction enabled: false
Boxcar width: 0
XAxis mode: Wavelengths
Number of Pixels in Spectrum: 2048
>>>>>Begin Spectral Data<<<<<
223.165	-28.69
223.4	-28.69
223.635	-28.69
223.869	-26.69
224.104	-23.69
224.338	-22.69
224.573	-23.69
224.808	-9.69
225.042	5.31
225.277	22.31
225.511	13.31
225.746	3.31
225.98	0.31
226.215	15.31
226.449	11.31
226.683	17.31
226.918	28.31
227.152	18.31
227.387	51.31
227.621	49.31
227.856	43.31
228.09	52.31
228.324	59.31
228.559	37.31
228.793	44.31
229.027	69.31
229.262	74.31
229.496	68.31
229.73	86.31
229.964	80.31
230.199	70.31
230.433	71.31
230.667	82.31
230.901	68.31
231.136	66.31
231.37	85.31
231.604	86.31
231.838	86.31
232.072	72.31
232.306	80.31
232.541	76.31
232.775	78.31
233.009	76.31
233.243	74.31
233.477	82.31
233.711	76.31
233.945	91.31
234.179	73.31
234.413	72.31
234.647	96.31
234.881	76.31
235.115	83.31
235.349	75.31
235.583	92.31
235.817	73.31
236.051	81.31
236.285	80.31
236.519	75.31
236.753	82.31
236.987	80.31
237.221	85.31
237.455	92.31
237.689	83.31
237.922	59.31
238.156	70.31
238.39	91.31
238.624	81.31
238.858	84.31
239.091	64.31
239.325	78.31
239.559	83.31
239.793	73.31
240.027	88.31
240.26	79.31
240.494	85.31
240.728	80.31
240.961	83.31
241.195	77.31
241.429	77.31
241.662	65.31
241.896	78.31
242.13	82.31
242.363	65.31
242.597	64.31
242.83	77.31
243.064	86.31
243.298	80.31
243.531	91.31
243.765	76.31
243.998	85.31
244.232	95.31
244.465	80.31
244.699	66.31
244.932	70.31
245.166	95.31
245.399	74.31
245.633	84.31
245.866	94.31
246.099	79.31
246.333	91.31
246.566	73.31
246.8	72.31
247.033	71.31
247.266	68.31
247.5	73.31
247.733	77.31
247.966	83.31
248.2	79.31
248.433	72.31
248.666	96.31
248.899	85.31
249.133	90.31
249.366	93.31
249.599	99.31
249.832	87.31
250.066	70.31
250.299	80.31
250.532	90.31
250.765	77.31
250.998	78.31
251.231	89.31
251.465	76.31
251.698	70.31
251.931	86.31
252.164	69.31
252.397	80.31
252.63	72.31
252.863	84.31
253.096	78.31
253.329	87.31
253.562	82.31
253.795	86.31
254.028	85.31
254.261	81.31
254.494	75.31
254.727	94.31
254.96	71.31
255.193	83.31
255.426	99.31
255.659	89.31
255.892	82.31
256.124	87.31
256.357	80.31
256.59	67.31
256.823	73.31
257.056	71.31
257.289	74.31
257.521	77.31
257.754	77.31
257.987	78.31
258.22	88.31
258.452	59.31
258.685	89.31
258.918	82.31
259.151	80.31
259.383	82.31
259.616	72.31
259.849	90.31
260.081	88.31
260.314	95.31
260.547	89.31
260.779	93.31
261.012	81.31
261.244	86.31
261.477	80.31
261.71	90.31
261.942	101.31
262.175	125.31
262.407	113.31
262.64	81.31
262.872	82.31
263.105	77.31
263.337	92.31
263.57	73.31
263.802	93.31
264.035	88.31
264.267	89.31
264.499	88.31
264.732	81.31
264.964	84.31
265.197	81.31
265.429	90.31
265.661	84.31
265.894	98.31
266.126	80.31
266.358	88.31
266.591	73.31
266.823	84.31
267.055	80.31
267.287	79.31
267.52	92.31
267.752	86.31
267.984	80.31
268.216	90.31
268.448	85.31
268.681	91.31
268.913	95.31
269.145	80.31
269.377	83.31
269.609	73.31
269.841	79.31
270.073	84.31
270.306	83.31
270.538	72.31
270.77	74.31
271.002	77.31
271.234	91.31
271.466	79.31
271.698	86.31
271.93	81.31
272.162	90.31
272.394	80.31
272.626	88.31
272.858	77.31
273.09	91.31
273.322	80.31
273.553	91.31
273.785	83.31
274.017	97.31
274.249	88.31
274.481	92.31
274.713	95.31
274.945	91.31
275.176	81.31
275.408	81.31
275.64	74.31
275.872	106.31
276.104	88.31
276.335	89.31
276.567	105.31
276.799	96.31
277.031	86.31
277.262	96.31
277.494	92.31
277.726	87.31
277.957	92.31
278.189	82.31
278.421	88.31
278.652	88.31
278.884	90.31
279.115	93.31
279.347	73.31
279.579	109.31
279.81	98.31
280.042	81.31
280.273	89.31
280.505	96.31
280.736	81.31
280.968	87.31
281.199	71.31
281.431	75.31
281.662	83.31
281.894	80.31
282.125	102.31
282.356	112.31
282.588	155.31
282.819	117.31
283.051	90.31
283.282	85.31
283.513	97.31
283.745	81.31
283.976	80.31
284.207	91.31
284.439	83.31
284.67	86.31
284.901	92.31
285.132	83.31
285.364	90.31
285.595	89.31
285.826	82.31
286.057	101.31
286.288	87.31
286.52	78.31
286.751	87.31
286.982	82.31
287.213	92.31
287.444	84.31
287.675	97.31
287.906	97.31
288.138	96.31
288.369	102.31
288.6	87.31
288.831	87.31
289.062	76.31
289.293	82.31
289.524	94.31
289.755	75.31
289.986	91.31
290.217	102.31
290.448	95.31
290.679	73.31
290.91	84.31
291.141	89.31
291.371	93.31
291.602	87.31
291.833	90.31
292.064	74.31
292.295	99.31
292.526	85.31
292.757	101.31
292.987	90.31
293.218	92.31
293.449	84.31
293.68	102.31
293.91	90.31
294.141	92.31
294.372	85.31
294.603	84.31
294.833	82.31
295.064	90.31
295.295	74.31
295.525	78.31
295.756	107.31
295.987	104.31
296.217	144.31
296.448	123.31
296.679	106.31
296.909	79.31
297.14	100.31
297.37	94.31
297.601	96.31
297.831	93.31
298.062	90.31
298.292	84.31
298.523	78.31
298.753	85.31
298.984	92.31
299.214	91.31
299.445	82.31
299.675	89.31
299.905	98.31
300.136	97.31
300.366	81.31
300.597	86.31
300.827	92.31
301.057	99.31
301.288	111.31
301.518	98.31
301.748	79.31
301.979	95.31
302.209	93.31
302.439	76.31
302.669	87.31
302.9	79.31
303.13	84.31
303.36	94.31
303.59	81.31
303.82	98.31
304.051	103.31
304.281	90.31
304.511	89.31
304.741	76.31
304.971	91.31
305.201	73.31
305.431	80.31
305.661	84.31
305.891	88.31
306.121	93.31
306.352	114.31
306.582	90.31
306.812	87.31
307.042	88.31
307.272	86.31
307.502	91.31
307.731	89.31
307.961	101.31
308.191	107.31
308.421	97.31
308.651	88.31
308.881	95.31
309.111	90.31
309.341	96.31
309.571	82.31
309.8	100.31
310.03	111.31
310.26	94.31
310.49	98.31
310.72	116.31
310.949	104.31
311.179	114.31
311.409	96.31
311.639	101.31
311.868	98.31
312.098	106.31
312.328	83.31
312.557	101.31
312.787	100.31
313.017	108.31
313.246	89.31
313.476	96.31
313.706	94.31
313.935	91.31
314.165	90.31
314.394	80.31
314.624	110.31
314.853	91.31
315.083	95.31
315.312	92.31
315.542	107.31
315.771	86.31
316.001	88.31
316.23	109.31
316.46	78.31
316.689	97.31
316.919	99.31
317.148	87.31
317.377	107.31
317.607	104.31
317.836	91.31
318.065	95.31
318.295	88.31
318.524	78.31
318.753	91.31
318.983	95.31
319.212	108.31
319.441	113.31
319.67	101.31
319.9	101.31
320.129	100.31
320.358	82.31
320.587	108.31
320.816	107.31
321.046	99.31
321.275	100.31
321.504	94.31
321.733	91.31
321.962	106.31
322.191	115.31
322.42	104.31
322.649	110.31
322.878	110.31
323.108	109.31
323.337	123.31
323.566	135.31
323.795	157.31
324.024	187.31
324.253	398.31
324.482	772.31
324.71	1548.31
324.939	1997.31
325.168	733.31
325.397	238.31
325.626	157.31
325.855	119.31
326.084	123.31
326.313	128.31
326.542	136.31
326.77	219.31
326.999	438.31
327.228	872.31
327.457	1548.31
327.686	1192.31
327.914	338.31
328.143	192.31
328.372	137.31
328.6	128.31
328.829	113.31
329.058	126.31
329.287	131.31
329.515	107.31
329.744	93.31
329.972	84.31
330.201	109.31
330.43	108.31
330.658	109.31
330.887	142.31
331.115	126.31
331.344	104.31
331.572	102.31
331.801	103.31
332.03	100.31
332.258	106.31
332.486	82.31
332.715	66.31
332.943	84.31
333.172	85.31
333.4	82.31
333.629	113.31
333.857	128.31
334.085	105.31
334.314	98.31
334.542	98.31
334.771	88.31
334.999	96.31
335.227	98.31
335.455	108.31
335.684	95.31
335.912	110.31
336.14	98.31
336.369	85.31
336.597	94.31
336.825	105.31
337.053	92.31
337.281	94.31
337.51	84.31
337.738	89.31
337.966	101.31
338.194	94.31
338.422	93.31
338.65	95.31
338.878	93.31
339.106	102.31
339.334	99.31
339.562	100.31
339.79	91.31
340.018	101.31
340.246	115.31
340.474	97.31
340.702	100.31
340.93	87.31
341.158	93.31
341.386	100.31
341.614	105.31
341.842	89.31
342.07	94.31
342.298	93.31
342.526	80.31
342.754	84.31
342.981	88.31
343.209	89.31
343.437	99.31
343.665	91.31
343.893	82.31
344.12	92.31
344.348	96.31
344.576	92.31
344.804	99.31
345.031	88.31
345.259	102.31
345.487	89.31
345.714	98.31
345.942	103.31
346.17	94.31
346.397	91.31
346.625	73.31
346.853	96.31
347.08	95.31
347.308	98.31
347.535	105.31
347.763	93.31
347.99	88.31
348.218	112.31
348.445	102.31
348.673	105.31
348.9	97.31
349.128	93.31
349.355	103.31
349.583	95.31
349.81	93.31
350.037	106.31
350.265	78.31
350.492	93.31
350.72	92.31
350.947	92.31
351.174	113.31
351.402	133.31
351.629	112.31
351.856	109.31
352.083	97.31
352.311	101.31
352.538	115.31
352.765	109.31
352.992	136.31
353.22	120.31
353.447	89.31
353.674	92.31
353.901	89.31
354.128	107.31
354.355	97.31
354.583	104.31
354.81	91.31
355.037	84.31
355.264	89.31
355.491	98.31
355.718	96.31
355.945	88.31
356.172	113.31
356.399	89.31
356.626	103.31
356.853	101.31
357.08	90.31
357.307	100.31
357.534	106.31
357.761	83.31
357.988	103.31
358.215	90.31
358.441	91.31
358.668	90.31
358.895	83.31
359.122	96.31
359.349	94.31
359.576	103.31
359.802	104.31
360.029	101.31
360.256	123.31
360.483	96.31
360.709	82.31
360.936	93.31
361.163	85.31
361.39	89.31
361.616	88.31
361.843	86.31
362.07	89.31
362.296	111.31
362.523	88.31
362.749	102.31
362.976	96.31
363.203	89.31
363.429	76.31
363.656	99.31
363.882	93.31
364.109	80.31
364.335	98.31
364.562	90.31
364.788	80.31
365.015	93.31
365.241	93.31
365.468	118.31
365.694	108.31
365.92	98.31
366.147	91.31
366.373	86.31
366.599	90.31
366.826	94.31
367.052	94.31
367.278	102.31
367.505	98.31
367.731	90.31
367.957	100.31
368.184	72.31
368.41	92.31
368.636	109.31
368.862	117.31
369.089	119.31
369.315	108.31
369.541	88.31
369.767	89.31
369.993	95.31
370.219	88.31
370.445	88.31
370.672	89.31
370.898	110.31
371.124	83.31
371.35	84.31
371.576	89.31
371.802	82.31
372.028	91.31
372.254	84.31
372.48	76.31
372.706	81.31
372.932	89.31
373.158	98.31
373.384	90.31
373.61	85.31
373.835	96.31
374.061	104.31
374.287	91.31
374.513	86.31
374.739	92.31
374.965	93.31
375.191	85.31
375.416	97.31
375.642	95.31
375.868	81.31
376.094	101.31
376.319	72.31
376.545	84.31
376.771	91.31
376.997	89.31
377.222	84.31
377.448	84.31
377.674	89.31
377.899	95.31
378.125	93.31
378.35	97.31
378.576	93.31
378.802	75.31
379.027	89.31
379.253	93.31
379.478	94.31
379.704	102.31
379.929	94.31
380.155	93.31
380.38	83.31
380.606	99.31
380.831	97.31
381.057	116.31
381.282	100.31
381.507	97.31
381.733	100.31
381.958	97.31
382.184	82.31
382.409	92.31
382.634	115.31
382.86	112.31
383.085	108.31
383.31	99.31
383.535	85.31
383.761	94.31
383.986	93.31
384.211	84.31
384.436	81.31
384.662	78.31
384.887	94.31
385.112	108.31
385.337	107.31
385.562	97.31
385.787	113.31
386.013	103.31
386.238	98.31
386.463	106.31
386.688	98.31
386.913	93.31
387.138	114.31
387.363	98.31
387.588	98.31
387.813	101.31
388.038	91.31
388.263	94.31
388.488	98.31
388.713	97.31
388.938	116.31
389.163	101.31
389.387	99.31
389.612	101.31
389.837	94.31
390.062	89.31
390.287	93.31
390.512	100.31
390.736	99.31
390.961	98.31
391.186	90.31
391.411	95.31
391.636	85.31
391.86	90.31
392.085	91.31
392.31	81.31
392.534	84.31
392.759	77.31
392.984	88.31
393.208	99.31
393.433	105.31
393.658	90.31
393.882	72.31
394.107	84.31
394.331	100.31
394.556	92.31
394.78	99.31
395.005	100.31
395.229	78.31
395.454	82.31
395.678	93.31
395.903	85.31
396.127	90.31
396.352	81.31
396.576	95.31
396.801	97.31
397.025	81.31
397.249	88.31
397.474	77.31
397.698	80.31
397.922	81.31
398.147	75.31
398.371	102.31
398.595	89.31
398.82	96.31
399.044	91.31
399.268	98.31
399.492	97.31
399.717	81.31
399.941	98.31
400.165	96.31
400.389	90.31
400.613	89.31
400.837	84.31
401.062	91.31
401.286	92.31
401.51	91.31
401.734	91.31
401.958	100.31
402.182	129.31
402.406	161.31
402.63	119.31
402.854	85.31
403.078	99.31
403.302	108.31
403.526	100.31
403.75	89.31
403.974	92.31
404.198	89.31
404.422	96.31
404.645	93.31
404.869	92.31
405.093	94.31
405.317	95.31
405.541	105.31
405.765	98.31
405.988	133.31
406.212	180.31
406.436	253.31
406.66	150.31
406.883	118.31
407.107	103.31
407.331	102.31
407.555	97.31
407.778	112.31
408.002	97.31
408.226	95.31
408.449	94.31
408.673	94.31
408.896	93.31
409.12	98.31
409.344	93.31
409.567	94.31
409.791	100.31
410.014	97.31
410.238	93.31
410.461	83.31
410.685	86.31
410.908	93.31
411.132	109.31
411.355	110.31
411.578	85.31
411.802	105.31
412.025	85.31
412.249	101.31
412.472	90.31
412.695	108.31
412.919	101.31
413.142	93.31
413.365	88.31
413.589	77.31
413.812	86.31
414.035	99.31
414.258	97.31
414.482	105.31
414.705	79.31
414.928	102.31
415.151	101.31
415.374	104.31
415.597	92.31
415.821	96.31
416.044	99.31
416.267	105.31
416.49	93.31
416.713	91.31
416.936	98.31
417.159	96.31
417.382	83.31
417.605	93.31
417.828	80.31
418.051	78.31
418.274	108.31
418.497	100.31
418.72	95.31
418.943	87.31
419.166	94.31
419.389	85.31
419.611	86.31
419.834	80.31
420.057	95.31
420.28	92.31
420.503	86.31
420.726	85.31
420.948	69.31
421.171	87.31
421.394	89.31
421.617	89.31
421.839	98.31
422.062	92.31
422.285	80.31
422.507	94.31
422.73	101.31
422.953	98.31
423.175	99.31
423.398	85.31
423.621	84.31
423.843	103.31
424.066	81.31
424.288	96.31
424.511	91.31
424.733	100.31
424.956	114.31
425.178	97.31
425.401	112.31
425.623	98.31
425.846	80.31
426.068	88.31
426.291	90.31
426.513	77.31
426.735	81.31
426.958	91.31
427.18	92.31
427.402	130.31
427.625	168.31
427.847	128.31
428.069	110.31
428.292	89.31
428.514	89.31
428.736	91.31
428.958	77.31
429.181	94.31
429.403	78.31
429.625	86.31
429.847	92.31
430.069	98.31
430.292	107.31
430.514	60.31
430.736	89.31
430.958	94.31
431.18	91.31
431.402	94.31
431.624	78.31
431.846	74.31
432.068	86.31
432.29	78.31
432.512	82.31
432.734	101.31
432.956	90.31
433.178	92.31
433.4	89.31
433.622	83.31
433.844	87.31
434.066	104.31
434.287	95.31
434.509	79.31
434.731	89.31
434.953	93.31
435.175	82.31
435.397	88.31
435.618	84.31
435.84	98.31
436.062	116.31
436.284	136.31
436.505	112.31
436.727	88.31
436.949	97.31
437.17	76.31
437.392	90.31
437.614	97.31
437.835	117.31
438.057	124.31
438.278	95.31
438.5	95.31
438.721	120.31
438.943	101.31
439.165	96.31
439.386	85.31
439.608	99.31
439.829	106.31
440.05	130.31
440.272	141.31
440.493	100.31
440.715	76.31
440.936	90.31
441.158	87.31
441.379	93.31
441.6	97.31
441.822	101.31
442.043	101.31
442.264	97.31
442.486	94.31
442.707	89.31
442.928	101.31
443.149	132.31
443.371	130.31
443.592	113.31
443.813	116.31
444.034	85.31
444.255	79.31
444.476	75.31
444.698	82.31
444.919	87.31
445.14	132.31
445.361	128.31
445.582	125.31
445.803	137.31
446.024	133.31
446.245	132.31
446.466	97.31
446.687	86.31
446.908	81.31
447.129	86.31
447.35	95.31
447.571	83.31
447.792	87.31
448.013	109.31
448.234	109.31
448.455	90.31
448.675	116.31
448.896	119.31
449.117	114.31
449.338	107.31
449.559	119.31
449.779	134.31
450	92.31
450.221	86.31
450.442	89.31
450.662	90.31
450.883	103.31
451.104	122.31
451.324	94.31
451.545	77.31
451.766	80.31
451.986	94.31
452.207	98.31
452.428	92.31
452.648	96.31
452.869	108.31
453.089	123.31
453.31	119.31
453.53	91.31
453.751	100.31
453.971	101.31
454.192	112.31
454.412	106.31
454.633	86.31
454.853	90.31
455.073	88.31
455.294	99.31
455.514	110.31
455.734	98.31
455.955	74.31
456.175	93.31
456.395	76.31
456.616	82.31
456.836	84.31
457.056	89.31
457.276	88.31
457.497	83.31
457.717	89.31
457.937	93.31
458.157	90.31
458.377	93.31
458.598	106.31
458.818	146.31
459.038	158.31
459.258	118.31
459.478	84.31
459.698	84.31
459.918	78.31
460.138	72.31
460.358	84.31
460.578	84.31
460.798	82.31
461.018	86.31
461.238	104.31
461.458	68.31
461.678	82.31
461.898	81.31
462.118	84.31
462.338	96.31
462.558	102.31
462.777	76.31
462.997	76.31
463.217	96.31
463.437	96.31
463.657	94.31
463.876	90.31
464.096	84.31
464.316	103.31
464.536	82.31
464.755	88.31
464.975	107.31
465.195	167.31
465.414	152.31
465.634	84.31
465.854	86.31
466.073	87.31
466.293	86.31
466.512	94.31
466.732	80.31
466.951	80.31
467.171	94.31
467.391	89.31
467.61	93.31
467.829	110.31
468.049	82.31
468.268	86.31
468.488	73.31
468.707	83.31
468.927	82.31
469.146	92.31
469.365	102.31
469.585	96.31
469.804	94.31
470.023	105.31
470.243	95.31
470.462	89.31
470.681	120.31
470.901	91.31
471.12	78.31
471.339	86.31
471.558	86.31
471.777	89.31
471.997	80.31
472.216	82.31
472.435	91.31
472.654	82.31
472.873	92.31
473.092	93.31
473.311	94.31
473.53	98.31
473.749	83.31
473.968	96.31
474.187	105.31
474.406	110.31
474.625	104.31
474.844	102.31
475.063	83.31
475.282	97.31
475.501	70.31
475.72	101.31
475.939	77.31
476.158	87.31
476.377	74.31
476.596	100.31
476.814	88.31
477.033	95.31
477.252	98.31
477.471	79.31
477.69	95.31
477.908	78.31
478.127	80.31
478.346	76.31
478.564	103.31
478.783	97.31
479.002	84.31
479.22	97.31
479.439	114.31
479.658	101.31
479.876	85.31
480.095	104.31
480.313	85.31
480.532	93.31
480.751	89.31
480.969	86.31
481.188	101.31
481.406	103.31
481.624	80.31
481.843	92.31
482.061	91.31
482.28	87.31
482.498	93.31
482.717	91.31
482.935	87.31
483.153	76.31
483.372	60.31
483.59	90.31
483.808	84.31
484.027	90.31
484.245	88.31
484.463	90.31
484.681	100.31
484.9	88.31
485.118	78.31
485.336	97.31
485.554	89.31
485.772	87.31
485.99	94.31
486.209	92.31
486.427	99.31
486.645	100.31
486.863	104.31
487.081	85.31
487.299	98.31
487.517	93.31
487.735	91.31
487.953	75.31
488.171	92.31
488.389	99.31
488.607	120.31
488.825	98.31
489.043	89.31
489.261	91.31
489.479	91.31
489.696	85.31
489.914	89.31
490.132	91.31
490.35	85.31
490.568	94.31
490.786	103.31
491.003	81.31
491.221	94.31
491.439	98.31
491.657	77.31
491.874	88.31
492.092	109.31
492.31	94.31
492.527	81.31
492.745	94.31
492.963	86.31
493.18	94.31
493.398	82.31
493.615	93.31
493.833	79.31
494.05	80.31
494.268	86.31
494.485	83.31
494.703	93.31
494.92	90.31
495.138	74.31
495.355	89.31
495.573	93.31
495.79	95.31
496.008	103.31
496.225	103.31
496.442	104.31
496.66	109.31
496.877	86.31
497.094	89.31
497.312	94.31
497.529	99.31
497.746	104.31
497.963	88.31
498.181	93.31
498.398	90.31
498.615	111.31
498.832	97.31
499.049	91.31
499.267	76.31
499.484	84.31
499.701	81.31
499.918	116.31
500.135	111.31
500.352	93.31
500.569	97.31
500.786	95.31
501.003	82.31
501.22	103.31
501.437	95.31
501.654	99.31
501.871	114.31
502.088	93.31
502.305	94.31
502.522	91.31
502.739	87.31
502.956	98.31
503.172	97.31
503.389	106.31
503.606	106.31
503.823	97.31
504.04	107.31
504.256	99.31
504.473	77.31
504.69	89.31
504.907	87.31
505.123	99.31
505.34	86.31
505.557	91.31
505.773	94.31
505.99	94.31
506.207	102.31
506.423	117.31
506.64	89.31
506.856	94.31
507.073	90.31
507.289	92.31
507.506	93.31
507.722	120.31
507.939	111.31
508.155	92.31
508.372	96.31
508.588	84.31
508.805	92.31
509.021	96.31
509.238	111.31
509.454	94.31
509.67	105.31
509.887	114.31
510.103	134.31
510.319	232.31
510.536	834.31
510.752	2524.31
510.968	694.31
511.184	179.31
511.401	118.31
511.617	91.31
511.833	97.31
512.049	97.31
512.265	81.31
512.481	96.31
512.698	90.31
512.914	93.31
513.13	99.31
513.346	89.31
513.562	90.31
513.778	112.31
513.994	98.31
514.21	94.31
514.426	109.31
514.642	130.31
514.858	127.31
515.074	176.31
515.29	489.31
515.506	1603.31
