Data from Uncirc_2001_H10_HRD10591_00027.txt Node
Date: Wed Jan 03 10:44:02 EST 2024
User: Yrep
Spectrometer: HR+D1059
Trigger mode: 1
Integration Time (sec): 1.000000E-1
Scans to average: 1
Electric dark correction enabled: true
Nonlinearity correction enabled: false
Boxcar width: 0
XAxis mode: Wavelengths
Number of Pixels in Spectrum: 2048
>>>>>Begin Spectral Data<<<<<
223.165	-31.44
223.4	-31.44
223.635	-31.44
223.869	-11.44
224.104	-15.44
224.338	-22.44
224.573	-10.44
224.808	-7.44
225.042	-3.44
225.277	-26.44
225.511	3.56
225.746	7.56
225.98	9.56
226.215	11.56
226.449	16.56
226.683	15.56
226.918	24.56
227.152	39.56
227.387	30.56
227.621	39.56
227.856	36.56
228.09	41.56
228.324	38.56
228.559	63.56
228.793	57.56
229.027	74.56
229.262	53.56
229.496	69.56
229.73	80.56
229.964	68.56
230.199	64.56
230.433	77.56
230.667	75.56
230.901	69.56
231.136	90.56
231.37	91.56
231.604	76.56
231.838	82.56
232.072	84.56
232.306	67.56
232.541	76.56
232.775	75.56
233.009	77.56
233.243	74.56
233.477	81.56
233.711	96.56
233.945	85.56
234.179	88.56
234.413	88.56
234.647	83.56
234.881	87.56
235.115	59.56
235.349	86.56
235.583	76.56
235.817	82.56
236.051	83.56
236.285	79.56
236.519	93.56
236.753	88.56
236.987	74.56
237.221	83.56
237.455	87.56
237.689	89.56
237.922	83.56
238.156	84.56
238.39	71.56
238.624	80.56
238.858	85.56
239.091	65.56
239.325	65.56
239.559	72.56
239.793	98.56
240.027	73.56
240.26	75.56
240.494	88.56
240.728	75.56
240.961	80.56
241.195	88.56
241.429	77.56
241.662	82.56
241.896	85.56
242.13	67.56
242.363	71.56
242.597	73.56
242.83	90.56
243.064	71.56
243.298	72.56
243.531	79.56
243.765	69.56
243.998	77.56
244.232	88.56
244.465	92.56
244.699	81.56
244.932	83.56
245.166	64.56
245.399	86.56
245.633	79.56
245.866	76.56
246.099	83.56
246.333	83.56
246.566	81.56
246.8	79.56
247.033	72.56
247.266	78.56
247.5	74.56
247.733	72.56
247.966	87.56
248.2	81.56
248.433	78.56
248.666	85.56
248.899	75.56
249.133	68.56
249.366	89.56
249.599	86.56
249.832	76.56
250.066	75.56
250.299	81.56
250.532	85.56
250.765	86.56
250.998	83.56
251.231	71.56
251.465	76.56
251.698	74.56
251.931	75.56
252.164	83.56
252.397	84.56
252.63	91.56
252.863	80.56
253.096	88.56
253.329	81.56
253.562	84.56
253.795	84.56
254.028	104.56
254.261	79.56
254.494	77.56
254.727	81.56
254.96	83.56
255.193	58.56
255.426	77.56
255.659	84.56
255.892	68.56
256.124	76.56
256.357	94.56
256.59	75.56
256.823	73.56
257.056	98.56
257.289	87.56
257.521	81.56
257.754	83.56
257.987	87.56
258.22	96.56
258.452	84.56
258.685	70.56
258.918	82.56
259.151	93.56
259.383	81.56
259.616	85.56
259.849	79.56
260.081	75.56
260.314	82.56
260.547	81.56
260.779	73.56
261.012	65.56
261.244	72.56
261.477	87.56
261.71	100.56
261.942	112.56
262.175	111.56
262.407	90.56
262.64	90.56
262.872	89.56
263.105	76.56
263.337	80.56
263.57	95.56
263.802	88.56
264.035	78.56
264.267	85.56
264.499	83.56
264.732	92.56
264.964	82.56
265.197	83.56
265.429	84.56
265.661	80.56
265.894	75.56
266.126	81.56
266.358	79.56
266.591	86.56
266.823	77.56
267.055	70.56
267.287	82.56
267.52	91.56
267.752	85.56
267.984	85.56
268.216	79.56
268.448	94.56
268.681	91.56
268.913	87.56
269.145	89.56
269.377	72.56
269.609	84.56
269.841	83.56
270.073	83.56
270.306	88.56
270.538	83.56
270.77	93.56
271.002	79.56
271.234	91.56
271.466	90.56
271.698	81.56
271.93	90.56
272.162	86.56
272.394	89.56
272.626	91.56
272.858	85.56
273.09	97.56
273.322	78.56
273.553	87.56
273.785	85.56
274.017	106.56
274.249	78.56
274.481	92.56
274.713	93.56
274.945	84.56
275.176	78.56
275.408	88.56
275.64	95.56
275.872	83.56
276.104	74.56
276.335	82.56
276.567	90.56
276.799	105.56
277.031	99.56
277.262	85.56
277.494	91.56
277.726	79.56
277.957	87.56
278.189	83.56
278.421	84.56
278.652	78.56
278.884	88.56
279.115	84.56
279.347	89.56
279.579	81.56
279.81	85.56
280.042	81.56
280.273	84.56
280.505	77.56
280.736	88.56
280.968	93.56
281.199	82.56
281.431	87.56
281.662	94.56
281.894	92.56
282.125	97.56
282.356	111.56
282.588	130.56
282.819	100.56
283.051	97.56
283.282	86.56
283.513	84.56
283.745	77.56
283.976	84.56
284.207	75.56
284.439	75.56
284.67	85.56
284.901	77.56
285.132	84.56
285.364	88.56
285.595	85.56
285.826	85.56
286.057	90.56
286.288	88.56
286.52	67.56
286.751	90.56
286.982	92.56
287.213	78.56
287.444	84.56
287.675	88.56
287.906	80.56
288.138	94.56
288.369	82.56
288.6	92.56
288.831	86.56
289.062	87.56
289.293	91.56
289.524	92.56
289.755	99.56
289.986	96.56
290.217	93.56
290.448	82.56
290.679	85.56
290.91	93.56
291.141	68.56
291.371	80.56
291.602	85.56
291.833	87.56
292.064	90.56
292.295	106.56
292.526	88.56
292.757	100.56
292.987	81.56
293.218	83.56
293.449	79.56
293.68	85.56
293.91	80.56
294.141	92.56
294.372	94.56
294.603	82.56
294.833	93.56
295.064	88.56
295.295	80.56
295.525	100.56
295.756	87.56
295.987	115.56
296.217	123.56
296.448	118.56
296.679	79.56
296.909	92.56
297.14	101.56
297.37	88.56
297.601	79.56
297.831	96.56
298.062	84.56
298.292	90.56
298.523	84.56
298.753	103.56
298.984	79.56
299.214	91.56
299.445	92.56
299.675	108.56
299.905	95.56
300.136	89.56
300.366	85.56
300.597	90.56
300.827	84.56
301.057	93.56
301.288	102.56
301.518	101.56
301.748	86.56
301.979	89.56
302.209	88.56
302.439	96.56
302.669	82.56
302.9	88.56
303.13	101.56
303.36	109.56
303.59	93.56
303.82	115.56
304.051	89.56
304.281	110.56
304.511	95.56
304.741	95.56
304.971	93.56
305.201	85.56
305.431	87.56
305.661	96.56
305.891	92.56
306.121	96.56
306.352	109.56
306.582	102.56
306.812	90.56
307.042	101.56
307.272	97.56
307.502	81.56
307.731	100.56
307.961	89.56
308.191	88.56
308.421	91.56
308.651	97.56
308.881	82.56
309.111	84.56
309.341	89.56
309.571	90.56
309.8	97.56
310.03	95.56
310.26	97.56
310.49	99.56
310.72	96.56
310.949	104.56
311.179	100.56
311.409	103.56
311.639	86.56
311.868	88.56
312.098	90.56
312.328	104.56
312.557	113.56
312.787	103.56
313.017	84.56
313.246	97.56
313.476	97.56
313.706	88.56
313.935	79.56
314.165	99.56
314.394	83.56
314.624	98.56
314.853	89.56
315.083	100.56
315.312	87.56
315.542	89.56
315.771	102.56
316.001	78.56
316.23	97.56
316.46	88.56
316.689	88.56
316.919	87.56
317.148	91.56
317.377	90.56
317.607	93.56
317.836	89.56
318.065	93.56
318.295	95.56
318.524	110.56
318.753	90.56
318.983	95.56
319.212	97.56
319.441	91.56
319.67	101.56
319.9	107.56
320.129	78.56
320.358	104.56
320.587	95.56
320.816	92.56
321.046	106.56
321.275	91.56
321.504	96.56
321.733	90.56
321.962	103.56
322.191	110.56
322.42	103.56
322.649	118.56
322.878	114.56
323.108	117.56
323.337	125.56
323.566	113.56
323.795	129.56
324.024	195.56
324.253	337.56
324.482	682.56
324.71	1378.56
324.939	1706.56
325.168	669.56
325.397	215.56
325.626	135.56
325.855	134.56
326.084	130.56
326.313	119.56
326.542	151.56
326.77	200.56
326.999	383.56
327.228	758.56
327.457	1331.56
327.686	1042.56
327.914	308.56
328.143	173.56
328.372	145.56
328.6	113.56
328.829	108.56
329.058	120.56
329.287	113.56
329.515	106.56
329.744	103.56
329.972	93.56
330.201	87.56
330.43	91.56
330.658	122.56
330.887	144.56
331.115	116.56
331.344	95.56
331.572	108.56
331.801	97.56
332.03	88.56
332.258	96.56
332.486	104.56
332.715	82.56
332.943	96.56
333.172	95.56
333.4	102.56
333.629	99.56
333.857	113.56
334.085	95.56
334.314	104.56
334.542	103.56
334.771	105.56
334.999	96.56
335.227	99.56
335.455	97.56
335.684	91.56
335.912	101.56
336.14	97.56
336.369	102.56
336.597	105.56
336.825	94.56
337.053	96.56
337.281	98.56
337.51	99.56
337.738	66.56
337.966	92.56
338.194	91.56
338.422	90.56
338.65	92.56
338.878	88.56
339.106	87.56
339.334	81.56
339.562	90.56
339.79	90.56
340.018	94.56
340.246	91.56
340.474	100.56
340.702	91.56
340.93	95.56
341.158	93.56
341.386	99.56
341.614	92.56
341.842	96.56
342.07	92.56
342.298	96.56
342.526	108.56
342.754	92.56
342.981	106.56
343.209	86.56
343.437	91.56
343.665	91.56
343.893	88.56
344.12	92.56
344.348	83.56
344.576	91.56
344.804	89.56
345.031	96.56
345.259	80.56
345.487	84.56
345.714	93.56
345.942	93.56
346.17	95.56
346.397	86.56
346.625	93.56
346.853	83.56
347.08	98.56
347.308	99.56
347.535	92.56
347.763	89.56
347.99	101.56
348.218	100.56
348.445	102.56
348.673	100.56
348.9	93.56
349.128	92.56
349.355	92.56
349.583	91.56
349.81	101.56
350.037	102.56
350.265	98.56
350.492	87.56
350.72	85.56
350.947	91.56
351.174	106.56
351.402	108.56
351.629	115.56
351.856	104.56
352.083	103.56
352.311	96.56
352.538	91.56
352.765	93.56
352.992	102.56
353.22	88.56
353.447	108.56
353.674	100.56
353.901	92.56
354.128	99.56
354.355	93.56
354.583	111.56
354.81	90.56
355.037	101.56
355.264	98.56
355.491	91.56
355.718	100.56
355.945	100.56
356.172	103.56
356.399	96.56
356.626	80.56
356.853	96.56
357.08	99.56
357.307	80.56
357.534	106.56
357.761	84.56
357.988	107.56
358.215	88.56
358.441	89.56
358.668	84.56
358.895	99.56
359.122	76.56
359.349	97.56
359.576	80.56
359.802	89.56
360.029	111.56
360.256	104.56
360.483	108.56
360.709	94.56
360.936	100.56
361.163	96.56
361.39	91.56
361.616	91.56
361.843	89.56
362.07	86.56
362.296	104.56
362.523	99.56
362.749	86.56
362.976	82.56
363.203	101.56
363.429	87.56
363.656	88.56
363.882	77.56
364.109	86.56
364.335	93.56
364.562	83.56
364.788	95.56
365.015	97.56
365.241	96.56
365.468	113.56
365.694	104.56
365.92	103.56
366.147	83.56
366.373	84.56
366.599	100.56
366.826	87.56
367.052	94.56
367.278	79.56
367.505	88.56
367.731	88.56
367.957	101.56
368.184	93.56
368.41	115.56
368.636	95.56
368.862	113.56
369.089	104.56
369.315	93.56
369.541	79.56
369.767	94.56
369.993	91.56
370.219	78.56
370.445	88.56
370.672	100.56
370.898	66.56
371.124	91.56
371.35	85.56
371.576	85.56
371.802	95.56
372.028	75.56
372.254	78.56
372.48	89.56
372.706	89.56
372.932	75.56
373.158	85.56
373.384	94.56
373.61	84.56
373.835	102.56
374.061	94.56
374.287	78.56
374.513	91.56
374.739	91.56
374.965	86.56
375.191	95.56
375.416	106.56
375.642	63.56
375.868	96.56
376.094	90.56
376.319	100.56
376.545	82.56
376.771	92.56
376.997	90.56
377.222	97.56
377.448	93.56
377.674	93.56
377.899	81.56
378.125	102.56
378.35	92.56
378.576	83.56
378.802	87.56
379.027	100.56
379.253	108.56
379.478	95.56
379.704	91.56
379.929	90.56
380.155	83.56
380.38	92.56
380.606	96.56
380.831	98.56
381.057	106.56
381.282	82.56
381.507	97.56
381.733	106.56
381.958	85.56
382.184	86.56
382.409	99.56
382.634	101.56
382.86	99.56
383.085	105.56
383.31	95.56
383.535	112.56
383.761	109.56
383.986	98.56
384.211	106.56
384.436	98.56
384.662	103.56
384.887	97.56
385.112	112.56
385.337	104.56
385.562	105.56
385.787	97.56
386.013	99.56
386.238	111.56
386.463	106.56
386.688	101.56
386.913	97.56
387.138	112.56
387.363	107.56
387.588	101.56
387.813	99.56
388.038	96.56
388.263	117.56
388.488	114.56
388.713	93.56
388.938	104.56
389.163	83.56
389.387	89.56
389.612	88.56
389.837	104.56
390.062	90.56
390.287	95.56
390.512	84.56
390.736	98.56
390.961	83.56
391.186	89.56
391.411	90.56
391.636	98.56
391.86	79.56
392.085	96.56
392.31	86.56
392.534	93.56
392.759	71.56
392.984	91.56
393.208	96.56
393.433	93.56
393.658	71.56
393.882	106.56
394.107	76.56
394.331	88.56
394.556	86.56
394.78	81.56
395.005	85.56
395.229	74.56
395.454	90.56
395.678	87.56
395.903	84.56
396.127	92.56
396.352	89.56
396.576	81.56
396.801	89.56
397.025	86.56
397.249	97.56
397.474	88.56
397.698	83.56
397.922	97.56
398.147	89.56
398.371	81.56
398.595	95.56
398.82	75.56
399.044	83.56
399.268	89.56
399.492	80.56
399.717	85.56
399.941	89.56
400.165	86.56
400.389	95.56
400.613	73.56
400.837	99.56
401.062	80.56
401.286	91.56
401.51	93.56
401.734	97.56
401.958	98.56
402.182	127.56
402.406	147.56
402.63	108.56
402.854	83.56
403.078	90.56
403.302	87.56
403.526	79.56
403.75	82.56
403.974	80.56
404.198	95.56
404.422	90.56
404.645	87.56
404.869	93.56
405.093	88.56
405.317	90.56
405.541	92.56
405.765	97.56
405.988	110.56
406.212	171.56
406.436	213.56
406.66	144.56
406.883	101.56
407.107	92.56
407.331	90.56
407.555	96.56
407.778	88.56
408.002	83.56
408.226	103.56
408.449	67.56
408.673	103.56
408.896	87.56
409.12	81.56
409.344	82.56
409.567	89.56
409.791	89.56
410.014	96.56
410.238	84.56
410.461	92.56
410.685	114.56
410.908	102.56
411.132	101.56
411.355	91.56
411.578	92.56
411.802	81.56
412.025	91.56
412.249	83.56
412.472	76.56
412.695	94.56
412.919	85.56
413.142	85.56
413.365	93.56
413.589	101.56
413.812	100.56
414.035	88.56
414.258	96.56
414.482	86.56
414.705	88.56
414.928	83.56
415.151	90.56
415.374	83.56
415.597	81.56
415.821	76.56
416.044	100.56
416.267	82.56
416.49	83.56
416.713	77.56
416.936	79.56
417.159	95.56
417.382	91.56
417.605	98.56
417.828	93.56
418.051	90.56
418.274	99.56
418.497	89.56
418.72	83.56
418.943	80.56
419.166	91.56
419.389	89.56
419.611	79.56
419.834	87.56
420.057	87.56
420.28	83.56
420.503	86.56
420.726	79.56
420.948	90.56
421.171	97.56
421.394	93.56
421.617	89.56
421.839	83.56
422.062	92.56
422.285	87.56
422.507	93.56
422.73	106.56
422.953	109.56
423.175	99.56
423.398	86.56
423.621	97.56
423.843	91.56
424.066	80.56
424.288	95.56
424.511	98.56
424.733	110.56
424.956	103.56
425.178	90.56
425.401	99.56
425.623	84.56
425.846	93.56
426.068	82.56
426.291	100.56
426.513	88.56
426.735	91.56
426.958	111.56
427.18	93.56
427.402	117.56
427.625	147.56
427.847	119.56
428.069	107.56
428.292	85.56
428.514	91.56
428.736	87.56
428.958	79.56
429.181	72.56
429.403	84.56
429.625	80.56
429.847	99.56
430.069	85.56
430.292	87.56
430.514	93.56
430.736	80.56
430.958	98.56
431.18	93.56
431.402	84.56
431.624	103.56
431.846	87.56
432.068	100.56
432.29	95.56
432.512	83.56
432.734	92.56
432.956	89.56
433.178	87.56
433.4	81.56
433.622	93.56
433.844	91.56
434.066	94.56
434.287	74.56
434.509	89.56
434.731	97.56
434.953	79.56
435.175	91.56
435.397	83.56
435.618	93.56
435.84	95.56
436.062	108.56
436.284	99.56
436.505	87.56
436.727	92.56
436.949	103.56
437.17	82.56
437.392	79.56
437.614	87.56
437.835	103.56
438.057	103.56
438.278	99.56
438.5	86.56
438.721	107.56
438.943	115.56
439.165	87.56
439.386	88.56
439.608	94.56
439.829	99.56
440.05	112.56
440.272	134.56
440.493	84.56
440.715	89.56
440.936	86.56
441.158	90.56
441.379	96.56
441.6	85.56
441.822	89.56
442.043	101.56
442.264	110.56
442.486	96.56
442.707	75.56
442.928	96.56
443.149	114.56
443.371	105.56
443.592	90.56
443.813	108.56
444.034	104.56
444.255	88.56
444.476	100.56
444.698	86.56
444.919	90.56
445.14	134.56
445.361	110.56
445.582	108.56
445.803	120.56
446.024	115.56
446.245	122.56
446.466	97.56
446.687	80.56
446.908	80.56
447.129	74.56
447.35	89.56
447.571	98.56
447.792	96.56
448.013	83.56
448.234	117.56
448.455	108.56
448.675	92.56
448.896	107.56
449.117	93.56
449.338	94.56
449.559	117.56
449.779	133.56
450	99.56
450.221	91.56
450.442	96.56
450.662	92.56
450.883	99.56
451.104	115.56
451.324	101.56
451.545	91.56
451.766	93.56
451.986	86.56
452.207	87.56
452.428	96.56
452.648	104.56
452.869	112.56
453.089	105.56
453.31	106.56
453.53	105.56
453.751	91.56
453.971	94.56
454.192	92.56
454.412	93.56
454.633	93.56
454.853	79.56
455.073	87.56
455.294	91.56
455.514	100.56
455.734	98.56
455.955	91.56
456.175	88.56
456.395	86.56
456.616	84.56
456.836	84.56
457.056	84.56
457.276	84.56
457.497	84.56
457.717	102.56
457.937	87.56
458.157	85.56
458.377	99.56
458.598	104.56
458.818	134.56
459.038	137.56
459.258	107.56
459.478	98.56
459.698	94.56
459.918	92.56
460.138	70.56
460.358	81.56
460.578	79.56
460.798	92.56
461.018	88.56
461.238	80.56
461.458	72.56
461.678	74.56
461.898	64.56
462.118	77.56
462.338	89.56
462.558	85.56
462.777	89.56
462.997	82.56
463.217	82.56
463.437	91.56
463.657	76.56
463.876	84.56
464.096	86.56
464.316	83.56
464.536	87.56
464.755	104.56
464.975	113.56
465.195	145.56
465.414	143.56
465.634	99.56
465.854	94.56
466.073	85.56
466.293	102.56
466.512	83.56
466.732	95.56
466.951	87.56
467.171	92.56
467.391	77.56
467.61	97.56
467.829	89.56
468.049	71.56
468.268	76.56
468.488	90.56
468.707	86.56
468.927	87.56
469.146	88.56
469.365	83.56
469.585	90.56
469.804	92.56
470.023	102.56
470.243	96.56
470.462	97.56
470.681	99.56
470.901	69.56
471.12	75.56
471.339	74.56
471.558	95.56
471.777	104.56
471.997	83.56
472.216	88.56
472.435	88.56
472.654	66.56
472.873	82.56
473.092	88.56
473.311	82.56
473.53	75.56
473.749	91.56
473.968	96.56
474.187	88.56
474.406	93.56
474.625	89.56
474.844	88.56
475.063	80.56
475.282	85.56
475.501	82.56
475.72	80.56
475.939	84.56
476.158	89.56
476.377	90.56
476.596	73.56
476.814	88.56
477.033	78.56
477.252	86.56
477.471	76.56
477.69	84.56
477.908	90.56
478.127	98.56
478.346	86.56
478.564	96.56
478.783	93.56
479.002	90.56
479.22	87.56
479.439	74.56
479.658	95.56
479.876	91.56
480.095	92.56
480.313	87.56
480.532	86.56
480.751	95.56
480.969	86.56
481.188	108.56
481.406	112.56
481.624	86.56
481.843	85.56
482.061	99.56
482.28	91.56
482.498	98.56
482.717	83.56
482.935	79.56
483.153	79.56
483.372	92.56
483.59	92.56
483.808	99.56
484.027	94.56
484.245	103.56
484.463	97.56
484.681	93.56
484.9	85.56
485.118	99.56
485.336	103.56
485.554	99.56
485.772	91.56
485.99	100.56
486.209	92.56
486.427	100.56
486.645	108.56
486.863	111.56
487.081	107.56
487.299	90.56
487.517	95.56
487.735	91.56
487.953	93.56
488.171	72.56
488.389	91.56
488.607	86.56
488.825	97.56
489.043	83.56
489.261	88.56
489.479	83.56
489.696	91.56
489.914	85.56
490.132	88.56
490.35	97.56
490.568	88.56
490.786	79.56
491.003	84.56
491.221	74.56
491.439	99.56
491.657	83.56
491.874	89.56
492.092	94.56
492.31	70.56
492.527	95.56
492.745	66.56
492.963	76.56
493.18	93.56
493.398	91.56
493.615	109.56
493.833	97.56
494.05	89.56
494.268	88.56
494.485	100.56
494.703	106.56
494.92	97.56
495.138	91.56
495.355	82.56
495.573	98.56
495.79	83.56
496.008	92.56
496.225	73.56
496.442	101.56
496.66	96.56
496.877	93.56
497.094	89.56
497.312	86.56
497.529	82.56
497.746	86.56
497.963	81.56
498.181	93.56
498.398	99.56
498.615	105.56
498.832	92.56
499.049	96.56
499.267	95.56
499.484	106.56
499.701	93.56
499.918	99.56
500.135	91.56
500.352	93.56
500.569	85.56
500.786	89.56
501.003	83.56
501.22	102.56
501.437	94.56
501.654	106.56
501.871	109.56
502.088	87.56
502.305	95.56
502.522	88.56
502.739	89.56
502.956	92.56
503.172	88.56
503.389	90.56
503.606	101.56
503.823	102.56
504.04	91.56
504.256	86.56
504.473	90.56
504.69	99.56
504.907	93.56
505.123	94.56
505.34	71.56
505.557	90.56
505.773	98.56
505.99	92.56
506.207	69.56
506.423	99.56
506.64	79.56
506.856	80.56
507.073	87.56
507.289	88.56
507.506	98.56
507.722	109.56
507.939	98.56
508.155	98.56
508.372	96.56
508.588	92.56
508.805	89.56
509.021	86.56
509.238	104.56
509.454	94.56
509.67	103.56
509.887	105.56
510.103	120.56
510.319	229.56
510.536	705.56
510.752	2212.56
510.968	615.56
511.184	171.56
511.401	105.56
511.617	99.56
511.833	100.56
512.049	93.56
512.265	95.56
512.481	92.56
512.698	105.56
512.914	100.56
513.13	93.56
513.346	82.56
513.562	100.56
513.778	105.56
513.994	101.56
514.21	106.56
514.426	120.56
514.642	127.56
514.858	123.56
515.074	173.56
515.29	422.56
515.506	1370.56
515.721	499.56
515.937	145.56
516.153	102.56
