Data from Uncirc_2001_H10_HRD10591_00067.txt Node
Date: Wed Jan 03 10:44:10 EST 2024
User: Yrep
Spectrometer: HR+D1059
Trigger mode: 1
Integration Time (sec): 1.000000E-1
Scans to average: 1
Electric dark correction enabled: true
Nonlinearity correction enabled: false
Boxcar width: 0
XAxis mode: Wavelengths
Number of Pixels in Spectrum: 2048
>>>>>Begin Spectral Data<<<<<
223.165	-29.62
223.4	-29.62
223.635	-29.62
223.869	-17.62
224.104	-11.62
224.338	-22.62
224.573	-11.62
224.808	-11.62
225.042	-2.62
225.277	-5.62
225.511	-6.62
225.746	10.38
225.98	2.38
226.215	8.38
226.449	8.38
226.683	29.38
226.918	27.38
227.152	33.38
227.387	34.38
227.621	49.38
227.856	41.38
228.09	48.38
228.324	44.38
228.559	51.38
228.793	57.38
229.027	58.38
229.262	65.38
229.496	53.38
229.73	69.38
229.964	85.38
230.199	66.38
230.433	77.38
230.667	69.38
230.901	76.38
231.136	71.38
231.37	87.38
231.604	77.38
231.838	77.38
232.072	77.38
232.306	76.38
232.541	78.38
232.775	84.38
233.009	69.38
233.243	78.38
233.477	77.38
233.711	73.38
233.945	82.38
234.179	83.38
234.413	97.38
234.647	86.38
234.881	77.38
235.115	69.38
235.349	76.38
235.583	78.38
235.817	79.38
236.051	78.38
236.285	82.38
236.519	72.38
236.753	88.38
236.987	72.38
237.221	81.38
237.455	85.38
237.689	84.38
237.922	70.38
238.156	84.38
238.39	75.38
238.624	77.38
238.858	70.38
239.091	81.38
239.325	68.38
239.559	84.38
239.793	72.38
240.027	86.38
240.26	87.38
240.494	70.38
240.728	84.38
240.961	62.38
241.195	70.38
241.429	89.38
241.662	75.38
241.896	84.38
242.13	79.38
242.363	87.38
242.597	82.38
242.83	72.38
243.064	63.38
243.298	70.38
243.531	79.38
243.765	81.38
243.998	91.38
244.232	99.38
244.465	81.38
244.699	102.38
244.932	91.38
245.166	79.38
245.399	78.38
245.633	87.38
245.866	75.38
246.099	84.38
246.333	68.38
246.566	69.38
246.8	81.38
247.033	89.38
247.266	75.38
247.5	92.38
247.733	76.38
247.966	82.38
248.2	86.38
248.433	76.38
248.666	75.38
248.899	92.38
249.133	81.38
249.366	97.38
249.599	90.38
249.832	90.38
250.066	83.38
250.299	72.38
250.532	76.38
250.765	75.38
250.998	84.38
251.231	88.38
251.465	84.38
251.698	88.38
251.931	86.38
252.164	76.38
252.397	77.38
252.63	82.38
252.863	73.38
253.096	87.38
253.329	73.38
253.562	78.38
253.795	81.38
254.028	87.38
254.261	86.38
254.494	89.38
254.727	76.38
254.96	90.38
255.193	84.38
255.426	91.38
255.659	82.38
255.892	95.38
256.124	84.38
256.357	74.38
256.59	84.38
256.823	84.38
257.056	97.38
257.289	67.38
257.521	85.38
257.754	74.38
257.987	80.38
258.22	84.38
258.452	75.38
258.685	85.38
258.918	86.38
259.151	87.38
259.383	78.38
259.616	89.38
259.849	72.38
260.081	88.38
260.314	80.38
260.547	81.38
260.779	80.38
261.012	80.38
261.244	78.38
261.477	78.38
261.71	100.38
261.942	125.38
262.175	105.38
262.407	91.38
262.64	79.38
262.872	82.38
263.105	75.38
263.337	84.38
263.57	70.38
263.802	62.38
264.035	84.38
264.267	91.38
264.499	85.38
264.732	95.38
264.964	83.38
265.197	76.38
265.429	82.38
265.661	80.38
265.894	87.38
266.126	68.38
266.358	76.38
266.591	88.38
266.823	91.38
267.055	100.38
267.287	79.38
267.52	84.38
267.752	88.38
267.984	78.38
268.216	86.38
268.448	85.38
268.681	104.38
268.913	98.38
269.145	89.38
269.377	84.38
269.609	82.38
269.841	79.38
270.073	80.38
270.306	84.38
270.538	75.38
270.77	90.38
271.002	109.38
271.234	82.38
271.466	92.38
271.698	84.38
271.93	93.38
272.162	83.38
272.394	95.38
272.626	88.38
272.858	85.38
273.09	92.38
273.322	92.38
273.553	90.38
273.785	98.38
274.017	82.38
274.249	78.38
274.481	106.38
274.713	87.38
274.945	80.38
275.176	88.38
275.408	89.38
275.64	84.38
275.872	88.38
276.104	83.38
276.335	101.38
276.567	99.38
276.799	95.38
277.031	94.38
277.262	86.38
277.494	87.38
277.726	90.38
277.957	85.38
278.189	94.38
278.421	91.38
278.652	82.38
278.884	85.38
279.115	87.38
279.347	89.38
279.579	100.38
279.81	89.38
280.042	88.38
280.273	100.38
280.505	85.38
280.736	81.38
280.968	95.38
281.199	98.38
281.431	98.38
281.662	97.38
281.894	93.38
282.125	88.38
282.356	108.38
282.588	123.38
282.819	133.38
283.051	87.38
283.282	68.38
283.513	89.38
283.745	97.38
283.976	91.38
284.207	94.38
284.439	89.38
284.67	91.38
284.901	86.38
285.132	78.38
285.364	94.38
285.595	77.38
285.826	90.38
286.057	90.38
286.288	76.38
286.52	94.38
286.751	87.38
286.982	95.38
287.213	99.38
287.444	89.38
287.675	86.38
287.906	84.38
288.138	89.38
288.369	85.38
288.6	91.38
288.831	87.38
289.062	87.38
289.293	87.38
289.524	85.38
289.755	81.38
289.986	86.38
290.217	91.38
290.448	94.38
290.679	79.38
290.91	86.38
291.141	89.38
291.371	99.38
291.602	110.38
291.833	75.38
292.064	84.38
292.295	88.38
292.526	91.38
292.757	98.38
292.987	80.38
293.218	82.38
293.449	84.38
293.68	89.38
293.91	98.38
294.141	104.38
294.372	83.38
294.603	86.38
294.833	86.38
295.064	92.38
295.295	85.38
295.525	88.38
295.756	110.38
295.987	118.38
296.217	123.38
296.448	108.38
296.679	88.38
296.909	84.38
297.14	81.38
297.37	100.38
297.601	84.38
297.831	102.38
298.062	91.38
298.292	91.38
298.523	85.38
298.753	93.38
298.984	78.38
299.214	84.38
299.445	100.38
299.675	99.38
299.905	90.38
300.136	98.38
300.366	101.38
300.597	91.38
300.827	90.38
301.057	102.38
301.288	99.38
301.518	83.38
301.748	78.38
301.979	94.38
302.209	97.38
302.439	94.38
302.669	90.38
302.9	83.38
303.13	100.38
303.36	74.38
303.59	112.38
303.82	114.38
304.051	97.38
304.281	90.38
304.511	92.38
304.741	89.38
304.971	96.38
305.201	99.38
305.431	84.38
305.661	86.38
305.891	82.38
306.121	95.38
306.352	101.38
306.582	91.38
306.812	100.38
307.042	93.38
307.272	95.38
307.502	92.38
307.731	84.38
307.961	79.38
308.191	88.38
308.421	104.38
308.651	99.38
308.881	76.38
309.111	87.38
309.341	100.38
309.571	93.38
309.8	105.38
310.03	101.38
310.26	96.38
310.49	97.38
310.72	100.38
310.949	102.38
311.179	101.38
311.409	92.38
311.639	100.38
311.868	109.38
312.098	92.38
312.328	99.38
312.557	109.38
312.787	113.38
313.017	100.38
313.246	89.38
313.476	89.38
313.706	85.38
313.935	96.38
314.165	101.38
314.394	92.38
314.624	96.38
314.853	95.38
315.083	89.38
315.312	84.38
315.542	91.38
315.771	73.38
316.001	91.38
316.23	90.38
316.46	82.38
316.689	92.38
316.919	96.38
317.148	97.38
317.377	100.38
317.607	95.38
317.836	96.38
318.065	96.38
318.295	100.38
318.524	83.38
318.753	95.38
318.983	93.38
319.212	110.38
319.441	105.38
319.67	105.38
319.9	85.38
320.129	106.38
320.358	108.38
320.587	86.38
320.816	91.38
321.046	81.38
321.275	98.38
321.504	103.38
321.733	104.38
321.962	99.38
322.191	104.38
322.42	94.38
322.649	117.38
322.878	104.38
323.108	118.38
323.337	128.38
323.566	111.38
323.795	164.38
324.024	185.38
324.253	339.38
324.482	723.38
324.71	1451.38
324.939	1841.38
325.168	707.38
325.397	225.38
325.626	142.38
325.855	128.38
326.084	124.38
326.313	118.38
326.542	132.38
326.77	211.38
326.999	414.38
327.228	849.38
327.457	1439.38
327.686	1135.38
327.914	323.38
328.143	190.38
328.372	140.38
328.6	114.38
328.829	116.38
329.058	128.38
329.287	128.38
329.515	104.38
329.744	93.38
329.972	110.38
330.201	100.38
330.43	101.38
330.658	133.38
330.887	140.38
331.115	118.38
331.344	101.38
331.572	114.38
331.801	106.38
332.03	89.38
332.258	95.38
332.486	97.38
332.715	97.38
332.943	96.38
333.172	112.38
333.4	93.38
333.629	90.38
333.857	107.38
334.085	86.38
334.314	103.38
334.542	107.38
334.771	103.38
334.999	89.38
335.227	87.38
335.455	99.38
335.684	103.38
335.912	99.38
336.14	98.38
336.369	85.38
336.597	96.38
336.825	91.38
337.053	89.38
337.281	77.38
337.51	78.38
337.738	97.38
337.966	93.38
338.194	92.38
338.422	106.38
338.65	95.38
338.878	109.38
339.106	95.38
339.334	90.38
339.562	75.38
339.79	99.38
340.018	101.38
340.246	91.38
340.474	98.38
340.702	94.38
340.93	84.38
341.158	106.38
341.386	99.38
341.614	106.38
341.842	99.38
342.07	104.38
342.298	84.38
342.526	82.38
342.754	83.38
342.981	83.38
343.209	92.38
343.437	97.38
343.665	85.38
343.893	83.38
344.12	98.38
344.348	88.38
344.576	99.38
344.804	78.38
345.031	89.38
345.259	87.38
345.487	90.38
345.714	87.38
345.942	91.38
346.17	97.38
346.397	100.38
346.625	76.38
346.853	102.38
347.08	89.38
347.308	89.38
347.535	92.38
347.763	88.38
347.99	91.38
348.218	113.38
348.445	109.38
348.673	96.38
348.9	97.38
349.128	113.38
349.355	77.38
349.583	93.38
349.81	83.38
350.037	100.38
350.265	93.38
350.492	102.38
350.72	102.38
350.947	102.38
351.174	105.38
351.402	111.38
351.629	109.38
351.856	105.38
352.083	97.38
352.311	100.38
352.538	125.38
352.765	111.38
352.992	112.38
353.22	107.38
353.447	80.38
353.674	104.38
353.901	94.38
354.128	106.38
354.355	91.38
354.583	108.38
354.81	94.38
355.037	94.38
355.264	99.38
355.491	104.38
355.718	102.38
355.945	95.38
356.172	88.38
356.399	94.38
356.626	86.38
356.853	101.38
357.08	101.38
357.307	98.38
357.534	98.38
357.761	87.38
357.988	77.38
358.215	94.38
358.441	96.38
358.668	93.38
358.895	88.38
359.122	97.38
359.349	89.38
359.576	74.38
359.802	107.38
360.029	116.38
360.256	117.38
360.483	87.38
360.709	93.38
360.936	96.38
361.163	88.38
361.39	92.38
361.616	76.38
361.843	91.38
362.07	98.38
362.296	107.38
362.523	85.38
362.749	101.38
362.976	103.38
363.203	74.38
363.429	84.38
363.656	88.38
363.882	84.38
364.109	106.38
364.335	99.38
364.562	96.38
364.788	95.38
365.015	98.38
365.241	99.38
365.468	109.38
365.694	115.38
365.92	101.38
366.147	87.38
366.373	108.38
366.599	77.38
366.826	88.38
367.052	91.38
367.278	95.38
367.505	76.38
367.731	93.38
367.957	92.38
368.184	89.38
368.41	99.38
368.636	108.38
368.862	110.38
369.089	107.38
369.315	80.38
369.541	88.38
369.767	92.38
369.993	91.38
370.219	93.38
370.445	85.38
370.672	99.38
370.898	81.38
371.124	85.38
371.35	86.38
371.576	85.38
371.802	93.38
372.028	84.38
372.254	84.38
372.48	94.38
372.706	73.38
372.932	92.38
373.158	96.38
373.384	86.38
373.61	99.38
373.835	77.38
374.061	76.38
374.287	91.38
374.513	94.38
374.739	97.38
374.965	98.38
375.191	85.38
375.416	84.38
375.642	99.38
375.868	91.38
376.094	93.38
376.319	91.38
376.545	97.38
376.771	93.38
376.997	86.38
377.222	93.38
377.448	101.38
377.674	80.38
377.899	98.38
378.125	88.38
378.35	82.38
378.576	99.38
378.802	102.38
379.027	90.38
379.253	106.38
379.478	100.38
379.704	100.38
379.929	89.38
380.155	86.38
380.38	75.38
380.606	98.38
380.831	86.38
381.057	96.38
381.282	92.38
381.507	93.38
381.733	89.38
381.958	104.38
382.184	93.38
382.409	88.38
382.634	103.38
382.86	100.38
383.085	98.38
383.31	105.38
383.535	98.38
383.761	88.38
383.986	88.38
384.211	100.38
384.436	92.38
384.662	92.38
384.887	100.38
385.112	99.38
385.337	104.38
385.562	94.38
385.787	104.38
386.013	106.38
386.238	105.38
386.463	102.38
386.688	100.38
386.913	93.38
387.138	106.38
387.363	89.38
387.588	96.38
387.813	93.38
388.038	103.38
388.263	103.38
388.488	100.38
388.713	105.38
388.938	101.38
389.163	95.38
389.387	105.38
389.612	100.38
389.837	90.38
390.062	89.38
390.287	89.38
390.512	107.38
390.736	81.38
390.961	97.38
391.186	96.38
391.411	104.38
391.636	105.38
391.86	93.38
392.085	93.38
392.31	82.38
392.534	81.38
392.759	93.38
392.984	92.38
393.208	90.38
393.433	85.38
393.658	93.38
393.882	85.38
394.107	81.38
394.331	99.38
394.556	92.38
394.78	94.38
395.005	78.38
395.229	82.38
395.454	89.38
395.678	96.38
395.903	90.38
396.127	85.38
396.352	75.38
396.576	90.38
396.801	87.38
397.025	98.38
397.249	85.38
397.474	76.38
397.698	91.38
397.922	90.38
398.147	92.38
398.371	93.38
398.595	88.38
398.82	97.38
399.044	83.38
399.268	91.38
399.492	87.38
399.717	87.38
399.941	91.38
400.165	96.38
400.389	84.38
400.613	94.38
400.837	77.38
401.062	94.38
401.286	74.38
401.51	105.38
401.734	90.38
401.958	89.38
402.182	130.38
402.406	153.38
402.63	119.38
402.854	93.38
403.078	84.38
403.302	90.38
403.526	91.38
403.75	93.38
403.974	85.38
404.198	81.38
404.422	85.38
404.645	78.38
404.869	89.38
405.093	89.38
405.317	102.38
405.541	92.38
405.765	99.38
405.988	122.38
406.212	161.38
406.436	215.38
406.66	141.38
406.883	91.38
407.107	95.38
407.331	87.38
407.555	94.38
407.778	101.38
408.002	93.38
408.226	102.38
408.449	90.38
408.673	81.38
408.896	106.38
409.12	96.38
409.344	91.38
409.567	97.38
409.791	94.38
410.014	90.38
410.238	99.38
410.461	96.38
410.685	98.38
410.908	98.38
411.132	110.38
411.355	106.38
411.578	94.38
411.802	94.38
412.025	71.38
412.249	95.38
412.472	88.38
412.695	91.38
412.919	90.38
413.142	89.38
413.365	91.38
413.589	82.38
413.812	87.38
414.035	76.38
414.258	76.38
414.482	93.38
414.705	84.38
414.928	101.38
415.151	98.38
415.374	85.38
415.597	96.38
415.821	89.38
416.044	81.38
416.267	92.38
416.49	103.38
416.713	98.38
416.936	100.38
417.159	84.38
417.382	103.38
417.605	72.38
417.828	80.38
418.051	99.38
418.274	77.38
418.497	90.38
418.72	84.38
418.943	96.38
419.166	90.38
419.389	82.38
419.611	92.38
419.834	90.38
420.057	96.38
420.28	93.38
420.503	92.38
420.726	97.38
420.948	76.38
421.171	93.38
421.394	91.38
421.617	85.38
421.839	101.38
422.062	89.38
422.285	88.38
422.507	100.38
422.73	119.38
422.953	100.38
423.175	83.38
423.398	90.38
423.621	85.38
423.843	89.38
424.066	94.38
424.288	86.38
424.511	100.38
424.733	101.38
424.956	111.38
425.178	99.38
425.401	104.38
425.623	94.38
425.846	88.38
426.068	83.38
426.291	87.38
426.513	89.38
426.735	107.38
426.958	87.38
427.18	99.38
427.402	133.38
427.625	163.38
427.847	120.38
428.069	107.38
428.292	75.38
428.514	103.38
428.736	89.38
428.958	93.38
429.181	85.38
429.403	71.38
429.625	92.38
429.847	105.38
430.069	95.38
430.292	98.38
430.514	86.38
430.736	77.38
430.958	89.38
431.18	84.38
431.402	91.38
431.624	87.38
431.846	85.38
432.068	98.38
432.29	89.38
432.512	96.38
432.734	90.38
432.956	83.38
433.178	94.38
433.4	108.38
433.622	91.38
433.844	98.38
434.066	93.38
434.287	92.38
434.509	81.38
434.731	79.38
434.953	83.38
435.175	93.38
435.397	89.38
435.618	79.38
435.84	96.38
436.062	117.38
436.284	105.38
436.505	91.38
436.727	98.38
436.949	82.38
437.17	80.38
437.392	85.38
437.614	88.38
437.835	113.38
438.057	115.38
438.278	108.38
438.5	102.38
438.721	128.38
438.943	105.38
439.165	87.38
439.386	83.38
439.608	94.38
439.829	97.38
440.05	119.38
440.272	138.38
440.493	99.38
440.715	81.38
440.936	91.38
441.158	83.38
441.379	75.38
441.6	94.38
441.822	90.38
442.043	102.38
442.264	115.38
442.486	111.38
442.707	97.38
442.928	105.38
443.149	111.38
443.371	121.38
443.592	117.38
443.813	106.38
444.034	75.38
444.255	82.38
444.476	83.38
444.698	73.38
444.919	84.38
445.14	136.38
445.361	111.38
445.582	120.38
445.803	125.38
446.024	139.38
446.245	138.38
446.466	105.38
446.687	86.38
446.908	93.38
447.129	90.38
447.35	91.38
447.571	100.38
447.792	78.38
448.013	97.38
448.234	116.38
448.455	96.38
448.675	106.38
448.896	112.38
449.117	106.38
449.338	102.38
449.559	125.38
449.779	130.38
450	88.38
450.221	90.38
450.442	82.38
450.662	83.38
450.883	104.38
451.104	107.38
451.324	93.38
451.545	94.38
451.766	105.38
451.986	82.38
452.207	98.38
452.428	94.38
452.648	88.38
452.869	107.38
453.089	117.38
453.31	112.38
453.53	106.38
453.751	89.38
453.971	104.38
454.192	101.38
454.412	92.38
454.633	81.38
454.853	99.38
455.073	80.38
455.294	87.38
455.514	90.38
455.734	96.38
455.955	79.38
456.175	86.38
456.395	104.38
456.616	87.38
456.836	92.38
457.056	81.38
457.276	82.38
457.497	98.38
457.717	85.38
457.937	88.38
458.157	98.38
458.377	81.38
458.598	116.38
458.818	151.38
459.038	164.38
459.258	122.38
459.478	86.38
459.698	95.38
459.918	86.38
460.138	68.38
460.358	85.38
460.578	82.38
460.798	90.38
461.018	100.38
461.238	82.38
461.458	66.38
461.678	80.38
461.898	78.38
462.118	86.38
462.338	87.38
462.558	91.38
462.777	96.38
462.997	94.38
463.217	93.38
463.437	81.38
463.657	91.38
463.876	86.38
464.096	92.38
464.316	88.38
464.536	92.38
464.755	98.38
464.975	100.38
465.195	165.38
465.414	165.38
465.634	102.38
465.854	75.38
466.073	80.38
466.293	86.38
466.512	92.38
466.732	80.38
466.951	97.38
467.171	93.38
467.391	98.38
467.61	94.38
467.829	90.38
468.049	87.38
468.268	94.38
468.488	88.38
468.707	109.38
468.927	80.38
469.146	88.38
469.365	85.38
469.585	96.38
469.804	107.38
470.023	84.38
470.243	88.38
470.462	99.38
470.681	104.38
470.901	91.38
471.12	89.38
471.339	83.38
471.558	86.38
471.777	97.38
471.997	101.38
472.216	95.38
472.435	92.38
472.654	85.38
472.873	96.38
473.092	91.38
473.311	92.38
473.53	84.38
473.749	91.38
473.968	83.38
474.187	103.38
474.406	104.38
474.625	77.38
474.844	83.38
475.063	92.38
475.282	83.38
475.501	99.38
475.72	92.38
475.939	91.38
476.158	96.38
476.377	87.38
476.596	75.38
476.814	88.38
477.033	70.38
477.252	89.38
477.471	88.38
477.69	83.38
477.908	84.38
478.127	75.38
478.346	93.38
478.564	98.38
478.783	94.38
479.002	77.38
479.22	104.38
479.439	96.38
479.658	100.38
479.876	105.38
480.095	101.38
480.313	94.38
480.532	103.38
480.751	99.38
480.969	84.38
481.188	90.38
481.406	94.38
481.624	86.38
481.843	83.38
482.061	104.38
482.28	105.38
482.498	99.38
482.717	88.38
482.935	75.38
483.153	85.38
483.372	84.38
483.59	89.38
483.808	83.38
484.027	80.38
484.245	90.38
484.463	84.38
484.681	82.38
484.9	88.38
485.118	94.38
485.336	101.38
485.554	77.38
485.772	96.38
485.99	112.38
486.209	90.38
486.427	121.38
486.645	99.38
486.863	104.38
487.081	101.38
487.299	89.38
487.517	101.38
487.735	100.38
487.953	92.38
488.171	98.38
488.389	93.38
488.607	102.38
488.825	98.38
489.043	95.38
489.261	84.38
489.479	80.38
489.696	86.38
489.914	86.38
490.132	80.38
490.35	96.38
490.568	83.38
490.786	101.38
491.003	93.38
491.221	92.38
491.439	92.38
491.657	88.38
491.874	108.38
492.092	89.38
492.31	87.38
492.527	87.38
492.745	81.38
492.963	102.38
493.18	107.38
493.398	112.38
493.615	90.38
493.833	100.38
494.05	96.38
494.268	90.38
494.485	106.38
494.703	76.38
494.92	80.38
495.138	70.38
495.355	86.38
495.573	96.38
495.79	98.38
496.008	77.38
496.225	89.38
496.442	98.38
496.66	96.38
496.877	85.38
497.094	94.38
497.312	91.38
497.529	100.38
497.746	86.38
497.963	97.38
498.181	97.38
498.398	98.38
498.615	104.38
498.832	88.38
499.049	83.38
499.267	105.38
499.484	105.38
499.701	88.38
499.918	85.38
500.135	72.38
500.352	89.38
500.569	104.38
500.786	103.38
501.003	101.38
501.22	98.38
501.437	90.38
501.654	93.38
501.871	106.38
502.088	83.38
502.305	89.38
502.522	89.38
502.739	85.38
502.956	94.38
503.172	107.38
503.389	106.38
503.606	102.38
503.823	93.38
504.04	77.38
504.256	82.38
504.473	76.38
504.69	78.38
504.907	89.38
505.123	103.38
505.34	94.38
505.557	86.38
505.773	73.38
505.99	72.38
506.207	85.38
506.423	90.38
506.64	92.38
506.856	94.38
507.073	94.38
507.289	92.38
507.506	97.38
507.722	97.38
507.939	94.38
508.155	94.38
508.372	89.38
508.588	104.38
508.805	91.38
509.021	90.38
509.238	92.38
509.454	115.38
509.67	100.38
509.887	113.38
510.103	134.38
510.319	237.38
510.536	757.38
510.752	2308.38
510.968	640.38
511.184	168.38
511.401	99.38
511.617	95.38
511.833	88.38
512.049	98.38
512.265	85.38
512.481	99.38
512.698	89.38
512.914	92.38
513.13	92.38
513.346	93.38
513.562	94.38
513.778	102.38
513.994	100.38
514.21	99.38
514.426	106.38
514.642	125.38
514.858	131.38
515.074	168.38
515.29	462.38
515.506	1520.38
