Data from Uncirc_2001_H10_HRD10591_00052.txt Node
Date: Wed Jan 03 10:44:07 EST 2024
User: Yrep
Spectrometer: HR+D1059
Trigger mode: 1
Integration Time (sec): 1.000000E-1
Scans to average: 1
Electric dark correction enabled: true
Nonlinearity correction enabled: false
Boxcar width: 0
XAxis mode: Wavelengths
Number of Pixels in Spectrum: 2048
>>>>>Begin Spectral Data<<<<<
223.165	-8.56
223.4	-8.56
223.635	-8.56
223.869	-19.56
224.104	-27.56
224.338	-11.56
224.573	-23.56
224.808	-20.56
225.042	3.44
225.277	3.44
225.511	-12.56
225.746	8.44
225.98	9.44
226.215	7.44
226.449	21.44
226.683	18.44
226.918	20.44
227.152	31.44
227.387	19.44
227.621	36.44
227.856	49.44
228.09	44.44
228.324	45.44
228.559	52.44
228.793	36.44
229.027	54.44
229.262	61.44
229.496	79.44
229.73	78.44
229.964	89.44
230.199	76.44
230.433	74.44
230.667	67.44
230.901	82.44
231.136	69.44
231.37	72.44
231.604	83.44
231.838	68.44
232.072	70.44
232.306	68.44
232.541	74.44
232.775	81.44
233.009	79.44
233.243	61.44
233.477	84.44
233.711	78.44
233.945	75.44
234.179	79.44
234.413	84.44
234.647	73.44
234.881	68.44
235.115	89.44
235.349	72.44
235.583	71.44
235.817	75.44
236.051	64.44
236.285	77.44
236.519	68.44
236.753	63.44
236.987	77.44
237.221	83.44
237.455	92.44
237.689	65.44
237.922	80.44
238.156	64.44
238.39	67.44
238.624	65.44
238.858	68.44
239.091	69.44
239.325	68.44
239.559	77.44
239.793	60.44
240.027	76.44
240.26	76.44
240.494	69.44
240.728	70.44
240.961	75.44
241.195	79.44
241.429	88.44
241.662	84.44
241.896	67.44
242.13	77.44
242.363	72.44
242.597	52.44
242.83	69.44
243.064	73.44
243.298	78.44
243.531	67.44
243.765	78.44
243.998	78.44
244.232	78.44
244.465	72.44
244.699	66.44
244.932	73.44
245.166	69.44
245.399	78.44
245.633	68.44
245.866	74.44
246.099	75.44
246.333	77.44
246.566	73.44
246.8	63.44
247.033	82.44
247.266	77.44
247.5	59.44
247.733	68.44
247.966	74.44
248.2	63.44
248.433	69.44
248.666	76.44
248.899	77.44
249.133	80.44
249.366	85.44
249.599	94.44
249.832	69.44
250.066	68.44
250.299	67.44
250.532	68.44
250.765	94.44
250.998	82.44
251.231	85.44
251.465	76.44
251.698	77.44
251.931	82.44
252.164	78.44
252.397	64.44
252.63	75.44
252.863	80.44
253.096	81.44
253.329	65.44
253.562	75.44
253.795	88.44
254.028	75.44
254.261	85.44
254.494	76.44
254.727	76.44
254.96	81.44
255.193	90.44
255.426	77.44
255.659	74.44
255.892	81.44
256.124	82.44
256.357	67.44
256.59	73.44
256.823	75.44
257.056	76.44
257.289	69.44
257.521	62.44
257.754	82.44
257.987	77.44
258.22	87.44
258.452	80.44
258.685	89.44
258.918	54.44
259.151	70.44
259.383	87.44
259.616	67.44
259.849	78.44
260.081	74.44
260.314	79.44
260.547	82.44
260.779	84.44
261.012	91.44
261.244	75.44
261.477	75.44
261.71	86.44
261.942	92.44
262.175	99.44
262.407	72.44
262.64	90.44
262.872	72.44
263.105	75.44
263.337	82.44
263.57	92.44
263.802	78.44
264.035	82.44
264.267	79.44
264.499	78.44
264.732	72.44
264.964	75.44
265.197	85.44
265.429	81.44
265.661	65.44
265.894	85.44
266.126	76.44
266.358	88.44
266.591	76.44
266.823	85.44
267.055	97.44
267.287	88.44
267.52	59.44
267.752	84.44
267.984	71.44
268.216	90.44
268.448	85.44
268.681	80.44
268.913	83.44
269.145	69.44
269.377	76.44
269.609	86.44
269.841	78.44
270.073	100.44
270.306	80.44
270.538	81.44
270.77	78.44
271.002	71.44
271.234	79.44
271.466	76.44
271.698	64.44
271.93	75.44
272.162	78.44
272.394	80.44
272.626	77.44
272.858	73.44
273.09	76.44
273.322	85.44
273.553	79.44
273.785	86.44
274.017	87.44
274.249	103.44
274.481	63.44
274.713	75.44
274.945	91.44
275.176	90.44
275.408	69.44
275.64	78.44
275.872	79.44
276.104	82.44
276.335	73.44
276.567	80.44
276.799	98.44
277.031	95.44
277.262	86.44
277.494	86.44
277.726	76.44
277.957	85.44
278.189	73.44
278.421	81.44
278.652	89.44
278.884	85.44
279.115	95.44
279.347	94.44
279.579	77.44
279.81	75.44
280.042	78.44
280.273	75.44
280.505	87.44
280.736	83.44
280.968	97.44
281.199	95.44
281.431	70.44
281.662	82.44
281.894	81.44
282.125	85.44
282.356	115.44
282.588	159.44
282.819	103.44
283.051	72.44
283.282	96.44
283.513	83.44
283.745	88.44
283.976	89.44
284.207	90.44
284.439	82.44
284.67	87.44
284.901	84.44
285.132	88.44
285.364	84.44
285.595	80.44
285.826	75.44
286.057	86.44
286.288	81.44
286.52	88.44
286.751	89.44
286.982	96.44
287.213	83.44
287.444	76.44
287.675	95.44
287.906	79.44
288.138	79.44
288.369	86.44
288.6	88.44
288.831	78.44
289.062	89.44
289.293	85.44
289.524	81.44
289.755	97.44
289.986	80.44
290.217	94.44
290.448	84.44
290.679	66.44
290.91	87.44
291.141	78.44
291.371	83.44
291.602	64.44
291.833	86.44
292.064	87.44
292.295	77.44
292.526	90.44
292.757	74.44
292.987	80.44
293.218	87.44
293.449	84.44
293.68	75.44
293.91	84.44
294.141	88.44
294.372	87.44
294.603	74.44
294.833	73.44
295.064	74.44
295.295	88.44
295.525	91.44
295.756	88.44
295.987	115.44
296.217	140.44
296.448	125.44
296.679	104.44
296.909	100.44
297.14	82.44
297.37	80.44
297.601	80.44
297.831	82.44
298.062	84.44
298.292	89.44
298.523	88.44
298.753	79.44
298.984	94.44
299.214	89.44
299.445	94.44
299.675	87.44
299.905	95.44
300.136	89.44
300.366	87.44
300.597	108.44
300.827	94.44
301.057	89.44
301.288	93.44
301.518	84.44
301.748	86.44
301.979	98.44
302.209	90.44
302.439	88.44
302.669	80.44
302.9	83.44
303.13	95.44
303.36	98.44
303.59	101.44
303.82	87.44
304.051	83.44
304.281	88.44
304.511	85.44
304.741	94.44
304.971	73.44
305.201	87.44
305.431	88.44
305.661	86.44
305.891	92.44
306.121	83.44
306.352	102.44
306.582	98.44
306.812	95.44
307.042	80.44
307.272	84.44
307.502	89.44
307.731	84.44
307.961	80.44
308.191	89.44
308.421	88.44
308.651	80.44
308.881	99.44
309.111	83.44
309.341	93.44
309.571	97.44
309.8	91.44
310.03	94.44
310.26	94.44
310.49	94.44
310.72	95.44
310.949	100.44
311.179	101.44
311.409	83.44
311.639	91.44
311.868	83.44
312.098	100.44
312.328	102.44
312.557	101.44
312.787	108.44
313.017	105.44
313.246	85.44
313.476	85.44
313.706	98.44
313.935	99.44
314.165	99.44
314.394	103.44
314.624	102.44
314.853	91.44
315.083	93.44
315.312	86.44
315.542	78.44
315.771	93.44
316.001	82.44
316.23	82.44
316.46	87.44
316.689	93.44
316.919	82.44
317.148	93.44
317.377	95.44
317.607	94.44
317.836	103.44
318.065	85.44
318.295	84.44
318.524	73.44
318.753	82.44
318.983	90.44
319.212	108.44
319.441	93.44
319.67	104.44
319.9	73.44
320.129	84.44
320.358	82.44
320.587	100.44
320.816	85.44
321.046	101.44
321.275	95.44
321.504	92.44
321.733	92.44
321.962	90.44
322.191	86.44
322.42	105.44
322.649	83.44
322.878	89.44
323.108	88.44
323.337	114.44
323.566	122.44
323.795	141.44
324.024	199.44
324.253	400.44
324.482	802.44
324.71	1570.44
324.939	2045.44
325.168	740.44
325.397	228.44
325.626	137.44
325.855	124.44
326.084	113.44
326.313	117.44
326.542	143.44
326.77	208.44
326.999	453.44
327.228	868.44
327.457	1543.44
327.686	1229.44
327.914	363.44
328.143	192.44
328.372	130.44
328.6	115.44
328.829	113.44
329.058	116.44
329.287	130.44
329.515	96.44
329.744	96.44
329.972	106.44
330.201	104.44
330.43	107.44
330.658	115.44
330.887	159.44
331.115	120.44
331.344	93.44
331.572	104.44
331.801	101.44
332.03	107.44
332.258	92.44
332.486	81.44
332.715	89.44
332.943	98.44
333.172	83.44
333.4	96.44
333.629	77.44
333.857	98.44
334.085	75.44
334.314	97.44
334.542	88.44
334.771	103.44
334.999	98.44
335.227	94.44
335.455	102.44
335.684	88.44
335.912	72.44
336.14	86.44
336.369	91.44
336.597	92.44
336.825	103.44
337.053	86.44
337.281	94.44
337.51	91.44
337.738	97.44
337.966	68.44
338.194	86.44
338.422	91.44
338.65	101.44
338.878	96.44
339.106	88.44
339.334	84.44
339.562	99.44
339.79	82.44
340.018	85.44
340.246	78.44
340.474	88.44
340.702	90.44
340.93	91.44
341.158	98.44
341.386	94.44
341.614	89.44
341.842	96.44
342.07	88.44
342.298	94.44
342.526	87.44
342.754	107.44
342.981	79.44
343.209	84.44
343.437	94.44
343.665	81.44
343.893	78.44
344.12	94.44
344.348	96.44
344.576	83.44
344.804	99.44
345.031	103.44
345.259	87.44
345.487	80.44
345.714	84.44
345.942	91.44
346.17	77.44
346.397	91.44
346.625	79.44
346.853	99.44
347.08	96.44
347.308	79.44
347.535	107.44
347.763	98.44
347.99	92.44
348.218	104.44
348.445	103.44
348.673	88.44
348.9	93.44
349.128	85.44
349.355	97.44
349.583	74.44
349.81	78.44
350.037	88.44
350.265	94.44
350.492	79.44
350.72	94.44
350.947	97.44
351.174	109.44
351.402	101.44
351.629	105.44
351.856	101.44
352.083	104.44
352.311	111.44
352.538	111.44
352.765	109.44
352.992	103.44
353.22	104.44
353.447	94.44
353.674	97.44
353.901	103.44
354.128	91.44
354.355	83.44
354.583	86.44
354.81	81.44
355.037	103.44
355.264	84.44
355.491	85.44
355.718	85.44
355.945	82.44
356.172	80.44
356.399	100.44
356.626	79.44
356.853	89.44
357.08	87.44
357.307	80.44
357.534	67.44
357.761	82.44
357.988	97.44
358.215	81.44
358.441	80.44
358.668	93.44
358.895	82.44
359.122	94.44
359.349	85.44
359.576	76.44
359.802	109.44
360.029	107.44
360.256	103.44
360.483	98.44
360.709	95.44
360.936	87.44
361.163	77.44
361.39	84.44
361.616	85.44
361.843	86.44
362.07	96.44
362.296	99.44
362.523	71.44
362.749	70.44
362.976	81.44
363.203	81.44
363.429	101.44
363.656	74.44
363.882	82.44
364.109	78.44
364.335	90.44
364.562	103.44
364.788	75.44
365.015	93.44
365.241	94.44
365.468	101.44
365.694	105.44
365.92	93.44
366.147	95.44
366.373	79.44
366.599	81.44
366.826	76.44
367.052	83.44
367.278	94.44
367.505	86.44
367.731	89.44
367.957	88.44
368.184	83.44
368.41	101.44
368.636	106.44
368.862	104.44
369.089	104.44
369.315	92.44
369.541	91.44
369.767	101.44
369.993	91.44
370.219	98.44
370.445	99.44
370.672	59.44
370.898	93.44
371.124	83.44
371.35	100.44
371.576	93.44
371.802	78.44
372.028	77.44
372.254	73.44
372.48	81.44
372.706	98.44
372.932	83.44
373.158	82.44
373.384	82.44
373.61	85.44
373.835	78.44
374.061	80.44
374.287	78.44
374.513	84.44
374.739	77.44
374.965	82.44
375.191	84.44
375.416	64.44
375.642	79.44
375.868	78.44
376.094	92.44
376.319	86.44
376.545	85.44
376.771	75.44
376.997	87.44
377.222	75.44
377.448	88.44
377.674	101.44
377.899	77.44
378.125	65.44
378.35	85.44
378.576	97.44
378.802	95.44
379.027	87.44
379.253	88.44
379.478	88.44
379.704	93.44
379.929	92.44
380.155	82.44
380.38	83.44
380.606	85.44
380.831	79.44
381.057	95.44
381.282	93.44
381.507	97.44
381.733	76.44
381.958	89.44
382.184	104.44
382.409	97.44
382.634	81.44
382.86	89.44
383.085	86.44
383.31	97.44
383.535	85.44
383.761	88.44
383.986	96.44
384.211	87.44
384.436	87.44
384.662	87.44
384.887	89.44
385.112	96.44
385.337	105.44
385.562	101.44
385.787	87.44
386.013	99.44
386.238	121.44
386.463	96.44
386.688	94.44
386.913	90.44
387.138	97.44
387.363	88.44
387.588	88.44
387.813	82.44
388.038	96.44
388.263	89.44
388.488	105.44
388.713	81.44
388.938	97.44
389.163	104.44
389.387	96.44
389.612	98.44
389.837	94.44
390.062	99.44
390.287	94.44
390.512	101.44
390.736	87.44
390.961	82.44
391.186	80.44
391.411	76.44
391.636	88.44
391.86	79.44
392.085	72.44
392.31	81.44
392.534	77.44
392.759	83.44
392.984	105.44
393.208	75.44
393.433	80.44
393.658	90.44
393.882	80.44
394.107	93.44
394.331	96.44
394.556	92.44
394.78	94.44
395.005	96.44
395.229	85.44
395.454	80.44
395.678	79.44
395.903	79.44
396.127	96.44
396.352	81.44
396.576	80.44
396.801	89.44
397.025	77.44
397.249	78.44
397.474	73.44
397.698	102.44
397.922	82.44
398.147	68.44
398.371	71.44
398.595	79.44
398.82	79.44
399.044	73.44
399.268	74.44
399.492	86.44
399.717	84.44
399.941	91.44
400.165	93.44
400.389	99.44
400.613	96.44
400.837	81.44
401.062	76.44
401.286	73.44
401.51	85.44
401.734	91.44
401.958	88.44
402.182	131.44
402.406	147.44
402.63	119.44
402.854	93.44
403.078	85.44
403.302	93.44
403.526	78.44
403.75	70.44
403.974	77.44
404.198	82.44
404.422	92.44
404.645	82.44
404.869	86.44
405.093	87.44
405.317	83.44
405.541	93.44
405.765	97.44
405.988	116.44
406.212	168.44
406.436	238.44
406.66	147.44
406.883	88.44
407.107	96.44
407.331	94.44
407.555	96.44
407.778	92.44
408.002	88.44
408.226	75.44
408.449	77.44
408.673	94.44
408.896	84.44
409.12	89.44
409.344	96.44
409.567	93.44
409.791	100.44
410.014	83.44
410.238	79.44
410.461	86.44
410.685	76.44
410.908	98.44
411.132	104.44
411.355	96.44
411.578	87.44
411.802	85.44
412.025	79.44
412.249	89.44
412.472	98.44
412.695	87.44
412.919	69.44
413.142	82.44
413.365	81.44
413.589	83.44
413.812	85.44
414.035	97.44
414.258	91.44
414.482	77.44
414.705	91.44
414.928	83.44
415.151	85.44
415.374	90.44
415.597	81.44
415.821	75.44
416.044	74.44
416.267	75.44
416.49	93.44
416.713	89.44
416.936	86.44
417.159	79.44
417.382	88.44
417.605	61.44
417.828	84.44
418.051	78.44
418.274	87.44
418.497	76.44
418.72	84.44
418.943	89.44
419.166	85.44
419.389	80.44
419.611	88.44
419.834	79.44
420.057	93.44
420.28	94.44
420.503	86.44
420.726	84.44
420.948	84.44
421.171	108.44
421.394	97.44
421.617	83.44
421.839	85.44
422.062	86.44
422.285	76.44
422.507	86.44
422.73	92.44
422.953	89.44
423.175	83.44
423.398	87.44
423.621	76.44
423.843	69.44
424.066	84.44
424.288	82.44
424.511	78.44
424.733	92.44
424.956	110.44
425.178	87.44
425.401	97.44
425.623	105.44
425.846	76.44
426.068	78.44
426.291	96.44
426.513	92.44
426.735	83.44
426.958	85.44
427.18	120.44
427.402	128.44
427.625	143.44
427.847	95.44
428.069	92.44
428.292	93.44
428.514	78.44
428.736	85.44
428.958	94.44
429.181	77.44
429.403	74.44
429.625	86.44
429.847	85.44
430.069	98.44
430.292	83.44
430.514	85.44
430.736	77.44
430.958	88.44
431.18	78.44
431.402	72.44
431.624	87.44
431.846	77.44
432.068	88.44
432.29	94.44
432.512	93.44
432.734	81.44
432.956	87.44
433.178	87.44
433.4	101.44
433.622	86.44
433.844	75.44
434.066	82.44
434.287	95.44
434.509	92.44
434.731	82.44
434.953	97.44
435.175	77.44
435.397	86.44
435.618	93.44
435.84	108.44
436.062	113.44
436.284	122.44
436.505	83.44
436.727	96.44
436.949	88.44
437.17	82.44
437.392	88.44
437.614	96.44
437.835	85.44
438.057	108.44
438.278	108.44
438.5	89.44
438.721	123.44
438.943	97.44
439.165	88.44
439.386	82.44
439.608	82.44
439.829	91.44
440.05	116.44
440.272	139.44
440.493	91.44
440.715	90.44
440.936	83.44
441.158	70.44
441.379	87.44
441.6	100.44
441.822	101.44
442.043	103.44
442.264	104.44
442.486	87.44
442.707	82.44
442.928	90.44
443.149	128.44
443.371	124.44
443.592	108.44
443.813	96.44
444.034	98.44
444.255	75.44
444.476	83.44
444.698	92.44
444.919	86.44
445.14	113.44
445.361	101.44
445.582	124.44
445.803	143.44
446.024	139.44
446.245	130.44
446.466	97.44
446.687	86.44
446.908	85.44
447.129	77.44
447.35	88.44
447.571	89.44
447.792	88.44
448.013	92.44
448.234	109.44
448.455	99.44
448.675	109.44
448.896	110.44
449.117	91.44
449.338	96.44
449.559	129.44
449.779	141.44
450	81.44
450.221	87.44
450.442	92.44
450.662	86.44
450.883	107.44
451.104	114.44
451.324	93.44
451.545	86.44
451.766	86.44
451.986	82.44
452.207	84.44
452.428	82.44
452.648	76.44
452.869	97.44
453.089	117.44
453.31	109.44
453.53	101.44
453.751	88.44
453.971	119.44
454.192	110.44
454.412	81.44
454.633	79.44
454.853	86.44
455.073	81.44
455.294	97.44
455.514	98.44
455.734	82.44
455.955	95.44
456.175	80.44
456.395	82.44
456.616	91.44
456.836	94.44
457.056	90.44
457.276	74.44
457.497	83.44
457.717	81.44
457.937	81.44
458.157	87.44
458.377	69.44
458.598	101.44
458.818	146.44
459.038	168.44
459.258	126.44
459.478	79.44
459.698	78.44
459.918	88.44
460.138	81.44
460.358	84.44
460.578	82.44
460.798	86.44
461.018	83.44
461.238	95.44
461.458	83.44
461.678	84.44
461.898	86.44
462.118	93.44
462.338	77.44
462.558	85.44
462.777	98.44
462.997	77.44
463.217	86.44
463.437	89.44
463.657	82.44
463.876	87.44
464.096	83.44
464.316	81.44
464.536	93.44
464.755	98.44
464.975	108.44
465.195	168.44
465.414	163.44
465.634	92.44
465.854	79.44
466.073	86.44
466.293	77.44
466.512	99.44
466.732	83.44
466.951	76.44
467.171	78.44
467.391	94.44
467.61	103.44
467.829	100.44
468.049	88.44
468.268	87.44
468.488	80.44
468.707	80.44
468.927	76.44
469.146	84.44
469.365	84.44
469.585	98.44
469.804	91.44
470.023	85.44
470.243	96.44
470.462	98.44
470.681	101.44
470.901	68.44
471.12	92.44
471.339	84.44
471.558	73.44
471.777	74.44
471.997	71.44
472.216	77.44
472.435	92.44
472.654	100.44
472.873	84.44
473.092	83.44
473.311	81.44
473.53	73.44
473.749	74.44
473.968	87.44
474.187	104.44
474.406	88.44
474.625	80.44
474.844	79.44
475.063	81.44
475.282	95.44
475.501	84.44
475.72	76.44
475.939	71.44
476.158	92.44
476.377	77.44
476.596	81.44
476.814	98.44
477.033	85.44
477.252	71.44
477.471	84.44
477.69	83.44
477.908	97.44
478.127	93.44
478.346	79.44
478.564	87.44
478.783	84.44
479.002	88.44
479.22	85.44
479.439	93.44
479.658	100.44
479.876	91.44
480.095	97.44
480.313	72.44
480.532	108.44
480.751	95.44
480.969	65.44
481.188	98.44
481.406	98.44
481.624	83.44
481.843	79.44
482.061	86.44
482.28	78.44
482.498	82.44
482.717	83.44
482.935	82.44
483.153	75.44
483.372	73.44
483.59	73.44
483.808	76.44
484.027	85.44
484.245	91.44
484.463	87.44
484.681	84.44
484.9	89.44
485.118	87.44
485.336	84.44
485.554	86.44
485.772	88.44
485.99	96.44
486.209	110.44
486.427	92.44
486.645	106.44
486.863	109.44
487.081	100.44
487.299	85.44
487.517	86.44
487.735	68.44
487.953	75.44
488.171	95.44
488.389	94.44
488.607	80.44
488.825	87.44
489.043	89.44
489.261	99.44
489.479	94.44
489.696	93.44
489.914	81.44
490.132	79.44
490.35	83.44
490.568	82.44
490.786	88.44
491.003	77.44
491.221	80.44
491.439	91.44
491.657	80.44
491.874	87.44
492.092	91.44
492.31	93.44
492.527	100.44
492.745	86.44
492.963	88.44
493.18	96.44
493.398	80.44
493.615	73.44
493.833	87.44
494.05	77.44
494.268	72.44
494.485	65.44
494.703	79.44
494.92	65.44
495.138	90.44
495.355	83.44
495.573	85.44
495.79	94.44
496.008	83.44
496.225	94.44
496.442	86.44
496.66	86.44
496.877	70.44
497.094	94.44
497.312	69.44
497.529	71.44
497.746	83.44
497.963	72.44
498.181	80.44
498.398	89.44
498.615	109.44
498.832	95.44
499.049	90.44
499.267	85.44
499.484	94.44
499.701	99.44
499.918	93.44
500.135	78.44
500.352	83.44
500.569	86.44
500.786	82.44
501.003	78.44
501.22	83.44
501.437	92.44
501.654	98.44
501.871	97.44
502.088	91.44
502.305	99.44
502.522	80.44
502.739	89.44
502.956	72.44
503.172	92.44
503.389	85.44
503.606	107.44
503.823	96.44
504.04	85.44
504.256	75.44
504.473	85.44
504.69	80.44
504.907	89.44
505.123	82.44
505.34	91.44
505.557	85.44
505.773	92.44
505.99	88.44
506.207	85.44
506.423	73.44
506.64	87.44
506.856	80.44
507.073	76.44
507.289	77.44
507.506	89.44
507.722	96.44
507.939	104.44
508.155	101.44
508.372	87.44
508.588	100.44
508.805	81.44
509.021	100.44
509.238	88.44
509.454	104.44
509.67	104.44
509.887	100.44
510.103	135.44
510.319	207.44
510.536	831.44
510.752	2667.44
510.968	717.44
511.184	168.44
511.401	105.44
511.617	96.44
511.833	91.44
512.049	99.44
512.265	71.44
512.481	99.44
512.698	81.44
512.914	93.44
513.13	79.44
513.346	83.44
513.562	91.44
513.778	94.44
513.994	102.44
514.21	95.44
514.426	103.44
514.642	106.44
514.858	117.44
515.074	179.44
515.29	497.44
515.506	1682.44
515.721	590.44
515.937	163.44
516.153	101.44
516.369	93.44
516.585	93.44
516.801	83.44
517.016	85.44
517.232	103.44
