Data from Uncirc_2001_H10_HRD10591_00053.txt Node
Date: Wed Jan 03 10:44:07 EST 2024
User: Yrep
Spectrometer: HR+D1059
Trigger mode: 1
Integration Time (sec): 1.000000E-1
Scans to average: 1
Electric dark correction enabled: true
Nonlinearity correction enabled: false
Boxcar width: 0
XAxis mode: Wavelengths
Number of Pixels in Spectrum: 2048
>>>>>Begin Spectral Data<<<<<
223.165	-21.94
223.4	-21.94
223.635	-21.94
223.869	-18.94
224.104	-27.94
224.338	-13.94
224.573	-17.94
224.808	-4.94
225.042	-15.94
225.277	3.06
225.511	5.06
225.746	-5.94
225.98	21.06
226.215	11.06
226.449	19.06
226.683	31.06
226.918	13.06
227.152	24.06
227.387	39.06
227.621	33.06
227.856	48.06
228.09	38.06
228.324	58.06
228.559	63.06
228.793	62.06
229.027	67.06
229.262	64.06
229.496	67.06
229.73	80.06
229.964	80.06
230.199	70.06
230.433	72.06
230.667	79.06
230.901	81.06
231.136	90.06
231.37	75.06
231.604	82.06
231.838	86.06
232.072	70.06
232.306	80.06
232.541	80.06
232.775	77.06
233.009	88.06
233.243	82.06
233.477	75.06
233.711	81.06
233.945	76.06
234.179	72.06
234.413	73.06
234.647	82.06
234.881	74.06
235.115	85.06
235.349	87.06
235.583	83.06
235.817	85.06
236.051	75.06
236.285	72.06
236.519	78.06
236.753	67.06
236.987	91.06
237.221	87.06
237.455	90.06
237.689	69.06
237.922	75.06
238.156	81.06
238.39	72.06
238.624	66.06
238.858	66.06
239.091	75.06
239.325	76.06
239.559	96.06
239.793	63.06
240.027	79.06
240.26	75.06
240.494	77.06
240.728	76.06
240.961	75.06
241.195	67.06
241.429	70.06
241.662	79.06
241.896	80.06
242.13	87.06
242.363	83.06
242.597	89.06
242.83	89.06
243.064	75.06
243.298	84.06
243.531	80.06
243.765	81.06
243.998	85.06
244.232	92.06
244.465	81.06
244.699	100.06
244.932	91.06
245.166	61.06
245.399	75.06
245.633	80.06
245.866	90.06
246.099	85.06
246.333	65.06
246.566	78.06
246.8	65.06
247.033	82.06
247.266	96.06
247.5	79.06
247.733	75.06
247.966	82.06
248.2	94.06
248.433	73.06
248.666	81.06
248.899	81.06
249.133	83.06
249.366	84.06
249.599	86.06
249.832	67.06
250.066	78.06
250.299	74.06
250.532	82.06
250.765	69.06
250.998	81.06
251.231	61.06
251.465	79.06
251.698	79.06
251.931	82.06
252.164	80.06
252.397	84.06
252.63	81.06
252.863	77.06
253.096	89.06
253.329	91.06
253.562	76.06
253.795	80.06
254.028	81.06
254.261	86.06
254.494	83.06
254.727	76.06
254.96	79.06
255.193	87.06
255.426	81.06
255.659	92.06
255.892	65.06
256.124	75.06
256.357	81.06
256.59	100.06
256.823	82.06
257.056	91.06
257.289	86.06
257.521	70.06
257.754	90.06
257.987	86.06
258.22	70.06
258.452	70.06
258.685	83.06
258.918	82.06
259.151	90.06
259.383	71.06
259.616	77.06
259.849	87.06
260.081	85.06
260.314	82.06
260.547	86.06
260.779	73.06
261.012	88.06
261.244	83.06
261.477	87.06
261.71	110.06
261.942	119.06
262.175	124.06
262.407	82.06
262.64	89.06
262.872	72.06
263.105	92.06
263.337	86.06
263.57	81.06
263.802	91.06
264.035	80.06
264.267	70.06
264.499	75.06
264.732	73.06
264.964	89.06
265.197	86.06
265.429	80.06
265.661	88.06
265.894	85.06
266.126	101.06
266.358	94.06
266.591	84.06
266.823	81.06
267.055	74.06
267.287	87.06
267.52	81.06
267.752	78.06
267.984	90.06
268.216	84.06
268.448	76.06
268.681	80.06
268.913	68.06
269.145	81.06
269.377	68.06
269.609	91.06
269.841	82.06
270.073	85.06
270.306	89.06
270.538	76.06
270.77	75.06
271.002	81.06
271.234	82.06
271.466	91.06
271.698	76.06
271.93	95.06
272.162	86.06
272.394	78.06
272.626	79.06
272.858	78.06
273.09	77.06
273.322	78.06
273.553	83.06
273.785	93.06
274.017	89.06
274.249	83.06
274.481	79.06
274.713	89.06
274.945	83.06
275.176	81.06
275.408	80.06
275.64	76.06
275.872	96.06
276.104	90.06
276.335	75.06
276.567	84.06
276.799	96.06
277.031	106.06
277.262	81.06
277.494	81.06
277.726	82.06
277.957	100.06
278.189	88.06
278.421	92.06
278.652	88.06
278.884	88.06
279.115	87.06
279.347	94.06
279.579	92.06
279.81	88.06
280.042	77.06
280.273	91.06
280.505	90.06
280.736	87.06
280.968	83.06
281.199	71.06
281.431	68.06
281.662	98.06
281.894	97.06
282.125	88.06
282.356	123.06
282.588	113.06
282.819	112.06
283.051	76.06
283.282	76.06
283.513	81.06
283.745	95.06
283.976	87.06
284.207	86.06
284.439	84.06
284.67	86.06
284.901	80.06
285.132	94.06
285.364	88.06
285.595	89.06
285.826	84.06
286.057	91.06
286.288	84.06
286.52	93.06
286.751	72.06
286.982	86.06
287.213	98.06
287.444	81.06
287.675	76.06
287.906	85.06
288.138	85.06
288.369	85.06
288.6	99.06
288.831	96.06
289.062	79.06
289.293	85.06
289.524	74.06
289.755	79.06
289.986	76.06
290.217	81.06
290.448	88.06
290.679	91.06
290.91	79.06
291.141	92.06
291.371	92.06
291.602	96.06
291.833	95.06
292.064	87.06
292.295	90.06
292.526	83.06
292.757	87.06
292.987	96.06
293.218	87.06
293.449	90.06
293.68	92.06
293.91	76.06
294.141	87.06
294.372	90.06
294.603	83.06
294.833	73.06
295.064	95.06
295.295	86.06
295.525	90.06
295.756	89.06
295.987	103.06
296.217	135.06
296.448	131.06
296.679	87.06
296.909	99.06
297.14	101.06
297.37	87.06
297.601	91.06
297.831	93.06
298.062	102.06
298.292	99.06
298.523	86.06
298.753	94.06
298.984	88.06
299.214	80.06
299.445	91.06
299.675	97.06
299.905	83.06
300.136	96.06
300.366	82.06
300.597	83.06
300.827	90.06
301.057	104.06
301.288	103.06
301.518	93.06
301.748	93.06
301.979	97.06
302.209	106.06
302.439	83.06
302.669	92.06
302.9	85.06
303.13	97.06
303.36	97.06
303.59	107.06
303.82	106.06
304.051	112.06
304.281	95.06
304.511	98.06
304.741	91.06
304.971	97.06
305.201	92.06
305.431	86.06
305.661	97.06
305.891	83.06
306.121	114.06
306.352	116.06
306.582	108.06
306.812	103.06
307.042	102.06
307.272	96.06
307.502	95.06
307.731	87.06
307.961	83.06
308.191	93.06
308.421	94.06
308.651	98.06
308.881	97.06
309.111	91.06
309.341	95.06
309.571	109.06
309.8	88.06
310.03	88.06
310.26	93.06
310.49	100.06
310.72	90.06
310.949	104.06
311.179	106.06
311.409	82.06
311.639	105.06
311.868	95.06
312.098	102.06
312.328	97.06
312.557	80.06
312.787	96.06
313.017	94.06
313.246	83.06
313.476	71.06
313.706	105.06
313.935	105.06
314.165	101.06
314.394	112.06
314.624	117.06
314.853	88.06
315.083	97.06
315.312	98.06
315.542	86.06
315.771	95.06
316.001	92.06
316.23	96.06
316.46	98.06
316.689	84.06
316.919	96.06
317.148	100.06
317.377	101.06
317.607	84.06
317.836	90.06
318.065	90.06
318.295	92.06
318.524	87.06
318.753	82.06
318.983	92.06
319.212	92.06
319.441	106.06
319.67	96.06
319.9	100.06
320.129	90.06
320.358	95.06
320.587	93.06
320.816	106.06
321.046	98.06
321.275	93.06
321.504	98.06
321.733	112.06
321.962	86.06
322.191	95.06
322.42	99.06
322.649	107.06
322.878	116.06
323.108	105.06
323.337	117.06
323.566	137.06
323.795	157.06
324.024	202.06
324.253	372.06
324.482	761.06
324.71	1521.06
324.939	1934.06
325.168	722.06
325.397	228.06
325.626	139.06
325.855	111.06
326.084	129.06
326.313	130.06
326.542	132.06
326.77	203.06
326.999	410.06
327.228	837.06
327.457	1481.06
327.686	1180.06
327.914	348.06
328.143	182.06
328.372	143.06
328.6	122.06
328.829	105.06
329.058	129.06
329.287	129.06
329.515	107.06
329.744	100.06
329.972	104.06
330.201	98.06
330.43	110.06
330.658	110.06
330.887	122.06
331.115	119.06
331.344	107.06
331.572	102.06
331.801	116.06
332.03	126.06
332.258	97.06
332.486	96.06
332.715	80.06
332.943	92.06
333.172	90.06
333.4	108.06
333.629	114.06
333.857	113.06
334.085	124.06
334.314	97.06
334.542	80.06
334.771	100.06
334.999	100.06
335.227	97.06
335.455	97.06
335.684	95.06
335.912	89.06
336.14	106.06
336.369	92.06
336.597	97.06
336.825	83.06
337.053	92.06
337.281	87.06
337.51	94.06
337.738	102.06
337.966	100.06
338.194	92.06
338.422	85.06
338.65	87.06
338.878	99.06
339.106	88.06
339.334	88.06
339.562	98.06
339.79	90.06
340.018	83.06
340.246	87.06
340.474	74.06
340.702	99.06
340.93	82.06
341.158	100.06
341.386	85.06
341.614	95.06
341.842	95.06
342.07	103.06
342.298	99.06
342.526	88.06
342.754	85.06
342.981	92.06
343.209	105.06
343.437	95.06
343.665	88.06
343.893	95.06
344.12	92.06
344.348	87.06
344.576	82.06
344.804	96.06
345.031	89.06
345.259	89.06
345.487	98.06
345.714	75.06
345.942	87.06
346.17	98.06
346.397	99.06
346.625	78.06
346.853	78.06
347.08	86.06
347.308	88.06
347.535	78.06
347.763	107.06
347.99	111.06
348.218	101.06
348.445	94.06
348.673	100.06
348.9	99.06
349.128	90.06
349.355	97.06
349.583	98.06
349.81	83.06
350.037	100.06
350.265	100.06
350.492	98.06
350.72	93.06
350.947	107.06
351.174	110.06
351.402	97.06
351.629	102.06
351.856	95.06
352.083	95.06
352.311	105.06
352.538	102.06
352.765	104.06
352.992	108.06
353.22	110.06
353.447	99.06
353.674	107.06
353.901	93.06
354.128	105.06
354.355	93.06
354.583	90.06
354.81	105.06
355.037	98.06
355.264	109.06
355.491	93.06
355.718	91.06
355.945	108.06
356.172	95.06
356.399	99.06
356.626	87.06
356.853	89.06
357.08	88.06
357.307	92.06
357.534	93.06
357.761	102.06
357.988	92.06
358.215	89.06
358.441	92.06
358.668	89.06
358.895	83.06
359.122	96.06
359.349	95.06
359.576	80.06
359.802	101.06
360.029	113.06
360.256	107.06
360.483	100.06
360.709	86.06
360.936	93.06
361.163	102.06
361.39	103.06
361.616	93.06
361.843	92.06
362.07	84.06
362.296	92.06
362.523	91.06
362.749	95.06
362.976	92.06
363.203	98.06
363.429	91.06
363.656	90.06
363.882	91.06
364.109	95.06
364.335	97.06
364.562	96.06
364.788	75.06
365.015	98.06
365.241	98.06
365.468	101.06
365.694	105.06
365.92	96.06
366.147	84.06
366.373	78.06
366.599	78.06
366.826	89.06
367.052	92.06
367.278	84.06
367.505	97.06
367.731	105.06
367.957	98.06
368.184	88.06
368.41	84.06
368.636	106.06
368.862	124.06
369.089	119.06
369.315	102.06
369.541	86.06
369.767	95.06
369.993	101.06
370.219	83.06
370.445	71.06
370.672	83.06
370.898	79.06
371.124	94.06
371.35	85.06
371.576	91.06
371.802	91.06
372.028	98.06
372.254	85.06
372.48	91.06
372.706	93.06
372.932	88.06
373.158	81.06
373.384	104.06
373.61	98.06
373.835	89.06
374.061	84.06
374.287	84.06
374.513	92.06
374.739	86.06
374.965	96.06
375.191	102.06
375.416	97.06
375.642	92.06
375.868	93.06
376.094	88.06
376.319	84.06
376.545	80.06
376.771	98.06
376.997	80.06
377.222	95.06
377.448	89.06
377.674	101.06
377.899	79.06
378.125	80.06
378.35	90.06
378.576	100.06
378.802	89.06
379.027	98.06
379.253	93.06
379.478	93.06
379.704	96.06
379.929	92.06
380.155	85.06
380.38	88.06
380.606	82.06
380.831	81.06
381.057	88.06
381.282	99.06
381.507	100.06
381.733	81.06
381.958	88.06
382.184	98.06
382.409	102.06
382.634	108.06
382.86	92.06
383.085	100.06
383.31	98.06
383.535	92.06
383.761	86.06
383.986	93.06
384.211	93.06
384.436	87.06
384.662	102.06
384.887	96.06
385.112	103.06
385.337	101.06
385.562	95.06
385.787	100.06
386.013	109.06
386.238	104.06
386.463	103.06
386.688	107.06
386.913	101.06
387.138	93.06
387.363	100.06
387.588	94.06
387.813	80.06
388.038	85.06
388.263	118.06
388.488	118.06
388.713	99.06
388.938	96.06
389.163	96.06
389.387	95.06
389.612	83.06
389.837	92.06
390.062	90.06
390.287	87.06
390.512	95.06
390.736	92.06
390.961	86.06
391.186	97.06
391.411	109.06
391.636	107.06
391.86	80.06
392.085	104.06
392.31	93.06
392.534	92.06
392.759	83.06
392.984	100.06
393.208	94.06
393.433	95.06
393.658	96.06
393.882	73.06
394.107	87.06
394.331	85.06
394.556	83.06
394.78	82.06
395.005	84.06
395.229	82.06
395.454	87.06
395.678	90.06
395.903	84.06
396.127	101.06
396.352	88.06
396.576	81.06
396.801	88.06
397.025	83.06
397.249	91.06
397.474	99.06
397.698	92.06
397.922	90.06
398.147	65.06
398.371	93.06
398.595	83.06
398.82	80.06
399.044	76.06
399.268	82.06
399.492	84.06
399.717	93.06
399.941	76.06
400.165	101.06
400.389	98.06
400.613	77.06
400.837	84.06
401.062	85.06
401.286	78.06
401.51	72.06
401.734	86.06
401.958	106.06
402.182	115.06
402.406	165.06
402.63	108.06
402.854	105.06
403.078	90.06
403.302	88.06
403.526	72.06
403.75	84.06
403.974	87.06
404.198	93.06
404.422	91.06
404.645	100.06
404.869	93.06
405.093	99.06
405.317	88.06
405.541	104.06
405.765	97.06
405.988	121.06
406.212	180.06
406.436	247.06
406.66	146.06
406.883	99.06
407.107	99.06
407.331	103.06
407.555	97.06
407.778	92.06
408.002	100.06
408.226	82.06
408.449	97.06
408.673	93.06
408.896	97.06
409.12	105.06
409.344	97.06
409.567	91.06
409.791	96.06
410.014	72.06
410.238	85.06
410.461	92.06
410.685	93.06
410.908	100.06
411.132	106.06
411.355	110.06
411.578	102.06
411.802	93.06
412.025	85.06
412.249	70.06
412.472	100.06
412.695	89.06
412.919	92.06
413.142	92.06
413.365	86.06
413.589	81.06
413.812	89.06
414.035	104.06
414.258	81.06
414.482	81.06
414.705	89.06
414.928	80.06
415.151	92.06
415.374	84.06
415.597	96.06
415.821	93.06
416.044	85.06
416.267	91.06
416.49	88.06
416.713	90.06
416.936	93.06
417.159	81.06
417.382	84.06
417.605	93.06
417.828	93.06
418.051	99.06
418.274	89.06
418.497	92.06
418.72	82.06
418.943	87.06
419.166	75.06
419.389	88.06
419.611	81.06
419.834	89.06
420.057	88.06
420.28	110.06
420.503	85.06
420.726	82.06
420.948	82.06
421.171	84.06
421.394	102.06
421.617	79.06
421.839	97.06
422.062	81.06
422.285	91.06
422.507	84.06
422.73	104.06
422.953	97.06
423.175	96.06
423.398	94.06
423.621	85.06
423.843	75.06
424.066	95.06
424.288	97.06
424.511	92.06
424.733	106.06
424.956	97.06
425.178	102.06
425.401	85.06
425.623	98.06
425.846	97.06
426.068	87.06
426.291	84.06
426.513	74.06
426.735	68.06
426.958	96.06
427.18	104.06
427.402	123.06
427.625	147.06
427.847	135.06
428.069	97.06
428.292	99.06
428.514	88.06
428.736	73.06
428.958	89.06
429.181	84.06
429.403	90.06
429.625	88.06
429.847	102.06
430.069	105.06
430.292	89.06
430.514	85.06
430.736	81.06
430.958	97.06
431.18	93.06
431.402	87.06
431.624	80.06
431.846	80.06
432.068	84.06
432.29	82.06
432.512	80.06
432.734	83.06
432.956	100.06
433.178	87.06
433.4	85.06
433.622	94.06
433.844	97.06
434.066	99.06
434.287	98.06
434.509	92.06
434.731	88.06
434.953	82.06
435.175	86.06
435.397	97.06
435.618	97.06
435.84	101.06
436.062	113.06
436.284	102.06
436.505	98.06
436.727	99.06
436.949	94.06
437.17	83.06
437.392	86.06
437.614	90.06
437.835	115.06
438.057	112.06
438.278	104.06
438.5	105.06
438.721	113.06
438.943	85.06
439.165	97.06
439.386	89.06
439.608	97.06
439.829	97.06
440.05	116.06
440.272	134.06
440.493	91.06
440.715	92.06
440.936	78.06
441.158	96.06
441.379	91.06
441.6	79.06
441.822	84.06
442.043	103.06
442.264	97.06
442.486	88.06
442.707	101.06
442.928	98.06
443.149	132.06
443.371	132.06
443.592	121.06
443.813	105.06
444.034	108.06
444.255	91.06
444.476	87.06
444.698	90.06
444.919	90.06
445.14	121.06
445.361	112.06
445.582	93.06
445.803	130.06
446.024	122.06
446.245	139.06
446.466	111.06
446.687	77.06
446.908	80.06
447.129	96.06
447.35	75.06
447.571	94.06
447.792	84.06
448.013	97.06
448.234	106.06
448.455	96.06
448.675	120.06
448.896	103.06
449.117	84.06
449.338	100.06
449.559	114.06
449.779	123.06
450	93.06
450.221	81.06
450.442	93.06
450.662	88.06
450.883	96.06
451.104	107.06
451.324	98.06
451.545	91.06
451.766	102.06
451.986	81.06
452.207	87.06
452.428	88.06
452.648	86.06
452.869	108.06
453.089	120.06
453.31	127.06
453.53	101.06
453.751	88.06
453.971	98.06
454.192	105.06
454.412	92.06
454.633	87.06
454.853	79.06
455.073	75.06
455.294	84.06
455.514	92.06
455.734	82.06
455.955	81.06
456.175	92.06
456.395	101.06
456.616	80.06
456.836	85.06
457.056	79.06
457.276	86.06
457.497	82.06
457.717	83.06
457.937	95.06
458.157	89.06
458.377	80.06
458.598	112.06
458.818	134.06
459.038	151.06
459.258	89.06
459.478	90.06
459.698	77.06
459.918	88.06
460.138	95.06
460.358	89.06
460.578	104.06
460.798	83.06
461.018	67.06
461.238	82.06
461.458	91.06
461.678	87.06
461.898	90.06
462.118	76.06
462.338	89.06
462.558	85.06
462.777	80.06
462.997	82.06
463.217	81.06
463.437	84.06
463.657	75.06
463.876	87.06
464.096	81.06
464.316	89.06
464.536	91.06
464.755	104.06
464.975	95.06
465.195	160.06
465.414	163.06
465.634	106.06
465.854	83.06
466.073	80.06
466.293	92.06
466.512	89.06
466.732	91.06
466.951	85.06
467.171	100.06
467.391	91.06
467.61	107.06
467.829	99.06
468.049	97.06
468.268	99.06
468.488	83.06
468.707	83.06
468.927	72.06
469.146	73.06
469.365	94.06
469.585	90.06
469.804	107.06
470.023	100.06
470.243	100.06
470.462	96.06
470.681	100.06
470.901	95.06
471.12	93.06
471.339	83.06
471.558	93.06
471.777	89.06
471.997	92.06
472.216	81.06
472.435	80.06
472.654	81.06
472.873	77.06
473.092	73.06
473.311	71.06
473.53	89.06
473.749	89.06
473.968	88.06
474.187	109.06
474.406	88.06
474.625	77.06
474.844	82.06
475.063	83.06
475.282	91.06
475.501	83.06
475.72	86.06
475.939	92.06
476.158	90.06
476.377	80.06
476.596	80.06
476.814	90.06
477.033	93.06
477.252	79.06
477.471	88.06
477.69	84.06
477.908	93.06
478.127	83.06
478.346	73.06
478.564	84.06
478.783	101.06
479.002	99.06
479.22	88.06
479.439	93.06
479.658	92.06
479.876	97.06
480.095	91.06
480.313	95.06
480.532	94.06
480.751	87.06
480.969	83.06
481.188	103.06
481.406	82.06
481.624	86.06
481.843	101.06
482.061	90.06
482.28	88.06
482.498	76.06
482.717	89.06
482.935	84.06
483.153	83.06
483.372	99.06
483.59	90.06
483.808	87.06
484.027	86.06
484.245	90.06
484.463	86.06
484.681	96.06
484.9	90.06
485.118	100.06
485.336	79.06
485.554	103.06
485.772	110.06
485.99	101.06
486.209	105.06
486.427	103.06
486.645	104.06
486.863	102.06
487.081	101.06
487.299	111.06
487.517	100.06
487.735	97.06
487.953	83.06
488.171	87.06
488.389	119.06
488.607	91.06
488.825	82.06
489.043	89.06
489.261	97.06
489.479	67.06
489.696	83.06
489.914	85.06
490.132	89.06
490.35	104.06
490.568	87.06
490.786	90.06
491.003	90.06
491.221	99.06
491.439	87.06
491.657	95.06
491.874	115.06
492.092	87.06
492.31	101.06
492.527	83.06
492.745	95.06
492.963	88.06
493.18	88.06
493.398	95.06
493.615	81.06
493.833	91.06
494.05	84.06
494.268	88.06
494.485	98.06
494.703	97.06
494.92	94.06
495.138	87.06
495.355	81.06
495.573	93.06
495.79	83.06
496.008	90.06
496.225	92.06
496.442	80.06
496.66	84.06
496.877	96.06
497.094	95.06
497.312	90.06
497.529	87.06
497.746	81.06
497.963	71.06
498.181	83.06
498.398	92.06
498.615	100.06
498.832	100.06
499.049	77.06
499.267	77.06
499.484	76.06
499.701	83.06
499.918	81.06
500.135	73.06
500.352	72.06
500.569	88.06
500.786	76.06
501.003	95.06
501.22	84.06
501.437	90.06
501.654	94.06
501.871	95.06
502.088	90.06
502.305	95.06
502.522	90.06
502.739	95.06
502.956	91.06
503.172	93.06
503.389	98.06
503.606	102.06
503.823	93.06
504.04	87.06
504.256	101.06
504.473	88.06
504.69	86.06
504.907	100.06
505.123	92.06
505.34	89.06
505.557	97.06
505.773	94.06
505.99	97.06
506.207	89.06
506.423	82.06
506.64	90.06
506.856	103.06
507.073	89.06
507.289	94.06
507.506	95.06
507.722	117.06
507.939	106.06
508.155	97.06
508.372	89.06
508.588	88.06
508.805	101.06
509.021	103.06
509.238	97.06
509.454	96.06
509.67	97.06
509.887	98.06
510.103	132.06
510.319	216.06
510.536	786.06
510.752	2419.06
510.968	677.06
511.184	158.06
511.401	103.06
511.617	99.06
511.833	95.06
512.049	85.06
512.265	79.06
512.481	71.06
512.698	87.06
512.914	86.06
513.13	92.06
513.346	90.06
513.562	103.06
513.778	90.06
513.994	84.06
514.21	95.06
514.426	129.06
514.642	123.06
514.858	118.06
515.074	149.06
515.29	487.06
515.506	1571.06
515.721	580.06
515.937	165.06
