Data from Uncirc_2001_H10_HRD10591_00036.txt Node
Date: Wed Jan 03 10:44:04 EST 2024
User: Yrep
Spectrometer: HR+D1059
Trigger mode: 1
Integration Time (sec): 1.000000E-1
Scans to average: 1
Electric dark correction enabled: true
Nonlinearity correction enabled: false
Boxcar width: 0
XAxis mode: Wavelengths
Number of Pixels in Spectrum: 2048
>>>>>Begin Spectral Data<<<<<
223.165	-17.62
223.4	-17.62
223.635	-17.62
223.869	-8.62
224.104	-3.62
224.338	-12.62
224.573	-9.62
224.808	-16.62
225.042	-9.62
225.277	-22.62
225.511	-10.62
225.746	-1.62
225.98	-0.62
226.215	19.38
226.449	13.38
226.683	19.38
226.918	31.38
227.152	30.38
227.387	33.38
227.621	42.38
227.856	44.38
228.09	47.38
228.324	54.38
228.559	58.38
228.793	53.38
229.027	63.38
229.262	78.38
229.496	68.38
229.73	86.38
229.964	74.38
230.199	69.38
230.433	72.38
230.667	87.38
230.901	83.38
231.136	65.38
231.37	76.38
231.604	84.38
231.838	74.38
232.072	96.38
232.306	71.38
232.541	78.38
232.775	85.38
233.009	87.38
233.243	81.38
233.477	79.38
233.711	74.38
233.945	85.38
234.179	85.38
234.413	72.38
234.647	83.38
234.881	66.38
235.115	78.38
235.349	90.38
235.583	72.38
235.817	67.38
236.051	84.38
236.285	80.38
236.519	81.38
236.753	65.38
236.987	82.38
237.221	76.38
237.455	75.38
237.689	82.38
237.922	73.38
238.156	84.38
238.39	87.38
238.624	73.38
238.858	75.38
239.091	67.38
239.325	78.38
239.559	79.38
239.793	82.38
240.027	90.38
240.26	67.38
240.494	79.38
240.728	73.38
240.961	67.38
241.195	79.38
241.429	73.38
241.662	80.38
241.896	70.38
242.13	69.38
242.363	81.38
242.597	77.38
242.83	67.38
243.064	87.38
243.298	71.38
243.531	70.38
243.765	72.38
243.998	73.38
244.232	82.38
244.465	75.38
244.699	66.38
244.932	78.38
245.166	87.38
245.399	70.38
245.633	79.38
245.866	67.38
246.099	73.38
246.333	69.38
246.566	73.38
246.8	74.38
247.033	68.38
247.266	67.38
247.5	71.38
247.733	88.38
247.966	79.38
248.2	74.38
248.433	75.38
248.666	80.38
248.899	91.38
249.133	75.38
249.366	109.38
249.599	89.38
249.832	71.38
250.066	83.38
250.299	64.38
250.532	72.38
250.765	81.38
250.998	77.38
251.231	66.38
251.465	84.38
251.698	81.38
251.931	76.38
252.164	73.38
252.397	81.38
252.63	71.38
252.863	85.38
253.096	79.38
253.329	78.38
253.562	84.38
253.795	92.38
254.028	79.38
254.261	72.38
254.494	82.38
254.727	89.38
254.96	72.38
255.193	82.38
255.426	83.38
255.659	88.38
255.892	87.38
256.124	84.38
256.357	85.38
256.59	87.38
256.823	81.38
257.056	83.38
257.289	72.38
257.521	73.38
257.754	84.38
257.987	82.38
258.22	83.38
258.452	83.38
258.685	65.38
258.918	78.38
259.151	83.38
259.383	79.38
259.616	73.38
259.849	85.38
260.081	80.38
260.314	76.38
260.547	85.38
260.779	74.38
261.012	94.38
261.244	90.38
261.477	87.38
261.71	79.38
261.942	111.38
262.175	111.38
262.407	84.38
262.64	83.38
262.872	89.38
263.105	86.38
263.337	88.38
263.57	83.38
263.802	88.38
264.035	85.38
264.267	75.38
264.499	69.38
264.732	81.38
264.964	97.38
265.197	74.38
265.429	71.38
265.661	89.38
265.894	93.38
266.126	78.38
266.358	72.38
266.591	86.38
266.823	66.38
267.055	81.38
267.287	80.38
267.52	83.38
267.752	84.38
267.984	80.38
268.216	69.38
268.448	84.38
268.681	84.38
268.913	76.38
269.145	79.38
269.377	90.38
269.609	89.38
269.841	92.38
270.073	98.38
270.306	75.38
270.538	83.38
270.77	79.38
271.002	85.38
271.234	74.38
271.466	75.38
271.698	82.38
271.93	76.38
272.162	84.38
272.394	95.38
272.626	95.38
272.858	98.38
273.09	90.38
273.322	82.38
273.553	74.38
273.785	73.38
274.017	90.38
274.249	80.38
274.481	91.38
274.713	83.38
274.945	95.38
275.176	77.38
275.408	86.38
275.64	85.38
275.872	89.38
276.104	76.38
276.335	84.38
276.567	98.38
276.799	89.38
277.031	100.38
277.262	80.38
277.494	80.38
277.726	89.38
277.957	85.38
278.189	79.38
278.421	89.38
278.652	86.38
278.884	77.38
279.115	71.38
279.347	83.38
279.579	69.38
279.81	83.38
280.042	84.38
280.273	81.38
280.505	87.38
280.736	75.38
280.968	82.38
281.199	100.38
281.431	84.38
281.662	90.38
281.894	103.38
282.125	105.38
282.356	96.38
282.588	127.38
282.819	108.38
283.051	83.38
283.282	73.38
283.513	83.38
283.745	72.38
283.976	79.38
284.207	91.38
284.439	87.38
284.67	80.38
284.901	80.38
285.132	85.38
285.364	81.38
285.595	92.38
285.826	73.38
286.057	86.38
286.288	87.38
286.52	87.38
286.751	103.38
286.982	90.38
287.213	89.38
287.444	86.38
287.675	82.38
287.906	90.38
288.138	82.38
288.369	106.38
288.6	88.38
288.831	85.38
289.062	86.38
289.293	84.38
289.524	96.38
289.755	90.38
289.986	87.38
290.217	90.38
290.448	81.38
290.679	94.38
290.91	86.38
291.141	81.38
291.371	91.38
291.602	86.38
291.833	86.38
292.064	94.38
292.295	89.38
292.526	84.38
292.757	100.38
292.987	102.38
293.218	86.38
293.449	86.38
293.68	88.38
293.91	91.38
294.141	93.38
294.372	67.38
294.603	75.38
294.833	91.38
295.064	90.38
295.295	76.38
295.525	95.38
295.756	93.38
295.987	114.38
296.217	124.38
296.448	103.38
296.679	93.38
296.909	84.38
297.14	84.38
297.37	95.38
297.601	68.38
297.831	91.38
298.062	91.38
298.292	90.38
298.523	83.38
298.753	102.38
298.984	87.38
299.214	85.38
299.445	94.38
299.675	97.38
299.905	79.38
300.136	92.38
300.366	91.38
300.597	91.38
300.827	102.38
301.057	107.38
301.288	84.38
301.518	106.38
301.748	87.38
301.979	96.38
302.209	91.38
302.439	103.38
302.669	81.38
302.9	80.38
303.13	98.38
303.36	96.38
303.59	89.38
303.82	87.38
304.051	84.38
304.281	84.38
304.511	89.38
304.741	98.38
304.971	91.38
305.201	87.38
305.431	84.38
305.661	71.38
305.891	89.38
306.121	82.38
306.352	96.38
306.582	90.38
306.812	90.38
307.042	81.38
307.272	98.38
307.502	98.38
307.731	85.38
307.961	93.38
308.191	97.38
308.421	79.38
308.651	88.38
308.881	86.38
309.111	98.38
309.341	97.38
309.571	91.38
309.8	91.38
310.03	91.38
310.26	102.38
310.49	90.38
310.72	92.38
310.949	91.38
311.179	111.38
311.409	89.38
311.639	85.38
311.868	95.38
312.098	97.38
312.328	81.38
312.557	90.38
312.787	92.38
313.017	96.38
313.246	106.38
313.476	91.38
313.706	95.38
313.935	93.38
314.165	95.38
314.394	104.38
314.624	97.38
314.853	100.38
315.083	91.38
315.312	71.38
315.542	92.38
315.771	90.38
316.001	96.38
316.23	93.38
316.46	91.38
316.689	88.38
316.919	88.38
317.148	96.38
317.377	94.38
317.607	86.38
317.836	90.38
318.065	87.38
318.295	84.38
318.524	87.38
318.753	105.38
318.983	101.38
319.212	88.38
319.441	86.38
319.67	96.38
319.9	92.38
320.129	89.38
320.358	74.38
320.587	90.38
320.816	99.38
321.046	84.38
321.275	99.38
321.504	95.38
321.733	83.38
321.962	94.38
322.191	100.38
322.42	98.38
322.649	113.38
322.878	104.38
323.108	111.38
323.337	120.38
323.566	130.38
323.795	142.38
324.024	190.38
324.253	353.38
324.482	695.38
324.71	1406.38
324.939	1779.38
325.168	696.38
325.397	205.38
325.626	130.38
325.855	116.38
326.084	123.38
326.313	107.38
326.542	141.38
326.77	220.38
326.999	396.38
327.228	818.38
327.457	1382.38
327.686	1080.38
327.914	319.38
328.143	186.38
328.372	130.38
328.6	100.38
328.829	122.38
329.058	121.38
329.287	104.38
329.515	104.38
329.744	89.38
329.972	89.38
330.201	92.38
330.43	87.38
330.658	118.38
330.887	141.38
331.115	103.38
331.344	106.38
331.572	111.38
331.801	103.38
332.03	100.38
332.258	103.38
332.486	96.38
332.715	94.38
332.943	91.38
333.172	98.38
333.4	96.38
333.629	105.38
333.857	105.38
334.085	110.38
334.314	97.38
334.542	115.38
334.771	81.38
334.999	88.38
335.227	88.38
335.455	89.38
335.684	88.38
335.912	102.38
336.14	96.38
336.369	108.38
336.597	99.38
336.825	94.38
337.053	94.38
337.281	100.38
337.51	92.38
337.738	85.38
337.966	99.38
338.194	103.38
338.422	98.38
338.65	91.38
338.878	101.38
339.106	85.38
339.334	97.38
339.562	90.38
339.79	87.38
340.018	89.38
340.246	98.38
340.474	90.38
340.702	80.38
340.93	72.38
341.158	80.38
341.386	87.38
341.614	88.38
341.842	101.38
342.07	84.38
342.298	84.38
342.526	95.38
342.754	90.38
342.981	103.38
343.209	90.38
343.437	93.38
343.665	83.38
343.893	75.38
344.12	82.38
344.348	90.38
344.576	108.38
344.804	92.38
345.031	77.38
345.259	92.38
345.487	93.38
345.714	82.38
345.942	86.38
346.17	79.38
346.397	91.38
346.625	82.38
346.853	98.38
347.08	88.38
347.308	92.38
347.535	95.38
347.763	92.38
347.99	84.38
348.218	94.38
348.445	106.38
348.673	108.38
348.9	104.38
349.128	95.38
349.355	95.38
349.583	91.38
349.81	78.38
350.037	96.38
350.265	111.38
350.492	89.38
350.72	95.38
350.947	96.38
351.174	104.38
351.402	92.38
351.629	84.38
351.856	101.38
352.083	97.38
352.311	100.38
352.538	92.38
352.765	110.38
352.992	115.38
353.22	113.38
353.447	97.38
353.674	90.38
353.901	105.38
354.128	79.38
354.355	87.38
354.583	84.38
354.81	104.38
355.037	98.38
355.264	90.38
355.491	86.38
355.718	87.38
355.945	80.38
356.172	89.38
356.399	98.38
356.626	83.38
356.853	82.38
357.08	86.38
357.307	89.38
357.534	82.38
357.761	80.38
357.988	83.38
358.215	94.38
358.441	90.38
358.668	90.38
358.895	92.38
359.122	91.38
359.349	92.38
359.576	92.38
359.802	93.38
360.029	98.38
360.256	106.38
360.483	95.38
360.709	91.38
360.936	99.38
361.163	99.38
361.39	81.38
361.616	91.38
361.843	90.38
362.07	104.38
362.296	93.38
362.523	99.38
362.749	89.38
362.976	94.38
363.203	83.38
363.429	96.38
363.656	106.38
363.882	103.38
364.109	90.38
364.335	96.38
364.562	80.38
364.788	92.38
365.015	91.38
365.241	97.38
365.468	98.38
365.694	102.38
365.92	94.38
366.147	87.38
366.373	89.38
366.599	103.38
366.826	87.38
367.052	90.38
367.278	84.38
367.505	87.38
367.731	100.38
367.957	89.38
368.184	91.38
368.41	100.38
368.636	107.38
368.862	111.38
369.089	91.38
369.315	78.38
369.541	80.38
369.767	86.38
369.993	92.38
370.219	87.38
370.445	95.38
370.672	89.38
370.898	91.38
371.124	70.38
371.35	80.38
371.576	99.38
371.802	92.38
372.028	93.38
372.254	83.38
372.48	78.38
372.706	82.38
372.932	88.38
373.158	95.38
373.384	88.38
373.61	77.38
373.835	86.38
374.061	90.38
374.287	77.38
374.513	93.38
374.739	90.38
374.965	87.38
375.191	92.38
375.416	95.38
375.642	88.38
375.868	83.38
376.094	70.38
376.319	88.38
376.545	90.38
376.771	97.38
376.997	96.38
377.222	90.38
377.448	94.38
377.674	96.38
377.899	87.38
378.125	86.38
378.35	99.38
378.576	89.38
378.802	91.38
379.027	85.38
379.253	85.38
379.478	91.38
379.704	92.38
379.929	107.38
380.155	83.38
380.38	91.38
380.606	77.38
380.831	83.38
381.057	94.38
381.282	89.38
381.507	93.38
381.733	88.38
381.958	97.38
382.184	88.38
382.409	92.38
382.634	80.38
382.86	100.38
383.085	101.38
383.31	102.38
383.535	87.38
383.761	107.38
383.986	94.38
384.211	92.38
384.436	95.38
384.662	89.38
384.887	95.38
385.112	103.38
385.337	90.38
385.562	104.38
385.787	98.38
386.013	108.38
386.238	102.38
386.463	120.38
386.688	100.38
386.913	81.38
387.138	94.38
387.363	96.38
387.588	103.38
387.813	99.38
388.038	107.38
388.263	115.38
388.488	108.38
388.713	95.38
388.938	84.38
389.163	109.38
389.387	85.38
389.612	95.38
389.837	86.38
390.062	98.38
390.287	88.38
390.512	89.38
390.736	95.38
390.961	103.38
391.186	91.38
391.411	94.38
391.636	93.38
391.86	91.38
392.085	84.38
392.31	75.38
392.534	97.38
392.759	95.38
392.984	80.38
393.208	85.38
393.433	103.38
393.658	94.38
393.882	73.38
394.107	93.38
394.331	80.38
394.556	78.38
394.78	76.38
395.005	91.38
395.229	84.38
395.454	72.38
395.678	97.38
395.903	84.38
396.127	88.38
396.352	82.38
396.576	78.38
396.801	99.38
397.025	89.38
397.249	76.38
397.474	94.38
397.698	91.38
397.922	83.38
398.147	93.38
398.371	85.38
398.595	78.38
398.82	90.38
399.044	82.38
399.268	93.38
399.492	91.38
399.717	107.38
399.941	89.38
400.165	87.38
400.389	82.38
400.613	77.38
400.837	86.38
401.062	90.38
401.286	95.38
401.51	92.38
401.734	89.38
401.958	95.38
402.182	112.38
402.406	154.38
402.63	106.38
402.854	84.38
403.078	96.38
403.302	84.38
403.526	100.38
403.75	82.38
403.974	75.38
404.198	78.38
404.422	87.38
404.645	82.38
404.869	86.38
405.093	92.38
405.317	88.38
405.541	99.38
405.765	110.38
405.988	128.38
406.212	175.38
406.436	234.38
406.66	139.38
406.883	94.38
407.107	81.38
407.331	101.38
407.555	88.38
407.778	85.38
408.002	81.38
408.226	73.38
408.449	101.38
408.673	79.38
408.896	73.38
409.12	107.38
409.344	88.38
409.567	77.38
409.791	99.38
410.014	96.38
410.238	90.38
410.461	86.38
410.685	89.38
410.908	80.38
411.132	97.38
411.355	106.38
411.578	95.38
411.802	91.38
412.025	89.38
412.249	83.38
412.472	87.38
412.695	93.38
412.919	91.38
413.142	91.38
413.365	85.38
413.589	87.38
413.812	88.38
414.035	91.38
414.258	92.38
414.482	83.38
414.705	99.38
414.928	76.38
415.151	81.38
415.374	108.38
415.597	90.38
415.821	102.38
416.044	89.38
416.267	90.38
416.49	82.38
416.713	82.38
416.936	78.38
417.159	93.38
417.382	83.38
417.605	82.38
417.828	92.38
418.051	82.38
418.274	75.38
418.497	80.38
418.72	88.38
418.943	82.38
419.166	78.38
419.389	103.38
419.611	89.38
419.834	87.38
420.057	95.38
420.28	81.38
420.503	81.38
420.726	89.38
420.948	75.38
421.171	86.38
421.394	87.38
421.617	104.38
421.839	95.38
422.062	94.38
422.285	92.38
422.507	95.38
422.73	103.38
422.953	87.38
423.175	84.38
423.398	94.38
423.621	84.38
423.843	84.38
424.066	83.38
424.288	66.38
424.511	86.38
424.733	92.38
424.956	88.38
425.178	92.38
425.401	91.38
425.623	84.38
425.846	65.38
426.068	88.38
426.291	88.38
426.513	91.38
426.735	84.38
426.958	98.38
427.18	95.38
427.402	134.38
427.625	142.38
427.847	109.38
428.069	96.38
428.292	79.38
428.514	92.38
428.736	80.38
428.958	89.38
429.181	83.38
429.403	92.38
429.625	82.38
429.847	96.38
430.069	94.38
430.292	97.38
430.514	86.38
430.736	98.38
430.958	86.38
431.18	78.38
431.402	88.38
431.624	86.38
431.846	73.38
432.068	90.38
432.29	90.38
432.512	96.38
432.734	68.38
432.956	83.38
433.178	99.38
433.4	98.38
433.622	79.38
433.844	82.38
434.066	80.38
434.287	87.38
434.509	79.38
434.731	75.38
434.953	83.38
435.175	74.38
435.397	82.38
435.618	82.38
435.84	96.38
436.062	109.38
436.284	105.38
436.505	96.38
436.727	104.38
436.949	85.38
437.17	87.38
437.392	80.38
437.614	88.38
437.835	103.38
438.057	86.38
438.278	110.38
438.5	109.38
438.721	119.38
438.943	79.38
439.165	96.38
439.386	84.38
439.608	93.38
439.829	103.38
440.05	121.38
440.272	138.38
440.493	96.38
440.715	86.38
440.936	90.38
441.158	82.38
441.379	86.38
441.6	97.38
441.822	90.38
442.043	95.38
442.264	88.38
442.486	81.38
442.707	109.38
442.928	109.38
443.149	130.38
443.371	123.38
443.592	113.38
443.813	122.38
444.034	106.38
444.255	99.38
444.476	93.38
444.698	80.38
444.919	91.38
445.14	115.38
445.361	106.38
445.582	109.38
445.803	114.38
446.024	124.38
446.245	113.38
446.466	106.38
446.687	94.38
446.908	81.38
447.129	80.38
447.35	87.38
447.571	78.38
447.792	92.38
448.013	91.38
448.234	95.38
448.455	92.38
448.675	99.38
448.896	109.38
449.117	90.38
449.338	98.38
449.559	100.38
449.779	123.38
450	97.38
450.221	82.38
450.442	100.38
450.662	96.38
450.883	105.38
451.104	104.38
451.324	96.38
451.545	83.38
451.766	87.38
451.986	78.38
452.207	92.38
452.428	82.38
452.648	94.38
452.869	94.38
453.089	105.38
453.31	109.38
453.53	89.38
453.751	84.38
453.971	91.38
454.192	100.38
454.412	82.38
454.633	96.38
454.853	97.38
455.073	101.38
455.294	87.38
455.514	102.38
455.734	82.38
455.955	84.38
456.175	82.38
456.395	78.38
456.616	79.38
456.836	84.38
457.056	83.38
457.276	80.38
457.497	92.38
457.717	97.38
457.937	88.38
458.157	81.38
458.377	93.38
458.598	101.38
458.818	144.38
459.038	153.38
459.258	106.38
459.478	88.38
459.698	75.38
459.918	102.38
460.138	77.38
460.358	99.38
460.578	88.38
460.798	97.38
461.018	88.38
461.238	95.38
461.458	89.38
461.678	98.38
461.898	90.38
462.118	81.38
462.338	87.38
462.558	90.38
462.777	84.38
462.997	66.38
463.217	79.38
463.437	87.38
463.657	90.38
463.876	70.38
464.096	72.38
464.316	91.38
464.536	98.38
464.755	97.38
464.975	116.38
465.195	142.38
465.414	161.38
465.634	89.38
465.854	110.38
466.073	89.38
466.293	92.38
466.512	79.38
466.732	86.38
466.951	98.38
467.171	96.38
467.391	80.38
467.61	105.38
467.829	96.38
468.049	89.38
468.268	78.38
468.488	79.38
468.707	88.38
468.927	83.38
469.146	79.38
469.365	74.38
469.585	83.38
469.804	80.38
470.023	83.38
470.243	92.38
470.462	96.38
470.681	111.38
470.901	104.38
471.12	90.38
471.339	83.38
471.558	93.38
471.777	92.38
471.997	98.38
472.216	89.38
472.435	94.38
472.654	94.38
472.873	76.38
473.092	83.38
473.311	95.38
473.53	91.38
473.749	90.38
473.968	96.38
474.187	111.38
474.406	89.38
474.625	80.38
474.844	94.38
475.063	79.38
475.282	98.38
475.501	83.38
475.72	85.38
475.939	79.38
476.158	82.38
476.377	84.38
476.596	96.38
476.814	97.38
477.033	72.38
477.252	85.38
477.471	97.38
477.69	98.38
477.908	96.38
478.127	87.38
478.346	90.38
478.564	96.38
478.783	100.38
479.002	95.38
479.22	89.38
479.439	108.38
479.658	89.38
479.876	81.38
480.095	92.38
480.313	90.38
480.532	84.38
480.751	87.38
480.969	87.38
481.188	90.38
481.406	107.38
481.624	78.38
481.843	86.38
482.061	89.38
482.28	96.38
482.498	91.38
482.717	77.38
482.935	86.38
483.153	91.38
483.372	77.38
483.59	70.38
483.808	89.38
484.027	100.38
484.245	87.38
484.463	89.38
484.681	80.38
484.9	102.38
485.118	77.38
485.336	102.38
485.554	91.38
485.772	98.38
485.99	90.38
486.209	110.38
486.427	96.38
486.645	99.38
486.863	114.38
487.081	94.38
487.299	99.38
487.517	103.38
487.735	87.38
487.953	86.38
488.171	103.38
488.389	108.38
488.607	86.38
488.825	88.38
489.043	67.38
489.261	78.38
489.479	89.38
489.696	89.38
489.914	88.38
490.132	74.38
490.35	76.38
490.568	81.38
490.786	97.38
491.003	95.38
491.221	81.38
491.439	94.38
491.657	94.38
491.874	90.38
492.092	91.38
492.31	85.38
492.527	85.38
492.745	74.38
492.963	86.38
493.18	78.38
493.398	80.38
493.615	95.38
493.833	98.38
494.05	90.38
494.268	101.38
494.485	92.38
494.703	85.38
494.92	79.38
495.138	87.38
495.355	93.38
495.573	80.38
495.79	80.38
496.008	90.38
496.225	83.38
496.442	83.38
496.66	88.38
496.877	77.38
497.094	95.38
497.312	77.38
497.529	90.38
497.746	100.38
497.963	98.38
498.181	92.38
498.398	82.38
498.615	98.38
498.832	92.38
499.049	81.38
499.267	88.38
499.484	99.38
499.701	94.38
499.918	89.38
500.135	86.38
500.352	97.38
500.569	99.38
500.786	82.38
501.003	76.38
501.22	94.38
501.437	80.38
501.654	107.38
501.871	90.38
502.088	95.38
502.305	98.38
502.522	91.38
502.739	82.38
502.956	100.38
503.172	84.38
503.389	96.38
503.606	103.38
503.823	94.38
504.04	91.38
504.256	102.38
504.473	96.38
504.69	103.38
504.907	89.38
505.123	83.38
505.34	81.38
505.557	86.38
505.773	79.38
505.99	104.38
506.207	89.38
506.423	77.38
506.64	80.38
506.856	82.38
507.073	83.38
507.289	102.38
507.506	99.38
507.722	117.38
507.939	110.38
508.155	91.38
508.372	98.38
508.588	94.38
508.805	89.38
509.021	109.38
509.238	108.38
509.454	98.38
509.67	88.38
509.887	116.38
510.103	125.38
510.319	202.38
510.536	737.38
510.752	2307.38
510.968	630.38
511.184	158.38
511.401	113.38
511.617	80.38
511.833	96.38
512.049	82.38
512.265	94.38
512.481	83.38
512.698	92.38
512.914	81.38
513.13	92.38
513.346	95.38
513.562	97.38
513.778	107.38
513.994	104.38
514.21	106.38
514.426	119.38
514.642	128.38
514.858	129.38
515.074	150.38
515.29	460.38
515.506	1443.38
515.721	491.38
515.937	139.38
516.153	106.38
516.369	95.38
516.585	82.38
516.801	83.38
