Data from Uncirc_2001_H10_HRD10591_00062.txt Node
Date: Wed Jan 03 10:44:09 EST 2024
User: Yrep
Spectrometer: HR+D1059
Trigger mode: 1
Integration Time (sec): 1.000000E-1
Scans to average: 1
Electric dark correction enabled: true
Nonlinearity correction enabled: false
Boxcar width: 0
XAxis mode: Wavelengths
Number of Pixels in Spectrum: 2048
>>>>>Begin Spectral Data<<<<<
223.165	-23.25
223.4	-23.25
223.635	-23.25
223.869	-17.25
224.104	-23.25
224.338	-25.25
224.573	-7.25
224.808	-18.25
225.042	-11.25
225.277	-4.25
225.511	15.75
225.746	0.75
225.98	16.75
226.215	18.75
226.449	12.75
226.683	15.75
226.918	19.75
227.152	29.75
227.387	39.75
227.621	37.75
227.856	53.75
228.09	43.75
228.324	37.75
228.559	71.75
228.793	57.75
229.027	52.75
229.262	82.75
229.496	79.75
229.73	82.75
229.964	84.75
230.199	69.75
230.433	71.75
230.667	76.75
230.901	64.75
231.136	69.75
231.37	91.75
231.604	80.75
231.838	81.75
232.072	73.75
232.306	79.75
232.541	78.75
232.775	77.75
233.009	75.75
233.243	73.75
233.477	74.75
233.711	75.75
233.945	82.75
234.179	92.75
234.413	80.75
234.647	91.75
234.881	76.75
235.115	73.75
235.349	83.75
235.583	82.75
235.817	82.75
236.051	74.75
236.285	79.75
236.519	95.75
236.753	80.75
236.987	89.75
237.221	91.75
237.455	73.75
237.689	73.75
237.922	67.75
238.156	73.75
238.39	71.75
238.624	65.75
238.858	74.75
239.091	77.75
239.325	76.75
239.559	79.75
239.793	83.75
240.027	58.75
240.26	85.75
240.494	69.75
240.728	80.75
240.961	87.75
241.195	69.75
241.429	79.75
241.662	79.75
241.896	82.75
242.13	81.75
242.363	71.75
242.597	65.75
242.83	58.75
243.064	75.75
243.298	71.75
243.531	71.75
243.765	84.75
243.998	93.75
244.232	75.75
244.465	68.75
244.699	75.75
244.932	78.75
245.166	75.75
245.399	80.75
245.633	83.75
245.866	78.75
246.099	92.75
246.333	79.75
246.566	72.75
246.8	83.75
247.033	73.75
247.266	76.75
247.5	77.75
247.733	87.75
247.966	81.75
248.2	67.75
248.433	80.75
248.666	82.75
248.899	88.75
249.133	97.75
249.366	86.75
249.599	86.75
249.832	90.75
250.066	83.75
250.299	82.75
250.532	74.75
250.765	83.75
250.998	99.75
251.231	81.75
251.465	91.75
251.698	80.75
251.931	72.75
252.164	88.75
252.397	86.75
252.63	82.75
252.863	88.75
253.096	73.75
253.329	80.75
253.562	82.75
253.795	75.75
254.028	76.75
254.261	77.75
254.494	83.75
254.727	83.75
254.96	84.75
255.193	77.75
255.426	79.75
255.659	85.75
255.892	87.75
256.124	81.75
256.357	82.75
256.59	76.75
256.823	70.75
257.056	61.75
257.289	69.75
257.521	73.75
257.754	77.75
257.987	87.75
258.22	82.75
258.452	78.75
258.685	68.75
258.918	64.75
259.151	78.75
259.383	77.75
259.616	78.75
259.849	83.75
260.081	84.75
260.314	88.75
260.547	72.75
260.779	92.75
261.012	74.75
261.244	88.75
261.477	84.75
261.71	112.75
261.942	109.75
262.175	111.75
262.407	93.75
262.64	81.75
262.872	87.75
263.105	83.75
263.337	69.75
263.57	80.75
263.802	78.75
264.035	87.75
264.267	69.75
264.499	70.75
264.732	87.75
264.964	85.75
265.197	78.75
265.429	98.75
265.661	84.75
265.894	80.75
266.126	90.75
266.358	87.75
266.591	66.75
266.823	77.75
267.055	60.75
267.287	83.75
267.52	82.75
267.752	82.75
267.984	80.75
268.216	81.75
268.448	77.75
268.681	80.75
268.913	76.75
269.145	100.75
269.377	88.75
269.609	69.75
269.841	93.75
270.073	78.75
270.306	75.75
270.538	88.75
270.77	88.75
271.002	87.75
271.234	84.75
271.466	83.75
271.698	95.75
271.93	86.75
272.162	85.75
272.394	94.75
272.626	79.75
272.858	71.75
273.09	80.75
273.322	73.75
273.553	92.75
273.785	65.75
274.017	72.75
274.249	74.75
274.481	80.75
274.713	87.75
274.945	80.75
275.176	75.75
275.408	82.75
275.64	79.75
275.872	82.75
276.104	88.75
276.335	90.75
276.567	96.75
276.799	98.75
277.031	79.75
277.262	90.75
277.494	86.75
277.726	100.75
277.957	75.75
278.189	88.75
278.421	79.75
278.652	89.75
278.884	74.75
279.115	86.75
279.347	73.75
279.579	88.75
279.81	81.75
280.042	79.75
280.273	93.75
280.505	103.75
280.736	82.75
280.968	83.75
281.199	73.75
281.431	85.75
281.662	92.75
281.894	88.75
282.125	89.75
282.356	108.75
282.588	143.75
282.819	107.75
283.051	89.75
283.282	83.75
283.513	97.75
283.745	80.75
283.976	97.75
284.207	80.75
284.439	92.75
284.67	77.75
284.901	96.75
285.132	77.75
285.364	78.75
285.595	78.75
285.826	79.75
286.057	99.75
286.288	84.75
286.52	84.75
286.751	92.75
286.982	82.75
287.213	87.75
287.444	77.75
287.675	80.75
287.906	92.75
288.138	90.75
288.369	98.75
288.6	92.75
288.831	96.75
289.062	81.75
289.293	81.75
289.524	89.75
289.755	76.75
289.986	89.75
290.217	81.75
290.448	98.75
290.679	87.75
290.91	83.75
291.141	80.75
291.371	73.75
291.602	97.75
291.833	96.75
292.064	74.75
292.295	88.75
292.526	87.75
292.757	81.75
292.987	85.75
293.218	81.75
293.449	86.75
293.68	88.75
293.91	74.75
294.141	95.75
294.372	98.75
294.603	79.75
294.833	79.75
295.064	85.75
295.295	85.75
295.525	94.75
295.756	101.75
295.987	123.75
296.217	140.75
296.448	119.75
296.679	97.75
296.909	93.75
297.14	98.75
297.37	79.75
297.601	91.75
297.831	88.75
298.062	88.75
298.292	97.75
298.523	89.75
298.753	87.75
298.984	80.75
299.214	82.75
299.445	92.75
299.675	84.75
299.905	108.75
300.136	88.75
300.366	81.75
300.597	90.75
300.827	94.75
301.057	104.75
301.288	85.75
301.518	89.75
301.748	98.75
301.979	106.75
302.209	88.75
302.439	92.75
302.669	92.75
302.9	90.75
303.13	90.75
303.36	91.75
303.59	102.75
303.82	96.75
304.051	91.75
304.281	97.75
304.511	86.75
304.741	90.75
304.971	94.75
305.201	73.75
305.431	91.75
305.661	87.75
305.891	84.75
306.121	105.75
306.352	93.75
306.582	96.75
306.812	98.75
307.042	99.75
307.272	91.75
307.502	86.75
307.731	84.75
307.961	83.75
308.191	92.75
308.421	88.75
308.651	81.75
308.881	91.75
309.111	92.75
309.341	76.75
309.571	90.75
309.8	95.75
310.03	83.75
310.26	105.75
310.49	105.75
310.72	106.75
310.949	102.75
311.179	96.75
311.409	88.75
311.639	80.75
311.868	75.75
312.098	88.75
312.328	93.75
312.557	117.75
312.787	99.75
313.017	92.75
313.246	105.75
313.476	80.75
313.706	98.75
313.935	103.75
314.165	89.75
314.394	90.75
314.624	95.75
314.853	100.75
315.083	89.75
315.312	83.75
315.542	85.75
315.771	95.75
316.001	89.75
316.23	95.75
316.46	92.75
316.689	83.75
316.919	87.75
317.148	95.75
317.377	84.75
317.607	97.75
317.836	92.75
318.065	87.75
318.295	92.75
318.524	86.75
318.753	91.75
318.983	103.75
319.212	90.75
319.441	100.75
319.67	101.75
319.9	102.75
320.129	82.75
320.358	101.75
320.587	97.75
320.816	108.75
321.046	99.75
321.275	93.75
321.504	105.75
321.733	90.75
321.962	99.75
322.191	106.75
322.42	105.75
322.649	118.75
322.878	106.75
323.108	118.75
323.337	127.75
323.566	131.75
323.795	143.75
324.024	195.75
324.253	362.75
324.482	781.75
324.71	1561.75
324.939	1971.75
325.168	726.75
325.397	227.75
325.626	131.75
325.855	144.75
326.084	128.75
326.313	119.75
326.542	145.75
326.77	226.75
326.999	429.75
327.228	876.75
327.457	1553.75
327.686	1194.75
327.914	325.75
328.143	180.75
328.372	145.75
328.6	129.75
328.829	117.75
329.058	132.75
329.287	119.75
329.515	107.75
329.744	104.75
329.972	92.75
330.201	109.75
330.43	109.75
330.658	119.75
330.887	143.75
331.115	113.75
331.344	97.75
331.572	105.75
331.801	118.75
332.03	115.75
332.258	86.75
332.486	95.75
332.715	79.75
332.943	103.75
333.172	103.75
333.4	101.75
333.629	96.75
333.857	112.75
334.085	109.75
334.314	96.75
334.542	101.75
334.771	100.75
334.999	96.75
335.227	95.75
335.455	83.75
335.684	92.75
335.912	97.75
336.14	92.75
336.369	88.75
336.597	92.75
336.825	99.75
337.053	90.75
337.281	108.75
337.51	103.75
337.738	76.75
337.966	90.75
338.194	86.75
338.422	92.75
338.65	84.75
338.878	82.75
339.106	95.75
339.334	86.75
339.562	87.75
339.79	95.75
340.018	83.75
340.246	78.75
340.474	96.75
340.702	92.75
340.93	86.75
341.158	97.75
341.386	92.75
341.614	88.75
341.842	95.75
342.07	90.75
342.298	98.75
342.526	85.75
342.754	74.75
342.981	83.75
343.209	93.75
343.437	99.75
343.665	85.75
343.893	89.75
344.12	109.75
344.348	84.75
344.576	82.75
344.804	78.75
345.031	98.75
345.259	102.75
345.487	100.75
345.714	81.75
345.942	87.75
346.17	91.75
346.397	96.75
346.625	92.75
346.853	102.75
347.08	81.75
347.308	91.75
347.535	74.75
347.763	95.75
347.99	100.75
348.218	98.75
348.445	109.75
348.673	96.75
348.9	88.75
349.128	92.75
349.355	96.75
349.583	92.75
349.81	93.75
350.037	91.75
350.265	91.75
350.492	89.75
350.72	107.75
350.947	101.75
351.174	97.75
351.402	104.75
351.629	114.75
351.856	100.75
352.083	105.75
352.311	117.75
352.538	129.75
352.765	82.75
352.992	109.75
353.22	109.75
353.447	108.75
353.674	114.75
353.901	98.75
354.128	93.75
354.355	85.75
354.583	93.75
354.81	91.75
355.037	100.75
355.264	92.75
355.491	77.75
355.718	92.75
355.945	81.75
356.172	73.75
356.399	97.75
356.626	80.75
356.853	96.75
357.08	103.75
357.307	91.75
357.534	88.75
357.761	100.75
357.988	85.75
358.215	84.75
358.441	84.75
358.668	87.75
358.895	81.75
359.122	94.75
359.349	64.75
359.576	106.75
359.802	97.75
360.029	106.75
360.256	119.75
360.483	101.75
360.709	81.75
360.936	97.75
361.163	100.75
361.39	101.75
361.616	91.75
361.843	93.75
362.07	91.75
362.296	105.75
362.523	102.75
362.749	73.75
362.976	83.75
363.203	90.75
363.429	84.75
363.656	95.75
363.882	79.75
364.109	91.75
364.335	82.75
364.562	91.75
364.788	96.75
365.015	101.75
365.241	94.75
365.468	104.75
365.694	110.75
365.92	102.75
366.147	92.75
366.373	90.75
366.599	88.75
366.826	92.75
367.052	92.75
367.278	91.75
367.505	103.75
367.731	102.75
367.957	94.75
368.184	88.75
368.41	113.75
368.636	116.75
368.862	120.75
369.089	88.75
369.315	95.75
369.541	78.75
369.767	96.75
369.993	86.75
370.219	99.75
370.445	72.75
370.672	82.75
370.898	87.75
371.124	81.75
371.35	81.75
371.576	92.75
371.802	99.75
372.028	89.75
372.254	94.75
372.48	75.75
372.706	86.75
372.932	83.75
373.158	93.75
373.384	97.75
373.61	90.75
373.835	75.75
374.061	81.75
374.287	90.75
374.513	82.75
374.739	92.75
374.965	87.75
375.191	85.75
375.416	75.75
375.642	96.75
375.868	91.75
376.094	95.75
376.319	90.75
376.545	69.75
376.771	85.75
376.997	88.75
377.222	88.75
377.448	97.75
377.674	79.75
377.899	94.75
378.125	97.75
378.35	96.75
378.576	91.75
378.802	97.75
379.027	74.75
379.253	95.75
379.478	105.75
379.704	89.75
379.929	89.75
380.155	82.75
380.38	95.75
380.606	87.75
380.831	89.75
381.057	99.75
381.282	100.75
381.507	91.75
381.733	101.75
381.958	91.75
382.184	106.75
382.409	89.75
382.634	100.75
382.86	93.75
383.085	96.75
383.31	92.75
383.535	102.75
383.761	96.75
383.986	104.75
384.211	93.75
384.436	86.75
384.662	103.75
384.887	86.75
385.112	90.75
385.337	101.75
385.562	101.75
385.787	103.75
386.013	90.75
386.238	124.75
386.463	98.75
386.688	108.75
386.913	108.75
387.138	108.75
387.363	98.75
387.588	96.75
387.813	100.75
388.038	103.75
388.263	99.75
388.488	106.75
388.713	97.75
388.938	97.75
389.163	95.75
389.387	88.75
389.612	100.75
389.837	95.75
390.062	93.75
390.287	81.75
390.512	86.75
390.736	93.75
390.961	84.75
391.186	102.75
391.411	88.75
391.636	92.75
391.86	93.75
392.085	88.75
392.31	97.75
392.534	90.75
392.759	85.75
392.984	93.75
393.208	96.75
393.433	92.75
393.658	72.75
393.882	81.75
394.107	88.75
394.331	81.75
394.556	81.75
394.78	86.75
395.005	89.75
395.229	87.75
395.454	77.75
395.678	94.75
395.903	76.75
396.127	77.75
396.352	80.75
396.576	99.75
396.801	104.75
397.025	84.75
397.249	81.75
397.474	89.75
397.698	90.75
397.922	95.75
398.147	92.75
398.371	92.75
398.595	88.75
398.82	104.75
399.044	87.75
399.268	87.75
399.492	78.75
399.717	82.75
399.941	93.75
400.165	87.75
400.389	93.75
400.613	85.75
400.837	86.75
401.062	91.75
401.286	86.75
401.51	91.75
401.734	88.75
401.958	93.75
402.182	135.75
402.406	163.75
402.63	106.75
402.854	88.75
403.078	96.75
403.302	86.75
403.526	84.75
403.75	72.75
403.974	90.75
404.198	80.75
404.422	71.75
404.645	92.75
404.869	101.75
405.093	91.75
405.317	98.75
405.541	91.75
405.765	85.75
405.988	118.75
406.212	180.75
406.436	225.75
406.66	137.75
406.883	103.75
407.107	90.75
407.331	105.75
407.555	103.75
407.778	96.75
408.002	93.75
408.226	93.75
408.449	85.75
408.673	95.75
408.896	88.75
409.12	83.75
409.344	84.75
409.567	87.75
409.791	82.75
410.014	91.75
410.238	101.75
410.461	87.75
410.685	104.75
410.908	100.75
411.132	88.75
411.355	106.75
411.578	100.75
411.802	93.75
412.025	78.75
412.249	90.75
412.472	88.75
412.695	89.75
412.919	84.75
413.142	86.75
413.365	89.75
413.589	91.75
413.812	94.75
414.035	80.75
414.258	87.75
414.482	79.75
414.705	89.75
414.928	88.75
415.151	87.75
415.374	76.75
415.597	77.75
415.821	86.75
416.044	82.75
416.267	98.75
416.49	86.75
416.713	81.75
416.936	87.75
417.159	73.75
417.382	86.75
417.605	86.75
417.828	98.75
418.051	90.75
418.274	86.75
418.497	101.75
418.72	82.75
418.943	82.75
419.166	87.75
419.389	86.75
419.611	93.75
419.834	91.75
420.057	80.75
420.28	76.75
420.503	76.75
420.726	89.75
420.948	69.75
421.171	84.75
421.394	88.75
421.617	83.75
421.839	78.75
422.062	85.75
422.285	77.75
422.507	97.75
422.73	107.75
422.953	84.75
423.175	97.75
423.398	91.75
423.621	86.75
423.843	92.75
424.066	89.75
424.288	84.75
424.511	92.75
424.733	106.75
424.956	109.75
425.178	97.75
425.401	91.75
425.623	93.75
425.846	90.75
426.068	91.75
426.291	79.75
426.513	84.75
426.735	88.75
426.958	97.75
427.18	101.75
427.402	130.75
427.625	167.75
427.847	125.75
428.069	108.75
428.292	87.75
428.514	91.75
428.736	80.75
428.958	74.75
429.181	85.75
429.403	74.75
429.625	69.75
429.847	92.75
430.069	99.75
430.292	81.75
430.514	85.75
430.736	80.75
430.958	83.75
431.18	90.75
431.402	87.75
431.624	74.75
431.846	79.75
432.068	90.75
432.29	83.75
432.512	100.75
432.734	92.75
432.956	102.75
433.178	84.75
433.4	103.75
433.622	91.75
433.844	97.75
434.066	89.75
434.287	90.75
434.509	92.75
434.731	98.75
434.953	79.75
435.175	88.75
435.397	94.75
435.618	92.75
435.84	99.75
436.062	120.75
436.284	118.75
436.505	98.75
436.727	86.75
436.949	87.75
437.17	92.75
437.392	89.75
437.614	92.75
437.835	104.75
438.057	129.75
438.278	95.75
438.5	104.75
438.721	122.75
438.943	96.75
439.165	84.75
439.386	98.75
439.608	90.75
439.829	98.75
440.05	115.75
440.272	127.75
440.493	91.75
440.715	76.75
440.936	83.75
441.158	75.75
441.379	80.75
441.6	92.75
441.822	102.75
442.043	93.75
442.264	83.75
442.486	116.75
442.707	85.75
442.928	106.75
443.149	131.75
443.371	122.75
443.592	97.75
443.813	112.75
444.034	108.75
444.255	86.75
444.476	94.75
444.698	80.75
444.919	100.75
445.14	128.75
445.361	114.75
445.582	123.75
445.803	148.75
446.024	135.75
446.245	120.75
446.466	109.75
446.687	90.75
446.908	88.75
447.129	89.75
447.35	83.75
447.571	89.75
447.792	91.75
448.013	88.75
448.234	107.75
448.455	85.75
448.675	116.75
448.896	115.75
449.117	89.75
449.338	99.75
449.559	130.75
449.779	109.75
450	103.75
450.221	86.75
450.442	71.75
450.662	85.75
450.883	116.75
451.104	127.75
451.324	93.75
451.545	101.75
451.766	93.75
451.986	82.75
452.207	83.75
452.428	85.75
452.648	91.75
452.869	116.75
453.089	111.75
453.31	110.75
453.53	102.75
453.751	97.75
453.971	98.75
454.192	108.75
454.412	85.75
454.633	75.75
454.853	88.75
455.073	82.75
455.294	75.75
455.514	82.75
455.734	100.75
455.955	91.75
456.175	103.75
456.395	92.75
456.616	88.75
456.836	78.75
457.056	79.75
457.276	86.75
457.497	85.75
457.717	74.75
457.937	85.75
458.157	79.75
458.377	84.75
458.598	113.75
458.818	160.75
459.038	152.75
459.258	111.75
459.478	82.75
459.698	79.75
459.918	89.75
460.138	96.75
460.358	101.75
460.578	91.75
460.798	83.75
461.018	90.75
461.238	88.75
461.458	84.75
461.678	93.75
461.898	67.75
462.118	83.75
462.338	98.75
462.558	78.75
462.777	75.75
462.997	98.75
463.217	92.75
463.437	82.75
463.657	86.75
463.876	91.75
464.096	71.75
464.316	86.75
464.536	102.75
464.755	87.75
464.975	99.75
465.195	170.75
465.414	157.75
465.634	83.75
465.854	100.75
466.073	84.75
466.293	88.75
466.512	84.75
466.732	87.75
466.951	83.75
467.171	73.75
467.391	67.75
467.61	95.75
467.829	96.75
468.049	85.75
468.268	79.75
468.488	99.75
468.707	83.75
468.927	82.75
469.146	73.75
469.365	87.75
469.585	92.75
469.804	102.75
470.023	87.75
470.243	80.75
470.462	92.75
470.681	99.75
470.901	86.75
471.12	85.75
471.339	88.75
471.558	65.75
471.777	88.75
471.997	79.75
472.216	83.75
472.435	88.75
472.654	84.75
472.873	66.75
473.092	90.75
473.311	89.75
473.53	83.75
473.749	75.75
473.968	101.75
474.187	102.75
474.406	107.75
474.625	92.75
474.844	84.75
475.063	87.75
475.282	89.75
475.501	100.75
475.72	94.75
475.939	79.75
476.158	90.75
476.377	92.75
476.596	102.75
476.814	92.75
477.033	93.75
477.252	100.75
477.471	84.75
477.69	89.75
477.908	85.75
478.127	80.75
478.346	82.75
478.564	82.75
478.783	97.75
479.002	94.75
479.22	89.75
479.439	104.75
479.658	104.75
479.876	89.75
480.095	90.75
480.313	85.75
480.532	83.75
480.751	78.75
480.969	87.75
481.188	105.75
481.406	101.75
481.624	93.75
481.843	88.75
482.061	69.75
482.28	89.75
482.498	95.75
482.717	82.75
482.935	88.75
483.153	92.75
483.372	97.75
483.59	75.75
483.808	103.75
484.027	93.75
484.245	101.75
484.463	94.75
484.681	110.75
484.9	87.75
485.118	86.75
485.336	82.75
485.554	100.75
485.772	98.75
485.99	97.75
486.209	98.75
486.427	95.75
486.645	116.75
486.863	115.75
487.081	92.75
487.299	95.75
487.517	93.75
487.735	89.75
487.953	101.75
488.171	96.75
488.389	98.75
488.607	100.75
488.825	86.75
489.043	99.75
489.261	92.75
489.479	86.75
489.696	99.75
489.914	82.75
490.132	97.75
490.35	80.75
490.568	99.75
490.786	86.75
491.003	85.75
491.221	93.75
491.439	103.75
491.657	88.75
491.874	72.75
492.092	92.75
492.31	81.75
492.527	87.75
492.745	77.75
492.963	91.75
493.18	90.75
493.398	88.75
493.615	104.75
493.833	93.75
494.05	103.75
494.268	99.75
494.485	87.75
494.703	93.75
494.92	92.75
495.138	84.75
495.355	87.75
495.573	80.75
495.79	88.75
496.008	99.75
496.225	90.75
496.442	95.75
496.66	91.75
496.877	84.75
497.094	107.75
497.312	106.75
497.529	98.75
497.746	96.75
497.963	101.75
498.181	99.75
498.398	93.75
498.615	108.75
498.832	88.75
499.049	90.75
499.267	90.75
499.484	81.75
499.701	88.75
499.918	85.75
500.135	84.75
500.352	81.75
500.569	92.75
500.786	70.75
501.003	91.75
501.22	105.75
501.437	82.75
501.654	98.75
501.871	89.75
502.088	95.75
502.305	98.75
502.522	77.75
502.739	96.75
502.956	88.75
503.172	87.75
503.389	96.75
503.606	101.75
503.823	102.75
504.04	97.75
504.256	88.75
504.473	93.75
504.69	88.75
504.907	91.75
505.123	88.75
505.34	91.75
505.557	87.75
505.773	96.75
505.99	76.75
506.207	87.75
506.423	81.75
506.64	90.75
506.856	111.75
507.073	87.75
507.289	97.75
507.506	90.75
507.722	104.75
507.939	119.75
508.155	88.75
508.372	88.75
508.588	85.75
508.805	95.75
509.021	95.75
509.238	100.75
509.454	93.75
509.67	107.75
509.887	120.75
510.103	137.75
510.319	225.75
510.536	773.75
510.752	2380.75
510.968	657.75
511.184	147.75
511.401	106.75
511.617	96.75
511.833	89.75
512.049	86.75
512.265	80.75
512.481	83.75
512.698	78.75
512.914	88.75
513.13	86.75
513.346	103.75
513.562	105.75
513.778	103.75
513.994	89.75
514.21	118.75
514.426	121.75
514.642	140.75
514.858	121.75
515.074	161.75
515.29	481.75
515.506	1552.75
515.721	574.75
515.937	153.75
516.153	116.75
