Data from Uncirc_2001_H10_HRD10591_00091.txt Node
Date: Wed Jan 03 10:44:15 EST 2024
User: Yrep
Spectrometer: HR+D1059
Trigger mode: 1
Integration Time (sec): 1.000000E-1
Scans to average: 1
Electric dark correction enabled: true
Nonlinearity correction enabled: false
Boxcar width: 0
XAxis mode: Wavelengths
Number of Pixels in Spectrum: 2048
>>>>>Begin Spectral Data<<<<<
223.165	-19.56
223.4	-19.56
223.635	-19.56
223.869	-10.56
224.104	-20.56
224.338	-24.56
224.573	-17.56
224.808	-19.56
225.042	3.44
225.277	-1.56
225.511	-1.56
225.746	5.44
225.98	7.44
226.215	9.44
226.449	2.44
226.683	20.44
226.918	29.44
227.152	37.44
227.387	34.44
227.621	35.44
227.856	39.44
228.09	43.44
228.324	38.44
228.559	47.44
228.793	50.44
229.027	75.44
229.262	78.44
229.496	78.44
229.73	89.44
229.964	84.44
230.199	81.44
230.433	78.44
230.667	79.44
230.901	81.44
231.136	74.44
231.37	72.44
231.604	70.44
231.838	73.44
232.072	89.44
232.306	78.44
232.541	79.44
232.775	88.44
233.009	81.44
233.243	78.44
233.477	58.44
233.711	73.44
233.945	70.44
234.179	74.44
234.413	68.44
234.647	102.44
234.881	76.44
235.115	81.44
235.349	63.44
235.583	75.44
235.817	78.44
236.051	59.44
236.285	81.44
236.519	78.44
236.753	86.44
236.987	66.44
237.221	73.44
237.455	100.44
237.689	82.44
237.922	80.44
238.156	84.44
238.39	81.44
238.624	83.44
238.858	60.44
239.091	68.44
239.325	66.44
239.559	84.44
239.793	76.44
240.027	86.44
240.26	72.44
240.494	96.44
240.728	81.44
240.961	78.44
241.195	75.44
241.429	81.44
241.662	82.44
241.896	73.44
242.13	67.44
242.363	80.44
242.597	69.44
242.83	81.44
243.064	85.44
243.298	69.44
243.531	72.44
243.765	70.44
243.998	81.44
244.232	76.44
244.465	84.44
244.699	75.44
244.932	67.44
245.166	79.44
245.399	91.44
245.633	80.44
245.866	76.44
246.099	75.44
246.333	81.44
246.566	80.44
246.8	81.44
247.033	86.44
247.266	60.44
247.5	85.44
247.733	78.44
247.966	75.44
248.2	80.44
248.433	82.44
248.666	89.44
248.899	96.44
249.133	72.44
249.366	92.44
249.599	84.44
249.832	68.44
250.066	67.44
250.299	88.44
250.532	76.44
250.765	86.44
250.998	82.44
251.231	70.44
251.465	82.44
251.698	72.44
251.931	58.44
252.164	64.44
252.397	58.44
252.63	78.44
252.863	73.44
253.096	71.44
253.329	70.44
253.562	68.44
253.795	95.44
254.028	83.44
254.261	63.44
254.494	71.44
254.727	90.44
254.96	75.44
255.193	74.44
255.426	72.44
255.659	87.44
255.892	86.44
256.124	66.44
256.357	77.44
256.59	81.44
256.823	66.44
257.056	80.44
257.289	69.44
257.521	80.44
257.754	80.44
257.987	82.44
258.22	75.44
258.452	81.44
258.685	78.44
258.918	83.44
259.151	72.44
259.383	82.44
259.616	71.44
259.849	80.44
260.081	78.44
260.314	75.44
260.547	83.44
260.779	79.44
261.012	81.44
261.244	83.44
261.477	96.44
261.71	88.44
261.942	107.44
262.175	114.44
262.407	69.44
262.64	79.44
262.872	82.44
263.105	76.44
263.337	81.44
263.57	85.44
263.802	85.44
264.035	82.44
264.267	82.44
264.499	78.44
264.732	88.44
264.964	77.44
265.197	97.44
265.429	75.44
265.661	86.44
265.894	83.44
266.126	77.44
266.358	67.44
266.591	72.44
266.823	100.44
267.055	83.44
267.287	91.44
267.52	79.44
267.752	91.44
267.984	89.44
268.216	70.44
268.448	95.44
268.681	90.44
268.913	70.44
269.145	74.44
269.377	94.44
269.609	82.44
269.841	91.44
270.073	89.44
270.306	83.44
270.538	92.44
270.77	93.44
271.002	83.44
271.234	73.44
271.466	83.44
271.698	81.44
271.93	83.44
272.162	68.44
272.394	86.44
272.626	76.44
272.858	94.44
273.09	84.44
273.322	76.44
273.553	77.44
273.785	80.44
274.017	84.44
274.249	86.44
274.481	86.44
274.713	84.44
274.945	98.44
275.176	94.44
275.408	81.44
275.64	88.44
275.872	83.44
276.104	87.44
276.335	96.44
276.567	102.44
276.799	103.44
277.031	114.44
277.262	94.44
277.494	94.44
277.726	80.44
277.957	92.44
278.189	86.44
278.421	67.44
278.652	96.44
278.884	81.44
279.115	80.44
279.347	64.44
279.579	85.44
279.81	76.44
280.042	71.44
280.273	89.44
280.505	88.44
280.736	88.44
280.968	78.44
281.199	103.44
281.431	92.44
281.662	77.44
281.894	92.44
282.125	94.44
282.356	98.44
282.588	132.44
282.819	102.44
283.051	86.44
283.282	82.44
283.513	91.44
283.745	75.44
283.976	87.44
284.207	95.44
284.439	93.44
284.67	83.44
284.901	80.44
285.132	86.44
285.364	86.44
285.595	91.44
285.826	82.44
286.057	93.44
286.288	80.44
286.52	93.44
286.751	94.44
286.982	85.44
287.213	85.44
287.444	83.44
287.675	86.44
287.906	96.44
288.138	95.44
288.369	86.44
288.6	79.44
288.831	88.44
289.062	95.44
289.293	82.44
289.524	78.44
289.755	78.44
289.986	86.44
290.217	88.44
290.448	88.44
290.679	92.44
290.91	91.44
291.141	80.44
291.371	76.44
291.602	87.44
291.833	85.44
292.064	83.44
292.295	77.44
292.526	84.44
292.757	94.44
292.987	83.44
293.218	75.44
293.449	88.44
293.68	87.44
293.91	92.44
294.141	76.44
294.372	85.44
294.603	83.44
294.833	92.44
295.064	91.44
295.295	89.44
295.525	94.44
295.756	105.44
295.987	115.44
296.217	145.44
296.448	123.44
296.679	101.44
296.909	88.44
297.14	90.44
297.37	80.44
297.601	89.44
297.831	92.44
298.062	93.44
298.292	97.44
298.523	90.44
298.753	86.44
298.984	85.44
299.214	88.44
299.445	95.44
299.675	81.44
299.905	73.44
300.136	65.44
300.366	92.44
300.597	81.44
300.827	99.44
301.057	107.44
301.288	102.44
301.518	98.44
301.748	81.44
301.979	102.44
302.209	81.44
302.439	92.44
302.669	93.44
302.9	96.44
303.13	100.44
303.36	100.44
303.59	81.44
303.82	91.44
304.051	90.44
304.281	81.44
304.511	92.44
304.741	82.44
304.971	93.44
305.201	91.44
305.431	97.44
305.661	84.44
305.891	99.44
306.121	91.44
306.352	98.44
306.582	105.44
306.812	95.44
307.042	91.44
307.272	89.44
307.502	94.44
307.731	95.44
307.961	75.44
308.191	91.44
308.421	76.44
308.651	100.44
308.881	90.44
309.111	79.44
309.341	96.44
309.571	101.44
309.8	100.44
310.03	92.44
310.26	106.44
310.49	87.44
310.72	99.44
310.949	110.44
311.179	93.44
311.409	82.44
311.639	104.44
311.868	95.44
312.098	89.44
312.328	100.44
312.557	86.44
312.787	116.44
313.017	116.44
313.246	91.44
313.476	94.44
313.706	70.44
313.935	79.44
314.165	86.44
314.394	96.44
314.624	89.44
314.853	93.44
315.083	98.44
315.312	100.44
315.542	91.44
315.771	99.44
316.001	74.44
316.23	94.44
316.46	85.44
316.689	91.44
316.919	89.44
317.148	97.44
317.377	99.44
317.607	104.44
317.836	93.44
318.065	80.44
318.295	91.44
318.524	86.44
318.753	86.44
318.983	93.44
319.212	95.44
319.441	110.44
319.67	92.44
319.9	87.44
320.129	96.44
320.358	91.44
320.587	94.44
320.816	89.44
321.046	98.44
321.275	98.44
321.504	91.44
321.733	95.44
321.962	91.44
322.191	110.44
322.42	111.44
322.649	105.44
322.878	110.44
323.108	124.44
323.337	126.44
323.566	139.44
323.795	140.44
324.024	194.44
324.253	363.44
324.482	793.44
324.71	1539.44
324.939	2003.44
325.168	729.44
325.397	239.44
325.626	142.44
325.855	117.44
326.084	119.44
326.313	133.44
326.542	143.44
326.77	228.44
326.999	430.44
327.228	848.44
327.457	1546.44
327.686	1230.44
327.914	331.44
328.143	177.44
328.372	134.44
328.6	130.44
328.829	116.44
329.058	132.44
329.287	119.44
329.515	102.44
329.744	103.44
329.972	102.44
330.201	108.44
330.43	98.44
330.658	142.44
330.887	151.44
331.115	131.44
331.344	111.44
331.572	105.44
331.801	108.44
332.03	114.44
332.258	94.44
332.486	83.44
332.715	103.44
332.943	92.44
333.172	89.44
333.4	92.44
333.629	97.44
333.857	117.44
334.085	104.44
334.314	95.44
334.542	110.44
334.771	100.44
334.999	112.44
335.227	86.44
335.455	95.44
335.684	90.44
335.912	106.44
336.14	104.44
336.369	103.44
336.597	93.44
336.825	107.44
337.053	90.44
337.281	84.44
337.51	87.44
337.738	90.44
337.966	84.44
338.194	89.44
338.422	90.44
338.65	89.44
338.878	99.44
339.106	80.44
339.334	96.44
339.562	94.44
339.79	87.44
340.018	100.44
340.246	105.44
340.474	88.44
340.702	100.44
340.93	88.44
341.158	85.44
341.386	111.44
341.614	96.44
341.842	91.44
342.07	74.44
342.298	98.44
342.526	88.44
342.754	89.44
342.981	83.44
343.209	111.44
343.437	92.44
343.665	84.44
343.893	102.44
344.12	91.44
344.348	84.44
344.576	90.44
344.804	99.44
345.031	98.44
345.259	89.44
345.487	97.44
345.714	95.44
345.942	82.44
346.17	96.44
346.397	89.44
346.625	92.44
346.853	94.44
347.08	91.44
347.308	99.44
347.535	105.44
347.763	82.44
347.99	86.44
348.218	107.44
348.445	100.44
348.673	90.44
348.9	99.44
349.128	76.44
349.355	81.44
349.583	101.44
349.81	94.44
350.037	99.44
350.265	94.44
350.492	109.44
350.72	111.44
350.947	98.44
351.174	103.44
351.402	117.44
351.629	86.44
351.856	79.44
352.083	106.44
352.311	101.44
352.538	95.44
352.765	108.44
352.992	125.44
353.22	112.44
353.447	108.44
353.674	110.44
353.901	96.44
354.128	103.44
354.355	108.44
354.583	90.44
354.81	81.44
355.037	90.44
355.264	102.44
355.491	83.44
355.718	87.44
355.945	69.44
356.172	89.44
356.399	91.44
356.626	101.44
356.853	98.44
357.08	96.44
357.307	89.44
357.534	84.44
357.761	91.44
357.988	90.44
358.215	92.44
358.441	107.44
358.668	88.44
358.895	82.44
359.122	80.44
359.349	76.44
359.576	84.44
359.802	114.44
360.029	122.44
360.256	107.44
360.483	92.44
360.709	62.44
360.936	95.44
361.163	97.44
361.39	96.44
361.616	91.44
361.843	94.44
362.07	98.44
362.296	95.44
362.523	86.44
362.749	103.44
362.976	89.44
363.203	105.44
363.429	81.44
363.656	90.44
363.882	70.44
364.109	88.44
364.335	86.44
364.562	95.44
364.788	93.44
365.015	84.44
365.241	97.44
365.468	96.44
365.694	100.44
365.92	96.44
366.147	97.44
366.373	89.44
366.599	100.44
366.826	100.44
367.052	89.44
367.278	97.44
367.505	83.44
367.731	89.44
367.957	100.44
368.184	96.44
368.41	95.44
368.636	120.44
368.862	116.44
369.089	104.44
369.315	101.44
369.541	96.44
369.767	91.44
369.993	101.44
370.219	86.44
370.445	87.44
370.672	91.44
370.898	92.44
371.124	78.44
371.35	82.44
371.576	87.44
371.802	87.44
372.028	100.44
372.254	86.44
372.48	94.44
372.706	87.44
372.932	88.44
373.158	79.44
373.384	104.44
373.61	94.44
373.835	94.44
374.061	76.44
374.287	100.44
374.513	97.44
374.739	79.44
374.965	93.44
375.191	85.44
375.416	81.44
375.642	86.44
375.868	80.44
376.094	92.44
376.319	88.44
376.545	69.44
376.771	85.44
376.997	91.44
377.222	87.44
377.448	80.44
377.674	96.44
377.899	98.44
378.125	87.44
378.35	84.44
378.576	73.44
378.802	96.44
379.027	92.44
379.253	89.44
379.478	82.44
379.704	94.44
379.929	100.44
380.155	102.44
380.38	89.44
380.606	106.44
380.831	95.44
381.057	102.44
381.282	91.44
381.507	95.44
381.733	96.44
381.958	99.44
382.184	94.44
382.409	95.44
382.634	99.44
382.86	87.44
383.085	91.44
383.31	81.44
383.535	91.44
383.761	86.44
383.986	94.44
384.211	85.44
384.436	99.44
384.662	107.44
384.887	89.44
385.112	83.44
385.337	86.44
385.562	82.44
385.787	102.44
386.013	109.44
386.238	120.44
386.463	94.44
386.688	91.44
386.913	101.44
387.138	91.44
387.363	102.44
387.588	104.44
387.813	111.44
388.038	104.44
388.263	108.44
388.488	97.44
388.713	94.44
388.938	88.44
389.163	78.44
389.387	96.44
389.612	94.44
389.837	85.44
390.062	94.44
390.287	86.44
390.512	86.44
390.736	100.44
390.961	98.44
391.186	90.44
391.411	84.44
391.636	87.44
391.86	88.44
392.085	86.44
392.31	97.44
392.534	82.44
392.759	94.44
392.984	73.44
393.208	73.44
393.433	95.44
393.658	88.44
393.882	78.44
394.107	89.44
394.331	94.44
394.556	92.44
394.78	91.44
395.005	79.44
395.229	76.44
395.454	84.44
395.678	92.44
395.903	90.44
396.127	83.44
396.352	96.44
396.576	79.44
396.801	95.44
397.025	84.44
397.249	85.44
397.474	86.44
397.698	97.44
397.922	86.44
398.147	83.44
398.371	99.44
398.595	86.44
398.82	80.44
399.044	79.44
399.268	81.44
399.492	77.44
399.717	94.44
399.941	82.44
400.165	91.44
400.389	90.44
400.613	94.44
400.837	88.44
401.062	98.44
401.286	80.44
401.51	94.44
401.734	92.44
401.958	92.44
402.182	126.44
402.406	166.44
402.63	116.44
402.854	84.44
403.078	92.44
403.302	84.44
403.526	94.44
403.75	82.44
403.974	92.44
404.198	87.44
404.422	82.44
404.645	97.44
404.869	87.44
405.093	88.44
405.317	94.44
405.541	102.44
405.765	112.44
405.988	113.44
406.212	172.44
406.436	239.44
406.66	150.44
406.883	107.44
407.107	89.44
407.331	83.44
407.555	86.44
407.778	100.44
408.002	93.44
408.226	72.44
408.449	91.44
408.673	97.44
408.896	88.44
409.12	89.44
409.344	75.44
409.567	84.44
409.791	83.44
410.014	84.44
410.238	80.44
410.461	97.44
410.685	87.44
410.908	87.44
411.132	95.44
411.355	91.44
411.578	99.44
411.802	88.44
412.025	85.44
412.249	68.44
412.472	92.44
412.695	91.44
412.919	88.44
413.142	91.44
413.365	90.44
413.589	87.44
413.812	94.44
414.035	95.44
414.258	85.44
414.482	98.44
414.705	83.44
414.928	98.44
415.151	84.44
415.374	95.44
415.597	91.44
415.821	90.44
416.044	94.44
416.267	87.44
416.49	68.44
416.713	79.44
416.936	87.44
417.159	82.44
417.382	88.44
417.605	100.44
417.828	95.44
418.051	92.44
418.274	93.44
418.497	82.44
418.72	89.44
418.943	90.44
419.166	77.44
419.389	105.44
419.611	91.44
419.834	105.44
420.057	82.44
420.28	92.44
420.503	83.44
420.726	92.44
420.948	92.44
421.171	107.44
421.394	89.44
421.617	101.44
421.839	78.44
422.062	98.44
422.285	82.44
422.507	98.44
422.73	116.44
422.953	100.44
423.175	86.44
423.398	83.44
423.621	79.44
423.843	92.44
424.066	89.44
424.288	96.44
424.511	83.44
424.733	97.44
424.956	103.44
425.178	96.44
425.401	93.44
425.623	108.44
425.846	92.44
426.068	86.44
426.291	76.44
426.513	82.44
426.735	88.44
426.958	101.44
427.18	104.44
427.402	140.44
427.625	153.44
427.847	121.44
428.069	94.44
428.292	88.44
428.514	92.44
428.736	87.44
428.958	91.44
429.181	91.44
429.403	85.44
429.625	83.44
429.847	102.44
430.069	110.44
430.292	102.44
430.514	86.44
430.736	79.44
430.958	97.44
431.18	106.44
431.402	94.44
431.624	90.44
431.846	78.44
432.068	87.44
432.29	79.44
432.512	96.44
432.734	75.44
432.956	87.44
433.178	90.44
433.4	84.44
433.622	104.44
433.844	91.44
434.066	102.44
434.287	92.44
434.509	80.44
434.731	89.44
434.953	98.44
435.175	93.44
435.397	84.44
435.618	93.44
435.84	104.44
436.062	119.44
436.284	98.44
436.505	96.44
436.727	99.44
436.949	84.44
437.17	94.44
437.392	105.44
437.614	97.44
437.835	106.44
438.057	124.44
438.278	96.44
438.5	105.44
438.721	123.44
438.943	101.44
439.165	100.44
439.386	97.44
439.608	89.44
439.829	97.44
440.05	111.44
440.272	150.44
440.493	100.44
440.715	84.44
440.936	101.44
441.158	94.44
441.379	88.44
441.6	83.44
441.822	93.44
442.043	87.44
442.264	102.44
442.486	99.44
442.707	106.44
442.928	113.44
443.149	142.44
443.371	139.44
443.592	108.44
443.813	120.44
444.034	106.44
444.255	104.44
444.476	90.44
444.698	100.44
444.919	84.44
445.14	130.44
445.361	120.44
445.582	111.44
445.803	126.44
446.024	135.44
446.245	154.44
446.466	114.44
446.687	92.44
446.908	92.44
447.129	88.44
447.35	88.44
447.571	100.44
447.792	102.44
448.013	101.44
448.234	106.44
448.455	105.44
448.675	127.44
448.896	123.44
449.117	99.44
449.338	117.44
449.559	137.44
449.779	128.44
450	104.44
450.221	102.44
450.442	82.44
450.662	95.44
450.883	117.44
451.104	104.44
451.324	97.44
451.545	81.44
451.766	102.44
451.986	81.44
452.207	91.44
452.428	107.44
452.648	107.44
452.869	104.44
453.089	107.44
453.31	116.44
453.53	102.44
453.751	105.44
453.971	113.44
454.192	117.44
454.412	85.44
454.633	88.44
454.853	95.44
455.073	88.44
455.294	87.44
455.514	105.44
455.734	100.44
455.955	84.44
456.175	75.44
456.395	78.44
456.616	88.44
456.836	99.44
457.056	79.44
457.276	73.44
457.497	77.44
457.717	84.44
457.937	80.44
458.157	91.44
458.377	97.44
458.598	109.44
458.818	145.44
459.038	146.44
459.258	121.44
459.478	89.44
459.698	101.44
459.918	88.44
460.138	88.44
460.358	91.44
460.578	77.44
460.798	90.44
461.018	87.44
461.238	91.44
461.458	83.44
461.678	79.44
461.898	84.44
462.118	90.44
462.338	86.44
462.558	84.44
462.777	78.44
462.997	92.44
463.217	86.44
463.437	85.44
463.657	86.44
463.876	97.44
464.096	97.44
464.316	95.44
464.536	89.44
464.755	103.44
464.975	111.44
465.195	161.44
465.414	154.44
465.634	101.44
465.854	99.44
466.073	88.44
466.293	95.44
466.512	79.44
466.732	87.44
466.951	70.44
467.171	105.44
467.391	92.44
467.61	95.44
467.829	105.44
468.049	89.44
468.268	79.44
468.488	84.44
468.707	79.44
468.927	82.44
469.146	72.44
469.365	91.44
469.585	86.44
469.804	86.44
470.023	98.44
470.243	97.44
470.462	86.44
470.681	119.44
470.901	94.44
471.12	77.44
471.339	95.44
471.558	91.44
471.777	98.44
471.997	77.44
472.216	100.44
472.435	89.44
472.654	87.44
472.873	80.44
473.092	92.44
473.311	89.44
473.53	93.44
473.749	80.44
473.968	83.44
474.187	97.44
474.406	91.44
474.625	84.44
474.844	90.44
475.063	87.44
475.282	99.44
475.501	104.44
475.72	78.44
475.939	85.44
476.158	82.44
476.377	89.44
476.596	86.44
476.814	91.44
477.033	92.44
477.252	83.44
477.471	80.44
477.69	97.44
477.908	94.44
478.127	86.44
478.346	91.44
478.564	91.44
478.783	95.44
479.002	86.44
479.22	78.44
479.439	91.44
479.658	105.44
479.876	92.44
480.095	96.44
480.313	90.44
480.532	91.44
480.751	98.44
480.969	88.44
481.188	99.44
481.406	103.44
481.624	95.44
481.843	101.44
482.061	79.44
482.28	98.44
482.498	90.44
482.717	94.44
482.935	78.44
483.153	85.44
483.372	92.44
483.59	90.44
483.808	72.44
484.027	89.44
484.245	91.44
484.463	88.44
484.681	89.44
484.9	98.44
485.118	90.44
485.336	91.44
485.554	102.44
485.772	88.44
485.99	97.44
486.209	98.44
486.427	98.44
486.645	100.44
486.863	128.44
487.081	117.44
487.299	75.44
487.517	98.44
487.735	85.44
487.953	82.44
488.171	75.44
488.389	96.44
488.607	90.44
488.825	81.44
489.043	85.44
489.261	89.44
489.479	101.44
489.696	88.44
489.914	92.44
490.132	72.44
490.35	82.44
490.568	91.44
490.786	84.44
491.003	87.44
491.221	81.44
491.439	93.44
491.657	103.44
491.874	91.44
492.092	64.44
492.31	88.44
492.527	93.44
492.745	94.44
492.963	83.44
493.18	82.44
493.398	89.44
493.615	96.44
493.833	88.44
494.05	93.44
494.268	99.44
494.485	87.44
494.703	82.44
494.92	86.44
495.138	86.44
495.355	83.44
495.573	87.44
495.79	72.44
496.008	95.44
496.225	96.44
496.442	85.44
496.66	77.44
496.877	84.44
497.094	91.44
497.312	71.44
497.529	92.44
497.746	79.44
497.963	96.44
498.181	95.44
498.398	83.44
498.615	89.44
498.832	84.44
499.049	85.44
499.267	85.44
499.484	96.44
499.701	85.44
499.918	91.44
500.135	91.44
500.352	97.44
500.569	87.44
500.786	86.44
501.003	103.44
501.22	86.44
501.437	98.44
501.654	96.44
501.871	114.44
502.088	93.44
502.305	90.44
502.522	88.44
502.739	84.44
502.956	90.44
503.172	78.44
503.389	93.44
503.606	103.44
503.823	100.44
504.04	91.44
504.256	102.44
504.473	100.44
504.69	90.44
504.907	85.44
505.123	91.44
505.34	85.44
505.557	91.44
505.773	84.44
505.99	95.44
506.207	99.44
506.423	96.44
506.64	88.44
506.856	91.44
507.073	88.44
507.289	95.44
507.506	112.44
507.722	113.44
507.939	125.44
508.155	96.44
508.372	91.44
508.588	88.44
508.805	80.44
509.021	96.44
509.238	95.44
509.454	104.44
509.67	101.44
509.887	98.44
510.103	133.44
510.319	210.44
510.536	806.44
510.752	2554.44
510.968	690.44
511.184	147.44
511.401	108.44
511.617	94.44
511.833	82.44
512.049	84.44
512.265	90.44
512.481	93.44
512.698	89.44
512.914	92.44
513.13	89.44
513.346	88.44
513.562	87.44
513.778	97.44
513.994	98.44
514.21	92.44
514.426	119.44
514.642	137.44
514.858	118.44
515.074	167.44
515.29	511.44
515.506	1586.44
515.721	581.44
515.937	155.44
516.153	111.44
