Data from Uncirc_2001_H10_HRD10591_00082.txt Node
Date: Wed Jan 03 10:44:13 EST 2024
User: Yrep
Spectrometer: HR+D1059
Trigger mode: 1
Integration Time (sec): 1.000000E-1
Scans to average: 1
Electric dark correction enabled: true
Nonlinearity correction enabled: false
Boxcar width: 0
XAxis mode: Wavelengths
Number of Pixels in Spectrum: 2048
>>>>>Begin Spectral Data<<<<<
223.165	-20.25
223.4	-20.25
223.635	-20.25
223.869	-16.25
224.104	-17.25
224.338	-16.25
224.573	-11.25
224.808	-10.25
225.042	-12.25
225.277	-3.25
225.511	8.75
225.746	5.75
225.98	0.75
226.215	8.75
226.449	21.75
226.683	1.75
226.918	20.75
227.152	38.75
227.387	46.75
227.621	39.75
227.856	54.75
228.09	55.75
228.324	43.75
228.559	57.75
228.793	57.75
229.027	57.75
229.262	63.75
229.496	57.75
229.73	93.75
229.964	80.75
230.199	82.75
230.433	81.75
230.667	81.75
230.901	69.75
231.136	86.75
231.37	70.75
231.604	78.75
231.838	84.75
232.072	79.75
232.306	74.75
232.541	98.75
232.775	94.75
233.009	80.75
233.243	66.75
233.477	72.75
233.711	67.75
233.945	72.75
234.179	86.75
234.413	79.75
234.647	87.75
234.881	94.75
235.115	79.75
235.349	75.75
235.583	86.75
235.817	74.75
236.051	84.75
236.285	75.75
236.519	80.75
236.753	66.75
236.987	89.75
237.221	95.75
237.455	88.75
237.689	86.75
237.922	78.75
238.156	85.75
238.39	82.75
238.624	72.75
238.858	62.75
239.091	80.75
239.325	75.75
239.559	88.75
239.793	81.75
240.027	62.75
240.26	77.75
240.494	88.75
240.728	83.75
240.961	72.75
241.195	71.75
241.429	64.75
241.662	70.75
241.896	68.75
242.13	75.75
242.363	60.75
242.597	79.75
242.83	83.75
243.064	83.75
243.298	66.75
243.531	89.75
243.765	68.75
243.998	85.75
244.232	81.75
244.465	79.75
244.699	86.75
244.932	79.75
245.166	76.75
245.399	82.75
245.633	72.75
245.866	66.75
246.099	82.75
246.333	70.75
246.566	80.75
246.8	81.75
247.033	74.75
247.266	80.75
247.5	71.75
247.733	74.75
247.966	65.75
248.2	84.75
248.433	96.75
248.666	87.75
248.899	81.75
249.133	78.75
249.366	104.75
249.599	97.75
249.832	95.75
250.066	76.75
250.299	70.75
250.532	79.75
250.765	85.75
250.998	73.75
251.231	72.75
251.465	83.75
251.698	86.75
251.931	96.75
252.164	80.75
252.397	77.75
252.63	73.75
252.863	78.75
253.096	69.75
253.329	88.75
253.562	75.75
253.795	72.75
254.028	73.75
254.261	83.75
254.494	71.75
254.727	84.75
254.96	83.75
255.193	88.75
255.426	76.75
255.659	80.75
255.892	81.75
256.124	71.75
256.357	95.75
256.59	90.75
256.823	70.75
257.056	92.75
257.289	76.75
257.521	72.75
257.754	72.75
257.987	76.75
258.22	79.75
258.452	80.75
258.685	77.75
258.918	75.75
259.151	82.75
259.383	74.75
259.616	80.75
259.849	88.75
260.081	75.75
260.314	92.75
260.547	80.75
260.779	86.75
261.012	76.75
261.244	81.75
261.477	100.75
261.71	102.75
261.942	103.75
262.175	100.75
262.407	96.75
262.64	82.75
262.872	80.75
263.105	62.75
263.337	70.75
263.57	78.75
263.802	72.75
264.035	80.75
264.267	78.75
264.499	86.75
264.732	80.75
264.964	81.75
265.197	70.75
265.429	88.75
265.661	82.75
265.894	71.75
266.126	89.75
266.358	80.75
266.591	87.75
266.823	77.75
267.055	88.75
267.287	81.75
267.52	79.75
267.752	84.75
267.984	65.75
268.216	77.75
268.448	74.75
268.681	80.75
268.913	79.75
269.145	79.75
269.377	74.75
269.609	79.75
269.841	77.75
270.073	82.75
270.306	75.75
270.538	69.75
270.77	82.75
271.002	72.75
271.234	82.75
271.466	91.75
271.698	86.75
271.93	84.75
272.162	91.75
272.394	91.75
272.626	80.75
272.858	85.75
273.09	90.75
273.322	90.75
273.553	84.75
273.785	85.75
274.017	91.75
274.249	79.75
274.481	91.75
274.713	77.75
274.945	84.75
275.176	81.75
275.408	80.75
275.64	83.75
275.872	81.75
276.104	80.75
276.335	87.75
276.567	83.75
276.799	111.75
277.031	112.75
277.262	103.75
277.494	94.75
277.726	98.75
277.957	84.75
278.189	80.75
278.421	83.75
278.652	66.75
278.884	95.75
279.115	83.75
279.347	75.75
279.579	96.75
279.81	70.75
280.042	94.75
280.273	81.75
280.505	96.75
280.736	82.75
280.968	95.75
281.199	88.75
281.431	94.75
281.662	75.75
281.894	77.75
282.125	110.75
282.356	111.75
282.588	143.75
282.819	102.75
283.051	89.75
283.282	90.75
283.513	91.75
283.745	82.75
283.976	84.75
284.207	77.75
284.439	84.75
284.67	79.75
284.901	73.75
285.132	85.75
285.364	82.75
285.595	81.75
285.826	87.75
286.057	95.75
286.288	70.75
286.52	78.75
286.751	81.75
286.982	84.75
287.213	87.75
287.444	91.75
287.675	84.75
287.906	98.75
288.138	93.75
288.369	86.75
288.6	89.75
288.831	90.75
289.062	86.75
289.293	83.75
289.524	81.75
289.755	86.75
289.986	78.75
290.217	80.75
290.448	90.75
290.679	86.75
290.91	95.75
291.141	96.75
291.371	85.75
291.602	83.75
291.833	83.75
292.064	89.75
292.295	87.75
292.526	85.75
292.757	93.75
292.987	97.75
293.218	87.75
293.449	79.75
293.68	80.75
293.91	84.75
294.141	88.75
294.372	89.75
294.603	90.75
294.833	94.75
295.064	82.75
295.295	87.75
295.525	90.75
295.756	114.75
295.987	108.75
296.217	128.75
296.448	120.75
296.679	96.75
296.909	90.75
297.14	93.75
297.37	83.75
297.601	95.75
297.831	83.75
298.062	85.75
298.292	81.75
298.523	91.75
298.753	90.75
298.984	82.75
299.214	79.75
299.445	84.75
299.675	90.75
299.905	100.75
300.136	84.75
300.366	100.75
300.597	87.75
300.827	96.75
301.057	105.75
301.288	95.75
301.518	93.75
301.748	81.75
301.979	95.75
302.209	99.75
302.439	78.75
302.669	86.75
302.9	80.75
303.13	96.75
303.36	80.75
303.59	96.75
303.82	105.75
304.051	92.75
304.281	95.75
304.511	107.75
304.741	92.75
304.971	97.75
305.201	92.75
305.431	94.75
305.661	79.75
305.891	81.75
306.121	90.75
306.352	96.75
306.582	90.75
306.812	95.75
307.042	94.75
307.272	88.75
307.502	93.75
307.731	87.75
307.961	82.75
308.191	85.75
308.421	92.75
308.651	96.75
308.881	83.75
309.111	89.75
309.341	100.75
309.571	95.75
309.8	90.75
310.03	100.75
310.26	93.75
310.49	92.75
310.72	100.75
310.949	99.75
311.179	81.75
311.409	87.75
311.639	88.75
311.868	104.75
312.098	85.75
312.328	83.75
312.557	111.75
312.787	110.75
313.017	98.75
313.246	99.75
313.476	97.75
313.706	76.75
313.935	94.75
314.165	88.75
314.394	105.75
314.624	92.75
314.853	79.75
315.083	82.75
315.312	90.75
315.542	89.75
315.771	104.75
316.001	95.75
316.23	94.75
316.46	87.75
316.689	96.75
316.919	97.75
317.148	100.75
317.377	89.75
317.607	84.75
317.836	96.75
318.065	89.75
318.295	92.75
318.524	86.75
318.753	88.75
318.983	94.75
319.212	94.75
319.441	103.75
319.67	115.75
319.9	76.75
320.129	79.75
320.358	106.75
320.587	89.75
320.816	99.75
321.046	91.75
321.275	98.75
321.504	102.75
321.733	91.75
321.962	91.75
322.191	108.75
322.42	107.75
322.649	104.75
322.878	113.75
323.108	97.75
323.337	112.75
323.566	133.75
323.795	166.75
324.024	185.75
324.253	349.75
324.482	726.75
324.71	1457.75
324.939	1881.75
325.168	685.75
325.397	224.75
325.626	136.75
325.855	118.75
326.084	118.75
326.313	124.75
326.542	146.75
326.77	207.75
326.999	384.75
327.228	814.75
327.457	1420.75
327.686	1104.75
327.914	336.75
328.143	176.75
328.372	111.75
328.6	122.75
328.829	115.75
329.058	114.75
329.287	126.75
329.515	101.75
329.744	98.75
329.972	93.75
330.201	100.75
330.43	108.75
330.658	125.75
330.887	146.75
331.115	106.75
331.344	104.75
331.572	109.75
331.801	101.75
332.03	115.75
332.258	102.75
332.486	84.75
332.715	83.75
332.943	98.75
333.172	87.75
333.4	84.75
333.629	98.75
333.857	95.75
334.085	98.75
334.314	96.75
334.542	99.75
334.771	88.75
334.999	100.75
335.227	97.75
335.455	87.75
335.684	101.75
335.912	88.75
336.14	84.75
336.369	111.75
336.597	92.75
336.825	90.75
337.053	99.75
337.281	95.75
337.51	95.75
337.738	100.75
337.966	113.75
338.194	103.75
338.422	86.75
338.65	89.75
338.878	107.75
339.106	85.75
339.334	95.75
339.562	89.75
339.79	96.75
340.018	89.75
340.246	104.75
340.474	104.75
340.702	87.75
340.93	89.75
341.158	89.75
341.386	100.75
341.614	102.75
341.842	92.75
342.07	89.75
342.298	97.75
342.526	83.75
342.754	82.75
342.981	97.75
343.209	92.75
343.437	94.75
343.665	90.75
343.893	83.75
344.12	86.75
344.348	98.75
344.576	79.75
344.804	82.75
345.031	100.75
345.259	76.75
345.487	92.75
345.714	83.75
345.942	112.75
346.17	90.75
346.397	90.75
346.625	85.75
346.853	89.75
347.08	86.75
347.308	96.75
347.535	99.75
347.763	88.75
347.99	98.75
348.218	103.75
348.445	105.75
348.673	95.75
348.9	89.75
349.128	83.75
349.355	107.75
349.583	103.75
349.81	106.75
350.037	84.75
350.265	90.75
350.492	104.75
350.72	85.75
350.947	106.75
351.174	110.75
351.402	102.75
351.629	89.75
351.856	102.75
352.083	106.75
352.311	108.75
352.538	109.75
352.765	97.75
352.992	123.75
353.22	101.75
353.447	96.75
353.674	89.75
353.901	99.75
354.128	107.75
354.355	102.75
354.583	90.75
354.81	95.75
355.037	82.75
355.264	114.75
355.491	81.75
355.718	91.75
355.945	84.75
356.172	92.75
356.399	95.75
356.626	103.75
356.853	87.75
357.08	100.75
357.307	88.75
357.534	73.75
357.761	87.75
357.988	86.75
358.215	84.75
358.441	83.75
358.668	75.75
358.895	83.75
359.122	88.75
359.349	86.75
359.576	91.75
359.802	90.75
360.029	103.75
360.256	106.75
360.483	106.75
360.709	94.75
360.936	91.75
361.163	76.75
361.39	80.75
361.616	95.75
361.843	77.75
362.07	82.75
362.296	90.75
362.523	104.75
362.749	84.75
362.976	91.75
363.203	89.75
363.429	91.75
363.656	97.75
363.882	84.75
364.109	89.75
364.335	89.75
364.562	85.75
364.788	81.75
365.015	82.75
365.241	91.75
365.468	100.75
365.694	107.75
365.92	84.75
366.147	86.75
366.373	74.75
366.599	82.75
366.826	92.75
367.052	78.75
367.278	90.75
367.505	95.75
367.731	88.75
367.957	87.75
368.184	80.75
368.41	100.75
368.636	89.75
368.862	111.75
369.089	111.75
369.315	92.75
369.541	91.75
369.767	78.75
369.993	105.75
370.219	85.75
370.445	87.75
370.672	92.75
370.898	81.75
371.124	75.75
371.35	95.75
371.576	83.75
371.802	94.75
372.028	95.75
372.254	95.75
372.48	87.75
372.706	92.75
372.932	86.75
373.158	83.75
373.384	81.75
373.61	71.75
373.835	74.75
374.061	81.75
374.287	86.75
374.513	82.75
374.739	94.75
374.965	72.75
375.191	90.75
375.416	89.75
375.642	86.75
375.868	79.75
376.094	96.75
376.319	92.75
376.545	95.75
376.771	102.75
376.997	103.75
377.222	75.75
377.448	95.75
377.674	97.75
377.899	104.75
378.125	87.75
378.35	79.75
378.576	84.75
378.802	114.75
379.027	88.75
379.253	88.75
379.478	87.75
379.704	85.75
379.929	92.75
380.155	99.75
380.38	90.75
380.606	90.75
380.831	100.75
381.057	94.75
381.282	90.75
381.507	102.75
381.733	89.75
381.958	86.75
382.184	91.75
382.409	94.75
382.634	95.75
382.86	99.75
383.085	105.75
383.31	96.75
383.535	93.75
383.761	97.75
383.986	87.75
384.211	78.75
384.436	87.75
384.662	93.75
384.887	76.75
385.112	102.75
385.337	97.75
385.562	106.75
385.787	99.75
386.013	116.75
386.238	107.75
386.463	102.75
386.688	104.75
386.913	92.75
387.138	97.75
387.363	89.75
387.588	92.75
387.813	91.75
388.038	102.75
388.263	89.75
388.488	108.75
388.713	90.75
388.938	75.75
389.163	91.75
389.387	91.75
389.612	93.75
389.837	90.75
390.062	102.75
390.287	98.75
390.512	88.75
390.736	77.75
390.961	90.75
391.186	87.75
391.411	96.75
391.636	90.75
391.86	91.75
392.085	85.75
392.31	83.75
392.534	78.75
392.759	78.75
392.984	64.75
393.208	84.75
393.433	97.75
393.658	84.75
393.882	78.75
394.107	80.75
394.331	79.75
394.556	87.75
394.78	89.75
395.005	79.75
395.229	84.75
395.454	87.75
395.678	84.75
395.903	85.75
396.127	90.75
396.352	84.75
396.576	85.75
396.801	73.75
397.025	86.75
397.249	83.75
397.474	96.75
397.698	89.75
397.922	84.75
398.147	91.75
398.371	73.75
398.595	88.75
398.82	117.75
399.044	79.75
399.268	74.75
399.492	75.75
399.717	93.75
399.941	82.75
400.165	96.75
400.389	82.75
400.613	92.75
400.837	82.75
401.062	84.75
401.286	96.75
401.51	89.75
401.734	86.75
401.958	98.75
402.182	129.75
402.406	149.75
402.63	113.75
402.854	98.75
403.078	102.75
403.302	75.75
403.526	85.75
403.75	75.75
403.974	81.75
404.198	81.75
404.422	85.75
404.645	89.75
404.869	90.75
405.093	100.75
405.317	93.75
405.541	91.75
405.765	102.75
405.988	110.75
406.212	157.75
406.436	216.75
406.66	148.75
406.883	105.75
407.107	88.75
407.331	98.75
407.555	82.75
407.778	103.75
408.002	76.75
408.226	73.75
408.449	89.75
408.673	90.75
408.896	92.75
409.12	93.75
409.344	92.75
409.567	90.75
409.791	98.75
410.014	72.75
410.238	76.75
410.461	90.75
410.685	91.75
410.908	98.75
411.132	106.75
411.355	85.75
411.578	77.75
411.802	72.75
412.025	81.75
412.249	87.75
412.472	87.75
412.695	89.75
412.919	90.75
413.142	92.75
413.365	90.75
413.589	92.75
413.812	93.75
414.035	93.75
414.258	89.75
414.482	82.75
414.705	86.75
414.928	95.75
415.151	93.75
415.374	96.75
415.597	73.75
415.821	94.75
416.044	88.75
416.267	84.75
416.49	79.75
416.713	86.75
416.936	75.75
417.159	89.75
417.382	82.75
417.605	78.75
417.828	89.75
418.051	91.75
418.274	88.75
418.497	102.75
418.72	92.75
418.943	102.75
419.166	96.75
419.389	92.75
419.611	71.75
419.834	86.75
420.057	83.75
420.28	81.75
420.503	96.75
420.726	95.75
420.948	90.75
421.171	86.75
421.394	97.75
421.617	74.75
421.839	78.75
422.062	84.75
422.285	80.75
422.507	90.75
422.73	95.75
422.953	103.75
423.175	85.75
423.398	98.75
423.621	87.75
423.843	83.75
424.066	89.75
424.288	92.75
424.511	91.75
424.733	90.75
424.956	99.75
425.178	101.75
425.401	88.75
425.623	104.75
425.846	86.75
426.068	95.75
426.291	80.75
426.513	91.75
426.735	100.75
426.958	89.75
427.18	98.75
427.402	141.75
427.625	162.75
427.847	119.75
428.069	87.75
428.292	89.75
428.514	82.75
428.736	70.75
428.958	99.75
429.181	74.75
429.403	86.75
429.625	72.75
429.847	89.75
430.069	98.75
430.292	84.75
430.514	84.75
430.736	81.75
430.958	90.75
431.18	83.75
431.402	78.75
431.624	78.75
431.846	91.75
432.068	86.75
432.29	98.75
432.512	87.75
432.734	89.75
432.956	81.75
433.178	77.75
433.4	82.75
433.622	96.75
433.844	89.75
434.066	85.75
434.287	78.75
434.509	98.75
434.731	87.75
434.953	90.75
435.175	81.75
435.397	95.75
435.618	91.75
435.84	92.75
436.062	111.75
436.284	113.75
436.505	93.75
436.727	93.75
436.949	82.75
437.17	83.75
437.392	91.75
437.614	90.75
437.835	106.75
438.057	116.75
438.278	118.75
438.5	99.75
438.721	114.75
438.943	78.75
439.165	95.75
439.386	90.75
439.608	97.75
439.829	110.75
440.05	123.75
440.272	130.75
440.493	96.75
440.715	85.75
440.936	85.75
441.158	77.75
441.379	79.75
441.6	95.75
441.822	106.75
442.043	98.75
442.264	103.75
442.486	89.75
442.707	85.75
442.928	102.75
443.149	110.75
443.371	111.75
443.592	100.75
443.813	113.75
444.034	113.75
444.255	91.75
444.476	81.75
444.698	79.75
444.919	92.75
445.14	115.75
445.361	144.75
445.582	118.75
445.803	150.75
446.024	129.75
446.245	135.75
446.466	106.75
446.687	77.75
446.908	78.75
447.129	85.75
447.35	99.75
447.571	98.75
447.792	101.75
448.013	76.75
448.234	103.75
448.455	105.75
448.675	111.75
448.896	110.75
449.117	85.75
449.338	92.75
449.559	135.75
449.779	127.75
450	97.75
450.221	85.75
450.442	69.75
450.662	95.75
450.883	103.75
451.104	104.75
451.324	96.75
451.545	93.75
451.766	89.75
451.986	89.75
452.207	85.75
452.428	92.75
452.648	95.75
452.869	108.75
453.089	116.75
453.31	106.75
453.53	87.75
453.751	90.75
453.971	96.75
454.192	123.75
454.412	93.75
454.633	81.75
454.853	83.75
455.073	86.75
455.294	91.75
455.514	107.75
455.734	93.75
455.955	84.75
456.175	84.75
456.395	83.75
456.616	81.75
456.836	99.75
457.056	83.75
457.276	77.75
457.497	78.75
457.717	87.75
457.937	74.75
458.157	92.75
458.377	84.75
458.598	93.75
458.818	153.75
459.038	147.75
459.258	116.75
459.478	89.75
459.698	84.75
459.918	81.75
460.138	82.75
460.358	90.75
460.578	89.75
460.798	85.75
461.018	78.75
461.238	93.75
461.458	69.75
461.678	79.75
461.898	80.75
462.118	82.75
462.338	88.75
462.558	86.75
462.777	83.75
462.997	78.75
463.217	70.75
463.437	80.75
463.657	74.75
463.876	84.75
464.096	92.75
464.316	88.75
464.536	106.75
464.755	97.75
464.975	111.75
465.195	186.75
465.414	151.75
465.634	90.75
465.854	88.75
466.073	78.75
466.293	92.75
466.512	66.75
466.732	97.75
466.951	86.75
467.171	88.75
467.391	98.75
467.61	111.75
467.829	94.75
468.049	86.75
468.268	84.75
468.488	77.75
468.707	85.75
468.927	104.75
469.146	75.75
469.365	76.75
469.585	88.75
469.804	101.75
470.023	81.75
470.243	84.75
470.462	99.75
470.681	101.75
470.901	100.75
471.12	90.75
471.339	93.75
471.558	83.75
471.777	74.75
471.997	94.75
472.216	87.75
472.435	83.75
472.654	92.75
472.873	88.75
473.092	82.75
473.311	85.75
473.53	73.75
473.749	98.75
473.968	96.75
474.187	107.75
474.406	102.75
474.625	90.75
474.844	76.75
475.063	95.75
475.282	103.75
475.501	73.75
475.72	94.75
475.939	81.75
476.158	66.75
476.377	85.75
476.596	99.75
476.814	86.75
477.033	86.75
477.252	100.75
477.471	88.75
477.69	90.75
477.908	65.75
478.127	84.75
478.346	90.75
478.564	83.75
478.783	90.75
479.002	84.75
479.22	91.75
479.439	97.75
479.658	100.75
479.876	94.75
480.095	87.75
480.313	73.75
480.532	93.75
480.751	87.75
480.969	91.75
481.188	104.75
481.406	91.75
481.624	88.75
481.843	105.75
482.061	70.75
482.28	88.75
482.498	86.75
482.717	75.75
482.935	108.75
483.153	91.75
483.372	83.75
483.59	97.75
483.808	90.75
484.027	92.75
484.245	99.75
484.463	86.75
484.681	76.75
484.9	82.75
485.118	105.75
485.336	86.75
485.554	90.75
485.772	84.75
485.99	90.75
486.209	99.75
486.427	99.75
486.645	93.75
486.863	93.75
487.081	93.75
487.299	94.75
487.517	98.75
487.735	98.75
487.953	102.75
488.171	88.75
488.389	103.75
488.607	101.75
488.825	101.75
489.043	82.75
489.261	83.75
489.479	90.75
489.696	90.75
489.914	88.75
490.132	100.75
490.35	87.75
490.568	83.75
490.786	72.75
491.003	80.75
491.221	78.75
491.439	92.75
491.657	87.75
491.874	89.75
492.092	104.75
492.31	78.75
492.527	87.75
492.745	88.75
492.963	83.75
493.18	76.75
493.398	83.75
493.615	88.75
493.833	95.75
494.05	94.75
494.268	87.75
494.485	83.75
494.703	84.75
494.92	84.75
495.138	102.75
495.355	100.75
495.573	92.75
495.79	84.75
496.008	84.75
496.225	82.75
496.442	84.75
496.66	95.75
496.877	83.75
497.094	85.75
497.312	87.75
497.529	84.75
497.746	82.75
497.963	92.75
498.181	80.75
498.398	96.75
498.615	97.75
498.832	91.75
499.049	101.75
499.267	94.75
499.484	83.75
499.701	72.75
499.918	82.75
500.135	76.75
500.352	87.75
500.569	86.75
500.786	85.75
501.003	90.75
501.22	86.75
501.437	89.75
501.654	86.75
501.871	101.75
502.088	84.75
502.305	93.75
502.522	90.75
502.739	78.75
502.956	89.75
503.172	96.75
503.389	90.75
503.606	106.75
503.823	92.75
504.04	90.75
504.256	96.75
504.473	82.75
504.69	87.75
504.907	94.75
505.123	91.75
505.34	99.75
505.557	93.75
505.773	98.75
505.99	97.75
506.207	87.75
506.423	78.75
506.64	89.75
506.856	95.75
507.073	86.75
507.289	83.75
507.506	98.75
507.722	108.75
507.939	122.75
508.155	95.75
508.372	104.75
508.588	90.75
508.805	89.75
509.021	106.75
509.238	92.75
509.454	91.75
509.67	106.75
509.887	105.75
510.103	126.75
510.319	220.75
510.536	768.75
510.752	2368.75
510.968	631.75
511.184	150.75
511.401	108.75
511.617	97.75
511.833	97.75
512.049	85.75
512.265	94.75
512.481	93.75
512.698	93.75
512.914	100.75
513.13	93.75
513.346	78.75
513.562	98.75
513.778	81.75
513.994	104.75
514.21	88.75
514.426	113.75
514.642	130.75
514.858	125.75
515.074	163.75
515.29	473.75
515.506	1506.75
515.721	525.75
515.937	163.75
516.153	98.75
516.369	84.75
516.585	96.75
