Data from Uncirc_2001_H10_HRD10591_00008.txt Node
Date: Wed Jan 03 10:43:58 EST 2024
User: Yrep
Spectrometer: HR+D1059
Trigger mode: 1
Integration Time (sec): 1.000000E-1
Scans to average: 1
Electric dark correction enabled: true
Nonlinearity correction enabled: false
Boxcar width: 0
XAxis mode: Wavelengths
Number of Pixels in Spectrum: 2048
>>>>>Begin Spectral Data<<<<<
223.165	-8.81
223.4	-8.81
223.635	-8.81
223.869	-21.81
224.104	-33.81
224.338	-24.81
224.573	-9.81
224.808	-18.81
225.042	-19.81
225.277	-14.81
225.511	13.19
225.746	-1.81
225.98	17.19
226.215	9.19
226.449	7.19
226.683	26.19
226.918	39.19
227.152	42.19
227.387	47.19
227.621	51.19
227.856	29.19
228.09	49.19
228.324	56.19
228.559	50.19
228.793	72.19
229.027	59.19
229.262	57.19
229.496	76.19
229.73	72.19
229.964	79.19
230.199	76.19
230.433	71.19
230.667	75.19
230.901	86.19
231.136	78.19
231.37	81.19
231.604	84.19
231.838	84.19
232.072	82.19
232.306	88.19
232.541	66.19
232.775	77.19
233.009	85.19
233.243	91.19
233.477	94.19
233.711	86.19
233.945	74.19
234.179	78.19
234.413	90.19
234.647	86.19
234.881	86.19
235.115	79.19
235.349	84.19
235.583	88.19
235.817	82.19
236.051	90.19
236.285	78.19
236.519	70.19
236.753	80.19
236.987	81.19
237.221	86.19
237.455	92.19
237.689	90.19
237.922	72.19
238.156	78.19
238.39	79.19
238.624	70.19
238.858	93.19
239.091	88.19
239.325	78.19
239.559	91.19
239.793	76.19
240.027	83.19
240.26	71.19
240.494	86.19
240.728	83.19
240.961	73.19
241.195	81.19
241.429	86.19
241.662	78.19
241.896	77.19
242.13	72.19
242.363	80.19
242.597	85.19
242.83	72.19
243.064	84.19
243.298	78.19
243.531	67.19
243.765	76.19
243.998	80.19
244.232	84.19
244.465	80.19
244.699	81.19
244.932	70.19
245.166	65.19
245.399	78.19
245.633	79.19
245.866	85.19
246.099	84.19
246.333	74.19
246.566	86.19
246.8	81.19
247.033	75.19
247.266	84.19
247.5	84.19
247.733	84.19
247.966	92.19
248.2	83.19
248.433	83.19
248.666	81.19
248.899	84.19
249.133	93.19
249.366	94.19
249.599	97.19
249.832	83.19
250.066	84.19
250.299	80.19
250.532	84.19
250.765	87.19
250.998	71.19
251.231	81.19
251.465	81.19
251.698	87.19
251.931	87.19
252.164	86.19
252.397	91.19
252.63	86.19
252.863	63.19
253.096	78.19
253.329	88.19
253.562	78.19
253.795	82.19
254.028	89.19
254.261	83.19
254.494	85.19
254.727	90.19
254.96	89.19
255.193	86.19
255.426	93.19
255.659	83.19
255.892	94.19
256.124	91.19
256.357	72.19
256.59	86.19
256.823	85.19
257.056	98.19
257.289	90.19
257.521	90.19
257.754	85.19
257.987	92.19
258.22	89.19
258.452	82.19
258.685	83.19
258.918	94.19
259.151	81.19
259.383	75.19
259.616	94.19
259.849	83.19
260.081	85.19
260.314	98.19
260.547	86.19
260.779	73.19
261.012	91.19
261.244	92.19
261.477	86.19
261.71	95.19
261.942	93.19
262.175	107.19
262.407	86.19
262.64	83.19
262.872	87.19
263.105	83.19
263.337	93.19
263.57	81.19
263.802	80.19
264.035	85.19
264.267	84.19
264.499	84.19
264.732	85.19
264.964	86.19
265.197	78.19
265.429	76.19
265.661	83.19
265.894	91.19
266.126	76.19
266.358	80.19
266.591	87.19
266.823	89.19
267.055	89.19
267.287	85.19
267.52	86.19
267.752	99.19
267.984	86.19
268.216	82.19
268.448	79.19
268.681	80.19
268.913	102.19
269.145	91.19
269.377	76.19
269.609	96.19
269.841	86.19
270.073	86.19
270.306	79.19
270.538	81.19
270.77	70.19
271.002	80.19
271.234	90.19
271.466	87.19
271.698	93.19
271.93	89.19
272.162	78.19
272.394	87.19
272.626	99.19
272.858	91.19
273.09	83.19
273.322	95.19
273.553	94.19
273.785	84.19
274.017	95.19
274.249	91.19
274.481	87.19
274.713	87.19
274.945	92.19
275.176	84.19
275.408	95.19
275.64	98.19
275.872	79.19
276.104	83.19
276.335	92.19
276.567	81.19
276.799	104.19
277.031	75.19
277.262	103.19
277.494	92.19
277.726	81.19
277.957	82.19
278.189	95.19
278.421	88.19
278.652	98.19
278.884	91.19
279.115	95.19
279.347	84.19
279.579	100.19
279.81	91.19
280.042	86.19
280.273	95.19
280.505	91.19
280.736	71.19
280.968	82.19
281.199	89.19
281.431	95.19
281.662	88.19
281.894	80.19
282.125	98.19
282.356	102.19
282.588	138.19
282.819	112.19
283.051	95.19
283.282	95.19
283.513	93.19
283.745	81.19
283.976	71.19
284.207	91.19
284.439	91.19
284.67	93.19
284.901	78.19
285.132	94.19
285.364	95.19
285.595	91.19
285.826	93.19
286.057	82.19
286.288	86.19
286.52	90.19
286.751	78.19
286.982	87.19
287.213	95.19
287.444	83.19
287.675	98.19
287.906	101.19
288.138	72.19
288.369	94.19
288.6	98.19
288.831	86.19
289.062	95.19
289.293	83.19
289.524	79.19
289.755	92.19
289.986	93.19
290.217	100.19
290.448	87.19
290.679	82.19
290.91	83.19
291.141	91.19
291.371	95.19
291.602	92.19
291.833	93.19
292.064	81.19
292.295	88.19
292.526	99.19
292.757	99.19
292.987	92.19
293.218	92.19
293.449	90.19
293.68	92.19
293.91	90.19
294.141	93.19
294.372	89.19
294.603	93.19
294.833	81.19
295.064	91.19
295.295	90.19
295.525	93.19
295.756	98.19
295.987	107.19
296.217	121.19
296.448	122.19
296.679	91.19
296.909	92.19
297.14	92.19
297.37	93.19
297.601	81.19
297.831	97.19
298.062	86.19
298.292	96.19
298.523	100.19
298.753	95.19
298.984	69.19
299.214	87.19
299.445	83.19
299.675	83.19
299.905	92.19
300.136	98.19
300.366	85.19
300.597	102.19
300.827	105.19
301.057	92.19
301.288	103.19
301.518	93.19
301.748	87.19
301.979	101.19
302.209	102.19
302.439	95.19
302.669	92.19
302.9	100.19
303.13	87.19
303.36	74.19
303.59	94.19
303.82	95.19
304.051	92.19
304.281	82.19
304.511	92.19
304.741	95.19
304.971	86.19
305.201	88.19
305.431	78.19
305.661	99.19
305.891	102.19
306.121	91.19
306.352	94.19
306.582	94.19
306.812	92.19
307.042	93.19
307.272	88.19
307.502	82.19
307.731	114.19
307.961	97.19
308.191	81.19
308.421	98.19
308.651	93.19
308.881	82.19
309.111	102.19
309.341	93.19
309.571	105.19
309.8	87.19
310.03	108.19
310.26	98.19
310.49	86.19
310.72	93.19
310.949	101.19
311.179	110.19
311.409	95.19
311.639	91.19
311.868	94.19
312.098	91.19
312.328	96.19
312.557	105.19
312.787	92.19
313.017	92.19
313.246	95.19
313.476	89.19
313.706	100.19
313.935	101.19
314.165	104.19
314.394	99.19
314.624	85.19
314.853	103.19
315.083	90.19
315.312	99.19
315.542	84.19
315.771	101.19
316.001	106.19
316.23	97.19
316.46	84.19
316.689	76.19
316.919	91.19
317.148	96.19
317.377	86.19
317.607	98.19
317.836	91.19
318.065	89.19
318.295	97.19
318.524	91.19
318.753	91.19
318.983	95.19
319.212	103.19
319.441	108.19
319.67	99.19
319.9	84.19
320.129	94.19
320.358	87.19
320.587	103.19
320.816	102.19
321.046	111.19
321.275	107.19
321.504	110.19
321.733	101.19
321.962	92.19
322.191	106.19
322.42	108.19
322.649	107.19
322.878	84.19
323.108	87.19
323.337	121.19
323.566	113.19
323.795	130.19
324.024	170.19
324.253	309.19
324.482	634.19
324.71	1224.19
324.939	1509.19
325.168	572.19
325.397	193.19
325.626	119.19
325.855	121.19
326.084	126.19
326.313	132.19
326.542	135.19
326.77	176.19
326.999	328.19
327.228	713.19
327.457	1212.19
327.686	934.19
327.914	271.19
328.143	145.19
328.372	134.19
328.6	122.19
328.829	107.19
329.058	116.19
329.287	115.19
329.515	110.19
329.744	105.19
329.972	95.19
330.201	106.19
330.43	99.19
330.658	129.19
330.887	122.19
331.115	109.19
331.344	93.19
331.572	94.19
331.801	91.19
332.03	102.19
332.258	107.19
332.486	92.19
332.715	92.19
332.943	94.19
333.172	86.19
333.4	108.19
333.629	93.19
333.857	109.19
334.085	99.19
334.314	111.19
334.542	88.19
334.771	103.19
334.999	115.19
335.227	99.19
335.455	98.19
335.684	101.19
335.912	100.19
336.14	99.19
336.369	103.19
336.597	100.19
336.825	87.19
337.053	93.19
337.281	99.19
337.51	94.19
337.738	94.19
337.966	91.19
338.194	98.19
338.422	78.19
338.65	110.19
338.878	95.19
339.106	92.19
339.334	88.19
339.562	79.19
339.79	98.19
340.018	89.19
340.246	95.19
340.474	97.19
340.702	103.19
340.93	103.19
341.158	81.19
341.386	95.19
341.614	94.19
341.842	83.19
342.07	92.19
342.298	90.19
342.526	91.19
342.754	92.19
342.981	83.19
343.209	85.19
343.437	100.19
343.665	98.19
343.893	81.19
344.12	98.19
344.348	103.19
344.576	89.19
344.804	97.19
345.031	93.19
345.259	87.19
345.487	106.19
345.714	101.19
345.942	81.19
346.17	94.19
346.397	89.19
346.625	89.19
346.853	76.19
347.08	99.19
347.308	93.19
347.535	105.19
347.763	99.19
347.99	103.19
348.218	99.19
348.445	114.19
348.673	91.19
348.9	88.19
349.128	86.19
349.355	85.19
349.583	92.19
349.81	99.19
350.037	97.19
350.265	92.19
350.492	101.19
350.72	107.19
350.947	92.19
351.174	109.19
351.402	97.19
351.629	84.19
351.856	102.19
352.083	106.19
352.311	108.19
352.538	97.19
352.765	100.19
352.992	99.19
353.22	99.19
353.447	96.19
353.674	99.19
353.901	94.19
354.128	87.19
354.355	99.19
354.583	98.19
354.81	98.19
355.037	103.19
355.264	94.19
355.491	87.19
355.718	97.19
355.945	94.19
356.172	94.19
356.399	107.19
356.626	102.19
356.853	90.19
357.08	103.19
357.307	86.19
357.534	84.19
357.761	101.19
357.988	100.19
358.215	103.19
358.441	111.19
358.668	101.19
358.895	100.19
359.122	107.19
359.349	83.19
359.576	95.19
359.802	117.19
360.029	101.19
360.256	111.19
360.483	90.19
360.709	101.19
360.936	104.19
361.163	89.19
361.39	111.19
361.616	93.19
361.843	75.19
362.07	104.19
362.296	105.19
362.523	98.19
362.749	94.19
362.976	95.19
363.203	97.19
363.429	92.19
363.656	99.19
363.882	99.19
364.109	92.19
364.335	100.19
364.562	99.19
364.788	93.19
365.015	98.19
365.241	94.19
365.468	91.19
365.694	98.19
365.92	90.19
366.147	86.19
366.373	96.19
366.599	90.19
366.826	92.19
367.052	77.19
367.278	84.19
367.505	93.19
367.731	75.19
367.957	103.19
368.184	99.19
368.41	99.19
368.636	103.19
368.862	112.19
369.089	108.19
369.315	88.19
369.541	93.19
369.767	95.19
369.993	84.19
370.219	81.19
370.445	83.19
370.672	89.19
370.898	94.19
371.124	102.19
371.35	99.19
371.576	87.19
371.802	82.19
372.028	101.19
372.254	89.19
372.48	92.19
372.706	79.19
372.932	91.19
373.158	85.19
373.384	93.19
373.61	98.19
373.835	85.19
374.061	92.19
374.287	89.19
374.513	109.19
374.739	102.19
374.965	87.19
375.191	101.19
375.416	86.19
375.642	77.19
375.868	104.19
376.094	97.19
376.319	85.19
376.545	81.19
376.771	93.19
376.997	79.19
377.222	103.19
377.448	83.19
377.674	93.19
377.899	98.19
378.125	84.19
378.35	87.19
378.576	93.19
378.802	84.19
379.027	96.19
379.253	97.19
379.478	110.19
379.704	95.19
379.929	105.19
380.155	104.19
380.38	93.19
380.606	106.19
380.831	117.19
381.057	110.19
381.282	85.19
381.507	94.19
381.733	108.19
381.958	100.19
382.184	114.19
382.409	122.19
382.634	106.19
382.86	115.19
383.085	107.19
383.31	102.19
383.535	100.19
383.761	117.19
383.986	86.19
384.211	107.19
384.436	91.19
384.662	108.19
384.887	100.19
385.112	121.19
385.337	116.19
385.562	116.19
385.787	116.19
386.013	122.19
386.238	126.19
386.463	106.19
386.688	115.19
386.913	99.19
387.138	122.19
387.363	109.19
387.588	102.19
387.813	117.19
388.038	111.19
388.263	119.19
388.488	129.19
388.713	94.19
388.938	90.19
389.163	116.19
389.387	92.19
389.612	88.19
389.837	94.19
390.062	90.19
390.287	105.19
390.512	110.19
390.736	105.19
390.961	90.19
391.186	98.19
391.411	84.19
391.636	97.19
391.86	92.19
392.085	98.19
392.31	88.19
392.534	91.19
392.759	83.19
392.984	99.19
393.208	97.19
393.433	107.19
393.658	102.19
393.882	94.19
394.107	93.19
394.331	84.19
394.556	85.19
394.78	89.19
395.005	81.19
395.229	86.19
395.454	88.19
395.678	89.19
395.903	89.19
396.127	100.19
396.352	95.19
396.576	90.19
396.801	93.19
397.025	90.19
397.249	88.19
397.474	82.19
397.698	89.19
397.922	75.19
398.147	89.19
398.371	85.19
398.595	84.19
398.82	83.19
399.044	90.19
399.268	91.19
399.492	84.19
399.717	90.19
399.941	90.19
400.165	93.19
400.389	93.19
400.613	91.19
400.837	85.19
401.062	95.19
401.286	78.19
401.51	100.19
401.734	94.19
401.958	98.19
402.182	119.19
402.406	117.19
402.63	118.19
402.854	99.19
403.078	93.19
403.302	80.19
403.526	94.19
403.75	95.19
403.974	82.19
404.198	95.19
404.422	99.19
404.645	91.19
404.869	95.19
405.093	89.19
405.317	97.19
405.541	102.19
405.765	99.19
405.988	91.19
406.212	154.19
406.436	179.19
406.66	130.19
406.883	93.19
407.107	102.19
407.331	87.19
407.555	98.19
407.778	96.19
408.002	91.19
408.226	88.19
408.449	101.19
408.673	95.19
408.896	94.19
409.12	95.19
409.344	82.19
409.567	95.19
409.791	98.19
410.014	84.19
410.238	98.19
410.461	87.19
410.685	95.19
410.908	109.19
411.132	96.19
411.355	107.19
411.578	95.19
411.802	82.19
412.025	100.19
412.249	92.19
412.472	86.19
412.695	89.19
412.919	78.19
413.142	69.19
413.365	76.19
413.589	91.19
413.812	95.19
414.035	98.19
414.258	87.19
414.482	85.19
414.705	102.19
414.928	97.19
415.151	86.19
415.374	95.19
415.597	97.19
415.821	77.19
416.044	102.19
416.267	88.19
416.49	93.19
416.713	92.19
416.936	87.19
417.159	91.19
417.382	106.19
417.605	80.19
417.828	94.19
418.051	98.19
418.274	100.19
418.497	93.19
418.72	72.19
418.943	96.19
419.166	89.19
419.389	91.19
419.611	90.19
419.834	90.19
420.057	90.19
420.28	101.19
420.503	96.19
420.726	92.19
420.948	82.19
421.171	88.19
421.394	89.19
421.617	97.19
421.839	85.19
422.062	86.19
422.285	101.19
422.507	102.19
422.73	93.19
422.953	107.19
423.175	81.19
423.398	87.19
423.621	86.19
423.843	84.19
424.066	79.19
424.288	90.19
424.511	92.19
424.733	85.19
424.956	85.19
425.178	111.19
425.401	78.19
425.623	103.19
425.846	85.19
426.068	101.19
426.291	98.19
426.513	82.19
426.735	85.19
426.958	91.19
427.18	109.19
427.402	138.19
427.625	149.19
427.847	118.19
428.069	98.19
428.292	85.19
428.514	92.19
428.736	81.19
428.958	84.19
429.181	80.19
429.403	94.19
429.625	86.19
429.847	86.19
430.069	102.19
430.292	100.19
430.514	80.19
430.736	82.19
430.958	84.19
431.18	68.19
431.402	77.19
431.624	77.19
431.846	106.19
432.068	85.19
432.29	75.19
432.512	97.19
432.734	90.19
432.956	95.19
433.178	108.19
433.4	98.19
433.622	98.19
433.844	80.19
434.066	99.19
434.287	75.19
434.509	91.19
434.731	86.19
434.953	83.19
435.175	90.19
435.397	84.19
435.618	85.19
435.84	92.19
436.062	104.19
436.284	100.19
436.505	102.19
436.727	106.19
436.949	97.19
437.17	101.19
437.392	76.19
437.614	92.19
437.835	99.19
438.057	105.19
438.278	113.19
438.5	99.19
438.721	114.19
438.943	97.19
439.165	82.19
439.386	86.19
439.608	103.19
439.829	102.19
440.05	106.19
440.272	124.19
440.493	101.19
440.715	100.19
440.936	93.19
441.158	89.19
441.379	93.19
441.6	103.19
441.822	102.19
442.043	99.19
442.264	109.19
442.486	111.19
442.707	86.19
442.928	94.19
443.149	110.19
443.371	126.19
443.592	110.19
443.813	102.19
444.034	109.19
444.255	86.19
444.476	91.19
444.698	80.19
444.919	93.19
445.14	126.19
445.361	122.19
445.582	112.19
445.803	126.19
446.024	134.19
446.245	114.19
446.466	109.19
446.687	98.19
446.908	88.19
447.129	77.19
447.35	92.19
447.571	102.19
447.792	100.19
448.013	101.19
448.234	95.19
448.455	98.19
448.675	114.19
448.896	102.19
449.117	103.19
449.338	111.19
449.559	120.19
449.779	132.19
450	99.19
450.221	71.19
450.442	96.19
450.662	101.19
450.883	102.19
451.104	110.19
451.324	109.19
451.545	93.19
451.766	84.19
451.986	90.19
452.207	104.19
452.428	97.19
452.648	88.19
452.869	111.19
453.089	101.19
453.31	106.19
453.53	104.19
453.751	98.19
453.971	82.19
454.192	96.19
454.412	78.19
454.633	93.19
454.853	91.19
455.073	105.19
455.294	90.19
455.514	91.19
455.734	82.19
455.955	95.19
456.175	91.19
456.395	81.19
456.616	84.19
456.836	101.19
457.056	91.19
457.276	94.19
457.497	93.19
457.717	86.19
457.937	81.19
458.157	87.19
458.377	100.19
458.598	104.19
458.818	135.19
459.038	135.19
459.258	110.19
459.478	97.19
459.698	70.19
459.918	88.19
460.138	91.19
460.358	86.19
460.578	84.19
460.798	67.19
461.018	86.19
461.238	97.19
461.458	101.19
461.678	97.19
461.898	79.19
462.118	95.19
462.338	92.19
462.558	83.19
462.777	75.19
462.997	89.19
463.217	100.19
463.437	85.19
463.657	82.19
463.876	100.19
464.096	90.19
464.316	94.19
464.536	89.19
464.755	101.19
464.975	101.19
465.195	142.19
465.414	135.19
465.634	82.19
465.854	92.19
466.073	80.19
466.293	90.19
466.512	102.19
466.732	89.19
466.951	86.19
467.171	97.19
467.391	90.19
467.61	95.19
467.829	84.19
468.049	88.19
468.268	83.19
468.488	97.19
468.707	90.19
468.927	87.19
469.146	95.19
469.365	88.19
469.585	85.19
469.804	87.19
470.023	91.19
470.243	94.19
470.462	109.19
470.681	90.19
470.901	90.19
471.12	93.19
471.339	99.19
471.558	95.19
471.777	93.19
471.997	83.19
472.216	82.19
472.435	81.19
472.654	91.19
472.873	89.19
473.092	96.19
473.311	102.19
473.53	100.19
473.749	90.19
473.968	85.19
474.187	103.19
474.406	94.19
474.625	95.19
474.844	91.19
475.063	86.19
475.282	83.19
475.501	94.19
475.72	93.19
475.939	91.19
476.158	99.19
476.377	85.19
476.596	86.19
476.814	105.19
477.033	108.19
477.252	87.19
477.471	93.19
477.69	85.19
477.908	92.19
478.127	97.19
478.346	95.19
478.564	101.19
478.783	101.19
479.002	86.19
479.22	95.19
479.439	101.19
479.658	108.19
479.876	95.19
480.095	88.19
480.313	81.19
480.532	92.19
480.751	86.19
480.969	83.19
481.188	103.19
481.406	102.19
481.624	91.19
481.843	88.19
482.061	78.19
482.28	89.19
482.498	89.19
482.717	94.19
482.935	99.19
483.153	101.19
483.372	98.19
483.59	94.19
483.808	76.19
484.027	87.19
484.245	89.19
484.463	93.19
484.681	100.19
484.9	96.19
485.118	99.19
485.336	102.19
485.554	99.19
485.772	96.19
485.99	103.19
486.209	98.19
486.427	107.19
486.645	106.19
486.863	107.19
487.081	113.19
487.299	97.19
487.517	100.19
487.735	102.19
487.953	89.19
488.171	85.19
488.389	88.19
488.607	84.19
488.825	76.19
489.043	93.19
489.261	84.19
489.479	89.19
489.696	88.19
489.914	94.19
490.132	101.19
490.35	96.19
490.568	91.19
490.786	85.19
491.003	89.19
491.221	101.19
491.439	93.19
491.657	92.19
491.874	104.19
492.092	92.19
492.31	96.19
492.527	90.19
492.745	101.19
492.963	89.19
493.18	88.19
493.398	91.19
493.615	104.19
493.833	94.19
494.05	98.19
494.268	87.19
494.485	99.19
494.703	101.19
494.92	85.19
495.138	90.19
495.355	91.19
495.573	100.19
495.79	85.19
496.008	84.19
496.225	88.19
496.442	81.19
496.66	109.19
496.877	90.19
497.094	97.19
497.312	97.19
497.529	86.19
497.746	84.19
497.963	92.19
498.181	101.19
498.398	91.19
498.615	101.19
498.832	97.19
499.049	85.19
499.267	87.19
499.484	100.19
499.701	87.19
499.918	90.19
500.135	94.19
500.352	83.19
500.569	92.19
500.786	93.19
501.003	91.19
501.22	102.19
501.437	95.19
501.654	89.19
501.871	105.19
502.088	89.19
502.305	88.19
502.522	115.19
502.739	92.19
502.956	86.19
503.172	92.19
503.389	98.19
503.606	100.19
503.823	104.19
504.04	102.19
504.256	107.19
504.473	95.19
504.69	99.19
504.907	96.19
505.123	103.19
505.34	95.19
505.557	87.19
505.773	105.19
505.99	98.19
506.207	89.19
506.423	105.19
506.64	107.19
506.856	90.19
507.073	99.19
507.289	93.19
507.506	91.19
507.722	116.19
507.939	110.19
508.155	103.19
508.372	107.19
508.588	101.19
508.805	103.19
509.021	95.19
509.238	101.19
509.454	102.19
509.67	101.19
509.887	98.19
510.103	123.19
510.319	186.19
510.536	593.19
510.752	1713.19
510.968	514.19
511.184	144.19
511.401	109.19
511.617	92.19
511.833	103.19
512.049	104.19
512.265	95.19
512.481	94.19
512.698	108.19
512.914	82.19
513.13	108.19
513.346	102.19
513.562	99.19
513.778	90.19
513.994	97.19
514.21	111.19
514.426	110.19
514.642	113.19
514.858	116.19
515.074	136.19
515.29	365.19
