Data from Uncirc_2001_H10_HRD10591_00096.txt Node
Date: Wed Jan 03 10:44:16 EST 2024
User: Yrep
Spectrometer: HR+D1059
Trigger mode: 1
Integration Time (sec): 1.000000E-1
Scans to average: 1
Electric dark correction enabled: true
Nonlinearity correction enabled: false
Boxcar width: 0
XAxis mode: Wavelengths
Number of Pixels in Spectrum: 2048
>>>>>Begin Spectral Data<<<<<
223.165	-11.12
223.4	-11.12
223.635	-11.12
223.869	-23.12
224.104	-23.12
224.338	-4.12
224.573	-9.12
224.808	-2.12
225.042	-12.12
225.277	-5.12
225.511	0.88
225.746	-5.12
225.98	-9.12
226.215	10.88
226.449	7.88
226.683	21.88
226.918	34.88
227.152	27.88
227.387	39.88
227.621	50.88
227.856	44.88
228.09	34.88
228.324	64.88
228.559	57.88
228.793	57.88
229.027	64.88
229.262	57.88
229.496	70.88
229.73	96.88
229.964	84.88
230.199	76.88
230.433	83.88
230.667	76.88
230.901	77.88
231.136	68.88
231.37	81.88
231.604	76.88
231.838	70.88
232.072	69.88
232.306	88.88
232.541	90.88
232.775	78.88
233.009	94.88
233.243	71.88
233.477	98.88
233.711	94.88
233.945	78.88
234.179	76.88
234.413	85.88
234.647	104.88
234.881	91.88
235.115	80.88
235.349	80.88
235.583	85.88
235.817	80.88
236.051	91.88
236.285	80.88
236.519	70.88
236.753	75.88
236.987	72.88
237.221	82.88
237.455	82.88
237.689	73.88
237.922	91.88
238.156	62.88
238.39	84.88
238.624	74.88
238.858	69.88
239.091	77.88
239.325	72.88
239.559	86.88
239.793	80.88
240.027	69.88
240.26	75.88
240.494	65.88
240.728	76.88
240.961	72.88
241.195	85.88
241.429	72.88
241.662	77.88
241.896	76.88
242.13	87.88
242.363	81.88
242.597	82.88
242.83	80.88
243.064	74.88
243.298	66.88
243.531	86.88
243.765	74.88
243.998	68.88
244.232	74.88
244.465	98.88
244.699	80.88
244.932	88.88
245.166	80.88
245.399	78.88
245.633	72.88
245.866	84.88
246.099	91.88
246.333	76.88
246.566	81.88
246.8	88.88
247.033	81.88
247.266	73.88
247.5	79.88
247.733	69.88
247.966	77.88
248.2	77.88
248.433	87.88
248.666	73.88
248.899	64.88
249.133	94.88
249.366	99.88
249.599	93.88
249.832	86.88
250.066	81.88
250.299	76.88
250.532	85.88
250.765	84.88
250.998	79.88
251.231	91.88
251.465	102.88
251.698	81.88
251.931	83.88
252.164	93.88
252.397	71.88
252.63	90.88
252.863	64.88
253.096	85.88
253.329	87.88
253.562	83.88
253.795	88.88
254.028	81.88
254.261	83.88
254.494	88.88
254.727	75.88
254.96	83.88
255.193	92.88
255.426	80.88
255.659	70.88
255.892	85.88
256.124	83.88
256.357	99.88
256.59	82.88
256.823	68.88
257.056	83.88
257.289	91.88
257.521	89.88
257.754	88.88
257.987	77.88
258.22	79.88
258.452	83.88
258.685	92.88
258.918	88.88
259.151	89.88
259.383	76.88
259.616	86.88
259.849	85.88
260.081	84.88
260.314	68.88
260.547	87.88
260.779	92.88
261.012	84.88
261.244	91.88
261.477	73.88
261.71	90.88
261.942	99.88
262.175	106.88
262.407	93.88
262.64	98.88
262.872	90.88
263.105	101.88
263.337	93.88
263.57	92.88
263.802	76.88
264.035	86.88
264.267	88.88
264.499	79.88
264.732	76.88
264.964	86.88
265.197	88.88
265.429	94.88
265.661	86.88
265.894	95.88
266.126	82.88
266.358	81.88
266.591	80.88
266.823	85.88
267.055	78.88
267.287	77.88
267.52	84.88
267.752	90.88
267.984	91.88
268.216	74.88
268.448	75.88
268.681	84.88
268.913	85.88
269.145	95.88
269.377	100.88
269.609	84.88
269.841	74.88
270.073	86.88
270.306	85.88
270.538	89.88
270.77	83.88
271.002	95.88
271.234	70.88
271.466	95.88
271.698	82.88
271.93	88.88
272.162	88.88
272.394	83.88
272.626	82.88
272.858	72.88
273.09	74.88
273.322	65.88
273.553	85.88
273.785	80.88
274.017	74.88
274.249	69.88
274.481	91.88
274.713	78.88
274.945	89.88
275.176	92.88
275.408	98.88
275.64	93.88
275.872	84.88
276.104	80.88
276.335	90.88
276.567	106.88
276.799	101.88
277.031	89.88
277.262	89.88
277.494	92.88
277.726	89.88
277.957	92.88
278.189	76.88
278.421	97.88
278.652	80.88
278.884	86.88
279.115	77.88
279.347	97.88
279.579	83.88
279.81	89.88
280.042	96.88
280.273	81.88
280.505	80.88
280.736	80.88
280.968	77.88
281.199	95.88
281.431	88.88
281.662	102.88
281.894	114.88
282.125	100.88
282.356	123.88
282.588	146.88
282.819	115.88
283.051	88.88
283.282	79.88
283.513	69.88
283.745	85.88
283.976	85.88
284.207	90.88
284.439	82.88
284.67	81.88
284.901	77.88
285.132	86.88
285.364	86.88
285.595	72.88
285.826	87.88
286.057	94.88
286.288	86.88
286.52	84.88
286.751	96.88
286.982	78.88
287.213	81.88
287.444	82.88
287.675	81.88
287.906	90.88
288.138	100.88
288.369	90.88
288.6	96.88
288.831	92.88
289.062	88.88
289.293	90.88
289.524	90.88
289.755	94.88
289.986	92.88
290.217	87.88
290.448	91.88
290.679	91.88
290.91	89.88
291.141	82.88
291.371	97.88
291.602	94.88
291.833	90.88
292.064	94.88
292.295	97.88
292.526	89.88
292.757	68.88
292.987	91.88
293.218	101.88
293.449	95.88
293.68	102.88
293.91	91.88
294.141	92.88
294.372	80.88
294.603	88.88
294.833	77.88
295.064	93.88
295.295	92.88
295.525	88.88
295.756	103.88
295.987	109.88
296.217	151.88
296.448	132.88
296.679	98.88
296.909	69.88
297.14	98.88
297.37	80.88
297.601	81.88
297.831	99.88
298.062	101.88
298.292	91.88
298.523	102.88
298.753	92.88
298.984	96.88
299.214	88.88
299.445	80.88
299.675	90.88
299.905	101.88
300.136	83.88
300.366	87.88
300.597	102.88
300.827	88.88
301.057	104.88
301.288	100.88
301.518	94.88
301.748	92.88
301.979	99.88
302.209	86.88
302.439	91.88
302.669	78.88
302.9	87.88
303.13	98.88
303.36	88.88
303.59	105.88
303.82	107.88
304.051	83.88
304.281	84.88
304.511	97.88
304.741	102.88
304.971	93.88
305.201	88.88
305.431	77.88
305.661	82.88
305.891	93.88
306.121	101.88
306.352	117.88
306.582	86.88
306.812	86.88
307.042	98.88
307.272	84.88
307.502	98.88
307.731	90.88
307.961	112.88
308.191	92.88
308.421	94.88
308.651	92.88
308.881	86.88
309.111	96.88
309.341	92.88
309.571	93.88
309.8	105.88
310.03	107.88
310.26	103.88
310.49	107.88
310.72	83.88
310.949	91.88
311.179	99.88
311.409	100.88
311.639	99.88
311.868	106.88
312.098	87.88
312.328	96.88
312.557	94.88
312.787	96.88
313.017	88.88
313.246	97.88
313.476	90.88
313.706	95.88
313.935	92.88
314.165	106.88
314.394	96.88
314.624	100.88
314.853	99.88
315.083	101.88
315.312	86.88
315.542	81.88
315.771	87.88
316.001	86.88
316.23	98.88
316.46	83.88
316.689	89.88
316.919	81.88
317.148	98.88
317.377	92.88
317.607	89.88
317.836	92.88
318.065	78.88
318.295	91.88
318.524	92.88
318.753	83.88
318.983	92.88
319.212	103.88
319.441	123.88
319.67	110.88
319.9	100.88
320.129	121.88
320.358	90.88
320.587	81.88
320.816	92.88
321.046	89.88
321.275	100.88
321.504	92.88
321.733	89.88
321.962	92.88
322.191	106.88
322.42	110.88
322.649	116.88
322.878	117.88
323.108	119.88
323.337	122.88
323.566	143.88
323.795	148.88
324.024	184.88
324.253	376.88
324.482	780.88
324.71	1566.88
324.939	1995.88
325.168	738.88
325.397	234.88
325.626	158.88
325.855	109.88
326.084	122.88
326.313	126.88
326.542	158.88
326.77	221.88
326.999	438.88
327.228	875.88
327.457	1516.88
327.686	1231.88
327.914	332.88
328.143	176.88
328.372	155.88
328.6	114.88
328.829	102.88
329.058	119.88
329.287	134.88
329.515	106.88
329.744	100.88
329.972	98.88
330.201	102.88
330.43	119.88
330.658	134.88
330.887	146.88
331.115	112.88
331.344	106.88
331.572	102.88
331.801	113.88
332.03	102.88
332.258	100.88
332.486	88.88
332.715	97.88
332.943	83.88
333.172	103.88
333.4	92.88
333.629	107.88
333.857	117.88
334.085	105.88
334.314	108.88
334.542	89.88
334.771	95.88
334.999	117.88
335.227	103.88
335.455	83.88
335.684	88.88
335.912	85.88
336.14	84.88
336.369	112.88
336.597	103.88
336.825	93.88
337.053	86.88
337.281	89.88
337.51	85.88
337.738	104.88
337.966	108.88
338.194	95.88
338.422	92.88
338.65	98.88
338.878	79.88
339.106	108.88
339.334	93.88
339.562	92.88
339.79	91.88
340.018	86.88
340.246	90.88
340.474	91.88
340.702	100.88
340.93	91.88
341.158	88.88
341.386	91.88
341.614	117.88
341.842	86.88
342.07	105.88
342.298	98.88
342.526	91.88
342.754	92.88
342.981	96.88
343.209	87.88
343.437	92.88
343.665	89.88
343.893	99.88
344.12	103.88
344.348	94.88
344.576	93.88
344.804	97.88
345.031	95.88
345.259	112.88
345.487	92.88
345.714	92.88
345.942	83.88
346.17	95.88
346.397	92.88
346.625	85.88
346.853	102.88
347.08	86.88
347.308	100.88
347.535	103.88
347.763	102.88
347.99	111.88
348.218	107.88
348.445	106.88
348.673	88.88
348.9	102.88
349.128	94.88
349.355	93.88
349.583	91.88
349.81	107.88
350.037	86.88
350.265	88.88
350.492	104.88
350.72	94.88
350.947	105.88
351.174	118.88
351.402	93.88
351.629	104.88
351.856	96.88
352.083	102.88
352.311	104.88
352.538	123.88
352.765	105.88
352.992	114.88
353.22	117.88
353.447	106.88
353.674	116.88
353.901	100.88
354.128	101.88
354.355	102.88
354.583	104.88
354.81	97.88
355.037	101.88
355.264	104.88
355.491	104.88
355.718	89.88
355.945	86.88
356.172	106.88
356.399	89.88
356.626	95.88
356.853	93.88
357.08	109.88
357.307	92.88
357.534	92.88
357.761	88.88
357.988	92.88
358.215	96.88
358.441	83.88
358.668	90.88
358.895	90.88
359.122	92.88
359.349	89.88
359.576	103.88
359.802	97.88
360.029	121.88
360.256	118.88
360.483	106.88
360.709	81.88
360.936	99.88
361.163	85.88
361.39	96.88
361.616	86.88
361.843	105.88
362.07	91.88
362.296	93.88
362.523	104.88
362.749	86.88
362.976	88.88
363.203	91.88
363.429	94.88
363.656	98.88
363.882	88.88
364.109	97.88
364.335	82.88
364.562	94.88
364.788	101.88
365.015	94.88
365.241	117.88
365.468	105.88
365.694	109.88
365.92	106.88
366.147	91.88
366.373	99.88
366.599	106.88
366.826	108.88
367.052	86.88
367.278	93.88
367.505	85.88
367.731	100.88
367.957	103.88
368.184	88.88
368.41	100.88
368.636	116.88
368.862	112.88
369.089	104.88
369.315	94.88
369.541	98.88
369.767	92.88
369.993	89.88
370.219	76.88
370.445	85.88
370.672	93.88
370.898	94.88
371.124	82.88
371.35	102.88
371.576	93.88
371.802	62.88
372.028	85.88
372.254	81.88
372.48	80.88
372.706	84.88
372.932	94.88
373.158	87.88
373.384	90.88
373.61	83.88
373.835	97.88
374.061	91.88
374.287	92.88
374.513	97.88
374.739	88.88
374.965	86.88
375.191	95.88
375.416	103.88
375.642	97.88
375.868	79.88
376.094	95.88
376.319	89.88
376.545	85.88
376.771	85.88
376.997	83.88
377.222	92.88
377.448	89.88
377.674	88.88
377.899	81.88
378.125	78.88
378.35	94.88
378.576	88.88
378.802	82.88
379.027	92.88
379.253	100.88
379.478	93.88
379.704	104.88
379.929	104.88
380.155	101.88
380.38	94.88
380.606	100.88
380.831	103.88
381.057	90.88
381.282	93.88
381.507	93.88
381.733	98.88
381.958	96.88
382.184	95.88
382.409	85.88
382.634	81.88
382.86	106.88
383.085	106.88
383.31	106.88
383.535	97.88
383.761	91.88
383.986	100.88
384.211	101.88
384.436	100.88
384.662	94.88
384.887	99.88
385.112	96.88
385.337	105.88
385.562	95.88
385.787	81.88
386.013	102.88
386.238	112.88
386.463	107.88
386.688	101.88
386.913	97.88
387.138	101.88
387.363	94.88
387.588	108.88
387.813	101.88
388.038	102.88
388.263	109.88
388.488	85.88
388.713	92.88
388.938	95.88
389.163	100.88
389.387	96.88
389.612	81.88
389.837	90.88
390.062	83.88
390.287	88.88
390.512	96.88
390.736	86.88
390.961	99.88
391.186	102.88
391.411	91.88
391.636	100.88
391.86	89.88
392.085	92.88
392.31	81.88
392.534	85.88
392.759	103.88
392.984	93.88
393.208	93.88
393.433	86.88
393.658	90.88
393.882	85.88
394.107	90.88
394.331	91.88
394.556	76.88
394.78	82.88
395.005	79.88
395.229	90.88
395.454	98.88
395.678	91.88
395.903	90.88
396.127	93.88
396.352	85.88
396.576	92.88
396.801	76.88
397.025	80.88
397.249	83.88
397.474	79.88
397.698	91.88
397.922	74.88
398.147	99.88
398.371	83.88
398.595	76.88
398.82	85.88
399.044	86.88
399.268	88.88
399.492	84.88
399.717	91.88
399.941	81.88
400.165	99.88
400.389	112.88
400.613	93.88
400.837	91.88
401.062	78.88
401.286	88.88
401.51	84.88
401.734	109.88
401.958	105.88
402.182	135.88
402.406	165.88
402.63	137.88
402.854	91.88
403.078	92.88
403.302	96.88
403.526	92.88
403.75	86.88
403.974	82.88
404.198	80.88
404.422	83.88
404.645	95.88
404.869	98.88
405.093	103.88
405.317	96.88
405.541	96.88
405.765	104.88
405.988	123.88
406.212	173.88
406.436	233.88
406.66	150.88
406.883	104.88
407.107	94.88
407.331	94.88
407.555	98.88
407.778	103.88
408.002	102.88
408.226	100.88
408.449	89.88
408.673	87.88
408.896	85.88
409.12	101.88
409.344	86.88
409.567	74.88
409.791	103.88
410.014	94.88
410.238	91.88
410.461	93.88
410.685	108.88
410.908	96.88
411.132	96.88
411.355	89.88
411.578	92.88
411.802	80.88
412.025	89.88
412.249	79.88
412.472	93.88
412.695	98.88
412.919	94.88
413.142	101.88
413.365	96.88
413.589	76.88
413.812	95.88
414.035	102.88
414.258	79.88
414.482	95.88
414.705	85.88
414.928	96.88
415.151	93.88
415.374	87.88
415.597	82.88
415.821	75.88
416.044	86.88
416.267	98.88
416.49	87.88
416.713	87.88
416.936	84.88
417.159	100.88
417.382	99.88
417.605	78.88
417.828	114.88
418.051	88.88
418.274	88.88
418.497	91.88
418.72	91.88
418.943	82.88
419.166	86.88
419.389	88.88
419.611	90.88
419.834	104.88
420.057	91.88
420.28	94.88
420.503	85.88
420.726	80.88
420.948	73.88
421.171	102.88
421.394	92.88
421.617	90.88
421.839	88.88
422.062	94.88
422.285	96.88
422.507	104.88
422.73	110.88
422.953	77.88
423.175	96.88
423.398	96.88
423.621	96.88
423.843	85.88
424.066	99.88
424.288	86.88
424.511	96.88
424.733	94.88
424.956	98.88
425.178	99.88
425.401	106.88
425.623	105.88
425.846	86.88
426.068	96.88
426.291	82.88
426.513	93.88
426.735	86.88
426.958	101.88
427.18	100.88
427.402	144.88
427.625	162.88
427.847	110.88
428.069	97.88
428.292	103.88
428.514	76.88
428.736	83.88
428.958	88.88
429.181	85.88
429.403	89.88
429.625	99.88
429.847	91.88
430.069	87.88
430.292	82.88
430.514	71.88
430.736	86.88
430.958	78.88
431.18	86.88
431.402	92.88
431.624	98.88
431.846	91.88
432.068	88.88
432.29	101.88
432.512	95.88
432.734	95.88
432.956	103.88
433.178	98.88
433.4	92.88
433.622	99.88
433.844	89.88
434.066	94.88
434.287	99.88
434.509	96.88
434.731	81.88
434.953	88.88
435.175	74.88
435.397	97.88
435.618	86.88
435.84	106.88
436.062	122.88
436.284	115.88
436.505	99.88
436.727	107.88
436.949	85.88
437.17	96.88
437.392	98.88
437.614	85.88
437.835	114.88
438.057	124.88
438.278	120.88
438.5	87.88
438.721	120.88
438.943	96.88
439.165	81.88
439.386	94.88
439.608	87.88
439.829	88.88
440.05	103.88
440.272	134.88
440.493	92.88
440.715	94.88
440.936	89.88
441.158	88.88
441.379	102.88
441.6	95.88
441.822	112.88
442.043	104.88
442.264	97.88
442.486	97.88
442.707	86.88
442.928	109.88
443.149	113.88
443.371	133.88
443.592	123.88
443.813	96.88
444.034	109.88
444.255	99.88
444.476	90.88
444.698	100.88
444.919	84.88
445.14	122.88
445.361	135.88
445.582	95.88
445.803	140.88
446.024	128.88
446.245	121.88
446.466	98.88
446.687	77.88
446.908	86.88
447.129	84.88
447.35	85.88
447.571	100.88
447.792	102.88
448.013	108.88
448.234	124.88
448.455	109.88
448.675	122.88
448.896	117.88
449.117	93.88
449.338	103.88
449.559	130.88
449.779	135.88
450	91.88
450.221	92.88
450.442	81.88
450.662	95.88
450.883	108.88
451.104	122.88
451.324	94.88
451.545	87.88
451.766	85.88
451.986	87.88
452.207	93.88
452.428	88.88
452.648	105.88
452.869	105.88
453.089	123.88
453.31	111.88
453.53	94.88
453.751	85.88
453.971	108.88
454.192	108.88
454.412	93.88
454.633	96.88
454.853	90.88
455.073	89.88
455.294	101.88
455.514	98.88
455.734	97.88
455.955	86.88
456.175	78.88
456.395	80.88
456.616	82.88
456.836	82.88
457.056	87.88
457.276	88.88
457.497	81.88
457.717	80.88
457.937	69.88
458.157	85.88
458.377	83.88
458.598	106.88
458.818	145.88
459.038	158.88
459.258	122.88
459.478	79.88
459.698	91.88
459.918	92.88
460.138	81.88
460.358	81.88
460.578	95.88
460.798	89.88
461.018	90.88
461.238	99.88
461.458	77.88
461.678	85.88
461.898	80.88
462.118	74.88
462.338	91.88
462.558	82.88
462.777	84.88
462.997	83.88
463.217	81.88
463.437	95.88
463.657	88.88
463.876	98.88
464.096	93.88
464.316	106.88
464.536	97.88
464.755	94.88
464.975	109.88
465.195	189.88
465.414	172.88
465.634	109.88
465.854	90.88
466.073	92.88
466.293	77.88
466.512	93.88
466.732	85.88
466.951	88.88
467.171	89.88
467.391	90.88
467.61	114.88
467.829	99.88
468.049	78.88
468.268	88.88
468.488	102.88
468.707	84.88
468.927	98.88
469.146	71.88
469.365	84.88
469.585	94.88
469.804	94.88
470.023	81.88
470.243	97.88
470.462	100.88
470.681	109.88
470.901	91.88
471.12	85.88
471.339	82.88
471.558	81.88
471.777	86.88
471.997	89.88
472.216	96.88
472.435	87.88
472.654	100.88
472.873	99.88
473.092	85.88
473.311	83.88
473.53	80.88
473.749	82.88
473.968	100.88
474.187	100.88
474.406	103.88
474.625	94.88
474.844	97.88
475.063	92.88
475.282	81.88
475.501	85.88
475.72	84.88
475.939	96.88
476.158	85.88
476.377	79.88
476.596	81.88
476.814	93.88
477.033	87.88
477.252	86.88
477.471	88.88
477.69	97.88
477.908	100.88
478.127	94.88
478.346	77.88
478.564	92.88
478.783	82.88
479.002	89.88
479.22	99.88
479.439	112.88
479.658	109.88
479.876	87.88
480.095	96.88
480.313	99.88
480.532	108.88
480.751	90.88
480.969	99.88
481.188	115.88
481.406	102.88
481.624	100.88
481.843	86.88
482.061	97.88
482.28	83.88
482.498	90.88
482.717	98.88
482.935	84.88
483.153	98.88
483.372	81.88
483.59	86.88
483.808	86.88
484.027	99.88
484.245	84.88
484.463	69.88
484.681	97.88
484.9	81.88
485.118	107.88
485.336	104.88
485.554	114.88
485.772	102.88
485.99	112.88
486.209	94.88
486.427	90.88
486.645	112.88
486.863	122.88
487.081	89.88
487.299	102.88
487.517	85.88
487.735	89.88
487.953	80.88
488.171	88.88
488.389	103.88
488.607	103.88
488.825	100.88
489.043	79.88
489.261	102.88
489.479	104.88
489.696	92.88
489.914	85.88
490.132	85.88
490.35	100.88
490.568	89.88
490.786	78.88
491.003	84.88
491.221	92.88
491.439	89.88
491.657	91.88
491.874	98.88
492.092	90.88
492.31	88.88
492.527	94.88
492.745	85.88
492.963	87.88
493.18	81.88
493.398	93.88
493.615	89.88
493.833	97.88
494.05	91.88
494.268	86.88
494.485	102.88
494.703	100.88
494.92	98.88
495.138	96.88
495.355	84.88
495.573	88.88
495.79	82.88
496.008	89.88
496.225	93.88
496.442	94.88
496.66	82.88
496.877	78.88
497.094	90.88
497.312	85.88
497.529	83.88
497.746	94.88
497.963	98.88
498.181	84.88
498.398	83.88
498.615	97.88
498.832	98.88
499.049	86.88
499.267	87.88
499.484	85.88
499.701	78.88
499.918	90.88
500.135	86.88
500.352	76.88
500.569	74.88
500.786	86.88
501.003	93.88
501.22	78.88
501.437	85.88
501.654	89.88
501.871	95.88
502.088	102.88
502.305	101.88
502.522	98.88
502.739	89.88
502.956	90.88
503.172	99.88
503.389	84.88
503.606	108.88
503.823	92.88
504.04	77.88
504.256	79.88
504.473	91.88
504.69	100.88
504.907	98.88
505.123	81.88
505.34	84.88
505.557	95.88
505.773	93.88
505.99	99.88
506.207	104.88
506.423	102.88
506.64	86.88
506.856	92.88
507.073	99.88
507.289	101.88
507.506	78.88
507.722	112.88
507.939	120.88
508.155	90.88
508.372	92.88
508.588	82.88
508.805	73.88
509.021	118.88
509.238	109.88
509.454	100.88
509.67	107.88
509.887	109.88
510.103	130.88
510.319	222.88
510.536	812.88
510.752	2512.88
510.968	690.88
511.184	154.88
511.401	110.88
511.617	87.88
511.833	111.88
512.049	102.88
512.265	93.88
512.481	100.88
512.698	93.88
512.914	91.88
513.13	88.88
513.346	78.88
513.562	94.88
513.778	102.88
513.994	89.88
514.21	97.88
514.426	125.88
514.642	138.88
514.858	125.88
515.074	170.88
515.29	513.88
