Data from Uncirc_2001_H10_HRD10591_00038.txt Node
Date: Wed Jan 03 10:44:04 EST 2024
User: Yrep
Spectrometer: HR+D1059
Trigger mode: 1
Integration Time (sec): 1.000000E-1
Scans to average: 1
Electric dark correction enabled: true
Nonlinearity correction enabled: false
Boxcar width: 0
XAxis mode: Wavelengths
Number of Pixels in Spectrum: 2048
>>>>>Begin Spectral Data<<<<<
223.165	-23.81
223.4	-23.81
223.635	-23.81
223.869	-22.81
224.104	-19.81
224.338	-14.81
224.573	-27.81
224.808	-7.81
225.042	-8.81
225.277	3.19
225.511	9.19
225.746	4.19
225.98	10.19
226.215	2.19
226.449	5.19
226.683	20.19
226.918	43.19
227.152	28.19
227.387	34.19
227.621	33.19
227.856	43.19
228.09	52.19
228.324	53.19
228.559	58.19
228.793	56.19
229.027	69.19
229.262	59.19
229.496	80.19
229.73	97.19
229.964	74.19
230.199	71.19
230.433	80.19
230.667	85.19
230.901	90.19
231.136	87.19
231.37	75.19
231.604	75.19
231.838	73.19
232.072	79.19
232.306	69.19
232.541	63.19
232.775	90.19
233.009	93.19
233.243	86.19
233.477	95.19
233.711	79.19
233.945	74.19
234.179	75.19
234.413	74.19
234.647	78.19
234.881	75.19
235.115	76.19
235.349	92.19
235.583	77.19
235.817	73.19
236.051	81.19
236.285	70.19
236.519	75.19
236.753	66.19
236.987	79.19
237.221	75.19
237.455	79.19
237.689	65.19
237.922	82.19
238.156	74.19
238.39	78.19
238.624	71.19
238.858	90.19
239.091	78.19
239.325	73.19
239.559	72.19
239.793	83.19
240.027	88.19
240.26	73.19
240.494	80.19
240.728	72.19
240.961	67.19
241.195	81.19
241.429	68.19
241.662	73.19
241.896	70.19
242.13	70.19
242.363	67.19
242.597	69.19
242.83	80.19
243.064	45.19
243.298	80.19
243.531	78.19
243.765	86.19
243.998	82.19
244.232	81.19
244.465	77.19
244.699	80.19
244.932	83.19
245.166	79.19
245.399	90.19
245.633	90.19
245.866	73.19
246.099	76.19
246.333	79.19
246.566	73.19
246.8	70.19
247.033	92.19
247.266	78.19
247.5	80.19
247.733	83.19
247.966	80.19
248.2	84.19
248.433	83.19
248.666	69.19
248.899	92.19
249.133	80.19
249.366	97.19
249.599	87.19
249.832	87.19
250.066	75.19
250.299	76.19
250.532	73.19
250.765	70.19
250.998	74.19
251.231	92.19
251.465	80.19
251.698	80.19
251.931	81.19
252.164	89.19
252.397	80.19
252.63	76.19
252.863	76.19
253.096	69.19
253.329	84.19
253.562	74.19
253.795	88.19
254.028	89.19
254.261	81.19
254.494	80.19
254.727	80.19
254.96	86.19
255.193	85.19
255.426	70.19
255.659	71.19
255.892	92.19
256.124	79.19
256.357	84.19
256.59	88.19
256.823	90.19
257.056	74.19
257.289	76.19
257.521	81.19
257.754	76.19
257.987	84.19
258.22	74.19
258.452	76.19
258.685	83.19
258.918	84.19
259.151	84.19
259.383	76.19
259.616	85.19
259.849	65.19
260.081	73.19
260.314	81.19
260.547	84.19
260.779	70.19
261.012	71.19
261.244	80.19
261.477	93.19
261.71	96.19
261.942	107.19
262.175	93.19
262.407	75.19
262.64	88.19
262.872	86.19
263.105	85.19
263.337	82.19
263.57	73.19
263.802	79.19
264.035	82.19
264.267	72.19
264.499	82.19
264.732	89.19
264.964	82.19
265.197	81.19
265.429	75.19
265.661	81.19
265.894	85.19
266.126	82.19
266.358	77.19
266.591	94.19
266.823	85.19
267.055	85.19
267.287	89.19
267.52	92.19
267.752	106.19
267.984	77.19
268.216	96.19
268.448	95.19
268.681	73.19
268.913	82.19
269.145	75.19
269.377	86.19
269.609	92.19
269.841	90.19
270.073	90.19
270.306	83.19
270.538	72.19
270.77	99.19
271.002	95.19
271.234	103.19
271.466	74.19
271.698	88.19
271.93	84.19
272.162	71.19
272.394	91.19
272.626	90.19
272.858	84.19
273.09	93.19
273.322	71.19
273.553	81.19
273.785	87.19
274.017	79.19
274.249	80.19
274.481	107.19
274.713	93.19
274.945	88.19
275.176	77.19
275.408	93.19
275.64	91.19
275.872	75.19
276.104	99.19
276.335	77.19
276.567	89.19
276.799	107.19
277.031	98.19
277.262	92.19
277.494	85.19
277.726	88.19
277.957	82.19
278.189	80.19
278.421	67.19
278.652	91.19
278.884	92.19
279.115	91.19
279.347	88.19
279.579	87.19
279.81	97.19
280.042	83.19
280.273	95.19
280.505	71.19
280.736	87.19
280.968	85.19
281.199	75.19
281.431	71.19
281.662	81.19
281.894	91.19
282.125	100.19
282.356	115.19
282.588	140.19
282.819	101.19
283.051	86.19
283.282	83.19
283.513	82.19
283.745	90.19
283.976	85.19
284.207	81.19
284.439	90.19
284.67	102.19
284.901	89.19
285.132	82.19
285.364	81.19
285.595	75.19
285.826	92.19
286.057	103.19
286.288	83.19
286.52	75.19
286.751	75.19
286.982	77.19
287.213	82.19
287.444	86.19
287.675	82.19
287.906	83.19
288.138	80.19
288.369	87.19
288.6	85.19
288.831	96.19
289.062	96.19
289.293	87.19
289.524	84.19
289.755	87.19
289.986	88.19
290.217	91.19
290.448	86.19
290.679	88.19
290.91	96.19
291.141	100.19
291.371	99.19
291.602	90.19
291.833	85.19
292.064	86.19
292.295	96.19
292.526	86.19
292.757	92.19
292.987	83.19
293.218	85.19
293.449	88.19
293.68	86.19
293.91	84.19
294.141	76.19
294.372	73.19
294.603	81.19
294.833	92.19
295.064	87.19
295.295	100.19
295.525	79.19
295.756	83.19
295.987	101.19
296.217	125.19
296.448	113.19
296.679	93.19
296.909	99.19
297.14	101.19
297.37	91.19
297.601	80.19
297.831	92.19
298.062	92.19
298.292	90.19
298.523	93.19
298.753	84.19
298.984	90.19
299.214	88.19
299.445	96.19
299.675	84.19
299.905	95.19
300.136	89.19
300.366	100.19
300.597	90.19
300.827	88.19
301.057	93.19
301.288	107.19
301.518	91.19
301.748	96.19
301.979	104.19
302.209	94.19
302.439	78.19
302.669	78.19
302.9	79.19
303.13	78.19
303.36	100.19
303.59	98.19
303.82	102.19
304.051	98.19
304.281	98.19
304.511	102.19
304.741	89.19
304.971	76.19
305.201	87.19
305.431	96.19
305.661	89.19
305.891	88.19
306.121	73.19
306.352	99.19
306.582	96.19
306.812	87.19
307.042	74.19
307.272	91.19
307.502	87.19
307.731	98.19
307.961	101.19
308.191	99.19
308.421	80.19
308.651	87.19
308.881	96.19
309.111	95.19
309.341	105.19
309.571	96.19
309.8	92.19
310.03	109.19
310.26	93.19
310.49	104.19
310.72	107.19
310.949	84.19
311.179	101.19
311.409	103.19
311.639	97.19
311.868	99.19
312.098	96.19
312.328	93.19
312.557	98.19
312.787	111.19
313.017	107.19
313.246	90.19
313.476	81.19
313.706	80.19
313.935	91.19
314.165	112.19
314.394	96.19
314.624	94.19
314.853	99.19
315.083	96.19
315.312	90.19
315.542	90.19
315.771	89.19
316.001	96.19
316.23	90.19
316.46	76.19
316.689	91.19
316.919	107.19
317.148	93.19
317.377	95.19
317.607	87.19
317.836	77.19
318.065	92.19
318.295	88.19
318.524	79.19
318.753	98.19
318.983	97.19
319.212	93.19
319.441	112.19
319.67	97.19
319.9	107.19
320.129	99.19
320.358	89.19
320.587	80.19
320.816	83.19
321.046	104.19
321.275	102.19
321.504	108.19
321.733	113.19
321.962	96.19
322.191	101.19
322.42	93.19
322.649	123.19
322.878	106.19
323.108	121.19
323.337	121.19
323.566	118.19
323.795	139.19
324.024	177.19
324.253	320.19
324.482	678.19
324.71	1329.19
324.939	1751.19
325.168	655.19
325.397	200.19
325.626	127.19
325.855	143.19
326.084	118.19
326.313	118.19
326.542	139.19
326.77	210.19
326.999	378.19
327.228	798.19
327.457	1321.19
327.686	1076.19
327.914	301.19
328.143	173.19
328.372	147.19
328.6	109.19
328.829	106.19
329.058	121.19
329.287	129.19
329.515	112.19
329.744	91.19
329.972	100.19
330.201	111.19
330.43	119.19
330.658	114.19
330.887	145.19
331.115	119.19
331.344	97.19
331.572	114.19
331.801	103.19
332.03	90.19
332.258	96.19
332.486	82.19
332.715	86.19
332.943	92.19
333.172	93.19
333.4	100.19
333.629	94.19
333.857	110.19
334.085	100.19
334.314	90.19
334.542	98.19
334.771	95.19
334.999	97.19
335.227	100.19
335.455	111.19
335.684	100.19
335.912	99.19
336.14	98.19
336.369	102.19
336.597	89.19
336.825	87.19
337.053	84.19
337.281	94.19
337.51	93.19
337.738	111.19
337.966	91.19
338.194	101.19
338.422	106.19
338.65	104.19
338.878	108.19
339.106	96.19
339.334	98.19
339.562	114.19
339.79	99.19
340.018	88.19
340.246	77.19
340.474	95.19
340.702	89.19
340.93	90.19
341.158	93.19
341.386	86.19
341.614	90.19
341.842	82.19
342.07	95.19
342.298	94.19
342.526	83.19
342.754	91.19
342.981	99.19
343.209	89.19
343.437	97.19
343.665	91.19
343.893	88.19
344.12	87.19
344.348	87.19
344.576	68.19
344.804	99.19
345.031	101.19
345.259	103.19
345.487	98.19
345.714	96.19
345.942	97.19
346.17	105.19
346.397	87.19
346.625	92.19
346.853	93.19
347.08	88.19
347.308	83.19
347.535	86.19
347.763	100.19
347.99	94.19
348.218	113.19
348.445	105.19
348.673	98.19
348.9	101.19
349.128	89.19
349.355	89.19
349.583	104.19
349.81	95.19
350.037	103.19
350.265	98.19
350.492	95.19
350.72	98.19
350.947	106.19
351.174	117.19
351.402	99.19
351.629	106.19
351.856	112.19
352.083	96.19
352.311	92.19
352.538	106.19
352.765	105.19
352.992	115.19
353.22	105.19
353.447	99.19
353.674	95.19
353.901	104.19
354.128	94.19
354.355	102.19
354.583	110.19
354.81	90.19
355.037	97.19
355.264	106.19
355.491	83.19
355.718	94.19
355.945	113.19
356.172	100.19
356.399	111.19
356.626	94.19
356.853	98.19
357.08	93.19
357.307	95.19
357.534	86.19
357.761	88.19
357.988	100.19
358.215	97.19
358.441	104.19
358.668	96.19
358.895	90.19
359.122	96.19
359.349	85.19
359.576	90.19
359.802	101.19
360.029	115.19
360.256	97.19
360.483	102.19
360.709	98.19
360.936	81.19
361.163	108.19
361.39	97.19
361.616	104.19
361.843	100.19
362.07	107.19
362.296	90.19
362.523	75.19
362.749	84.19
362.976	94.19
363.203	90.19
363.429	79.19
363.656	87.19
363.882	75.19
364.109	82.19
364.335	94.19
364.562	98.19
364.788	92.19
365.015	95.19
365.241	105.19
365.468	95.19
365.694	96.19
365.92	107.19
366.147	98.19
366.373	93.19
366.599	98.19
366.826	93.19
367.052	73.19
367.278	75.19
367.505	88.19
367.731	83.19
367.957	87.19
368.184	98.19
368.41	92.19
368.636	109.19
368.862	127.19
369.089	93.19
369.315	92.19
369.541	92.19
369.767	89.19
369.993	94.19
370.219	92.19
370.445	83.19
370.672	95.19
370.898	85.19
371.124	112.19
371.35	93.19
371.576	95.19
371.802	83.19
372.028	92.19
372.254	102.19
372.48	84.19
372.706	86.19
372.932	89.19
373.158	97.19
373.384	93.19
373.61	85.19
373.835	97.19
374.061	89.19
374.287	92.19
374.513	64.19
374.739	91.19
374.965	84.19
375.191	92.19
375.416	90.19
375.642	91.19
375.868	89.19
376.094	90.19
376.319	95.19
376.545	96.19
376.771	93.19
376.997	95.19
377.222	107.19
377.448	93.19
377.674	92.19
377.899	90.19
378.125	87.19
378.35	93.19
378.576	102.19
378.802	94.19
379.027	92.19
379.253	94.19
379.478	74.19
379.704	85.19
379.929	90.19
380.155	98.19
380.38	94.19
380.606	90.19
380.831	106.19
381.057	88.19
381.282	81.19
381.507	99.19
381.733	106.19
381.958	94.19
382.184	107.19
382.409	89.19
382.634	104.19
382.86	101.19
383.085	104.19
383.31	92.19
383.535	98.19
383.761	96.19
383.986	105.19
384.211	97.19
384.436	105.19
384.662	99.19
384.887	108.19
385.112	119.19
385.337	97.19
385.562	111.19
385.787	108.19
386.013	104.19
386.238	112.19
386.463	97.19
386.688	110.19
386.913	111.19
387.138	97.19
387.363	98.19
387.588	98.19
387.813	101.19
388.038	103.19
388.263	113.19
388.488	101.19
388.713	95.19
388.938	108.19
389.163	96.19
389.387	92.19
389.612	89.19
389.837	96.19
390.062	89.19
390.287	105.19
390.512	100.19
390.736	99.19
390.961	89.19
391.186	93.19
391.411	81.19
391.636	105.19
391.86	94.19
392.085	89.19
392.31	93.19
392.534	86.19
392.759	99.19
392.984	78.19
393.208	100.19
393.433	97.19
393.658	96.19
393.882	91.19
394.107	89.19
394.331	91.19
394.556	92.19
394.78	93.19
395.005	91.19
395.229	89.19
395.454	86.19
395.678	93.19
395.903	92.19
396.127	78.19
396.352	97.19
396.576	91.19
396.801	85.19
397.025	106.19
397.249	108.19
397.474	101.19
397.698	87.19
397.922	93.19
398.147	85.19
398.371	84.19
398.595	83.19
398.82	80.19
399.044	79.19
399.268	103.19
399.492	87.19
399.717	85.19
399.941	82.19
400.165	107.19
400.389	100.19
400.613	93.19
400.837	81.19
401.062	84.19
401.286	93.19
401.51	88.19
401.734	85.19
401.958	111.19
402.182	123.19
402.406	145.19
402.63	113.19
402.854	86.19
403.078	107.19
403.302	87.19
403.526	87.19
403.75	95.19
403.974	88.19
404.198	91.19
404.422	97.19
404.645	98.19
404.869	99.19
405.093	81.19
405.317	81.19
405.541	86.19
405.765	87.19
405.988	101.19
406.212	165.19
406.436	207.19
406.66	131.19
406.883	105.19
407.107	100.19
407.331	91.19
407.555	92.19
407.778	93.19
408.002	90.19
408.226	105.19
408.449	83.19
408.673	80.19
408.896	90.19
409.12	80.19
409.344	96.19
409.567	88.19
409.791	101.19
410.014	91.19
410.238	90.19
410.461	78.19
410.685	86.19
410.908	90.19
411.132	104.19
411.355	99.19
411.578	85.19
411.802	83.19
412.025	89.19
412.249	89.19
412.472	90.19
412.695	77.19
412.919	84.19
413.142	90.19
413.365	83.19
413.589	91.19
413.812	90.19
414.035	104.19
414.258	76.19
414.482	99.19
414.705	92.19
414.928	91.19
415.151	104.19
415.374	106.19
415.597	98.19
415.821	92.19
416.044	85.19
416.267	99.19
416.49	102.19
416.713	97.19
416.936	102.19
417.159	92.19
417.382	77.19
417.605	95.19
417.828	113.19
418.051	90.19
418.274	72.19
418.497	90.19
418.72	85.19
418.943	95.19
419.166	89.19
419.389	83.19
419.611	88.19
419.834	82.19
420.057	97.19
420.28	81.19
420.503	100.19
420.726	87.19
420.948	75.19
421.171	94.19
421.394	91.19
421.617	84.19
421.839	90.19
422.062	100.19
422.285	99.19
422.507	86.19
422.73	109.19
422.953	86.19
423.175	83.19
423.398	86.19
423.621	103.19
423.843	96.19
424.066	85.19
424.288	72.19
424.511	88.19
424.733	89.19
424.956	100.19
425.178	97.19
425.401	96.19
425.623	93.19
425.846	92.19
426.068	79.19
426.291	88.19
426.513	93.19
426.735	93.19
426.958	93.19
427.18	116.19
427.402	129.19
427.625	140.19
427.847	135.19
428.069	100.19
428.292	74.19
428.514	96.19
428.736	92.19
428.958	87.19
429.181	92.19
429.403	104.19
429.625	80.19
429.847	102.19
430.069	99.19
430.292	100.19
430.514	89.19
430.736	78.19
430.958	100.19
431.18	78.19
431.402	89.19
431.624	81.19
431.846	70.19
432.068	77.19
432.29	72.19
432.512	92.19
432.734	88.19
432.956	83.19
433.178	94.19
433.4	105.19
433.622	92.19
433.844	104.19
434.066	91.19
434.287	96.19
434.509	91.19
434.731	68.19
434.953	89.19
435.175	76.19
435.397	91.19
435.618	85.19
435.84	100.19
436.062	109.19
436.284	99.19
436.505	106.19
436.727	89.19
436.949	97.19
437.17	95.19
437.392	83.19
437.614	89.19
437.835	89.19
438.057	110.19
438.278	104.19
438.5	102.19
438.721	114.19
438.943	101.19
439.165	93.19
439.386	80.19
439.608	96.19
439.829	105.19
440.05	119.19
440.272	122.19
440.493	96.19
440.715	90.19
440.936	89.19
441.158	82.19
441.379	76.19
441.6	94.19
441.822	93.19
442.043	87.19
442.264	108.19
442.486	95.19
442.707	84.19
442.928	89.19
443.149	116.19
443.371	121.19
443.592	97.19
443.813	96.19
444.034	90.19
444.255	102.19
444.476	85.19
444.698	74.19
444.919	86.19
445.14	128.19
445.361	117.19
445.582	102.19
445.803	108.19
446.024	124.19
446.245	121.19
446.466	106.19
446.687	96.19
446.908	84.19
447.129	73.19
447.35	85.19
447.571	98.19
447.792	101.19
448.013	94.19
448.234	101.19
448.455	103.19
448.675	97.19
448.896	91.19
449.117	100.19
449.338	96.19
449.559	123.19
449.779	127.19
450	96.19
450.221	77.19
450.442	87.19
450.662	98.19
450.883	90.19
451.104	95.19
451.324	83.19
451.545	88.19
451.766	77.19
451.986	91.19
452.207	92.19
452.428	92.19
452.648	97.19
452.869	100.19
453.089	110.19
453.31	114.19
453.53	86.19
453.751	83.19
453.971	101.19
454.192	103.19
454.412	92.19
454.633	80.19
454.853	98.19
455.073	89.19
455.294	77.19
455.514	92.19
455.734	76.19
455.955	97.19
456.175	79.19
456.395	91.19
456.616	87.19
456.836	84.19
457.056	86.19
457.276	91.19
457.497	80.19
457.717	90.19
457.937	75.19
458.157	82.19
458.377	111.19
458.598	99.19
458.818	131.19
459.038	130.19
459.258	98.19
459.478	83.19
459.698	82.19
459.918	88.19
460.138	84.19
460.358	92.19
460.578	85.19
460.798	92.19
461.018	92.19
461.238	92.19
461.458	84.19
461.678	78.19
461.898	86.19
462.118	72.19
462.338	93.19
462.558	92.19
462.777	91.19
462.997	73.19
463.217	81.19
463.437	79.19
463.657	91.19
463.876	89.19
464.096	90.19
464.316	97.19
464.536	101.19
464.755	86.19
464.975	93.19
465.195	143.19
465.414	153.19
465.634	96.19
465.854	94.19
466.073	96.19
466.293	93.19
466.512	75.19
466.732	91.19
466.951	83.19
467.171	76.19
467.391	86.19
467.61	101.19
467.829	94.19
468.049	89.19
468.268	79.19
468.488	91.19
468.707	73.19
468.927	79.19
469.146	78.19
469.365	95.19
469.585	97.19
469.804	91.19
470.023	75.19
470.243	106.19
470.462	98.19
470.681	106.19
470.901	90.19
471.12	82.19
471.339	85.19
471.558	81.19
471.777	88.19
471.997	94.19
472.216	88.19
472.435	79.19
472.654	74.19
472.873	92.19
473.092	81.19
473.311	90.19
473.53	80.19
473.749	98.19
473.968	90.19
474.187	103.19
474.406	95.19
474.625	75.19
474.844	93.19
475.063	73.19
475.282	83.19
475.501	95.19
475.72	88.19
475.939	92.19
476.158	68.19
476.377	82.19
476.596	95.19
476.814	71.19
477.033	103.19
477.252	91.19
477.471	98.19
477.69	96.19
477.908	87.19
478.127	57.19
478.346	66.19
478.564	83.19
478.783	89.19
479.002	96.19
479.22	89.19
479.439	104.19
479.658	93.19
479.876	88.19
480.095	92.19
480.313	84.19
480.532	94.19
480.751	93.19
480.969	78.19
481.188	91.19
481.406	93.19
481.624	91.19
481.843	100.19
482.061	87.19
482.28	101.19
482.498	91.19
482.717	76.19
482.935	99.19
483.153	98.19
483.372	87.19
483.59	87.19
483.808	91.19
484.027	87.19
484.245	90.19
484.463	99.19
484.681	99.19
484.9	94.19
485.118	82.19
485.336	85.19
485.554	108.19
485.772	108.19
485.99	100.19
486.209	106.19
486.427	95.19
486.645	108.19
486.863	96.19
487.081	98.19
487.299	90.19
487.517	93.19
487.735	94.19
487.953	91.19
488.171	100.19
488.389	104.19
488.607	95.19
488.825	82.19
489.043	77.19
489.261	90.19
489.479	78.19
489.696	96.19
489.914	78.19
490.132	97.19
490.35	90.19
490.568	94.19
490.786	95.19
491.003	95.19
491.221	85.19
491.439	73.19
491.657	93.19
491.874	76.19
492.092	105.19
492.31	96.19
492.527	73.19
492.745	86.19
492.963	80.19
493.18	100.19
493.398	90.19
493.615	102.19
493.833	90.19
494.05	79.19
494.268	77.19
494.485	97.19
494.703	89.19
494.92	73.19
495.138	83.19
495.355	76.19
495.573	92.19
495.79	82.19
496.008	74.19
496.225	87.19
496.442	71.19
496.66	103.19
496.877	89.19
497.094	86.19
497.312	89.19
497.529	90.19
497.746	90.19
497.963	87.19
498.181	106.19
498.398	103.19
498.615	114.19
498.832	95.19
499.049	96.19
499.267	101.19
499.484	88.19
499.701	94.19
499.918	95.19
500.135	92.19
500.352	88.19
500.569	93.19
500.786	93.19
501.003	91.19
501.22	82.19
501.437	88.19
501.654	99.19
501.871	100.19
502.088	97.19
502.305	77.19
502.522	84.19
502.739	90.19
502.956	85.19
503.172	101.19
503.389	98.19
503.606	98.19
503.823	109.19
504.04	89.19
504.256	74.19
504.473	93.19
504.69	83.19
504.907	99.19
505.123	90.19
505.34	84.19
505.557	100.19
505.773	87.19
505.99	80.19
506.207	80.19
506.423	88.19
506.64	106.19
506.856	90.19
507.073	93.19
507.289	86.19
507.506	104.19
507.722	109.19
507.939	108.19
508.155	87.19
508.372	83.19
508.588	96.19
508.805	90.19
509.021	86.19
509.238	88.19
509.454	118.19
509.67	93.19
509.887	95.19
510.103	117.19
510.319	207.19
510.536	710.19
510.752	2198.19
510.968	626.19
511.184	160.19
511.401	108.19
511.617	97.19
511.833	88.19
512.049	96.19
512.265	84.19
512.481	89.19
512.698	98.19
512.914	112.19
513.13	99.19
513.346	87.19
513.562	78.19
513.778	104.19
513.994	100.19
514.21	88.19
514.426	117.19
514.642	129.19
514.858	122.19
515.074	169.19
515.29	450.19
515.506	1377.19
515.721	489.19
515.937	170.19
