Data from Uncirc_2001_H10_HRD10591_00019.txt Node
Date: Wed Jan 03 10:44:00 EST 2024
User: Yrep
Spectrometer: HR+D1059
Trigger mode: 1
Integration Time (sec): 1.000000E-1
Scans to average: 1
Electric dark correction enabled: true
Nonlinearity correction enabled: false
Boxcar width: 0
XAxis mode: Wavelengths
Number of Pixels in Spectrum: 2048
>>>>>Begin Spectral Data<<<<<
223.165	-8.56
223.4	-8.56
223.635	-8.56
223.869	-7.56
224.104	-10.56
224.338	-16.56
224.573	-12.56
224.808	-18.56
225.042	-10.56
225.277	-1.56
225.511	-6.56
225.746	-2.56
225.98	-8.56
226.215	5.44
226.449	27.44
226.683	15.44
226.918	17.44
227.152	38.44
227.387	48.44
227.621	38.44
227.856	53.44
228.09	38.44
228.324	56.44
228.559	63.44
228.793	58.44
229.027	68.44
229.262	68.44
229.496	63.44
229.73	82.44
229.964	80.44
230.199	67.44
230.433	82.44
230.667	70.44
230.901	78.44
231.136	76.44
231.37	85.44
231.604	86.44
231.838	76.44
232.072	75.44
232.306	75.44
232.541	103.44
232.775	89.44
233.009	93.44
233.243	79.44
233.477	79.44
233.711	70.44
233.945	80.44
234.179	79.44
234.413	97.44
234.647	87.44
234.881	85.44
235.115	90.44
235.349	86.44
235.583	80.44
235.817	80.44
236.051	75.44
236.285	79.44
236.519	76.44
236.753	82.44
236.987	86.44
237.221	92.44
237.455	79.44
237.689	62.44
237.922	86.44
238.156	85.44
238.39	76.44
238.624	69.44
238.858	84.44
239.091	89.44
239.325	70.44
239.559	76.44
239.793	83.44
240.027	81.44
240.26	75.44
240.494	79.44
240.728	72.44
240.961	81.44
241.195	85.44
241.429	68.44
241.662	68.44
241.896	71.44
242.13	80.44
242.363	90.44
242.597	88.44
242.83	82.44
243.064	81.44
243.298	93.44
243.531	70.44
243.765	77.44
243.998	79.44
244.232	85.44
244.465	83.44
244.699	79.44
244.932	74.44
245.166	82.44
245.399	88.44
245.633	78.44
245.866	77.44
246.099	81.44
246.333	82.44
246.566	85.44
246.8	79.44
247.033	85.44
247.266	87.44
247.5	92.44
247.733	85.44
247.966	92.44
248.2	79.44
248.433	81.44
248.666	79.44
248.899	92.44
249.133	91.44
249.366	98.44
249.599	91.44
249.832	82.44
250.066	79.44
250.299	75.44
250.532	79.44
250.765	96.44
250.998	78.44
251.231	89.44
251.465	73.44
251.698	91.44
251.931	81.44
252.164	90.44
252.397	79.44
252.63	84.44
252.863	83.44
253.096	71.44
253.329	86.44
253.562	83.44
253.795	73.44
254.028	86.44
254.261	76.44
254.494	81.44
254.727	85.44
254.96	73.44
255.193	90.44
255.426	93.44
255.659	81.44
255.892	86.44
256.124	65.44
256.357	74.44
256.59	86.44
256.823	79.44
257.056	100.44
257.289	82.44
257.521	86.44
257.754	69.44
257.987	89.44
258.22	88.44
258.452	89.44
258.685	79.44
258.918	86.44
259.151	83.44
259.383	86.44
259.616	89.44
259.849	89.44
260.081	82.44
260.314	84.44
260.547	74.44
260.779	77.44
261.012	89.44
261.244	90.44
261.477	87.44
261.71	94.44
261.942	105.44
262.175	115.44
262.407	79.44
262.64	81.44
262.872	87.44
263.105	91.44
263.337	97.44
263.57	72.44
263.802	90.44
264.035	77.44
264.267	92.44
264.499	101.44
264.732	100.44
264.964	74.44
265.197	73.44
265.429	94.44
265.661	91.44
265.894	85.44
266.126	89.44
266.358	95.44
266.591	94.44
266.823	85.44
267.055	82.44
267.287	102.44
267.52	92.44
267.752	81.44
267.984	76.44
268.216	90.44
268.448	79.44
268.681	95.44
268.913	95.44
269.145	79.44
269.377	96.44
269.609	95.44
269.841	81.44
270.073	84.44
270.306	78.44
270.538	93.44
270.77	102.44
271.002	98.44
271.234	86.44
271.466	95.44
271.698	109.44
271.93	89.44
272.162	89.44
272.394	97.44
272.626	102.44
272.858	87.44
273.09	102.44
273.322	85.44
273.553	83.44
273.785	84.44
274.017	103.44
274.249	89.44
274.481	96.44
274.713	78.44
274.945	93.44
275.176	94.44
275.408	93.44
275.64	104.44
275.872	84.44
276.104	84.44
276.335	89.44
276.567	92.44
276.799	105.44
277.031	96.44
277.262	95.44
277.494	85.44
277.726	102.44
277.957	75.44
278.189	92.44
278.421	100.44
278.652	77.44
278.884	82.44
279.115	98.44
279.347	93.44
279.579	71.44
279.81	103.44
280.042	79.44
280.273	95.44
280.505	102.44
280.736	80.44
280.968	85.44
281.199	84.44
281.431	79.44
281.662	90.44
281.894	98.44
282.125	95.44
282.356	98.44
282.588	124.44
282.819	110.44
283.051	89.44
283.282	105.44
283.513	92.44
283.745	93.44
283.976	91.44
284.207	92.44
284.439	95.44
284.67	78.44
284.901	84.44
285.132	92.44
285.364	95.44
285.595	90.44
285.826	92.44
286.057	82.44
286.288	96.44
286.52	90.44
286.751	89.44
286.982	93.44
287.213	96.44
287.444	72.44
287.675	86.44
287.906	92.44
288.138	102.44
288.369	98.44
288.6	99.44
288.831	83.44
289.062	90.44
289.293	91.44
289.524	89.44
289.755	91.44
289.986	94.44
290.217	93.44
290.448	80.44
290.679	83.44
290.91	104.44
291.141	101.44
291.371	85.44
291.602	90.44
291.833	92.44
292.064	91.44
292.295	88.44
292.526	95.44
292.757	82.44
292.987	94.44
293.218	87.44
293.449	86.44
293.68	91.44
293.91	99.44
294.141	88.44
294.372	92.44
294.603	95.44
294.833	86.44
295.064	85.44
295.295	89.44
295.525	104.44
295.756	96.44
295.987	110.44
296.217	139.44
296.448	112.44
296.679	107.44
296.909	96.44
297.14	99.44
297.37	89.44
297.601	97.44
297.831	96.44
298.062	98.44
298.292	92.44
298.523	95.44
298.753	70.44
298.984	87.44
299.214	102.44
299.445	81.44
299.675	84.44
299.905	96.44
300.136	96.44
300.366	82.44
300.597	76.44
300.827	101.44
301.057	103.44
301.288	99.44
301.518	95.44
301.748	89.44
301.979	91.44
302.209	89.44
302.439	90.44
302.669	91.44
302.9	87.44
303.13	86.44
303.36	109.44
303.59	110.44
303.82	92.44
304.051	88.44
304.281	95.44
304.511	88.44
304.741	88.44
304.971	95.44
305.201	97.44
305.431	108.44
305.661	94.44
305.891	102.44
306.121	95.44
306.352	104.44
306.582	109.44
306.812	93.44
307.042	101.44
307.272	90.44
307.502	82.44
307.731	96.44
307.961	93.44
308.191	95.44
308.421	86.44
308.651	112.44
308.881	83.44
309.111	84.44
309.341	107.44
309.571	111.44
309.8	87.44
310.03	90.44
310.26	93.44
310.49	99.44
310.72	101.44
310.949	103.44
311.179	93.44
311.409	90.44
311.639	103.44
311.868	97.44
312.098	92.44
312.328	89.44
312.557	110.44
312.787	92.44
313.017	104.44
313.246	97.44
313.476	95.44
313.706	96.44
313.935	92.44
314.165	106.44
314.394	99.44
314.624	90.44
314.853	94.44
315.083	86.44
315.312	99.44
315.542	100.44
315.771	99.44
316.001	102.44
316.23	92.44
316.46	102.44
316.689	94.44
316.919	103.44
317.148	98.44
317.377	95.44
317.607	94.44
317.836	93.44
318.065	84.44
318.295	84.44
318.524	90.44
318.753	88.44
318.983	103.44
319.212	91.44
319.441	107.44
319.67	88.44
319.9	64.44
320.129	98.44
320.358	88.44
320.587	86.44
320.816	103.44
321.046	100.44
321.275	103.44
321.504	90.44
321.733	95.44
321.962	99.44
322.191	101.44
322.42	115.44
322.649	103.44
322.878	120.44
323.108	116.44
323.337	114.44
323.566	119.44
323.795	134.44
324.024	198.44
324.253	324.44
324.482	680.44
324.71	1298.44
324.939	1703.44
325.168	643.44
325.397	215.44
325.626	130.44
325.855	117.44
326.084	117.44
326.313	126.44
326.542	146.44
326.77	203.44
326.999	382.44
327.228	763.44
327.457	1302.44
327.686	1034.44
327.914	293.44
328.143	174.44
328.372	123.44
328.6	117.44
328.829	113.44
329.058	132.44
329.287	130.44
329.515	106.44
329.744	103.44
329.972	88.44
330.201	109.44
330.43	105.44
330.658	138.44
330.887	126.44
331.115	109.44
331.344	110.44
331.572	113.44
331.801	98.44
332.03	107.44
332.258	94.44
332.486	93.44
332.715	106.44
332.943	107.44
333.172	91.44
333.4	111.44
333.629	103.44
333.857	111.44
334.085	102.44
334.314	83.44
334.542	93.44
334.771	110.44
334.999	107.44
335.227	95.44
335.455	98.44
335.684	86.44
335.912	99.44
336.14	92.44
336.369	111.44
336.597	99.44
336.825	96.44
337.053	91.44
337.281	102.44
337.51	85.44
337.738	86.44
337.966	94.44
338.194	102.44
338.422	107.44
338.65	116.44
338.878	91.44
339.106	101.44
339.334	100.44
339.562	83.44
339.79	89.44
340.018	88.44
340.246	87.44
340.474	103.44
340.702	100.44
340.93	99.44
341.158	101.44
341.386	95.44
341.614	91.44
341.842	99.44
342.07	84.44
342.298	85.44
342.526	99.44
342.754	121.44
342.981	88.44
343.209	87.44
343.437	115.44
343.665	103.44
343.893	84.44
344.12	98.44
344.348	95.44
344.576	107.44
344.804	95.44
345.031	98.44
345.259	110.44
345.487	94.44
345.714	102.44
345.942	94.44
346.17	102.44
346.397	90.44
346.625	97.44
346.853	91.44
347.08	80.44
347.308	92.44
347.535	92.44
347.763	96.44
347.99	104.44
348.218	102.44
348.445	97.44
348.673	90.44
348.9	111.44
349.128	96.44
349.355	103.44
349.583	103.44
349.81	100.44
350.037	103.44
350.265	85.44
350.492	99.44
350.72	94.44
350.947	93.44
351.174	104.44
351.402	111.44
351.629	115.44
351.856	103.44
352.083	104.44
352.311	108.44
352.538	110.44
352.765	122.44
352.992	128.44
353.22	109.44
353.447	98.44
353.674	91.44
353.901	100.44
354.128	89.44
354.355	85.44
354.583	106.44
354.81	87.44
355.037	92.44
355.264	98.44
355.491	92.44
355.718	94.44
355.945	91.44
356.172	101.44
356.399	101.44
356.626	94.44
356.853	94.44
357.08	86.44
357.307	88.44
357.534	94.44
357.761	102.44
357.988	100.44
358.215	100.44
358.441	109.44
358.668	88.44
358.895	93.44
359.122	95.44
359.349	107.44
359.576	84.44
359.802	104.44
360.029	114.44
360.256	102.44
360.483	102.44
360.709	91.44
360.936	92.44
361.163	94.44
361.39	97.44
361.616	95.44
361.843	87.44
362.07	88.44
362.296	106.44
362.523	101.44
362.749	90.44
362.976	87.44
363.203	102.44
363.429	99.44
363.656	79.44
363.882	103.44
364.109	103.44
364.335	96.44
364.562	101.44
364.788	81.44
365.015	103.44
365.241	104.44
365.468	104.44
365.694	102.44
365.92	88.44
366.147	79.44
366.373	84.44
366.599	95.44
366.826	84.44
367.052	91.44
367.278	89.44
367.505	92.44
367.731	86.44
367.957	88.44
368.184	92.44
368.41	97.44
368.636	112.44
368.862	117.44
369.089	104.44
369.315	86.44
369.541	100.44
369.767	94.44
369.993	85.44
370.219	102.44
370.445	85.44
370.672	99.44
370.898	90.44
371.124	79.44
371.35	69.44
371.576	94.44
371.802	95.44
372.028	105.44
372.254	100.44
372.48	86.44
372.706	88.44
372.932	84.44
373.158	83.44
373.384	97.44
373.61	95.44
373.835	88.44
374.061	87.44
374.287	99.44
374.513	89.44
374.739	94.44
374.965	107.44
375.191	97.44
375.416	93.44
375.642	107.44
375.868	92.44
376.094	86.44
376.319	92.44
376.545	105.44
376.771	88.44
376.997	78.44
377.222	84.44
377.448	79.44
377.674	84.44
377.899	82.44
378.125	89.44
378.35	94.44
378.576	77.44
378.802	102.44
379.027	88.44
379.253	100.44
379.478	102.44
379.704	112.44
379.929	85.44
380.155	108.44
380.38	106.44
380.606	71.44
380.831	94.44
381.057	90.44
381.282	94.44
381.507	96.44
381.733	83.44
381.958	107.44
382.184	93.44
382.409	100.44
382.634	120.44
382.86	103.44
383.085	111.44
383.31	97.44
383.535	109.44
383.761	109.44
383.986	99.44
384.211	84.44
384.436	94.44
384.662	96.44
384.887	117.44
385.112	99.44
385.337	117.44
385.562	108.44
385.787	114.44
386.013	113.44
386.238	117.44
386.463	96.44
386.688	115.44
386.913	106.44
387.138	105.44
387.363	108.44
387.588	109.44
387.813	96.44
388.038	118.44
388.263	118.44
388.488	111.44
388.713	96.44
388.938	94.44
389.163	94.44
389.387	100.44
389.612	98.44
389.837	100.44
390.062	102.44
390.287	106.44
390.512	90.44
390.736	91.44
390.961	97.44
391.186	98.44
391.411	97.44
391.636	95.44
391.86	75.44
392.085	94.44
392.31	106.44
392.534	83.44
392.759	89.44
392.984	90.44
393.208	99.44
393.433	93.44
393.658	100.44
393.882	70.44
394.107	103.44
394.331	82.44
394.556	79.44
394.78	84.44
395.005	95.44
395.229	82.44
395.454	89.44
395.678	82.44
395.903	86.44
396.127	83.44
396.352	87.44
396.576	98.44
396.801	94.44
397.025	97.44
397.249	91.44
397.474	92.44
397.698	84.44
397.922	95.44
398.147	84.44
398.371	74.44
398.595	102.44
398.82	95.44
399.044	80.44
399.268	82.44
399.492	84.44
399.717	91.44
399.941	94.44
400.165	101.44
400.389	105.44
400.613	76.44
400.837	93.44
401.062	76.44
401.286	78.44
401.51	87.44
401.734	106.44
401.958	101.44
402.182	117.44
402.406	145.44
402.63	99.44
402.854	103.44
403.078	90.44
403.302	80.44
403.526	95.44
403.75	99.44
403.974	91.44
404.198	87.44
404.422	70.44
404.645	90.44
404.869	88.44
405.093	99.44
405.317	102.44
405.541	96.44
405.765	92.44
405.988	114.44
406.212	160.44
406.436	206.44
406.66	148.44
406.883	101.44
407.107	89.44
407.331	96.44
407.555	86.44
407.778	89.44
408.002	85.44
408.226	100.44
408.449	90.44
408.673	104.44
408.896	78.44
409.12	101.44
409.344	102.44
409.567	88.44
409.791	95.44
410.014	110.44
410.238	97.44
410.461	98.44
410.685	92.44
410.908	99.44
411.132	91.44
411.355	87.44
411.578	90.44
411.802	94.44
412.025	78.44
412.249	82.44
412.472	101.44
412.695	111.44
412.919	90.44
413.142	89.44
413.365	93.44
413.589	98.44
413.812	81.44
414.035	87.44
414.258	97.44
414.482	89.44
414.705	97.44
414.928	93.44
415.151	104.44
415.374	84.44
415.597	86.44
415.821	91.44
416.044	93.44
416.267	96.44
416.49	96.44
416.713	95.44
416.936	91.44
417.159	94.44
417.382	99.44
417.605	102.44
417.828	96.44
418.051	85.44
418.274	92.44
418.497	96.44
418.72	105.44
418.943	85.44
419.166	75.44
419.389	90.44
419.611	82.44
419.834	104.44
420.057	104.44
420.28	99.44
420.503	81.44
420.726	95.44
420.948	85.44
421.171	96.44
421.394	93.44
421.617	97.44
421.839	92.44
422.062	80.44
422.285	82.44
422.507	91.44
422.73	100.44
422.953	98.44
423.175	95.44
423.398	86.44
423.621	99.44
423.843	89.44
424.066	73.44
424.288	101.44
424.511	95.44
424.733	99.44
424.956	96.44
425.178	107.44
425.401	98.44
425.623	102.44
425.846	83.44
426.068	97.44
426.291	86.44
426.513	98.44
426.735	92.44
426.958	87.44
427.18	119.44
427.402	124.44
427.625	138.44
427.847	112.44
428.069	95.44
428.292	87.44
428.514	84.44
428.736	89.44
428.958	86.44
429.181	98.44
429.403	91.44
429.625	93.44
429.847	94.44
430.069	87.44
430.292	89.44
430.514	95.44
430.736	86.44
430.958	104.44
431.18	87.44
431.402	86.44
431.624	94.44
431.846	98.44
432.068	72.44
432.29	91.44
432.512	79.44
432.734	68.44
432.956	100.44
433.178	92.44
433.4	91.44
433.622	102.44
433.844	87.44
434.066	101.44
434.287	96.44
434.509	87.44
434.731	88.44
434.953	86.44
435.175	85.44
435.397	106.44
435.618	88.44
435.84	106.44
436.062	98.44
436.284	104.44
436.505	114.44
436.727	93.44
436.949	102.44
437.17	94.44
437.392	92.44
437.614	90.44
437.835	97.44
438.057	105.44
438.278	119.44
438.5	96.44
438.721	123.44
438.943	111.44
439.165	92.44
439.386	95.44
439.608	92.44
439.829	85.44
440.05	110.44
440.272	143.44
440.493	103.44
440.715	84.44
440.936	88.44
441.158	95.44
441.379	87.44
441.6	97.44
441.822	83.44
442.043	85.44
442.264	100.44
442.486	101.44
442.707	96.44
442.928	106.44
443.149	136.44
443.371	116.44
443.592	107.44
443.813	101.44
444.034	114.44
444.255	100.44
444.476	86.44
444.698	81.44
444.919	96.44
445.14	133.44
445.361	124.44
445.582	110.44
445.803	132.44
446.024	122.44
446.245	124.44
446.466	112.44
446.687	97.44
446.908	94.44
447.129	97.44
447.35	94.44
447.571	85.44
447.792	95.44
448.013	101.44
448.234	101.44
448.455	104.44
448.675	116.44
448.896	109.44
449.117	89.44
449.338	106.44
449.559	119.44
449.779	130.44
450	88.44
450.221	103.44
450.442	91.44
450.662	104.44
450.883	110.44
451.104	98.44
451.324	90.44
451.545	89.44
451.766	101.44
451.986	99.44
452.207	85.44
452.428	87.44
452.648	99.44
452.869	109.44
453.089	95.44
453.31	107.44
453.53	93.44
453.751	93.44
453.971	94.44
454.192	119.44
454.412	103.44
454.633	83.44
454.853	80.44
455.073	89.44
455.294	98.44
455.514	93.44
455.734	92.44
455.955	70.44
456.175	99.44
456.395	84.44
456.616	85.44
456.836	89.44
457.056	88.44
457.276	75.44
457.497	90.44
457.717	93.44
457.937	95.44
458.157	92.44
458.377	79.44
458.598	107.44
458.818	152.44
459.038	164.44
459.258	118.44
459.478	100.44
459.698	79.44
459.918	92.44
460.138	84.44
460.358	93.44
460.578	89.44
460.798	96.44
461.018	94.44
461.238	102.44
461.458	93.44
461.678	101.44
461.898	87.44
462.118	99.44
462.338	95.44
462.558	96.44
462.777	89.44
462.997	83.44
463.217	79.44
463.437	91.44
463.657	90.44
463.876	90.44
464.096	84.44
464.316	87.44
464.536	86.44
464.755	93.44
464.975	93.44
465.195	147.44
465.414	148.44
465.634	100.44
465.854	84.44
466.073	83.44
466.293	82.44
466.512	78.44
466.732	95.44
466.951	93.44
467.171	101.44
467.391	105.44
467.61	105.44
467.829	100.44
468.049	105.44
468.268	87.44
468.488	79.44
468.707	96.44
468.927	87.44
469.146	96.44
469.365	78.44
469.585	103.44
469.804	102.44
470.023	98.44
470.243	99.44
470.462	88.44
470.681	114.44
470.901	96.44
471.12	97.44
471.339	82.44
471.558	83.44
471.777	101.44
471.997	85.44
472.216	97.44
472.435	104.44
472.654	91.44
472.873	83.44
473.092	90.44
473.311	95.44
473.53	95.44
473.749	94.44
473.968	109.44
474.187	109.44
474.406	85.44
474.625	76.44
474.844	107.44
475.063	95.44
475.282	89.44
475.501	97.44
475.72	93.44
475.939	83.44
476.158	91.44
476.377	89.44
476.596	82.44
476.814	99.44
477.033	94.44
477.252	88.44
477.471	94.44
477.69	96.44
477.908	75.44
478.127	88.44
478.346	86.44
478.564	77.44
478.783	100.44
479.002	86.44
479.22	88.44
479.439	100.44
479.658	103.44
479.876	91.44
480.095	96.44
480.313	95.44
480.532	90.44
480.751	102.44
480.969	104.44
481.188	106.44
481.406	93.44
481.624	89.44
481.843	95.44
482.061	96.44
482.28	95.44
482.498	96.44
482.717	83.44
482.935	96.44
483.153	74.44
483.372	78.44
483.59	89.44
483.808	90.44
484.027	85.44
484.245	98.44
484.463	108.44
484.681	94.44
484.9	103.44
485.118	84.44
485.336	80.44
485.554	123.44
485.772	91.44
485.99	116.44
486.209	102.44
486.427	92.44
486.645	102.44
486.863	109.44
487.081	96.44
487.299	91.44
487.517	106.44
487.735	98.44
487.953	98.44
488.171	86.44
488.389	95.44
488.607	95.44
488.825	107.44
489.043	85.44
489.261	95.44
489.479	104.44
489.696	101.44
489.914	100.44
490.132	86.44
490.35	95.44
490.568	101.44
490.786	92.44
491.003	92.44
491.221	90.44
491.439	92.44
491.657	91.44
491.874	101.44
492.092	95.44
492.31	92.44
492.527	88.44
492.745	102.44
492.963	99.44
493.18	92.44
493.398	107.44
493.615	98.44
493.833	90.44
494.05	95.44
494.268	99.44
494.485	84.44
494.703	81.44
494.92	86.44
495.138	96.44
495.355	90.44
495.573	109.44
495.79	106.44
496.008	90.44
496.225	86.44
496.442	84.44
496.66	81.44
496.877	87.44
497.094	105.44
497.312	84.44
497.529	104.44
497.746	91.44
497.963	92.44
498.181	89.44
498.398	107.44
498.615	102.44
498.832	101.44
499.049	86.44
499.267	105.44
499.484	77.44
499.701	97.44
499.918	95.44
500.135	89.44
500.352	101.44
500.569	105.44
500.786	94.44
501.003	90.44
501.22	94.44
501.437	85.44
501.654	113.44
501.871	107.44
502.088	102.44
502.305	100.44
502.522	83.44
502.739	78.44
502.956	113.44
503.172	104.44
503.389	94.44
503.606	106.44
503.823	95.44
504.04	105.44
504.256	93.44
504.473	99.44
504.69	86.44
504.907	85.44
505.123	106.44
505.34	90.44
505.557	96.44
505.773	93.44
505.99	95.44
506.207	89.44
506.423	91.44
506.64	100.44
506.856	86.44
507.073	79.44
507.289	116.44
507.506	91.44
507.722	104.44
507.939	110.44
508.155	103.44
508.372	92.44
508.588	79.44
508.805	100.44
509.021	101.44
509.238	96.44
509.454	105.44
509.67	109.44
509.887	115.44
510.103	125.44
510.319	189.44
510.536	690.44
510.752	2129.44
510.968	590.44
511.184	158.44
511.401	105.44
511.617	93.44
511.833	93.44
512.049	92.44
512.265	98.44
512.481	102.44
512.698	95.44
512.914	107.44
513.13	91.44
513.346	100.44
513.562	106.44
513.778	90.44
513.994	90.44
514.21	100.44
514.426	117.44
514.642	126.44
