Data from Uncirc_2001_H10_HRD10591_00092.txt Node
Date: Wed Jan 03 10:44:15 EST 2024
User: Yrep
Spectrometer: HR+D1059
Trigger mode: 1
Integration Time (sec): 1.000000E-1
Scans to average: 1
Electric dark correction enabled: true
Nonlinearity correction enabled: false
Boxcar width: 0
XAxis mode: Wavelengths
Number of Pixels in Spectrum: 2048
>>>>>Begin Spectral Data<<<<<
223.165	-5.56
223.4	-5.56
223.635	-5.56
223.869	-13.56
224.104	-27.56
224.338	-15.56
224.573	-17.56
224.808	-18.56
225.042	-14.56
225.277	-1.56
225.511	-1.56
225.746	7.44
225.98	12.44
226.215	14.44
226.449	19.44
226.683	11.44
226.918	24.44
227.152	26.44
227.387	35.44
227.621	23.44
227.856	44.44
228.09	45.44
228.324	59.44
228.559	50.44
228.793	57.44
229.027	50.44
229.262	51.44
229.496	85.44
229.73	102.44
229.964	75.44
230.199	88.44
230.433	76.44
230.667	71.44
230.901	83.44
231.136	75.44
231.37	58.44
231.604	75.44
231.838	82.44
232.072	86.44
232.306	90.44
232.541	82.44
232.775	78.44
233.009	78.44
233.243	68.44
233.477	76.44
233.711	84.44
233.945	82.44
234.179	71.44
234.413	79.44
234.647	79.44
234.881	90.44
235.115	69.44
235.349	79.44
235.583	83.44
235.817	78.44
236.051	82.44
236.285	78.44
236.519	76.44
236.753	66.44
236.987	55.44
237.221	73.44
237.455	68.44
237.689	67.44
237.922	74.44
238.156	82.44
238.39	79.44
238.624	76.44
238.858	83.44
239.091	68.44
239.325	84.44
239.559	86.44
239.793	83.44
240.027	66.44
240.26	59.44
240.494	78.44
240.728	76.44
240.961	80.44
241.195	73.44
241.429	70.44
241.662	74.44
241.896	55.44
242.13	82.44
242.363	91.44
242.597	99.44
242.83	77.44
243.064	82.44
243.298	65.44
243.531	73.44
243.765	84.44
243.998	77.44
244.232	67.44
244.465	83.44
244.699	80.44
244.932	72.44
245.166	82.44
245.399	74.44
245.633	65.44
245.866	88.44
246.099	69.44
246.333	80.44
246.566	85.44
246.8	83.44
247.033	79.44
247.266	83.44
247.5	74.44
247.733	57.44
247.966	80.44
248.2	91.44
248.433	78.44
248.666	80.44
248.899	80.44
249.133	83.44
249.366	97.44
249.599	104.44
249.832	73.44
250.066	58.44
250.299	75.44
250.532	75.44
250.765	72.44
250.998	76.44
251.231	80.44
251.465	82.44
251.698	71.44
251.931	66.44
252.164	82.44
252.397	92.44
252.63	87.44
252.863	89.44
253.096	92.44
253.329	79.44
253.562	81.44
253.795	78.44
254.028	87.44
254.261	82.44
254.494	79.44
254.727	73.44
254.96	71.44
255.193	76.44
255.426	78.44
255.659	68.44
255.892	74.44
256.124	86.44
256.357	72.44
256.59	87.44
256.823	88.44
257.056	81.44
257.289	86.44
257.521	74.44
257.754	82.44
257.987	89.44
258.22	78.44
258.452	70.44
258.685	83.44
258.918	75.44
259.151	90.44
259.383	82.44
259.616	85.44
259.849	75.44
260.081	86.44
260.314	74.44
260.547	85.44
260.779	82.44
261.012	92.44
261.244	85.44
261.477	78.44
261.71	85.44
261.942	106.44
262.175	116.44
262.407	91.44
262.64	76.44
262.872	92.44
263.105	99.44
263.337	83.44
263.57	100.44
263.802	100.44
264.035	90.44
264.267	74.44
264.499	76.44
264.732	86.44
264.964	78.44
265.197	87.44
265.429	85.44
265.661	78.44
265.894	82.44
266.126	76.44
266.358	76.44
266.591	84.44
266.823	72.44
267.055	78.44
267.287	90.44
267.52	90.44
267.752	98.44
267.984	87.44
268.216	83.44
268.448	87.44
268.681	86.44
268.913	89.44
269.145	86.44
269.377	97.44
269.609	73.44
269.841	74.44
270.073	88.44
270.306	84.44
270.538	81.44
270.77	81.44
271.002	76.44
271.234	92.44
271.466	83.44
271.698	71.44
271.93	91.44
272.162	80.44
272.394	86.44
272.626	81.44
272.858	79.44
273.09	90.44
273.322	97.44
273.553	79.44
273.785	81.44
274.017	92.44
274.249	81.44
274.481	97.44
274.713	96.44
274.945	81.44
275.176	86.44
275.408	92.44
275.64	85.44
275.872	83.44
276.104	98.44
276.335	91.44
276.567	95.44
276.799	111.44
277.031	89.44
277.262	69.44
277.494	72.44
277.726	90.44
277.957	73.44
278.189	65.44
278.421	88.44
278.652	85.44
278.884	73.44
279.115	97.44
279.347	87.44
279.579	96.44
279.81	75.44
280.042	88.44
280.273	93.44
280.505	84.44
280.736	85.44
280.968	84.44
281.199	71.44
281.431	83.44
281.662	96.44
281.894	100.44
282.125	105.44
282.356	123.44
282.588	143.44
282.819	118.44
283.051	87.44
283.282	80.44
283.513	90.44
283.745	90.44
283.976	85.44
284.207	103.44
284.439	97.44
284.67	92.44
284.901	72.44
285.132	79.44
285.364	85.44
285.595	92.44
285.826	77.44
286.057	82.44
286.288	99.44
286.52	77.44
286.751	81.44
286.982	72.44
287.213	78.44
287.444	89.44
287.675	82.44
287.906	91.44
288.138	93.44
288.369	89.44
288.6	96.44
288.831	89.44
289.062	87.44
289.293	85.44
289.524	77.44
289.755	74.44
289.986	84.44
290.217	95.44
290.448	96.44
290.679	85.44
290.91	86.44
291.141	90.44
291.371	89.44
291.602	84.44
291.833	82.44
292.064	79.44
292.295	95.44
292.526	75.44
292.757	95.44
292.987	95.44
293.218	87.44
293.449	90.44
293.68	85.44
293.91	94.44
294.141	80.44
294.372	76.44
294.603	90.44
294.833	81.44
295.064	91.44
295.295	89.44
295.525	91.44
295.756	90.44
295.987	107.44
296.217	143.44
296.448	133.44
296.679	101.44
296.909	91.44
297.14	86.44
297.37	87.44
297.601	96.44
297.831	82.44
298.062	92.44
298.292	95.44
298.523	98.44
298.753	98.44
298.984	88.44
299.214	79.44
299.445	64.44
299.675	98.44
299.905	92.44
300.136	89.44
300.366	86.44
300.597	97.44
300.827	80.44
301.057	85.44
301.288	105.44
301.518	90.44
301.748	99.44
301.979	92.44
302.209	84.44
302.439	90.44
302.669	97.44
302.9	95.44
303.13	87.44
303.36	103.44
303.59	95.44
303.82	100.44
304.051	102.44
304.281	103.44
304.511	88.44
304.741	91.44
304.971	80.44
305.201	91.44
305.431	82.44
305.661	90.44
305.891	98.44
306.121	99.44
306.352	96.44
306.582	94.44
306.812	93.44
307.042	89.44
307.272	87.44
307.502	98.44
307.731	92.44
307.961	92.44
308.191	97.44
308.421	95.44
308.651	84.44
308.881	98.44
309.111	99.44
309.341	98.44
309.571	87.44
309.8	94.44
310.03	108.44
310.26	92.44
310.49	92.44
310.72	85.44
310.949	96.44
311.179	103.44
311.409	92.44
311.639	92.44
311.868	99.44
312.098	114.44
312.328	102.44
312.557	100.44
312.787	105.44
313.017	91.44
313.246	99.44
313.476	68.44
313.706	89.44
313.935	93.44
314.165	106.44
314.394	93.44
314.624	85.44
314.853	101.44
315.083	102.44
315.312	82.44
315.542	100.44
315.771	96.44
316.001	87.44
316.23	78.44
316.46	78.44
316.689	103.44
316.919	98.44
317.148	103.44
317.377	92.44
317.607	98.44
317.836	103.44
318.065	103.44
318.295	83.44
318.524	84.44
318.753	99.44
318.983	98.44
319.212	97.44
319.441	101.44
319.67	108.44
319.9	103.44
320.129	94.44
320.358	82.44
320.587	108.44
320.816	81.44
321.046	103.44
321.275	97.44
321.504	94.44
321.733	88.44
321.962	91.44
322.191	100.44
322.42	92.44
322.649	111.44
322.878	106.44
323.108	106.44
323.337	109.44
323.566	127.44
323.795	167.44
324.024	192.44
324.253	359.44
324.482	779.44
324.71	1517.44
324.939	1957.44
325.168	740.44
325.397	200.44
325.626	149.44
325.855	115.44
326.084	119.44
326.313	135.44
326.542	150.44
326.77	210.44
326.999	418.44
327.228	841.44
327.457	1511.44
327.686	1202.44
327.914	335.44
328.143	182.44
328.372	152.44
328.6	127.44
328.829	116.44
329.058	131.44
329.287	124.44
329.515	112.44
329.744	90.44
329.972	108.44
330.201	92.44
330.43	93.44
330.658	107.44
330.887	140.44
331.115	118.44
331.344	108.44
331.572	94.44
331.801	96.44
332.03	88.44
332.258	85.44
332.486	101.44
332.715	94.44
332.943	93.44
333.172	88.44
333.4	90.44
333.629	111.44
333.857	121.44
334.085	98.44
334.314	95.44
334.542	98.44
334.771	114.44
334.999	90.44
335.227	83.44
335.455	105.44
335.684	103.44
335.912	103.44
336.14	88.44
336.369	92.44
336.597	104.44
336.825	79.44
337.053	99.44
337.281	97.44
337.51	89.44
337.738	96.44
337.966	87.44
338.194	91.44
338.422	105.44
338.65	101.44
338.878	87.44
339.106	92.44
339.334	82.44
339.562	84.44
339.79	98.44
340.018	95.44
340.246	88.44
340.474	88.44
340.702	99.44
340.93	85.44
341.158	96.44
341.386	90.44
341.614	84.44
341.842	94.44
342.07	99.44
342.298	95.44
342.526	94.44
342.754	91.44
342.981	92.44
343.209	91.44
343.437	96.44
343.665	89.44
343.893	88.44
344.12	96.44
344.348	76.44
344.576	91.44
344.804	92.44
345.031	90.44
345.259	84.44
345.487	103.44
345.714	87.44
345.942	96.44
346.17	86.44
346.397	89.44
346.625	87.44
346.853	91.44
347.08	105.44
347.308	93.44
347.535	85.44
347.763	88.44
347.99	84.44
348.218	112.44
348.445	107.44
348.673	99.44
348.9	91.44
349.128	106.44
349.355	91.44
349.583	80.44
349.81	97.44
350.037	92.44
350.265	114.44
350.492	89.44
350.72	106.44
350.947	112.44
351.174	111.44
351.402	107.44
351.629	88.44
351.856	113.44
352.083	97.44
352.311	104.44
352.538	112.44
352.765	126.44
352.992	99.44
353.22	101.44
353.447	102.44
353.674	98.44
353.901	88.44
354.128	88.44
354.355	103.44
354.583	97.44
354.81	109.44
355.037	102.44
355.264	87.44
355.491	85.44
355.718	78.44
355.945	82.44
356.172	85.44
356.399	88.44
356.626	85.44
356.853	102.44
357.08	83.44
357.307	92.44
357.534	89.44
357.761	92.44
357.988	93.44
358.215	88.44
358.441	90.44
358.668	85.44
358.895	95.44
359.122	88.44
359.349	83.44
359.576	90.44
359.802	95.44
360.029	101.44
360.256	125.44
360.483	95.44
360.709	98.44
360.936	94.44
361.163	82.44
361.39	89.44
361.616	103.44
361.843	111.44
362.07	79.44
362.296	96.44
362.523	96.44
362.749	83.44
362.976	93.44
363.203	105.44
363.429	95.44
363.656	89.44
363.882	83.44
364.109	84.44
364.335	86.44
364.562	94.44
364.788	88.44
365.015	76.44
365.241	92.44
365.468	113.44
365.694	116.44
365.92	106.44
366.147	95.44
366.373	78.44
366.599	83.44
366.826	101.44
367.052	76.44
367.278	84.44
367.505	80.44
367.731	102.44
367.957	87.44
368.184	92.44
368.41	97.44
368.636	104.44
368.862	121.44
369.089	111.44
369.315	68.44
369.541	85.44
369.767	82.44
369.993	104.44
370.219	95.44
370.445	78.44
370.672	78.44
370.898	85.44
371.124	80.44
371.35	107.44
371.576	74.44
371.802	88.44
372.028	81.44
372.254	78.44
372.48	95.44
372.706	98.44
372.932	83.44
373.158	86.44
373.384	79.44
373.61	94.44
373.835	94.44
374.061	81.44
374.287	89.44
374.513	87.44
374.739	89.44
374.965	81.44
375.191	90.44
375.416	90.44
375.642	93.44
375.868	86.44
376.094	87.44
376.319	98.44
376.545	87.44
376.771	101.44
376.997	88.44
377.222	81.44
377.448	86.44
377.674	77.44
377.899	87.44
378.125	96.44
378.35	97.44
378.576	104.44
378.802	84.44
379.027	99.44
379.253	101.44
379.478	104.44
379.704	80.44
379.929	94.44
380.155	86.44
380.38	79.44
380.606	84.44
380.831	94.44
381.057	102.44
381.282	91.44
381.507	94.44
381.733	80.44
381.958	88.44
382.184	98.44
382.409	74.44
382.634	96.44
382.86	90.44
383.085	92.44
383.31	92.44
383.535	103.44
383.761	102.44
383.986	92.44
384.211	85.44
384.436	91.44
384.662	97.44
384.887	86.44
385.112	97.44
385.337	113.44
385.562	103.44
385.787	94.44
386.013	105.44
386.238	108.44
386.463	97.44
386.688	109.44
386.913	97.44
387.138	95.44
387.363	97.44
387.588	90.44
387.813	118.44
388.038	94.44
388.263	112.44
388.488	88.44
388.713	95.44
388.938	90.44
389.163	96.44
389.387	99.44
389.612	89.44
389.837	81.44
390.062	89.44
390.287	94.44
390.512	79.44
390.736	92.44
390.961	104.44
391.186	102.44
391.411	97.44
391.636	89.44
391.86	87.44
392.085	82.44
392.31	84.44
392.534	84.44
392.759	78.44
392.984	84.44
393.208	81.44
393.433	81.44
393.658	86.44
393.882	83.44
394.107	89.44
394.331	75.44
394.556	83.44
394.78	97.44
395.005	91.44
395.229	80.44
395.454	74.44
395.678	87.44
395.903	95.44
396.127	80.44
396.352	86.44
396.576	89.44
396.801	86.44
397.025	88.44
397.249	98.44
397.474	85.44
397.698	88.44
397.922	103.44
398.147	89.44
398.371	84.44
398.595	94.44
398.82	84.44
399.044	102.44
399.268	96.44
399.492	82.44
399.717	96.44
399.941	92.44
400.165	86.44
400.389	82.44
400.613	84.44
400.837	99.44
401.062	87.44
401.286	100.44
401.51	92.44
401.734	95.44
401.958	103.44
402.182	106.44
402.406	135.44
402.63	126.44
402.854	88.44
403.078	97.44
403.302	89.44
403.526	92.44
403.75	90.44
403.974	95.44
404.198	99.44
404.422	80.44
404.645	86.44
404.869	88.44
405.093	73.44
405.317	91.44
405.541	95.44
405.765	88.44
405.988	114.44
406.212	182.44
406.436	230.44
406.66	139.44
406.883	93.44
407.107	89.44
407.331	107.44
407.555	90.44
407.778	100.44
408.002	98.44
408.226	82.44
408.449	91.44
408.673	92.44
408.896	98.44
409.12	104.44
409.344	94.44
409.567	85.44
409.791	113.44
410.014	87.44
410.238	96.44
410.461	90.44
410.685	102.44
410.908	105.44
411.132	121.44
411.355	86.44
411.578	93.44
411.802	80.44
412.025	92.44
412.249	92.44
412.472	87.44
412.695	95.44
412.919	84.44
413.142	72.44
413.365	99.44
413.589	95.44
413.812	91.44
414.035	100.44
414.258	92.44
414.482	86.44
414.705	89.44
414.928	103.44
415.151	108.44
415.374	84.44
415.597	80.44
415.821	84.44
416.044	82.44
416.267	80.44
416.49	72.44
416.713	84.44
416.936	67.44
417.159	83.44
417.382	89.44
417.605	76.44
417.828	94.44
418.051	81.44
418.274	93.44
418.497	84.44
418.72	85.44
418.943	93.44
419.166	81.44
419.389	91.44
419.611	97.44
419.834	82.44
420.057	81.44
420.28	74.44
420.503	90.44
420.726	84.44
420.948	90.44
421.171	79.44
421.394	82.44
421.617	85.44
421.839	79.44
422.062	85.44
422.285	84.44
422.507	86.44
422.73	85.44
422.953	92.44
423.175	81.44
423.398	96.44
423.621	87.44
423.843	83.44
424.066	78.44
424.288	88.44
424.511	73.44
424.733	86.44
424.956	105.44
425.178	90.44
425.401	86.44
425.623	105.44
425.846	87.44
426.068	96.44
426.291	88.44
426.513	90.44
426.735	86.44
426.958	94.44
427.18	88.44
427.402	140.44
427.625	161.44
427.847	121.44
428.069	110.44
428.292	84.44
428.514	89.44
428.736	82.44
428.958	86.44
429.181	89.44
429.403	89.44
429.625	82.44
429.847	91.44
430.069	103.44
430.292	89.44
430.514	83.44
430.736	89.44
430.958	89.44
431.18	82.44
431.402	73.44
431.624	94.44
431.846	87.44
432.068	83.44
432.29	89.44
432.512	92.44
432.734	98.44
432.956	78.44
433.178	102.44
433.4	101.44
433.622	82.44
433.844	101.44
434.066	98.44
434.287	83.44
434.509	84.44
434.731	95.44
434.953	68.44
435.175	86.44
435.397	98.44
435.618	90.44
435.84	107.44
436.062	117.44
436.284	112.44
436.505	102.44
436.727	101.44
436.949	92.44
437.17	87.44
437.392	89.44
437.614	95.44
437.835	115.44
438.057	119.44
438.278	111.44
438.5	90.44
438.721	110.44
438.943	92.44
439.165	86.44
439.386	100.44
439.608	84.44
439.829	94.44
440.05	118.44
440.272	164.44
440.493	91.44
440.715	105.44
440.936	94.44
441.158	83.44
441.379	91.44
441.6	85.44
441.822	91.44
442.043	95.44
442.264	112.44
442.486	91.44
442.707	83.44
442.928	108.44
443.149	128.44
443.371	116.44
443.592	117.44
443.813	121.44
444.034	103.44
444.255	95.44
444.476	80.44
444.698	73.44
444.919	80.44
445.14	114.44
445.361	105.44
445.582	124.44
445.803	126.44
446.024	142.44
446.245	129.44
446.466	109.44
446.687	83.44
446.908	75.44
447.129	88.44
447.35	108.44
447.571	103.44
447.792	88.44
448.013	106.44
448.234	92.44
448.455	85.44
448.675	113.44
448.896	116.44
449.117	100.44
449.338	114.44
449.559	129.44
449.779	128.44
450	92.44
450.221	91.44
450.442	82.44
450.662	92.44
450.883	115.44
451.104	139.44
451.324	100.44
451.545	98.44
451.766	89.44
451.986	86.44
452.207	92.44
452.428	102.44
452.648	88.44
452.869	117.44
453.089	112.44
453.31	113.44
453.53	108.44
453.751	90.44
453.971	98.44
454.192	106.44
454.412	86.44
454.633	79.44
454.853	102.44
455.073	97.44
455.294	82.44
455.514	102.44
455.734	85.44
455.955	76.44
456.175	92.44
456.395	95.44
456.616	82.44
456.836	89.44
457.056	105.44
457.276	86.44
457.497	83.44
457.717	75.44
457.937	91.44
458.157	91.44
458.377	100.44
458.598	111.44
458.818	151.44
459.038	161.44
459.258	112.44
459.478	86.44
459.698	88.44
459.918	88.44
460.138	83.44
460.358	78.44
460.578	91.44
460.798	83.44
461.018	91.44
461.238	88.44
461.458	105.44
461.678	93.44
461.898	82.44
462.118	75.44
462.338	99.44
462.558	79.44
462.777	82.44
462.997	80.44
463.217	85.44
463.437	106.44
463.657	88.44
463.876	75.44
464.096	88.44
464.316	90.44
464.536	95.44
464.755	101.44
464.975	114.44
465.195	177.44
465.414	184.44
465.634	99.44
465.854	100.44
466.073	93.44
466.293	89.44
466.512	87.44
466.732	91.44
466.951	79.44
467.171	89.44
467.391	93.44
467.61	107.44
467.829	95.44
468.049	99.44
468.268	82.44
468.488	86.44
468.707	71.44
468.927	74.44
469.146	92.44
469.365	78.44
469.585	84.44
469.804	97.44
470.023	107.44
470.243	98.44
470.462	95.44
470.681	114.44
470.901	75.44
471.12	84.44
471.339	103.44
471.558	81.44
471.777	80.44
471.997	98.44
472.216	97.44
472.435	102.44
472.654	86.44
472.873	78.44
473.092	91.44
473.311	83.44
473.53	91.44
473.749	93.44
473.968	103.44
474.187	98.44
474.406	108.44
474.625	93.44
474.844	86.44
475.063	84.44
475.282	89.44
475.501	87.44
475.72	95.44
475.939	92.44
476.158	86.44
476.377	91.44
476.596	94.44
476.814	79.44
477.033	95.44
477.252	82.44
477.471	86.44
477.69	89.44
477.908	85.44
478.127	102.44
478.346	104.44
478.564	98.44
478.783	87.44
479.002	80.44
479.22	88.44
479.439	99.44
479.658	90.44
479.876	88.44
480.095	97.44
480.313	92.44
480.532	82.44
480.751	104.44
480.969	101.44
481.188	109.44
481.406	93.44
481.624	86.44
481.843	87.44
482.061	79.44
482.28	87.44
482.498	91.44
482.717	87.44
482.935	91.44
483.153	100.44
483.372	89.44
483.59	81.44
483.808	81.44
484.027	100.44
484.245	91.44
484.463	104.44
484.681	90.44
484.9	89.44
485.118	85.44
485.336	78.44
485.554	100.44
485.772	103.44
485.99	108.44
486.209	98.44
486.427	102.44
486.645	100.44
486.863	101.44
487.081	92.44
487.299	96.44
487.517	86.44
487.735	93.44
487.953	71.44
488.171	90.44
488.389	98.44
488.607	75.44
488.825	89.44
489.043	91.44
489.261	103.44
489.479	90.44
489.696	99.44
489.914	83.44
490.132	82.44
490.35	100.44
490.568	96.44
490.786	86.44
491.003	70.44
491.221	97.44
491.439	84.44
491.657	84.44
491.874	79.44
492.092	90.44
492.31	83.44
492.527	101.44
492.745	94.44
492.963	88.44
493.18	75.44
493.398	100.44
493.615	101.44
493.833	69.44
494.05	84.44
494.268	91.44
494.485	95.44
494.703	90.44
494.92	91.44
495.138	102.44
495.355	86.44
495.573	92.44
495.79	79.44
496.008	89.44
496.225	97.44
496.442	90.44
496.66	97.44
496.877	97.44
497.094	104.44
497.312	76.44
497.529	83.44
497.746	87.44
497.963	86.44
498.181	87.44
498.398	91.44
498.615	101.44
498.832	98.44
499.049	89.44
499.267	90.44
499.484	91.44
499.701	91.44
499.918	80.44
500.135	89.44
500.352	76.44
500.569	97.44
500.786	92.44
501.003	97.44
501.22	86.44
501.437	83.44
501.654	110.44
501.871	93.44
502.088	87.44
502.305	90.44
502.522	93.44
502.739	94.44
502.956	98.44
503.172	83.44
503.389	105.44
503.606	108.44
503.823	101.44
504.04	90.44
504.256	92.44
504.473	87.44
504.69	84.44
504.907	86.44
505.123	96.44
505.34	86.44
505.557	96.44
505.773	89.44
505.99	78.44
506.207	95.44
506.423	79.44
506.64	85.44
506.856	82.44
507.073	88.44
507.289	83.44
507.506	96.44
507.722	107.44
507.939	125.44
508.155	86.44
508.372	102.44
508.588	105.44
508.805	93.44
509.021	98.44
509.238	92.44
509.454	101.44
509.67	106.44
509.887	104.44
510.103	141.44
510.319	220.44
510.536	795.44
510.752	2447.44
510.968	660.44
511.184	143.44
511.401	116.44
511.617	98.44
511.833	103.44
512.049	104.44
512.265	96.44
512.481	87.44
512.698	94.44
512.914	88.44
513.13	88.44
513.346	89.44
513.562	83.44
513.778	96.44
513.994	93.44
514.21	111.44
514.426	120.44
514.642	135.44
514.858	137.44
515.074	174.44
515.29	482.44
515.506	1575.44
515.721	590.44
515.937	158.44
