Data from Uncirc_2001_H10_HRD10591_00041.txt Node
Date: Wed Jan 03 10:44:05 EST 2024
User: Yrep
Spectrometer: HR+D1059
Trigger mode: 1
Integration Time (sec): 1.000000E-1
Scans to average: 1
Electric dark correction enabled: true
Nonlinearity correction enabled: false
Boxcar width: 0
XAxis mode: Wavelengths
Number of Pixels in Spectrum: 2048
>>>>>Begin Spectral Data<<<<<
223.165	-12.06
223.4	-12.06
223.635	-12.06
223.869	-15.06
224.104	-26.06
224.338	-34.06
224.573	-4.06
224.808	-15.06
225.042	-6.06
225.277	-6.06
225.511	-2.06
225.746	4.94
225.98	8.94
226.215	3.94
226.449	22.94
226.683	29.94
226.918	19.94
227.152	29.94
227.387	27.94
227.621	23.94
227.856	42.94
228.09	48.94
228.324	47.94
228.559	40.94
228.793	61.94
229.027	63.94
229.262	69.94
229.496	61.94
229.73	64.94
229.964	92.94
230.199	64.94
230.433	72.94
230.667	83.94
230.901	69.94
231.136	61.94
231.37	61.94
231.604	85.94
231.838	73.94
232.072	76.94
232.306	79.94
232.541	83.94
232.775	68.94
233.009	76.94
233.243	75.94
233.477	79.94
233.711	80.94
233.945	75.94
234.179	91.94
234.413	71.94
234.647	64.94
234.881	71.94
235.115	73.94
235.349	64.94
235.583	86.94
235.817	78.94
236.051	77.94
236.285	73.94
236.519	76.94
236.753	72.94
236.987	64.94
237.221	87.94
237.455	88.94
237.689	68.94
237.922	68.94
238.156	74.94
238.39	72.94
238.624	76.94
238.858	69.94
239.091	78.94
239.325	70.94
239.559	76.94
239.793	65.94
240.027	78.94
240.26	84.94
240.494	64.94
240.728	83.94
240.961	75.94
241.195	79.94
241.429	79.94
241.662	78.94
241.896	70.94
242.13	75.94
242.363	85.94
242.597	82.94
242.83	70.94
243.064	88.94
243.298	66.94
243.531	72.94
243.765	76.94
243.998	65.94
244.232	65.94
244.465	82.94
244.699	69.94
244.932	72.94
245.166	73.94
245.399	78.94
245.633	83.94
245.866	66.94
246.099	67.94
246.333	78.94
246.566	71.94
246.8	71.94
247.033	64.94
247.266	80.94
247.5	69.94
247.733	72.94
247.966	73.94
248.2	80.94
248.433	73.94
248.666	65.94
248.899	89.94
249.133	74.94
249.366	95.94
249.599	89.94
249.832	53.94
250.066	84.94
250.299	78.94
250.532	79.94
250.765	72.94
250.998	88.94
251.231	76.94
251.465	74.94
251.698	86.94
251.931	71.94
252.164	63.94
252.397	72.94
252.63	77.94
252.863	86.94
253.096	59.94
253.329	99.94
253.562	88.94
253.795	77.94
254.028	78.94
254.261	76.94
254.494	69.94
254.727	89.94
254.96	93.94
255.193	71.94
255.426	69.94
255.659	89.94
255.892	80.94
256.124	73.94
256.357	71.94
256.59	76.94
256.823	89.94
257.056	96.94
257.289	85.94
257.521	71.94
257.754	67.94
257.987	71.94
258.22	75.94
258.452	73.94
258.685	78.94
258.918	79.94
259.151	80.94
259.383	91.94
259.616	71.94
259.849	67.94
260.081	75.94
260.314	78.94
260.547	84.94
260.779	71.94
261.012	73.94
261.244	84.94
261.477	95.94
261.71	87.94
261.942	110.94
262.175	104.94
262.407	67.94
262.64	85.94
262.872	78.94
263.105	78.94
263.337	94.94
263.57	79.94
263.802	95.94
264.035	96.94
264.267	76.94
264.499	69.94
264.732	65.94
264.964	73.94
265.197	81.94
265.429	60.94
265.661	83.94
265.894	67.94
266.126	93.94
266.358	86.94
266.591	88.94
266.823	83.94
267.055	75.94
267.287	87.94
267.52	78.94
267.752	79.94
267.984	93.94
268.216	71.94
268.448	66.94
268.681	91.94
268.913	79.94
269.145	73.94
269.377	83.94
269.609	75.94
269.841	86.94
270.073	72.94
270.306	77.94
270.538	81.94
270.77	61.94
271.002	100.94
271.234	92.94
271.466	89.94
271.698	86.94
271.93	74.94
272.162	84.94
272.394	71.94
272.626	85.94
272.858	81.94
273.09	92.94
273.322	83.94
273.553	79.94
273.785	82.94
274.017	63.94
274.249	79.94
274.481	92.94
274.713	77.94
274.945	89.94
275.176	71.94
275.408	72.94
275.64	73.94
275.872	87.94
276.104	78.94
276.335	92.94
276.567	98.94
276.799	94.94
277.031	107.94
277.262	98.94
277.494	81.94
277.726	86.94
277.957	80.94
278.189	84.94
278.421	81.94
278.652	84.94
278.884	94.94
279.115	89.94
279.347	91.94
279.579	83.94
279.81	76.94
280.042	74.94
280.273	81.94
280.505	88.94
280.736	69.94
280.968	90.94
281.199	88.94
281.431	82.94
281.662	78.94
281.894	92.94
282.125	88.94
282.356	103.94
282.588	126.94
282.819	110.94
283.051	88.94
283.282	92.94
283.513	100.94
283.745	93.94
283.976	89.94
284.207	75.94
284.439	71.94
284.67	86.94
284.901	93.94
285.132	86.94
285.364	85.94
285.595	90.94
285.826	84.94
286.057	84.94
286.288	87.94
286.52	80.94
286.751	79.94
286.982	80.94
287.213	85.94
287.444	84.94
287.675	92.94
287.906	83.94
288.138	68.94
288.369	96.94
288.6	82.94
288.831	79.94
289.062	96.94
289.293	71.94
289.524	75.94
289.755	89.94
289.986	83.94
290.217	82.94
290.448	73.94
290.679	100.94
290.91	74.94
291.141	88.94
291.371	86.94
291.602	93.94
291.833	76.94
292.064	88.94
292.295	76.94
292.526	89.94
292.757	80.94
292.987	67.94
293.218	88.94
293.449	87.94
293.68	86.94
293.91	63.94
294.141	88.94
294.372	87.94
294.603	87.94
294.833	86.94
295.064	87.94
295.295	80.94
295.525	91.94
295.756	92.94
295.987	108.94
296.217	124.94
296.448	106.94
296.679	84.94
296.909	91.94
297.14	86.94
297.37	80.94
297.601	80.94
297.831	75.94
298.062	81.94
298.292	82.94
298.523	98.94
298.753	81.94
298.984	81.94
299.214	92.94
299.445	83.94
299.675	80.94
299.905	91.94
300.136	92.94
300.366	80.94
300.597	87.94
300.827	96.94
301.057	87.94
301.288	101.94
301.518	86.94
301.748	75.94
301.979	101.94
302.209	93.94
302.439	80.94
302.669	94.94
302.9	94.94
303.13	93.94
303.36	94.94
303.59	89.94
303.82	94.94
304.051	100.94
304.281	79.94
304.511	95.94
304.741	91.94
304.971	95.94
305.201	88.94
305.431	84.94
305.661	70.94
305.891	108.94
306.121	95.94
306.352	75.94
306.582	94.94
306.812	81.94
307.042	92.94
307.272	80.94
307.502	91.94
307.731	86.94
307.961	88.94
308.191	92.94
308.421	76.94
308.651	77.94
308.881	92.94
309.111	85.94
309.341	83.94
309.571	80.94
309.8	99.94
310.03	78.94
310.26	117.94
310.49	92.94
310.72	89.94
310.949	92.94
311.179	95.94
311.409	87.94
311.639	95.94
311.868	94.94
312.098	97.94
312.328	89.94
312.557	94.94
312.787	93.94
313.017	96.94
313.246	89.94
313.476	90.94
313.706	94.94
313.935	100.94
314.165	90.94
314.394	100.94
314.624	88.94
314.853	90.94
315.083	92.94
315.312	92.94
315.542	87.94
315.771	93.94
316.001	83.94
316.23	78.94
316.46	84.94
316.689	94.94
316.919	103.94
317.148	89.94
317.377	96.94
317.607	97.94
317.836	81.94
318.065	71.94
318.295	88.94
318.524	92.94
318.753	87.94
318.983	87.94
319.212	109.94
319.441	104.94
319.67	104.94
319.9	87.94
320.129	89.94
320.358	70.94
320.587	87.94
320.816	96.94
321.046	95.94
321.275	98.94
321.504	91.94
321.733	87.94
321.962	84.94
322.191	92.94
322.42	95.94
322.649	95.94
322.878	110.94
323.108	100.94
323.337	104.94
323.566	120.94
323.795	140.94
324.024	174.94
324.253	326.94
324.482	687.94
324.71	1359.94
324.939	1753.94
325.168	654.94
325.397	213.94
325.626	148.94
325.855	113.94
326.084	117.94
326.313	123.94
326.542	118.94
326.77	199.94
326.999	374.94
327.228	742.94
327.457	1318.94
327.686	1044.94
327.914	285.94
328.143	165.94
328.372	147.94
328.6	105.94
328.829	100.94
329.058	123.94
329.287	127.94
329.515	113.94
329.744	95.94
329.972	86.94
330.201	81.94
330.43	109.94
330.658	123.94
330.887	131.94
331.115	124.94
331.344	85.94
331.572	88.94
331.801	98.94
332.03	86.94
332.258	92.94
332.486	89.94
332.715	79.94
332.943	88.94
333.172	80.94
333.4	107.94
333.629	94.94
333.857	107.94
334.085	87.94
334.314	94.94
334.542	89.94
334.771	101.94
334.999	98.94
335.227	97.94
335.455	111.94
335.684	104.94
335.912	114.94
336.14	93.94
336.369	90.94
336.597	106.94
336.825	95.94
337.053	88.94
337.281	67.94
337.51	85.94
337.738	89.94
337.966	81.94
338.194	91.94
338.422	93.94
338.65	78.94
338.878	87.94
339.106	85.94
339.334	76.94
339.562	91.94
339.79	87.94
340.018	93.94
340.246	77.94
340.474	85.94
340.702	71.94
340.93	85.94
341.158	86.94
341.386	77.94
341.614	101.94
341.842	95.94
342.07	85.94
342.298	78.94
342.526	93.94
342.754	107.94
342.981	77.94
343.209	85.94
343.437	98.94
343.665	82.94
343.893	87.94
344.12	81.94
344.348	95.94
344.576	81.94
344.804	94.94
345.031	92.94
345.259	101.94
345.487	96.94
345.714	84.94
345.942	87.94
346.17	85.94
346.397	79.94
346.625	84.94
346.853	103.94
347.08	101.94
347.308	94.94
347.535	78.94
347.763	94.94
347.99	94.94
348.218	87.94
348.445	93.94
348.673	87.94
348.9	101.94
349.128	96.94
349.355	88.94
349.583	88.94
349.81	85.94
350.037	83.94
350.265	81.94
350.492	106.94
350.72	93.94
350.947	101.94
351.174	105.94
351.402	103.94
351.629	93.94
351.856	91.94
352.083	104.94
352.311	103.94
352.538	98.94
352.765	110.94
352.992	110.94
353.22	111.94
353.447	100.94
353.674	92.94
353.901	102.94
354.128	93.94
354.355	99.94
354.583	89.94
354.81	89.94
355.037	104.94
355.264	97.94
355.491	81.94
355.718	97.94
355.945	87.94
356.172	80.94
356.399	95.94
356.626	92.94
356.853	102.94
357.08	89.94
357.307	91.94
357.534	85.94
357.761	89.94
357.988	91.94
358.215	97.94
358.441	91.94
358.668	88.94
358.895	86.94
359.122	86.94
359.349	85.94
359.576	79.94
359.802	96.94
360.029	96.94
360.256	98.94
360.483	106.94
360.709	88.94
360.936	88.94
361.163	99.94
361.39	80.94
361.616	83.94
361.843	85.94
362.07	89.94
362.296	76.94
362.523	75.94
362.749	85.94
362.976	92.94
363.203	80.94
363.429	78.94
363.656	78.94
363.882	76.94
364.109	81.94
364.335	89.94
364.562	81.94
364.788	82.94
365.015	86.94
365.241	88.94
365.468	107.94
365.694	113.94
365.92	96.94
366.147	90.94
366.373	96.94
366.599	92.94
366.826	81.94
367.052	75.94
367.278	88.94
367.505	72.94
367.731	80.94
367.957	75.94
368.184	88.94
368.41	99.94
368.636	96.94
368.862	115.94
369.089	108.94
369.315	108.94
369.541	93.94
369.767	99.94
369.993	87.94
370.219	79.94
370.445	84.94
370.672	87.94
370.898	82.94
371.124	77.94
371.35	81.94
371.576	80.94
371.802	73.94
372.028	86.94
372.254	69.94
372.48	88.94
372.706	78.94
372.932	87.94
373.158	84.94
373.384	86.94
373.61	102.94
373.835	79.94
374.061	95.94
374.287	70.94
374.513	80.94
374.739	85.94
374.965	92.94
375.191	97.94
375.416	90.94
375.642	82.94
375.868	80.94
376.094	90.94
376.319	87.94
376.545	91.94
376.771	89.94
376.997	90.94
377.222	95.94
377.448	75.94
377.674	65.94
377.899	94.94
378.125	88.94
378.35	87.94
378.576	90.94
378.802	80.94
379.027	87.94
379.253	94.94
379.478	83.94
379.704	96.94
379.929	88.94
380.155	76.94
380.38	80.94
380.606	89.94
380.831	88.94
381.057	90.94
381.282	101.94
381.507	82.94
381.733	95.94
381.958	96.94
382.184	102.94
382.409	89.94
382.634	83.94
382.86	81.94
383.085	86.94
383.31	94.94
383.535	109.94
383.761	102.94
383.986	97.94
384.211	94.94
384.436	85.94
384.662	97.94
384.887	92.94
385.112	101.94
385.337	97.94
385.562	92.94
385.787	91.94
386.013	114.94
386.238	112.94
386.463	104.94
386.688	112.94
386.913	106.94
387.138	97.94
387.363	93.94
387.588	94.94
387.813	94.94
388.038	96.94
388.263	116.94
388.488	89.94
388.713	96.94
388.938	95.94
389.163	87.94
389.387	81.94
389.612	79.94
389.837	85.94
390.062	82.94
390.287	94.94
390.512	89.94
390.736	91.94
390.961	81.94
391.186	77.94
391.411	92.94
391.636	84.94
391.86	85.94
392.085	85.94
392.31	98.94
392.534	82.94
392.759	85.94
392.984	94.94
393.208	81.94
393.433	97.94
393.658	85.94
393.882	84.94
394.107	84.94
394.331	82.94
394.556	80.94
394.78	88.94
395.005	78.94
395.229	80.94
395.454	78.94
395.678	68.94
395.903	91.94
396.127	82.94
396.352	69.94
396.576	85.94
396.801	89.94
397.025	89.94
397.249	78.94
397.474	88.94
397.698	88.94
397.922	88.94
398.147	71.94
398.371	82.94
398.595	81.94
398.82	67.94
399.044	77.94
399.268	71.94
399.492	81.94
399.717	78.94
399.941	84.94
400.165	80.94
400.389	97.94
400.613	83.94
400.837	95.94
401.062	83.94
401.286	95.94
401.51	89.94
401.734	103.94
401.958	104.94
402.182	115.94
402.406	152.94
402.63	109.94
402.854	85.94
403.078	84.94
403.302	87.94
403.526	87.94
403.75	88.94
403.974	88.94
404.198	76.94
404.422	89.94
404.645	81.94
404.869	73.94
405.093	84.94
405.317	82.94
405.541	94.94
405.765	93.94
405.988	101.94
406.212	166.94
406.436	211.94
406.66	135.94
406.883	96.94
407.107	83.94
407.331	89.94
407.555	89.94
407.778	96.94
408.002	95.94
408.226	79.94
408.449	82.94
408.673	79.94
408.896	69.94
409.12	87.94
409.344	76.94
409.567	95.94
409.791	83.94
410.014	95.94
410.238	83.94
410.461	93.94
410.685	91.94
410.908	87.94
411.132	99.94
411.355	88.94
411.578	96.94
411.802	80.94
412.025	76.94
412.249	76.94
412.472	86.94
412.695	63.94
412.919	75.94
413.142	94.94
413.365	81.94
413.589	73.94
413.812	88.94
414.035	80.94
414.258	85.94
414.482	83.94
414.705	74.94
414.928	85.94
415.151	79.94
415.374	88.94
415.597	70.94
415.821	99.94
416.044	80.94
416.267	88.94
416.49	97.94
416.713	83.94
416.936	79.94
417.159	88.94
417.382	84.94
417.605	85.94
417.828	90.94
418.051	87.94
418.274	74.94
418.497	83.94
418.72	81.94
418.943	90.94
419.166	75.94
419.389	89.94
419.611	80.94
419.834	71.94
420.057	80.94
420.28	79.94
420.503	75.94
420.726	80.94
420.948	92.94
421.171	89.94
421.394	94.94
421.617	77.94
421.839	94.94
422.062	98.94
422.285	74.94
422.507	85.94
422.73	85.94
422.953	73.94
423.175	96.94
423.398	75.94
423.621	94.94
423.843	94.94
424.066	93.94
424.288	86.94
424.511	71.94
424.733	85.94
424.956	104.94
425.178	104.94
425.401	104.94
425.623	100.94
425.846	86.94
426.068	80.94
426.291	80.94
426.513	80.94
426.735	88.94
426.958	82.94
427.18	94.94
427.402	127.94
427.625	142.94
427.847	125.94
428.069	91.94
428.292	77.94
428.514	82.94
428.736	76.94
428.958	79.94
429.181	87.94
429.403	70.94
429.625	78.94
429.847	78.94
430.069	89.94
430.292	84.94
430.514	82.94
430.736	92.94
430.958	86.94
431.18	81.94
431.402	86.94
431.624	78.94
431.846	71.94
432.068	98.94
432.29	97.94
432.512	75.94
432.734	77.94
432.956	84.94
433.178	90.94
433.4	75.94
433.622	80.94
433.844	53.94
434.066	79.94
434.287	95.94
434.509	85.94
434.731	70.94
434.953	73.94
435.175	90.94
435.397	82.94
435.618	77.94
435.84	93.94
436.062	97.94
436.284	103.94
436.505	105.94
436.727	68.94
436.949	74.94
437.17	74.94
437.392	73.94
437.614	93.94
437.835	88.94
438.057	99.94
438.278	93.94
438.5	91.94
438.721	111.94
438.943	95.94
439.165	85.94
439.386	86.94
439.608	81.94
439.829	100.94
440.05	116.94
440.272	123.94
440.493	98.94
440.715	89.94
440.936	96.94
441.158	79.94
441.379	87.94
441.6	80.94
441.822	99.94
442.043	102.94
442.264	93.94
442.486	104.94
442.707	89.94
442.928	90.94
443.149	119.94
443.371	107.94
443.592	91.94
443.813	110.94
444.034	99.94
444.255	65.94
444.476	93.94
444.698	93.94
444.919	74.94
445.14	122.94
445.361	110.94
445.582	86.94
445.803	129.94
446.024	117.94
446.245	123.94
446.466	100.94
446.687	92.94
446.908	100.94
447.129	85.94
447.35	92.94
447.571	90.94
447.792	83.94
448.013	88.94
448.234	96.94
448.455	93.94
448.675	111.94
448.896	104.94
449.117	96.94
449.338	77.94
449.559	123.94
449.779	126.94
450	95.94
450.221	91.94
450.442	76.94
450.662	91.94
450.883	99.94
451.104	109.94
451.324	88.94
451.545	89.94
451.766	76.94
451.986	69.94
452.207	87.94
452.428	83.94
452.648	94.94
452.869	107.94
453.089	97.94
453.31	112.94
453.53	89.94
453.751	91.94
453.971	93.94
454.192	95.94
454.412	88.94
454.633	81.94
454.853	89.94
455.073	78.94
455.294	89.94
455.514	87.94
455.734	73.94
455.955	76.94
456.175	78.94
456.395	89.94
456.616	92.94
456.836	97.94
457.056	87.94
457.276	77.94
457.497	84.94
457.717	75.94
457.937	61.94
458.157	80.94
458.377	107.94
458.598	96.94
458.818	131.94
459.038	137.94
459.258	112.94
459.478	87.94
459.698	76.94
459.918	106.94
460.138	89.94
460.358	68.94
460.578	90.94
460.798	79.94
461.018	79.94
461.238	85.94
461.458	79.94
461.678	69.94
461.898	73.94
462.118	86.94
462.338	67.94
462.558	72.94
462.777	99.94
462.997	82.94
463.217	84.94
463.437	80.94
463.657	83.94
463.876	92.94
464.096	85.94
464.316	93.94
464.536	87.94
464.755	94.94
464.975	103.94
465.195	168.94
465.414	143.94
465.634	97.94
465.854	88.94
466.073	99.94
466.293	95.94
466.512	66.94
466.732	67.94
466.951	77.94
467.171	93.94
467.391	100.94
467.61	114.94
467.829	83.94
468.049	88.94
468.268	87.94
468.488	69.94
468.707	77.94
468.927	82.94
469.146	81.94
469.365	87.94
469.585	86.94
469.804	72.94
470.023	77.94
470.243	80.94
470.462	84.94
470.681	93.94
470.901	83.94
471.12	73.94
471.339	76.94
471.558	78.94
471.777	86.94
471.997	86.94
472.216	78.94
472.435	85.94
472.654	71.94
472.873	81.94
473.092	95.94
473.311	75.94
473.53	89.94
473.749	76.94
473.968	89.94
474.187	83.94
474.406	103.94
474.625	79.94
474.844	96.94
475.063	87.94
475.282	79.94
475.501	81.94
475.72	76.94
475.939	85.94
476.158	95.94
476.377	61.94
476.596	80.94
476.814	89.94
477.033	75.94
477.252	84.94
477.471	83.94
477.69	78.94
477.908	87.94
478.127	81.94
478.346	75.94
478.564	86.94
478.783	85.94
479.002	84.94
479.22	96.94
479.439	84.94
479.658	94.94
479.876	90.94
480.095	80.94
480.313	80.94
480.532	88.94
480.751	88.94
480.969	84.94
481.188	106.94
481.406	89.94
481.624	79.94
481.843	59.94
482.061	66.94
482.28	86.94
482.498	86.94
482.717	80.94
482.935	94.94
483.153	83.94
483.372	84.94
483.59	96.94
483.808	84.94
484.027	84.94
484.245	92.94
484.463	79.94
484.681	91.94
484.9	93.94
485.118	91.94
485.336	84.94
485.554	96.94
485.772	93.94
485.99	94.94
486.209	88.94
486.427	94.94
486.645	101.94
486.863	89.94
487.081	93.94
487.299	85.94
487.517	84.94
487.735	87.94
487.953	91.94
488.171	99.94
488.389	102.94
488.607	92.94
488.825	89.94
489.043	93.94
489.261	89.94
489.479	88.94
489.696	86.94
489.914	92.94
490.132	95.94
490.35	93.94
490.568	83.94
490.786	72.94
491.003	76.94
491.221	78.94
491.439	76.94
491.657	96.94
491.874	86.94
492.092	76.94
492.31	77.94
492.527	79.94
492.745	81.94
492.963	73.94
493.18	91.94
493.398	67.94
493.615	84.94
493.833	97.94
494.05	97.94
494.268	101.94
494.485	98.94
494.703	83.94
494.92	89.94
495.138	81.94
495.355	93.94
495.573	91.94
495.79	96.94
496.008	87.94
496.225	90.94
496.442	89.94
496.66	89.94
496.877	83.94
497.094	84.94
497.312	92.94
497.529	95.94
497.746	77.94
497.963	72.94
498.181	86.94
498.398	92.94
498.615	83.94
498.832	89.94
499.049	87.94
499.267	85.94
499.484	86.94
499.701	83.94
499.918	84.94
500.135	92.94
500.352	87.94
500.569	76.94
500.786	77.94
501.003	80.94
501.22	76.94
501.437	86.94
501.654	89.94
501.871	89.94
502.088	82.94
502.305	81.94
502.522	79.94
502.739	89.94
502.956	93.94
503.172	88.94
503.389	87.94
503.606	107.94
503.823	93.94
504.04	86.94
504.256	84.94
504.473	74.94
504.69	97.94
504.907	83.94
505.123	90.94
505.34	90.94
505.557	88.94
505.773	84.94
505.99	82.94
506.207	94.94
506.423	88.94
506.64	81.94
506.856	79.94
507.073	92.94
507.289	79.94
507.506	85.94
507.722	99.94
507.939	108.94
508.155	100.94
508.372	94.94
508.588	89.94
508.805	96.94
509.021	85.94
509.238	97.94
509.454	84.94
509.67	95.94
509.887	103.94
510.103	126.94
510.319	210.94
510.536	717.94
510.752	2254.94
510.968	608.94
511.184	154.94
511.401	104.94
511.617	89.94
511.833	85.94
512.049	98.94
512.265	91.94
512.481	95.94
512.698	77.94
512.914	80.94
513.13	88.94
513.346	93.94
513.562	84.94
513.778	77.94
513.994	86.94
514.21	85.94
514.426	119.94
514.642	127.94
514.858	127.94
515.074	142.94
515.29	453.94
515.506	1382.94
515.721	500.94
515.937	131.94
516.153	98.94
516.369	94.94
516.585	79.94
516.801	77.94
517.016	93.94
517.232	92.94
517.448	88.94
517.664	72.94
