Data from Uncirc_2001_H10_HRD10591_00059.txt Node
Date: Wed Jan 03 10:44:08 EST 2024
User: Yrep
Spectrometer: HR+D1059
Trigger mode: 1
Integration Time (sec): 1.000000E-1
Scans to average: 1
Electric dark correction enabled: true
Nonlinearity correction enabled: false
Boxcar width: 0
XAxis mode: Wavelengths
Number of Pixels in Spectrum: 2048
>>>>>Begin Spectral Data<<<<<
223.165	-26.69
223.4	-26.69
223.635	-26.69
223.869	-16.69
224.104	-20.69
224.338	-9.69
224.573	0.31
224.808	-1.69
225.042	-4.69
225.277	-15.69
225.511	-2.69
225.746	0.31
225.98	6.31
226.215	6.31
226.449	5.31
226.683	22.31
226.918	32.31
227.152	25.31
227.387	29.31
227.621	38.31
227.856	63.31
228.09	55.31
228.324	46.31
228.559	51.31
228.793	59.31
229.027	62.31
229.262	52.31
229.496	79.31
229.73	71.31
229.964	80.31
230.199	86.31
230.433	84.31
230.667	70.31
230.901	72.31
231.136	77.31
231.37	68.31
231.604	81.31
231.838	68.31
232.072	82.31
232.306	96.31
232.541	76.31
232.775	89.31
233.009	73.31
233.243	82.31
233.477	78.31
233.711	79.31
233.945	98.31
234.179	81.31
234.413	89.31
234.647	94.31
234.881	97.31
235.115	86.31
235.349	83.31
235.583	70.31
235.817	87.31
236.051	77.31
236.285	75.31
236.519	71.31
236.753	89.31
236.987	78.31
237.221	80.31
237.455	86.31
237.689	68.31
237.922	72.31
238.156	72.31
238.39	90.31
238.624	90.31
238.858	72.31
239.091	74.31
239.325	73.31
239.559	73.31
239.793	72.31
240.027	93.31
240.26	74.31
240.494	85.31
240.728	73.31
240.961	70.31
241.195	82.31
241.429	62.31
241.662	82.31
241.896	73.31
242.13	71.31
242.363	84.31
242.597	77.31
242.83	77.31
243.064	85.31
243.298	70.31
243.531	94.31
243.765	89.31
243.998	78.31
244.232	84.31
244.465	84.31
244.699	78.31
244.932	71.31
245.166	80.31
245.399	78.31
245.633	83.31
245.866	72.31
246.099	75.31
246.333	88.31
246.566	74.31
246.8	76.31
247.033	77.31
247.266	76.31
247.5	82.31
247.733	67.31
247.966	76.31
248.2	73.31
248.433	81.31
248.666	82.31
248.899	93.31
249.133	80.31
249.366	95.31
249.599	109.31
249.832	81.31
250.066	75.31
250.299	76.31
250.532	84.31
250.765	77.31
250.998	68.31
251.231	78.31
251.465	83.31
251.698	73.31
251.931	77.31
252.164	82.31
252.397	70.31
252.63	95.31
252.863	75.31
253.096	94.31
253.329	83.31
253.562	82.31
253.795	74.31
254.028	89.31
254.261	80.31
254.494	76.31
254.727	85.31
254.96	70.31
255.193	75.31
255.426	83.31
255.659	73.31
255.892	83.31
256.124	78.31
256.357	85.31
256.59	92.31
256.823	84.31
257.056	73.31
257.289	76.31
257.521	78.31
257.754	91.31
257.987	91.31
258.22	83.31
258.452	81.31
258.685	84.31
258.918	94.31
259.151	75.31
259.383	80.31
259.616	75.31
259.849	83.31
260.081	89.31
260.314	85.31
260.547	84.31
260.779	91.31
261.012	88.31
261.244	85.31
261.477	72.31
261.71	112.31
261.942	113.31
262.175	116.31
262.407	92.31
262.64	77.31
262.872	77.31
263.105	76.31
263.337	82.31
263.57	77.31
263.802	73.31
264.035	89.31
264.267	77.31
264.499	79.31
264.732	72.31
264.964	84.31
265.197	92.31
265.429	86.31
265.661	81.31
265.894	81.31
266.126	77.31
266.358	83.31
266.591	78.31
266.823	69.31
267.055	74.31
267.287	92.31
267.52	91.31
267.752	73.31
267.984	82.31
268.216	75.31
268.448	87.31
268.681	83.31
268.913	88.31
269.145	93.31
269.377	92.31
269.609	89.31
269.841	93.31
270.073	76.31
270.306	80.31
270.538	87.31
270.77	84.31
271.002	96.31
271.234	86.31
271.466	84.31
271.698	81.31
271.93	84.31
272.162	106.31
272.394	88.31
272.626	88.31
272.858	86.31
273.09	92.31
273.322	89.31
273.553	82.31
273.785	88.31
274.017	91.31
274.249	73.31
274.481	91.31
274.713	89.31
274.945	86.31
275.176	72.31
275.408	92.31
275.64	87.31
275.872	98.31
276.104	84.31
276.335	90.31
276.567	102.31
276.799	119.31
277.031	103.31
277.262	78.31
277.494	80.31
277.726	77.31
277.957	86.31
278.189	93.31
278.421	84.31
278.652	96.31
278.884	79.31
279.115	82.31
279.347	93.31
279.579	92.31
279.81	85.31
280.042	77.31
280.273	88.31
280.505	85.31
280.736	91.31
280.968	93.31
281.199	97.31
281.431	86.31
281.662	114.31
281.894	94.31
282.125	100.31
282.356	123.31
282.588	142.31
282.819	106.31
283.051	98.31
283.282	88.31
283.513	75.31
283.745	76.31
283.976	83.31
284.207	77.31
284.439	94.31
284.67	83.31
284.901	86.31
285.132	94.31
285.364	90.31
285.595	97.31
285.826	96.31
286.057	80.31
286.288	92.31
286.52	100.31
286.751	88.31
286.982	89.31
287.213	98.31
287.444	96.31
287.675	72.31
287.906	90.31
288.138	77.31
288.369	90.31
288.6	101.31
288.831	93.31
289.062	80.31
289.293	71.31
289.524	85.31
289.755	86.31
289.986	98.31
290.217	76.31
290.448	94.31
290.679	85.31
290.91	94.31
291.141	81.31
291.371	105.31
291.602	88.31
291.833	91.31
292.064	81.31
292.295	75.31
292.526	93.31
292.757	74.31
292.987	82.31
293.218	100.31
293.449	94.31
293.68	81.31
293.91	86.31
294.141	84.31
294.372	86.31
294.603	85.31
294.833	86.31
295.064	86.31
295.295	98.31
295.525	88.31
295.756	86.31
295.987	128.31
296.217	138.31
296.448	124.31
296.679	105.31
296.909	88.31
297.14	98.31
297.37	94.31
297.601	88.31
297.831	91.31
298.062	97.31
298.292	87.31
298.523	96.31
298.753	104.31
298.984	108.31
299.214	92.31
299.445	99.31
299.675	94.31
299.905	99.31
300.136	74.31
300.366	77.31
300.597	87.31
300.827	96.31
301.057	100.31
301.288	101.31
301.518	108.31
301.748	83.31
301.979	92.31
302.209	91.31
302.439	91.31
302.669	80.31
302.9	76.31
303.13	80.31
303.36	102.31
303.59	105.31
303.82	106.31
304.051	93.31
304.281	104.31
304.511	87.31
304.741	83.31
304.971	100.31
305.201	91.31
305.431	105.31
305.661	90.31
305.891	87.31
306.121	86.31
306.352	101.31
306.582	100.31
306.812	92.31
307.042	90.31
307.272	86.31
307.502	92.31
307.731	95.31
307.961	102.31
308.191	96.31
308.421	87.31
308.651	78.31
308.881	99.31
309.111	117.31
309.341	92.31
309.571	102.31
309.8	103.31
310.03	79.31
310.26	96.31
310.49	94.31
310.72	94.31
310.949	108.31
311.179	106.31
311.409	83.31
311.639	80.31
311.868	97.31
312.098	94.31
312.328	94.31
312.557	99.31
312.787	112.31
313.017	86.31
313.246	84.31
313.476	91.31
313.706	94.31
313.935	91.31
314.165	97.31
314.394	103.31
314.624	102.31
314.853	94.31
315.083	99.31
315.312	96.31
315.542	92.31
315.771	87.31
316.001	94.31
316.23	80.31
316.46	93.31
316.689	101.31
316.919	94.31
317.148	90.31
317.377	97.31
317.607	86.31
317.836	99.31
318.065	92.31
318.295	90.31
318.524	80.31
318.753	87.31
318.983	91.31
319.212	102.31
319.441	123.31
319.67	102.31
319.9	95.31
320.129	86.31
320.358	88.31
320.587	98.31
320.816	98.31
321.046	114.31
321.275	99.31
321.504	103.31
321.733	93.31
321.962	79.31
322.191	93.31
322.42	109.31
322.649	107.31
322.878	132.31
323.108	117.31
323.337	116.31
323.566	138.31
323.795	164.31
324.024	187.31
324.253	389.31
324.482	802.31
324.71	1612.31
324.939	2091.31
325.168	772.31
325.397	240.31
325.626	150.31
325.855	129.31
326.084	128.31
326.313	138.31
326.542	152.31
326.77	224.31
326.999	436.31
327.228	857.31
327.457	1568.31
327.686	1250.31
327.914	382.31
328.143	183.31
328.372	133.31
328.6	120.31
328.829	129.31
329.058	132.31
329.287	120.31
329.515	108.31
329.744	101.31
329.972	95.31
330.201	105.31
330.43	104.31
330.658	123.31
330.887	140.31
331.115	125.31
331.344	109.31
331.572	108.31
331.801	114.31
332.03	97.31
332.258	99.31
332.486	105.31
332.715	85.31
332.943	100.31
333.172	85.31
333.4	105.31
333.629	105.31
333.857	97.31
334.085	103.31
334.314	102.31
334.542	104.31
334.771	98.31
334.999	115.31
335.227	103.31
335.455	85.31
335.684	96.31
335.912	84.31
336.14	90.31
336.369	101.31
336.597	115.31
336.825	94.31
337.053	101.31
337.281	94.31
337.51	98.31
337.738	98.31
337.966	82.31
338.194	102.31
338.422	84.31
338.65	88.31
338.878	97.31
339.106	93.31
339.334	97.31
339.562	83.31
339.79	84.31
340.018	88.31
340.246	87.31
340.474	94.31
340.702	90.31
340.93	86.31
341.158	90.31
341.386	109.31
341.614	89.31
341.842	97.31
342.07	98.31
342.298	91.31
342.526	100.31
342.754	93.31
342.981	93.31
343.209	92.31
343.437	90.31
343.665	86.31
343.893	87.31
344.12	93.31
344.348	95.31
344.576	88.31
344.804	86.31
345.031	97.31
345.259	97.31
345.487	107.31
345.714	91.31
345.942	97.31
346.17	102.31
346.397	86.31
346.625	96.31
346.853	98.31
347.08	94.31
347.308	98.31
347.535	83.31
347.763	98.31
347.99	91.31
348.218	97.31
348.445	96.31
348.673	110.31
348.9	103.31
349.128	93.31
349.355	94.31
349.583	97.31
349.81	96.31
350.037	98.31
350.265	92.31
350.492	100.31
350.72	92.31
350.947	101.31
351.174	117.31
351.402	124.31
351.629	105.31
351.856	97.31
352.083	92.31
352.311	100.31
352.538	101.31
352.765	110.31
352.992	106.31
353.22	115.31
353.447	123.31
353.674	100.31
353.901	81.31
354.128	100.31
354.355	90.31
354.583	88.31
354.81	99.31
355.037	98.31
355.264	87.31
355.491	90.31
355.718	104.31
355.945	86.31
356.172	97.31
356.399	98.31
356.626	105.31
356.853	92.31
357.08	97.31
357.307	88.31
357.534	86.31
357.761	87.31
357.988	90.31
358.215	93.31
358.441	90.31
358.668	91.31
358.895	87.31
359.122	96.31
359.349	89.31
359.576	104.31
359.802	106.31
360.029	114.31
360.256	106.31
360.483	103.31
360.709	93.31
360.936	91.31
361.163	91.31
361.39	80.31
361.616	64.31
361.843	96.31
362.07	94.31
362.296	105.31
362.523	88.31
362.749	99.31
362.976	87.31
363.203	81.31
363.429	99.31
363.656	106.31
363.882	92.31
364.109	96.31
364.335	81.31
364.562	74.31
364.788	90.31
365.015	78.31
365.241	102.31
365.468	111.31
365.694	111.31
365.92	92.31
366.147	89.31
366.373	91.31
366.599	97.31
366.826	85.31
367.052	89.31
367.278	96.31
367.505	96.31
367.731	99.31
367.957	91.31
368.184	94.31
368.41	102.31
368.636	122.31
368.862	130.31
369.089	115.31
369.315	101.31
369.541	80.31
369.767	91.31
369.993	96.31
370.219	96.31
370.445	99.31
370.672	90.31
370.898	80.31
371.124	86.31
371.35	97.31
371.576	71.31
371.802	87.31
372.028	82.31
372.254	89.31
372.48	86.31
372.706	99.31
372.932	93.31
373.158	85.31
373.384	98.31
373.61	99.31
373.835	96.31
374.061	84.31
374.287	86.31
374.513	97.31
374.739	84.31
374.965	104.31
375.191	93.31
375.416	68.31
375.642	91.31
375.868	93.31
376.094	72.31
376.319	84.31
376.545	78.31
376.771	73.31
376.997	87.31
377.222	93.31
377.448	90.31
377.674	99.31
377.899	85.31
378.125	91.31
378.35	91.31
378.576	83.31
378.802	84.31
379.027	74.31
379.253	89.31
379.478	75.31
379.704	84.31
379.929	88.31
380.155	97.31
380.38	88.31
380.606	94.31
380.831	86.31
381.057	97.31
381.282	92.31
381.507	81.31
381.733	97.31
381.958	104.31
382.184	88.31
382.409	101.31
382.634	101.31
382.86	84.31
383.085	100.31
383.31	99.31
383.535	92.31
383.761	92.31
383.986	87.31
384.211	83.31
384.436	100.31
384.662	92.31
384.887	84.31
385.112	99.31
385.337	98.31
385.562	98.31
385.787	99.31
386.013	110.31
386.238	107.31
386.463	102.31
386.688	107.31
386.913	117.31
387.138	120.31
387.363	95.31
387.588	103.31
387.813	89.31
388.038	95.31
388.263	114.31
388.488	106.31
388.713	107.31
388.938	103.31
389.163	76.31
389.387	79.31
389.612	91.31
389.837	94.31
390.062	88.31
390.287	94.31
390.512	83.31
390.736	104.31
390.961	85.31
391.186	94.31
391.411	104.31
391.636	75.31
391.86	80.31
392.085	78.31
392.31	92.31
392.534	76.31
392.759	80.31
392.984	89.31
393.208	92.31
393.433	90.31
393.658	94.31
393.882	88.31
394.107	85.31
394.331	78.31
394.556	91.31
394.78	84.31
395.005	73.31
395.229	83.31
395.454	91.31
395.678	91.31
395.903	76.31
396.127	92.31
396.352	85.31
396.576	74.31
396.801	98.31
397.025	82.31
397.249	93.31
397.474	84.31
397.698	97.31
397.922	78.31
398.147	92.31
398.371	103.31
398.595	99.31
398.82	82.31
399.044	81.31
399.268	76.31
399.492	92.31
399.717	97.31
399.941	88.31
400.165	83.31
400.389	105.31
400.613	88.31
400.837	106.31
401.062	91.31
401.286	86.31
401.51	88.31
401.734	98.31
401.958	98.31
402.182	129.31
402.406	169.31
402.63	139.31
402.854	99.31
403.078	85.31
403.302	91.31
403.526	91.31
403.75	85.31
403.974	97.31
404.198	85.31
404.422	84.31
404.645	76.31
404.869	87.31
405.093	90.31
405.317	104.31
405.541	103.31
405.765	117.31
405.988	126.31
406.212	176.31
406.436	249.31
406.66	154.31
406.883	99.31
407.107	94.31
407.331	90.31
407.555	102.31
407.778	100.31
408.002	91.31
408.226	98.31
408.449	88.31
408.673	82.31
408.896	91.31
409.12	99.31
409.344	92.31
409.567	91.31
409.791	89.31
410.014	97.31
410.238	97.31
410.461	91.31
410.685	87.31
410.908	98.31
411.132	94.31
411.355	105.31
411.578	92.31
411.802	84.31
412.025	96.31
412.249	93.31
412.472	74.31
412.695	91.31
412.919	104.31
413.142	93.31
413.365	85.31
413.589	91.31
413.812	80.31
414.035	102.31
414.258	87.31
414.482	79.31
414.705	94.31
414.928	86.31
415.151	93.31
415.374	79.31
415.597	81.31
415.821	91.31
416.044	83.31
416.267	81.31
416.49	82.31
416.713	86.31
416.936	85.31
417.159	80.31
417.382	82.31
417.605	93.31
417.828	101.31
418.051	83.31
418.274	94.31
418.497	68.31
418.72	89.31
418.943	84.31
419.166	81.31
419.389	81.31
419.611	98.31
419.834	99.31
420.057	86.31
420.28	97.31
420.503	84.31
420.726	98.31
420.948	88.31
421.171	91.31
421.394	99.31
421.617	97.31
421.839	85.31
422.062	94.31
422.285	97.31
422.507	100.31
422.73	99.31
422.953	93.31
423.175	92.31
423.398	91.31
423.621	90.31
423.843	104.31
424.066	75.31
424.288	72.31
424.511	86.31
424.733	96.31
424.956	113.31
425.178	102.31
425.401	95.31
425.623	95.31
425.846	98.31
426.068	112.31
426.291	82.31
426.513	88.31
426.735	82.31
426.958	99.31
427.18	98.31
427.402	128.31
427.625	171.31
427.847	136.31
428.069	97.31
428.292	80.31
428.514	97.31
428.736	69.31
428.958	85.31
429.181	98.31
429.403	77.31
429.625	90.31
429.847	98.31
430.069	93.31
430.292	89.31
430.514	83.31
430.736	86.31
430.958	84.31
431.18	77.31
431.402	89.31
431.624	90.31
431.846	92.31
432.068	92.31
432.29	91.31
432.512	89.31
432.734	94.31
432.956	90.31
433.178	95.31
433.4	102.31
433.622	90.31
433.844	84.31
434.066	89.31
434.287	85.31
434.509	83.31
434.731	82.31
434.953	91.31
435.175	106.31
435.397	96.31
435.618	82.31
435.84	91.31
436.062	126.31
436.284	122.31
436.505	95.31
436.727	100.31
436.949	83.31
437.17	92.31
437.392	83.31
437.614	89.31
437.835	112.31
438.057	123.31
438.278	106.31
438.5	105.31
438.721	111.31
438.943	100.31
439.165	81.31
439.386	99.31
439.608	100.31
439.829	100.31
440.05	128.31
440.272	150.31
440.493	88.31
440.715	96.31
440.936	97.31
441.158	90.31
441.379	85.31
441.6	92.31
441.822	97.31
442.043	86.31
442.264	108.31
442.486	103.31
442.707	91.31
442.928	108.31
443.149	133.31
443.371	124.31
443.592	101.31
443.813	111.31
444.034	98.31
444.255	100.31
444.476	77.31
444.698	104.31
444.919	93.31
445.14	118.31
445.361	115.31
445.582	110.31
445.803	128.31
446.024	140.31
446.245	124.31
446.466	99.31
446.687	76.31
446.908	85.31
447.129	86.31
447.35	96.31
447.571	97.31
447.792	82.31
448.013	99.31
448.234	101.31
448.455	112.31
448.675	129.31
448.896	112.31
449.117	104.31
449.338	110.31
449.559	122.31
449.779	134.31
450	87.31
450.221	88.31
450.442	89.31
450.662	106.31
450.883	117.31
451.104	116.31
451.324	95.31
451.545	100.31
451.766	83.31
451.986	88.31
452.207	97.31
452.428	102.31
452.648	100.31
452.869	122.31
453.089	115.31
453.31	113.31
453.53	89.31
453.751	90.31
453.971	119.31
454.192	106.31
454.412	90.31
454.633	84.31
454.853	84.31
455.073	82.31
455.294	88.31
455.514	94.31
455.734	74.31
455.955	99.31
456.175	84.31
456.395	95.31
456.616	102.31
456.836	84.31
457.056	91.31
457.276	80.31
457.497	73.31
457.717	77.31
457.937	100.31
458.157	90.31
458.377	93.31
458.598	108.31
458.818	153.31
459.038	169.31
459.258	103.31
459.478	88.31
459.698	85.31
459.918	76.31
460.138	77.31
460.358	90.31
460.578	78.31
460.798	83.31
461.018	101.31
461.238	83.31
461.458	88.31
461.678	79.31
461.898	78.31
462.118	83.31
462.338	85.31
462.558	65.31
462.777	91.31
462.997	99.31
463.217	80.31
463.437	92.31
463.657	81.31
463.876	80.31
464.096	92.31
464.316	84.31
464.536	87.31
464.755	89.31
464.975	108.31
465.195	178.31
465.414	160.31
465.634	95.31
465.854	92.31
466.073	91.31
466.293	84.31
466.512	90.31
466.732	98.31
466.951	113.31
467.171	93.31
467.391	92.31
467.61	103.31
467.829	93.31
468.049	91.31
468.268	84.31
468.488	89.31
468.707	94.31
468.927	107.31
469.146	88.31
469.365	84.31
469.585	82.31
469.804	104.31
470.023	105.31
470.243	87.31
470.462	88.31
470.681	104.31
470.901	87.31
471.12	86.31
471.339	82.31
471.558	90.31
471.777	90.31
471.997	81.31
472.216	80.31
472.435	90.31
472.654	94.31
472.873	92.31
473.092	91.31
473.311	87.31
473.53	88.31
473.749	94.31
473.968	104.31
474.187	109.31
474.406	101.31
474.625	96.31
474.844	70.31
475.063	87.31
475.282	83.31
475.501	79.31
475.72	85.31
475.939	76.31
476.158	84.31
476.377	80.31
476.596	89.31
476.814	84.31
477.033	96.31
477.252	90.31
477.471	98.31
477.69	90.31
477.908	102.31
478.127	105.31
478.346	99.31
478.564	70.31
478.783	99.31
479.002	98.31
479.22	87.31
479.439	95.31
479.658	94.31
479.876	86.31
480.095	97.31
480.313	80.31
480.532	94.31
480.751	83.31
480.969	102.31
481.188	107.31
481.406	86.31
481.624	77.31
481.843	77.31
482.061	72.31
482.28	79.31
482.498	87.31
482.717	90.31
482.935	75.31
483.153	85.31
483.372	87.31
483.59	93.31
483.808	97.31
484.027	92.31
484.245	104.31
484.463	92.31
484.681	89.31
484.9	80.31
485.118	87.31
485.336	100.31
485.554	97.31
485.772	90.31
485.99	83.31
486.209	92.31
486.427	88.31
486.645	114.31
486.863	116.31
487.081	96.31
487.299	102.31
487.517	82.31
487.735	87.31
487.953	80.31
488.171	85.31
488.389	90.31
488.607	94.31
488.825	86.31
489.043	83.31
489.261	77.31
489.479	88.31
489.696	88.31
489.914	93.31
490.132	90.31
490.35	97.31
490.568	78.31
490.786	103.31
491.003	89.31
491.221	91.31
491.439	100.31
491.657	89.31
491.874	102.31
492.092	97.31
492.31	93.31
492.527	81.31
492.745	90.31
492.963	98.31
493.18	87.31
493.398	86.31
493.615	101.31
493.833	93.31
494.05	101.31
494.268	107.31
494.485	85.31
494.703	84.31
494.92	88.31
495.138	86.31
495.355	75.31
495.573	90.31
495.79	95.31
496.008	104.31
496.225	103.31
496.442	94.31
496.66	80.31
496.877	98.31
497.094	96.31
497.312	93.31
497.529	93.31
497.746	89.31
497.963	85.31
498.181	93.31
498.398	87.31
498.615	106.31
498.832	108.31
499.049	96.31
499.267	95.31
499.484	98.31
499.701	92.31
499.918	100.31
500.135	96.31
500.352	77.31
500.569	69.31
500.786	89.31
501.003	92.31
501.22	82.31
501.437	77.31
501.654	81.31
501.871	111.31
502.088	94.31
502.305	85.31
502.522	96.31
502.739	91.31
502.956	86.31
503.172	91.31
503.389	92.31
503.606	101.31
503.823	81.31
504.04	96.31
504.256	116.31
504.473	93.31
504.69	72.31
504.907	83.31
505.123	79.31
505.34	93.31
505.557	89.31
505.773	92.31
505.99	97.31
506.207	104.31
506.423	80.31
506.64	90.31
506.856	110.31
507.073	94.31
507.289	89.31
507.506	112.31
507.722	102.31
507.939	116.31
508.155	103.31
508.372	90.31
508.588	101.31
508.805	112.31
509.021	97.31
509.238	94.31
509.454	103.31
509.67	108.31
509.887	115.31
510.103	156.31
510.319	219.31
510.536	859.31
510.752	2655.31
510.968	683.31
511.184	160.31
511.401	115.31
511.617	98.31
511.833	83.31
512.049	102.31
512.265	98.31
512.481	91.31
512.698	94.31
512.914	93.31
513.13	83.31
513.346	98.31
513.562	100.31
513.778	100.31
513.994	113.31
514.21	99.31
514.426	125.31
514.642	146.31
514.858	134.31
515.074	186.31
515.29	507.31
515.506	1723.31
515.721	620.31
