Data from Uncirc_2001_H10_HRD10591_00089.txt Node
Date: Wed Jan 03 10:44:14 EST 2024
User: Yrep
Spectrometer: HR+D1059
Trigger mode: 1
Integration Time (sec): 1.000000E-1
Scans to average: 1
Electric dark correction enabled: true
Nonlinearity correction enabled: false
Boxcar width: 0
XAxis mode: Wavelengths
Number of Pixels in Spectrum: 2048
>>>>>Begin Spectral Data<<<<<
223.165	-17.81
223.4	-17.81
223.635	-17.81
223.869	-17.81
224.104	-20.81
224.338	-15.81
224.573	-11.81
224.808	-9.81
225.042	-11.81
225.277	-18.81
225.511	7.19
225.746	2.19
225.98	5.19
226.215	17.19
226.449	27.19
226.683	14.19
226.918	24.19
227.152	27.19
227.387	34.19
227.621	44.19
227.856	56.19
228.09	39.19
228.324	54.19
228.559	58.19
228.793	58.19
229.027	65.19
229.262	66.19
229.496	69.19
229.73	87.19
229.964	82.19
230.199	69.19
230.433	74.19
230.667	79.19
230.901	75.19
231.136	69.19
231.37	97.19
231.604	88.19
231.838	90.19
232.072	84.19
232.306	66.19
232.541	59.19
232.775	65.19
233.009	77.19
233.243	81.19
233.477	82.19
233.711	88.19
233.945	65.19
234.179	81.19
234.413	62.19
234.647	82.19
234.881	78.19
235.115	83.19
235.349	72.19
235.583	80.19
235.817	81.19
236.051	80.19
236.285	78.19
236.519	67.19
236.753	78.19
236.987	99.19
237.221	95.19
237.455	87.19
237.689	86.19
237.922	73.19
238.156	66.19
238.39	78.19
238.624	74.19
238.858	68.19
239.091	73.19
239.325	79.19
239.559	81.19
239.793	85.19
240.027	86.19
240.26	69.19
240.494	68.19
240.728	58.19
240.961	73.19
241.195	82.19
241.429	70.19
241.662	90.19
241.896	85.19
242.13	74.19
242.363	83.19
242.597	75.19
242.83	79.19
243.064	69.19
243.298	67.19
243.531	79.19
243.765	89.19
243.998	71.19
244.232	89.19
244.465	70.19
244.699	73.19
244.932	83.19
245.166	81.19
245.399	95.19
245.633	82.19
245.866	93.19
246.099	85.19
246.333	78.19
246.566	66.19
246.8	77.19
247.033	86.19
247.266	62.19
247.5	76.19
247.733	54.19
247.966	79.19
248.2	84.19
248.433	83.19
248.666	86.19
248.899	79.19
249.133	64.19
249.366	85.19
249.599	89.19
249.832	79.19
250.066	87.19
250.299	70.19
250.532	91.19
250.765	79.19
250.998	74.19
251.231	81.19
251.465	81.19
251.698	71.19
251.931	70.19
252.164	67.19
252.397	71.19
252.63	84.19
252.863	84.19
253.096	78.19
253.329	70.19
253.562	65.19
253.795	81.19
254.028	78.19
254.261	65.19
254.494	69.19
254.727	87.19
254.96	83.19
255.193	75.19
255.426	80.19
255.659	81.19
255.892	72.19
256.124	75.19
256.357	87.19
256.59	78.19
256.823	84.19
257.056	74.19
257.289	83.19
257.521	74.19
257.754	71.19
257.987	78.19
258.22	89.19
258.452	78.19
258.685	78.19
258.918	80.19
259.151	79.19
259.383	74.19
259.616	79.19
259.849	82.19
260.081	89.19
260.314	71.19
260.547	87.19
260.779	89.19
261.012	93.19
261.244	78.19
261.477	69.19
261.71	102.19
261.942	119.19
262.175	115.19
262.407	81.19
262.64	81.19
262.872	84.19
263.105	69.19
263.337	79.19
263.57	82.19
263.802	89.19
264.035	77.19
264.267	74.19
264.499	69.19
264.732	89.19
264.964	88.19
265.197	77.19
265.429	80.19
265.661	73.19
265.894	73.19
266.126	78.19
266.358	88.19
266.591	83.19
266.823	90.19
267.055	81.19
267.287	66.19
267.52	81.19
267.752	85.19
267.984	82.19
268.216	76.19
268.448	70.19
268.681	83.19
268.913	77.19
269.145	86.19
269.377	76.19
269.609	87.19
269.841	81.19
270.073	87.19
270.306	88.19
270.538	71.19
270.77	77.19
271.002	83.19
271.234	85.19
271.466	92.19
271.698	84.19
271.93	92.19
272.162	83.19
272.394	87.19
272.626	86.19
272.858	70.19
273.09	93.19
273.322	93.19
273.553	76.19
273.785	81.19
274.017	87.19
274.249	80.19
274.481	71.19
274.713	81.19
274.945	84.19
275.176	85.19
275.408	75.19
275.64	69.19
275.872	75.19
276.104	88.19
276.335	86.19
276.567	88.19
276.799	119.19
277.031	88.19
277.262	89.19
277.494	84.19
277.726	80.19
277.957	91.19
278.189	86.19
278.421	74.19
278.652	86.19
278.884	89.19
279.115	90.19
279.347	96.19
279.579	86.19
279.81	82.19
280.042	89.19
280.273	81.19
280.505	68.19
280.736	93.19
280.968	96.19
281.199	86.19
281.431	71.19
281.662	102.19
281.894	84.19
282.125	86.19
282.356	120.19
282.588	143.19
282.819	112.19
283.051	84.19
283.282	91.19
283.513	89.19
283.745	78.19
283.976	86.19
284.207	83.19
284.439	88.19
284.67	83.19
284.901	94.19
285.132	96.19
285.364	87.19
285.595	90.19
285.826	81.19
286.057	94.19
286.288	86.19
286.52	83.19
286.751	88.19
286.982	85.19
287.213	72.19
287.444	88.19
287.675	85.19
287.906	88.19
288.138	85.19
288.369	77.19
288.6	88.19
288.831	83.19
289.062	88.19
289.293	80.19
289.524	76.19
289.755	72.19
289.986	81.19
290.217	88.19
290.448	77.19
290.679	78.19
290.91	84.19
291.141	83.19
291.371	87.19
291.602	83.19
291.833	69.19
292.064	98.19
292.295	76.19
292.526	91.19
292.757	92.19
292.987	93.19
293.218	79.19
293.449	92.19
293.68	88.19
293.91	83.19
294.141	91.19
294.372	84.19
294.603	86.19
294.833	89.19
295.064	95.19
295.295	81.19
295.525	91.19
295.756	87.19
295.987	107.19
296.217	136.19
296.448	115.19
296.679	94.19
296.909	77.19
297.14	91.19
297.37	89.19
297.601	66.19
297.831	99.19
298.062	85.19
298.292	89.19
298.523	76.19
298.753	77.19
298.984	74.19
299.214	83.19
299.445	89.19
299.675	77.19
299.905	97.19
300.136	91.19
300.366	86.19
300.597	82.19
300.827	90.19
301.057	92.19
301.288	101.19
301.518	110.19
301.748	78.19
301.979	86.19
302.209	92.19
302.439	77.19
302.669	79.19
302.9	83.19
303.13	85.19
303.36	91.19
303.59	92.19
303.82	97.19
304.051	87.19
304.281	87.19
304.511	86.19
304.741	89.19
304.971	91.19
305.201	88.19
305.431	75.19
305.661	85.19
305.891	82.19
306.121	86.19
306.352	109.19
306.582	101.19
306.812	85.19
307.042	94.19
307.272	82.19
307.502	80.19
307.731	87.19
307.961	94.19
308.191	76.19
308.421	86.19
308.651	86.19
308.881	88.19
309.111	93.19
309.341	90.19
309.571	92.19
309.8	91.19
310.03	91.19
310.26	93.19
310.49	90.19
310.72	97.19
310.949	98.19
311.179	99.19
311.409	88.19
311.639	101.19
311.868	91.19
312.098	91.19
312.328	91.19
312.557	89.19
312.787	103.19
313.017	95.19
313.246	92.19
313.476	98.19
313.706	73.19
313.935	91.19
314.165	105.19
314.394	99.19
314.624	90.19
314.853	102.19
315.083	86.19
315.312	91.19
315.542	89.19
315.771	95.19
316.001	89.19
316.23	87.19
316.46	79.19
316.689	71.19
316.919	82.19
317.148	99.19
317.377	97.19
317.607	89.19
317.836	88.19
318.065	101.19
318.295	101.19
318.524	98.19
318.753	93.19
318.983	96.19
319.212	94.19
319.441	106.19
319.67	97.19
319.9	83.19
320.129	87.19
320.358	101.19
320.587	89.19
320.816	111.19
321.046	94.19
321.275	92.19
321.504	115.19
321.733	93.19
321.962	87.19
322.191	94.19
322.42	97.19
322.649	109.19
322.878	114.19
323.108	117.19
323.337	120.19
323.566	128.19
323.795	141.19
324.024	210.19
324.253	391.19
324.482	781.19
324.71	1561.19
324.939	2039.19
325.168	770.19
325.397	233.19
325.626	148.19
325.855	136.19
326.084	133.19
326.313	122.19
326.542	145.19
326.77	222.19
326.999	440.19
327.228	868.19
327.457	1543.19
327.686	1199.19
327.914	337.19
328.143	182.19
328.372	147.19
328.6	113.19
328.829	119.19
329.058	129.19
329.287	122.19
329.515	118.19
329.744	111.19
329.972	110.19
330.201	102.19
330.43	119.19
330.658	125.19
330.887	156.19
331.115	121.19
331.344	104.19
331.572	108.19
331.801	110.19
332.03	101.19
332.258	89.19
332.486	96.19
332.715	98.19
332.943	85.19
333.172	89.19
333.4	101.19
333.629	109.19
333.857	96.19
334.085	97.19
334.314	91.19
334.542	93.19
334.771	102.19
334.999	87.19
335.227	97.19
335.455	92.19
335.684	92.19
335.912	89.19
336.14	84.19
336.369	96.19
336.597	103.19
336.825	88.19
337.053	90.19
337.281	89.19
337.51	83.19
337.738	87.19
337.966	95.19
338.194	85.19
338.422	89.19
338.65	79.19
338.878	88.19
339.106	89.19
339.334	70.19
339.562	88.19
339.79	95.19
340.018	79.19
340.246	102.19
340.474	94.19
340.702	92.19
340.93	91.19
341.158	103.19
341.386	88.19
341.614	91.19
341.842	90.19
342.07	85.19
342.298	99.19
342.526	79.19
342.754	90.19
342.981	84.19
343.209	99.19
343.437	88.19
343.665	73.19
343.893	90.19
344.12	96.19
344.348	93.19
344.576	95.19
344.804	85.19
345.031	106.19
345.259	91.19
345.487	115.19
345.714	90.19
345.942	81.19
346.17	110.19
346.397	94.19
346.625	93.19
346.853	89.19
347.08	99.19
347.308	91.19
347.535	81.19
347.763	98.19
347.99	100.19
348.218	97.19
348.445	110.19
348.673	105.19
348.9	87.19
349.128	98.19
349.355	86.19
349.583	103.19
349.81	94.19
350.037	95.19
350.265	91.19
350.492	88.19
350.72	97.19
350.947	104.19
351.174	104.19
351.402	94.19
351.629	93.19
351.856	86.19
352.083	106.19
352.311	103.19
352.538	98.19
352.765	105.19
352.992	130.19
353.22	120.19
353.447	111.19
353.674	109.19
353.901	102.19
354.128	94.19
354.355	99.19
354.583	106.19
354.81	105.19
355.037	96.19
355.264	101.19
355.491	94.19
355.718	85.19
355.945	84.19
356.172	98.19
356.399	93.19
356.626	95.19
356.853	84.19
357.08	82.19
357.307	84.19
357.534	81.19
357.761	95.19
357.988	91.19
358.215	89.19
358.441	82.19
358.668	99.19
358.895	99.19
359.122	77.19
359.349	95.19
359.576	96.19
359.802	99.19
360.029	116.19
360.256	119.19
360.483	105.19
360.709	91.19
360.936	94.19
361.163	99.19
361.39	99.19
361.616	95.19
361.843	82.19
362.07	90.19
362.296	88.19
362.523	90.19
362.749	96.19
362.976	90.19
363.203	89.19
363.429	89.19
363.656	90.19
363.882	92.19
364.109	87.19
364.335	80.19
364.562	68.19
364.788	83.19
365.015	93.19
365.241	97.19
365.468	94.19
365.694	97.19
365.92	92.19
366.147	99.19
366.373	83.19
366.599	76.19
366.826	85.19
367.052	71.19
367.278	81.19
367.505	92.19
367.731	90.19
367.957	90.19
368.184	91.19
368.41	93.19
368.636	112.19
368.862	127.19
369.089	102.19
369.315	76.19
369.541	95.19
369.767	88.19
369.993	83.19
370.219	91.19
370.445	84.19
370.672	86.19
370.898	80.19
371.124	85.19
371.35	93.19
371.576	88.19
371.802	82.19
372.028	84.19
372.254	68.19
372.48	102.19
372.706	100.19
372.932	89.19
373.158	94.19
373.384	97.19
373.61	88.19
373.835	81.19
374.061	85.19
374.287	83.19
374.513	79.19
374.739	87.19
374.965	66.19
375.191	97.19
375.416	85.19
375.642	81.19
375.868	88.19
376.094	98.19
376.319	88.19
376.545	88.19
376.771	84.19
376.997	85.19
377.222	89.19
377.448	90.19
377.674	84.19
377.899	83.19
378.125	80.19
378.35	83.19
378.576	97.19
378.802	79.19
379.027	86.19
379.253	94.19
379.478	91.19
379.704	85.19
379.929	93.19
380.155	97.19
380.38	75.19
380.606	92.19
380.831	97.19
381.057	80.19
381.282	76.19
381.507	99.19
381.733	94.19
381.958	88.19
382.184	105.19
382.409	90.19
382.634	95.19
382.86	98.19
383.085	100.19
383.31	87.19
383.535	106.19
383.761	108.19
383.986	104.19
384.211	95.19
384.436	90.19
384.662	90.19
384.887	85.19
385.112	97.19
385.337	94.19
385.562	85.19
385.787	105.19
386.013	101.19
386.238	130.19
386.463	101.19
386.688	102.19
386.913	96.19
387.138	105.19
387.363	101.19
387.588	94.19
387.813	109.19
388.038	98.19
388.263	111.19
388.488	107.19
388.713	102.19
388.938	104.19
389.163	93.19
389.387	77.19
389.612	101.19
389.837	93.19
390.062	91.19
390.287	83.19
390.512	94.19
390.736	88.19
390.961	107.19
391.186	98.19
391.411	83.19
391.636	95.19
391.86	86.19
392.085	78.19
392.31	94.19
392.534	90.19
392.759	98.19
392.984	80.19
393.208	88.19
393.433	97.19
393.658	100.19
393.882	86.19
394.107	79.19
394.331	66.19
394.556	82.19
394.78	77.19
395.005	83.19
395.229	89.19
395.454	86.19
395.678	83.19
395.903	88.19
396.127	87.19
396.352	105.19
396.576	86.19
396.801	93.19
397.025	85.19
397.249	97.19
397.474	81.19
397.698	84.19
397.922	79.19
398.147	81.19
398.371	66.19
398.595	90.19
398.82	75.19
399.044	79.19
399.268	86.19
399.492	86.19
399.717	85.19
399.941	89.19
400.165	79.19
400.389	105.19
400.613	88.19
400.837	88.19
401.062	88.19
401.286	75.19
401.51	90.19
401.734	91.19
401.958	97.19
402.182	125.19
402.406	149.19
402.63	122.19
402.854	102.19
403.078	93.19
403.302	83.19
403.526	85.19
403.75	92.19
403.974	84.19
404.198	83.19
404.422	86.19
404.645	89.19
404.869	73.19
405.093	86.19
405.317	101.19
405.541	98.19
405.765	107.19
405.988	117.19
406.212	185.19
406.436	244.19
406.66	139.19
406.883	98.19
407.107	95.19
407.331	108.19
407.555	96.19
407.778	100.19
408.002	103.19
408.226	89.19
408.449	84.19
408.673	87.19
408.896	96.19
409.12	82.19
409.344	86.19
409.567	95.19
409.791	92.19
410.014	90.19
410.238	80.19
410.461	88.19
410.685	95.19
410.908	111.19
411.132	93.19
411.355	107.19
411.578	89.19
411.802	81.19
412.025	75.19
412.249	78.19
412.472	97.19
412.695	89.19
412.919	80.19
413.142	82.19
413.365	78.19
413.589	86.19
413.812	85.19
414.035	81.19
414.258	83.19
414.482	88.19
414.705	81.19
414.928	96.19
415.151	86.19
415.374	94.19
415.597	87.19
415.821	95.19
416.044	81.19
416.267	84.19
416.49	89.19
416.713	80.19
416.936	99.19
417.159	107.19
417.382	84.19
417.605	97.19
417.828	95.19
418.051	79.19
418.274	100.19
418.497	80.19
418.72	67.19
418.943	78.19
419.166	83.19
419.389	92.19
419.611	91.19
419.834	86.19
420.057	80.19
420.28	78.19
420.503	80.19
420.726	97.19
420.948	81.19
421.171	99.19
421.394	95.19
421.617	86.19
421.839	95.19
422.062	83.19
422.285	89.19
422.507	97.19
422.73	104.19
422.953	86.19
423.175	81.19
423.398	90.19
423.621	101.19
423.843	87.19
424.066	70.19
424.288	79.19
424.511	87.19
424.733	101.19
424.956	102.19
425.178	87.19
425.401	84.19
425.623	83.19
425.846	95.19
426.068	94.19
426.291	101.19
426.513	83.19
426.735	99.19
426.958	87.19
427.18	111.19
427.402	141.19
427.625	178.19
427.847	128.19
428.069	114.19
428.292	87.19
428.514	74.19
428.736	94.19
428.958	82.19
429.181	77.19
429.403	88.19
429.625	93.19
429.847	88.19
430.069	91.19
430.292	103.19
430.514	90.19
430.736	78.19
430.958	79.19
431.18	83.19
431.402	85.19
431.624	92.19
431.846	86.19
432.068	90.19
432.29	87.19
432.512	72.19
432.734	80.19
432.956	69.19
433.178	83.19
433.4	102.19
433.622	87.19
433.844	91.19
434.066	91.19
434.287	85.19
434.509	86.19
434.731	95.19
434.953	88.19
435.175	77.19
435.397	73.19
435.618	87.19
435.84	105.19
436.062	118.19
436.284	122.19
436.505	87.19
436.727	98.19
436.949	84.19
437.17	87.19
437.392	94.19
437.614	91.19
437.835	110.19
438.057	112.19
438.278	114.19
438.5	97.19
438.721	114.19
438.943	87.19
439.165	87.19
439.386	77.19
439.608	77.19
439.829	99.19
440.05	123.19
440.272	134.19
440.493	98.19
440.715	98.19
440.936	90.19
441.158	79.19
441.379	83.19
441.6	85.19
441.822	90.19
442.043	100.19
442.264	101.19
442.486	106.19
442.707	74.19
442.928	87.19
443.149	114.19
443.371	129.19
443.592	113.19
443.813	115.19
444.034	102.19
444.255	101.19
444.476	81.19
444.698	74.19
444.919	79.19
445.14	120.19
445.361	118.19
445.582	125.19
445.803	138.19
446.024	110.19
446.245	115.19
446.466	111.19
446.687	83.19
446.908	87.19
447.129	82.19
447.35	87.19
447.571	98.19
447.792	87.19
448.013	93.19
448.234	89.19
448.455	98.19
448.675	101.19
448.896	112.19
449.117	96.19
449.338	109.19
449.559	125.19
449.779	114.19
450	85.19
450.221	90.19
450.442	83.19
450.662	90.19
450.883	98.19
451.104	119.19
451.324	82.19
451.545	95.19
451.766	90.19
451.986	104.19
452.207	81.19
452.428	100.19
452.648	99.19
452.869	110.19
453.089	130.19
453.31	109.19
453.53	88.19
453.751	96.19
453.971	102.19
454.192	100.19
454.412	79.19
454.633	88.19
454.853	78.19
455.073	91.19
455.294	85.19
455.514	97.19
455.734	103.19
455.955	86.19
456.175	78.19
456.395	80.19
456.616	91.19
456.836	98.19
457.056	95.19
457.276	79.19
457.497	82.19
457.717	86.19
457.937	79.19
458.157	73.19
458.377	96.19
458.598	100.19
458.818	170.19
459.038	178.19
459.258	114.19
459.478	96.19
459.698	83.19
459.918	80.19
460.138	93.19
460.358	87.19
460.578	94.19
460.798	87.19
461.018	105.19
461.238	93.19
461.458	80.19
461.678	74.19
461.898	84.19
462.118	82.19
462.338	96.19
462.558	74.19
462.777	88.19
462.997	90.19
463.217	85.19
463.437	76.19
463.657	84.19
463.876	82.19
464.096	83.19
464.316	82.19
464.536	82.19
464.755	88.19
464.975	97.19
465.195	164.19
465.414	171.19
465.634	103.19
465.854	96.19
466.073	92.19
466.293	70.19
466.512	88.19
466.732	79.19
466.951	87.19
467.171	87.19
467.391	97.19
467.61	105.19
467.829	106.19
468.049	82.19
468.268	90.19
468.488	75.19
468.707	74.19
468.927	78.19
469.146	77.19
469.365	98.19
469.585	74.19
469.804	101.19
470.023	84.19
470.243	90.19
470.462	110.19
470.681	96.19
470.901	94.19
471.12	75.19
471.339	73.19
471.558	67.19
471.777	88.19
471.997	82.19
472.216	82.19
472.435	81.19
472.654	82.19
472.873	86.19
473.092	87.19
473.311	83.19
473.53	78.19
473.749	77.19
473.968	98.19
474.187	117.19
474.406	90.19
474.625	98.19
474.844	74.19
475.063	88.19
475.282	92.19
475.501	86.19
475.72	75.19
475.939	87.19
476.158	84.19
476.377	86.19
476.596	93.19
476.814	89.19
477.033	89.19
477.252	87.19
477.471	80.19
477.69	104.19
477.908	84.19
478.127	86.19
478.346	90.19
478.564	94.19
478.783	85.19
479.002	101.19
479.22	98.19
479.439	105.19
479.658	112.19
479.876	94.19
480.095	98.19
480.313	90.19
480.532	88.19
480.751	88.19
480.969	77.19
481.188	105.19
481.406	85.19
481.624	86.19
481.843	90.19
482.061	89.19
482.28	69.19
482.498	80.19
482.717	75.19
482.935	97.19
483.153	94.19
483.372	83.19
483.59	73.19
483.808	86.19
484.027	87.19
484.245	74.19
484.463	91.19
484.681	97.19
484.9	84.19
485.118	94.19
485.336	84.19
485.554	104.19
485.772	104.19
485.99	96.19
486.209	108.19
486.427	98.19
486.645	108.19
486.863	89.19
487.081	104.19
487.299	88.19
487.517	83.19
487.735	81.19
487.953	91.19
488.171	94.19
488.389	92.19
488.607	90.19
488.825	87.19
489.043	74.19
489.261	95.19
489.479	85.19
489.696	87.19
489.914	95.19
490.132	94.19
490.35	86.19
490.568	83.19
490.786	92.19
491.003	90.19
491.221	83.19
491.439	79.19
491.657	85.19
491.874	83.19
492.092	98.19
492.31	96.19
492.527	78.19
492.745	72.19
492.963	85.19
493.18	86.19
493.398	91.19
493.615	81.19
493.833	88.19
494.05	77.19
494.268	75.19
494.485	94.19
494.703	75.19
494.92	95.19
495.138	73.19
495.355	82.19
495.573	79.19
495.79	90.19
496.008	85.19
496.225	90.19
496.442	86.19
496.66	94.19
496.877	80.19
497.094	80.19
497.312	93.19
497.529	86.19
497.746	84.19
497.963	81.19
498.181	77.19
498.398	81.19
498.615	97.19
498.832	117.19
499.049	90.19
499.267	79.19
499.484	82.19
499.701	96.19
499.918	85.19
500.135	92.19
500.352	86.19
500.569	79.19
500.786	87.19
501.003	87.19
501.22	85.19
501.437	70.19
501.654	89.19
501.871	94.19
502.088	96.19
502.305	96.19
502.522	90.19
502.739	100.19
502.956	91.19
503.172	89.19
503.389	93.19
503.606	91.19
503.823	82.19
504.04	81.19
504.256	90.19
504.473	99.19
504.69	89.19
504.907	87.19
505.123	82.19
505.34	94.19
505.557	84.19
505.773	89.19
505.99	90.19
506.207	86.19
506.423	95.19
506.64	89.19
506.856	93.19
507.073	87.19
507.289	79.19
507.506	95.19
507.722	101.19
507.939	124.19
508.155	96.19
508.372	88.19
508.588	83.19
508.805	112.19
509.021	90.19
509.238	101.19
509.454	96.19
509.67	108.19
509.887	106.19
510.103	137.19
510.319	240.19
510.536	837.19
510.752	2637.19
510.968	721.19
511.184	161.19
511.401	103.19
511.617	100.19
511.833	83.19
512.049	79.19
512.265	81.19
512.481	88.19
512.698	82.19
512.914	97.19
513.13	85.19
513.346	76.19
513.562	83.19
513.778	108.19
513.994	94.19
514.21	79.19
514.426	116.19
514.642	135.19
514.858	119.19
515.074	186.19
515.29	500.19
515.506	1672.19
515.721	599.19
515.937	158.19
516.153	110.19
516.369	105.19
516.585	108.19
