Data from Uncirc_2001_H10_HRD10591_00004.txt Node
Date: Wed Jan 03 10:43:57 EST 2024
User: Yrep
Spectrometer: HR+D1059
Trigger mode: 1
Integration Time (sec): 1.000000E-1
Scans to average: 1
Electric dark correction enabled: true
Nonlinearity correction enabled: false
Boxcar width: 0
XAxis mode: Wavelengths
Number of Pixels in Spectrum: 2048
>>>>>Begin Spectral Data<<<<<
223.165	-17.19
223.4	-17.19
223.635	-17.19
223.869	-9.19
224.104	-24.19
224.338	-23.19
224.573	-21.19
224.808	-9.19
225.042	0.81
225.277	-0.19
225.511	-0.19
225.746	10.81
225.98	-2.19
226.215	7.81
226.449	4.81
226.683	11.81
226.918	35.81
227.152	34.81
227.387	37.81
227.621	45.81
227.856	53.81
228.09	47.81
228.324	54.81
228.559	43.81
228.793	50.81
229.027	65.81
229.262	62.81
229.496	64.81
229.73	82.81
229.964	67.81
230.199	67.81
230.433	79.81
230.667	72.81
230.901	70.81
231.136	68.81
231.37	87.81
231.604	77.81
231.838	83.81
232.072	97.81
232.306	77.81
232.541	62.81
232.775	71.81
233.009	84.81
233.243	78.81
233.477	74.81
233.711	71.81
233.945	77.81
234.179	85.81
234.413	76.81
234.647	83.81
234.881	75.81
235.115	77.81
235.349	64.81
235.583	71.81
235.817	72.81
236.051	82.81
236.285	88.81
236.519	67.81
236.753	85.81
236.987	81.81
237.221	91.81
237.455	90.81
237.689	89.81
237.922	65.81
238.156	65.81
238.39	59.81
238.624	67.81
238.858	82.81
239.091	74.81
239.325	77.81
239.559	74.81
239.793	66.81
240.027	78.81
240.26	67.81
240.494	86.81
240.728	73.81
240.961	66.81
241.195	74.81
241.429	84.81
241.662	61.81
241.896	72.81
242.13	85.81
242.363	80.81
242.597	71.81
242.83	69.81
243.064	67.81
243.298	71.81
243.531	79.81
243.765	87.81
243.998	80.81
244.232	62.81
244.465	72.81
244.699	87.81
244.932	76.81
245.166	74.81
245.399	73.81
245.633	73.81
245.866	55.81
246.099	78.81
246.333	76.81
246.566	80.81
246.8	66.81
247.033	73.81
247.266	66.81
247.5	87.81
247.733	62.81
247.966	81.81
248.2	88.81
248.433	77.81
248.666	63.81
248.899	81.81
249.133	62.81
249.366	78.81
249.599	85.81
249.832	80.81
250.066	83.81
250.299	82.81
250.532	77.81
250.765	85.81
250.998	86.81
251.231	87.81
251.465	84.81
251.698	76.81
251.931	73.81
252.164	69.81
252.397	74.81
252.63	71.81
252.863	84.81
253.096	70.81
253.329	87.81
253.562	82.81
253.795	80.81
254.028	71.81
254.261	69.81
254.494	81.81
254.727	81.81
254.96	63.81
255.193	71.81
255.426	71.81
255.659	82.81
255.892	85.81
256.124	77.81
256.357	75.81
256.59	67.81
256.823	83.81
257.056	72.81
257.289	78.81
257.521	65.81
257.754	87.81
257.987	74.81
258.22	87.81
258.452	85.81
258.685	76.81
258.918	86.81
259.151	83.81
259.383	84.81
259.616	85.81
259.849	98.81
260.081	91.81
260.314	86.81
260.547	79.81
260.779	71.81
261.012	96.81
261.244	84.81
261.477	100.81
261.71	86.81
261.942	101.81
262.175	89.81
262.407	87.81
262.64	90.81
262.872	74.81
263.105	91.81
263.337	81.81
263.57	70.81
263.802	93.81
264.035	86.81
264.267	82.81
264.499	81.81
264.732	93.81
264.964	88.81
265.197	74.81
265.429	74.81
265.661	70.81
265.894	79.81
266.126	77.81
266.358	89.81
266.591	86.81
266.823	84.81
267.055	79.81
267.287	86.81
267.52	73.81
267.752	83.81
267.984	70.81
268.216	92.81
268.448	71.81
268.681	83.81
268.913	89.81
269.145	65.81
269.377	87.81
269.609	83.81
269.841	84.81
270.073	71.81
270.306	89.81
270.538	87.81
270.77	77.81
271.002	88.81
271.234	82.81
271.466	89.81
271.698	77.81
271.93	83.81
272.162	80.81
272.394	87.81
272.626	68.81
272.858	75.81
273.09	75.81
273.322	75.81
273.553	92.81
273.785	105.81
274.017	81.81
274.249	95.81
274.481	76.81
274.713	90.81
274.945	85.81
275.176	79.81
275.408	85.81
275.64	86.81
275.872	88.81
276.104	78.81
276.335	95.81
276.567	73.81
276.799	101.81
277.031	80.81
277.262	82.81
277.494	89.81
277.726	73.81
277.957	76.81
278.189	80.81
278.421	89.81
278.652	81.81
278.884	69.81
279.115	89.81
279.347	69.81
279.579	70.81
279.81	82.81
280.042	79.81
280.273	89.81
280.505	74.81
280.736	81.81
280.968	84.81
281.199	89.81
281.431	69.81
281.662	96.81
281.894	89.81
282.125	82.81
282.356	98.81
282.588	113.81
282.819	93.81
283.051	86.81
283.282	86.81
283.513	66.81
283.745	76.81
283.976	99.81
284.207	93.81
284.439	81.81
284.67	93.81
284.901	90.81
285.132	90.81
285.364	89.81
285.595	87.81
285.826	94.81
286.057	91.81
286.288	81.81
286.52	73.81
286.751	70.81
286.982	81.81
287.213	82.81
287.444	75.81
287.675	75.81
287.906	90.81
288.138	90.81
288.369	76.81
288.6	91.81
288.831	91.81
289.062	86.81
289.293	91.81
289.524	75.81
289.755	98.81
289.986	84.81
290.217	79.81
290.448	75.81
290.679	80.81
290.91	87.81
291.141	87.81
291.371	88.81
291.602	80.81
291.833	83.81
292.064	82.81
292.295	91.81
292.526	85.81
292.757	90.81
292.987	84.81
293.218	80.81
293.449	92.81
293.68	95.81
293.91	72.81
294.141	92.81
294.372	91.81
294.603	93.81
294.833	83.81
295.064	86.81
295.295	87.81
295.525	90.81
295.756	104.81
295.987	94.81
296.217	119.81
296.448	107.81
296.679	90.81
296.909	78.81
297.14	85.81
297.37	91.81
297.601	96.81
297.831	98.81
298.062	93.81
298.292	87.81
298.523	91.81
298.753	70.81
298.984	86.81
299.214	84.81
299.445	88.81
299.675	80.81
299.905	80.81
300.136	81.81
300.366	93.81
300.597	73.81
300.827	79.81
301.057	79.81
301.288	92.81
301.518	95.81
301.748	83.81
301.979	85.81
302.209	83.81
302.439	75.81
302.669	88.81
302.9	82.81
303.13	94.81
303.36	77.81
303.59	91.81
303.82	97.81
304.051	86.81
304.281	102.81
304.511	91.81
304.741	90.81
304.971	82.81
305.201	75.81
305.431	88.81
305.661	76.81
305.891	79.81
306.121	90.81
306.352	104.81
306.582	81.81
306.812	81.81
307.042	85.81
307.272	88.81
307.502	84.81
307.731	90.81
307.961	82.81
308.191	77.81
308.421	83.81
308.651	83.81
308.881	90.81
309.111	81.81
309.341	99.81
309.571	91.81
309.8	93.81
310.03	96.81
310.26	85.81
310.49	83.81
310.72	89.81
310.949	89.81
311.179	100.81
311.409	87.81
311.639	85.81
311.868	88.81
312.098	91.81
312.328	95.81
312.557	99.81
312.787	97.81
313.017	94.81
313.246	79.81
313.476	81.81
313.706	89.81
313.935	100.81
314.165	111.81
314.394	93.81
314.624	87.81
314.853	84.81
315.083	84.81
315.312	87.81
315.542	81.81
315.771	88.81
316.001	85.81
316.23	115.81
316.46	83.81
316.689	79.81
316.919	91.81
317.148	91.81
317.377	106.81
317.607	94.81
317.836	88.81
318.065	102.81
318.295	88.81
318.524	91.81
318.753	65.81
318.983	84.81
319.212	97.81
319.441	100.81
319.67	93.81
319.9	88.81
320.129	94.81
320.358	91.81
320.587	87.81
320.816	85.81
321.046	103.81
321.275	99.81
321.504	82.81
321.733	100.81
321.962	102.81
322.191	104.81
322.42	100.81
322.649	95.81
322.878	104.81
323.108	115.81
323.337	112.81
323.566	117.81
323.795	134.81
324.024	173.81
324.253	282.81
324.482	573.81
324.71	1111.81
324.939	1402.81
325.168	529.81
325.397	191.81
325.626	122.81
325.855	120.81
326.084	118.81
326.313	118.81
326.542	126.81
326.77	181.81
326.999	323.81
327.228	660.81
327.457	1133.81
327.686	905.81
327.914	269.81
328.143	149.81
328.372	121.81
328.6	115.81
328.829	104.81
329.058	103.81
329.287	119.81
329.515	92.81
329.744	79.81
329.972	100.81
330.201	112.81
330.43	93.81
330.658	99.81
330.887	109.81
331.115	118.81
331.344	93.81
331.572	100.81
331.801	98.81
332.03	91.81
332.258	94.81
332.486	83.81
332.715	94.81
332.943	78.81
333.172	75.81
333.4	81.81
333.629	103.81
333.857	94.81
334.085	89.81
334.314	86.81
334.542	102.81
334.771	105.81
334.999	85.81
335.227	103.81
335.455	98.81
335.684	84.81
335.912	99.81
336.14	88.81
336.369	82.81
336.597	100.81
336.825	73.81
337.053	76.81
337.281	90.81
337.51	90.81
337.738	102.81
337.966	83.81
338.194	104.81
338.422	97.81
338.65	86.81
338.878	83.81
339.106	88.81
339.334	94.81
339.562	77.81
339.79	87.81
340.018	97.81
340.246	84.81
340.474	89.81
340.702	96.81
340.93	98.81
341.158	91.81
341.386	101.81
341.614	99.81
341.842	101.81
342.07	87.81
342.298	92.81
342.526	95.81
342.754	82.81
342.981	81.81
343.209	85.81
343.437	94.81
343.665	86.81
343.893	97.81
344.12	97.81
344.348	72.81
344.576	94.81
344.804	73.81
345.031	85.81
345.259	85.81
345.487	89.81
345.714	108.81
345.942	90.81
346.17	91.81
346.397	89.81
346.625	101.81
346.853	85.81
347.08	84.81
347.308	93.81
347.535	96.81
347.763	114.81
347.99	86.81
348.218	105.81
348.445	100.81
348.673	101.81
348.9	105.81
349.128	100.81
349.355	104.81
349.583	93.81
349.81	95.81
350.037	94.81
350.265	102.81
350.492	88.81
350.72	98.81
350.947	101.81
351.174	99.81
351.402	97.81
351.629	90.81
351.856	84.81
352.083	94.81
352.311	101.81
352.538	102.81
352.765	100.81
352.992	104.81
353.22	110.81
353.447	109.81
353.674	110.81
353.901	97.81
354.128	97.81
354.355	83.81
354.583	96.81
354.81	106.81
355.037	85.81
355.264	93.81
355.491	93.81
355.718	89.81
355.945	95.81
356.172	105.81
356.399	93.81
356.626	90.81
356.853	87.81
357.08	94.81
357.307	91.81
357.534	77.81
357.761	105.81
357.988	99.81
358.215	105.81
358.441	94.81
358.668	96.81
358.895	86.81
359.122	106.81
359.349	94.81
359.576	95.81
359.802	80.81
360.029	99.81
360.256	117.81
360.483	87.81
360.709	93.81
360.936	85.81
361.163	94.81
361.39	111.81
361.616	87.81
361.843	89.81
362.07	97.81
362.296	98.81
362.523	72.81
362.749	97.81
362.976	90.81
363.203	93.81
363.429	78.81
363.656	88.81
363.882	80.81
364.109	91.81
364.335	94.81
364.562	86.81
364.788	86.81
365.015	74.81
365.241	96.81
365.468	98.81
365.694	90.81
365.92	81.81
366.147	83.81
366.373	71.81
366.599	91.81
366.826	77.81
367.052	93.81
367.278	80.81
367.505	98.81
367.731	89.81
367.957	89.81
368.184	92.81
368.41	88.81
368.636	105.81
368.862	108.81
369.089	95.81
369.315	86.81
369.541	86.81
369.767	90.81
369.993	88.81
370.219	82.81
370.445	92.81
370.672	67.81
370.898	79.81
371.124	90.81
371.35	86.81
371.576	91.81
371.802	90.81
372.028	91.81
372.254	96.81
372.48	81.81
372.706	79.81
372.932	77.81
373.158	96.81
373.384	80.81
373.61	82.81
373.835	87.81
374.061	82.81
374.287	82.81
374.513	90.81
374.739	96.81
374.965	84.81
375.191	95.81
375.416	82.81
375.642	102.81
375.868	96.81
376.094	97.81
376.319	68.81
376.545	98.81
376.771	83.81
376.997	86.81
377.222	100.81
377.448	97.81
377.674	93.81
377.899	85.81
378.125	93.81
378.35	88.81
378.576	87.81
378.802	101.81
379.027	93.81
379.253	100.81
379.478	109.81
379.704	95.81
379.929	93.81
380.155	101.81
380.38	88.81
380.606	118.81
380.831	101.81
381.057	119.81
381.282	106.81
381.507	107.81
381.733	119.81
381.958	104.81
382.184	112.81
382.409	107.81
382.634	117.81
382.86	97.81
383.085	118.81
383.31	110.81
383.535	110.81
383.761	107.81
383.986	117.81
384.211	93.81
384.436	114.81
384.662	106.81
384.887	119.81
385.112	120.81
385.337	117.81
385.562	130.81
385.787	113.81
386.013	114.81
386.238	130.81
386.463	106.81
386.688	156.81
386.913	124.81
387.138	117.81
387.363	129.81
387.588	104.81
387.813	106.81
388.038	114.81
388.263	151.81
388.488	129.81
388.713	90.81
388.938	84.81
389.163	98.81
389.387	102.81
389.612	83.81
389.837	88.81
390.062	89.81
390.287	83.81
390.512	74.81
390.736	86.81
390.961	102.81
391.186	83.81
391.411	93.81
391.636	94.81
391.86	74.81
392.085	92.81
392.31	90.81
392.534	105.81
392.759	90.81
392.984	84.81
393.208	99.81
393.433	95.81
393.658	94.81
393.882	82.81
394.107	91.81
394.331	83.81
394.556	81.81
394.78	85.81
395.005	104.81
395.229	95.81
395.454	77.81
395.678	81.81
395.903	73.81
396.127	78.81
396.352	95.81
396.576	92.81
396.801	90.81
397.025	86.81
397.249	96.81
397.474	79.81
397.698	92.81
397.922	86.81
398.147	88.81
398.371	83.81
398.595	94.81
398.82	91.81
399.044	88.81
399.268	92.81
399.492	94.81
399.717	90.81
399.941	75.81
400.165	88.81
400.389	78.81
400.613	85.81
400.837	82.81
401.062	90.81
401.286	81.81
401.51	88.81
401.734	94.81
401.958	103.81
402.182	109.81
402.406	128.81
402.63	112.81
402.854	90.81
403.078	103.81
403.302	75.81
403.526	92.81
403.75	83.81
403.974	93.81
404.198	86.81
404.422	89.81
404.645	84.81
404.869	86.81
405.093	86.81
405.317	98.81
405.541	77.81
405.765	82.81
405.988	111.81
406.212	135.81
406.436	177.81
406.66	121.81
406.883	94.81
407.107	93.81
407.331	91.81
407.555	108.81
407.778	90.81
408.002	88.81
408.226	83.81
408.449	79.81
408.673	88.81
408.896	106.81
409.12	85.81
409.344	91.81
409.567	86.81
409.791	96.81
410.014	102.81
410.238	98.81
410.461	96.81
410.685	81.81
410.908	87.81
411.132	104.81
411.355	91.81
411.578	84.81
411.802	97.81
412.025	91.81
412.249	90.81
412.472	85.81
412.695	86.81
412.919	89.81
413.142	92.81
413.365	93.81
413.589	82.81
413.812	86.81
414.035	86.81
414.258	80.81
414.482	98.81
414.705	87.81
414.928	86.81
415.151	84.81
415.374	96.81
415.597	84.81
415.821	89.81
416.044	79.81
416.267	90.81
416.49	82.81
416.713	81.81
416.936	96.81
417.159	91.81
417.382	75.81
417.605	80.81
417.828	96.81
418.051	87.81
418.274	76.81
418.497	90.81
418.72	84.81
418.943	99.81
419.166	94.81
419.389	78.81
419.611	87.81
419.834	90.81
420.057	77.81
420.28	95.81
420.503	87.81
420.726	85.81
420.948	90.81
421.171	89.81
421.394	100.81
421.617	97.81
421.839	92.81
422.062	88.81
422.285	101.81
422.507	88.81
422.73	99.81
422.953	81.81
423.175	81.81
423.398	78.81
423.621	87.81
423.843	91.81
424.066	85.81
424.288	77.81
424.511	94.81
424.733	98.81
424.956	74.81
425.178	95.81
425.401	97.81
425.623	84.81
425.846	85.81
426.068	87.81
426.291	91.81
426.513	90.81
426.735	80.81
426.958	98.81
427.18	97.81
427.402	123.81
427.625	134.81
427.847	101.81
428.069	104.81
428.292	92.81
428.514	81.81
428.736	86.81
428.958	79.81
429.181	79.81
429.403	103.81
429.625	84.81
429.847	85.81
430.069	102.81
430.292	86.81
430.514	101.81
430.736	84.81
430.958	89.81
431.18	73.81
431.402	85.81
431.624	94.81
431.846	93.81
432.068	99.81
432.29	74.81
432.512	88.81
432.734	77.81
432.956	99.81
433.178	87.81
433.4	98.81
433.622	88.81
433.844	76.81
434.066	89.81
434.287	97.81
434.509	86.81
434.731	90.81
434.953	93.81
435.175	88.81
435.397	81.81
435.618	87.81
435.84	92.81
436.062	103.81
436.284	110.81
436.505	91.81
436.727	78.81
436.949	85.81
437.17	93.81
437.392	74.81
437.614	94.81
437.835	110.81
438.057	96.81
438.278	95.81
438.5	86.81
438.721	88.81
438.943	102.81
439.165	77.81
439.386	101.81
439.608	100.81
439.829	90.81
440.05	116.81
440.272	129.81
440.493	80.81
440.715	95.81
440.936	107.81
441.158	83.81
441.379	90.81
441.6	77.81
441.822	85.81
442.043	88.81
442.264	101.81
442.486	79.81
442.707	90.81
442.928	94.81
443.149	114.81
443.371	100.81
443.592	96.81
443.813	104.81
444.034	109.81
444.255	97.81
444.476	79.81
444.698	78.81
444.919	83.81
445.14	120.81
445.361	118.81
445.582	106.81
445.803	115.81
446.024	124.81
446.245	125.81
446.466	90.81
446.687	95.81
446.908	86.81
447.129	73.81
447.35	97.81
447.571	99.81
447.792	96.81
448.013	82.81
448.234	99.81
448.455	90.81
448.675	105.81
448.896	98.81
449.117	86.81
449.338	101.81
449.559	107.81
449.779	121.81
450	74.81
450.221	85.81
450.442	88.81
450.662	91.81
450.883	88.81
451.104	91.81
451.324	90.81
451.545	67.81
451.766	91.81
451.986	73.81
452.207	93.81
452.428	88.81
452.648	85.81
452.869	89.81
453.089	97.81
453.31	96.81
453.53	74.81
453.751	88.81
453.971	99.81
454.192	105.81
454.412	85.81
454.633	88.81
454.853	84.81
455.073	91.81
455.294	73.81
455.514	91.81
455.734	81.81
455.955	74.81
456.175	91.81
456.395	81.81
456.616	72.81
456.836	71.81
457.056	76.81
457.276	84.81
457.497	98.81
457.717	95.81
457.937	79.81
458.157	89.81
458.377	97.81
458.598	95.81
458.818	131.81
459.038	144.81
459.258	101.81
459.478	68.81
459.698	78.81
459.918	72.81
460.138	82.81
460.358	83.81
460.578	80.81
460.798	79.81
461.018	76.81
461.238	85.81
461.458	97.81
461.678	86.81
461.898	84.81
462.118	73.81
462.338	88.81
462.558	83.81
462.777	86.81
462.997	97.81
463.217	73.81
463.437	77.81
463.657	84.81
463.876	74.81
464.096	88.81
464.316	80.81
464.536	103.81
464.755	85.81
464.975	91.81
465.195	121.81
465.414	138.81
465.634	94.81
465.854	88.81
466.073	95.81
466.293	85.81
466.512	88.81
466.732	100.81
466.951	85.81
467.171	78.81
467.391	85.81
467.61	105.81
467.829	82.81
468.049	78.81
468.268	85.81
468.488	106.81
468.707	81.81
468.927	68.81
469.146	81.81
469.365	90.81
469.585	90.81
469.804	97.81
470.023	86.81
470.243	96.81
470.462	83.81
470.681	100.81
470.901	67.81
471.12	79.81
471.339	77.81
471.558	91.81
471.777	86.81
471.997	81.81
472.216	86.81
472.435	77.81
472.654	75.81
472.873	84.81
473.092	98.81
473.311	83.81
473.53	76.81
473.749	84.81
473.968	95.81
474.187	101.81
474.406	92.81
474.625	86.81
474.844	85.81
475.063	87.81
475.282	88.81
475.501	86.81
475.72	88.81
475.939	89.81
476.158	70.81
476.377	77.81
476.596	82.81
476.814	74.81
477.033	95.81
477.252	80.81
477.471	83.81
477.69	81.81
477.908	83.81
478.127	90.81
478.346	81.81
478.564	91.81
478.783	90.81
479.002	86.81
479.22	98.81
479.439	88.81
479.658	106.81
479.876	98.81
480.095	92.81
480.313	91.81
480.532	85.81
480.751	88.81
480.969	78.81
481.188	98.81
481.406	100.81
481.624	95.81
481.843	83.81
482.061	90.81
482.28	91.81
482.498	85.81
482.717	88.81
482.935	81.81
483.153	107.81
483.372	85.81
483.59	97.81
483.808	81.81
484.027	84.81
484.245	70.81
484.463	100.81
484.681	103.81
484.9	108.81
485.118	88.81
485.336	101.81
485.554	104.81
485.772	104.81
485.99	100.81
486.209	88.81
486.427	97.81
486.645	97.81
486.863	98.81
487.081	95.81
487.299	96.81
487.517	92.81
487.735	100.81
487.953	72.81
488.171	94.81
488.389	78.81
488.607	90.81
488.825	87.81
489.043	91.81
489.261	97.81
489.479	105.81
489.696	87.81
489.914	95.81
490.132	73.81
490.35	83.81
490.568	99.81
490.786	81.81
491.003	103.81
491.221	88.81
491.439	83.81
491.657	83.81
491.874	87.81
492.092	82.81
492.31	73.81
492.527	77.81
492.745	75.81
492.963	86.81
493.18	98.81
493.398	89.81
493.615	113.81
493.833	103.81
494.05	89.81
494.268	84.81
494.485	81.81
494.703	82.81
494.92	86.81
495.138	88.81
495.355	85.81
495.573	76.81
495.79	88.81
496.008	93.81
496.225	78.81
496.442	88.81
496.66	86.81
496.877	95.81
497.094	111.81
497.312	72.81
497.529	85.81
497.746	96.81
497.963	103.81
498.181	98.81
498.398	85.81
498.615	101.81
498.832	94.81
499.049	79.81
499.267	86.81
499.484	75.81
499.701	101.81
499.918	93.81
500.135	85.81
500.352	88.81
500.569	86.81
500.786	97.81
501.003	83.81
501.22	96.81
501.437	82.81
501.654	78.81
501.871	98.81
502.088	96.81
502.305	102.81
502.522	93.81
502.739	91.81
502.956	85.81
503.172	90.81
503.389	110.81
503.606	99.81
503.823	94.81
504.04	95.81
504.256	94.81
504.473	89.81
504.69	83.81
504.907	91.81
505.123	86.81
505.34	97.81
505.557	101.81
505.773	96.81
505.99	95.81
506.207	84.81
506.423	95.81
506.64	93.81
506.856	88.81
507.073	86.81
507.289	88.81
507.506	102.81
507.722	114.81
507.939	106.81
508.155	100.81
508.372	92.81
508.588	77.81
508.805	80.81
509.021	89.81
509.238	103.81
509.454	87.81
509.67	87.81
509.887	88.81
510.103	106.81
510.319	170.81
510.536	529.81
510.752	1535.81
510.968	480.81
511.184	121.81
511.401	107.81
511.617	88.81
511.833	86.81
512.049	97.81
512.265	93.81
512.481	102.81
512.698	95.81
512.914	86.81
513.13	71.81
513.346	101.81
513.562	101.81
513.778	98.81
513.994	88.81
514.21	104.81
514.426	106.81
514.642	112.81
514.858	117.81
515.074	137.81
515.29	336.81
515.506	946.81
515.721	374.81
515.937	127.81
516.153	87.81
516.369	94.81
516.585	97.81
516.801	98.81
