Data from Uncirc_2001_H10_HRD10591_00056.txt Node
Date: Wed Jan 03 10:44:08 EST 2024
User: Yrep
Spectrometer: HR+D1059
Trigger mode: 1
Integration Time (sec): 1.000000E-1
Scans to average: 1
Electric dark correction enabled: true
Nonlinearity correction enabled: false
Boxcar width: 0
XAxis mode: Wavelengths
Number of Pixels in Spectrum: 2048
>>>>>Begin Spectral Data<<<<<
223.165	-29.25
223.4	-29.25
223.635	-29.25
223.869	-8.25
224.104	-20.25
224.338	-16.25
224.573	-21.25
224.808	-20.25
225.042	-3.25
225.277	2.75
225.511	-1.25
225.746	5.75
225.98	13.75
226.215	9.75
226.449	14.75
226.683	27.75
226.918	18.75
227.152	26.75
227.387	38.75
227.621	31.75
227.856	38.75
228.09	43.75
228.324	45.75
228.559	57.75
228.793	53.75
229.027	58.75
229.262	62.75
229.496	72.75
229.73	67.75
229.964	77.75
230.199	79.75
230.433	70.75
230.667	70.75
230.901	80.75
231.136	66.75
231.37	69.75
231.604	69.75
231.838	104.75
232.072	68.75
232.306	79.75
232.541	87.75
232.775	78.75
233.009	78.75
233.243	64.75
233.477	76.75
233.711	65.75
233.945	64.75
234.179	97.75
234.413	79.75
234.647	78.75
234.881	74.75
235.115	75.75
235.349	67.75
235.583	88.75
235.817	84.75
236.051	74.75
236.285	75.75
236.519	78.75
236.753	65.75
236.987	53.75
237.221	76.75
237.455	87.75
237.689	72.75
237.922	76.75
238.156	64.75
238.39	78.75
238.624	70.75
238.858	69.75
239.091	79.75
239.325	79.75
239.559	78.75
239.793	63.75
240.027	83.75
240.26	69.75
240.494	63.75
240.728	72.75
240.961	61.75
241.195	78.75
241.429	65.75
241.662	82.75
241.896	78.75
242.13	82.75
242.363	72.75
242.597	77.75
242.83	67.75
243.064	72.75
243.298	61.75
243.531	85.75
243.765	72.75
243.998	79.75
244.232	86.75
244.465	78.75
244.699	72.75
244.932	67.75
245.166	56.75
245.399	82.75
245.633	64.75
245.866	85.75
246.099	75.75
246.333	76.75
246.566	79.75
246.8	85.75
247.033	79.75
247.266	79.75
247.5	87.75
247.733	79.75
247.966	85.75
248.2	75.75
248.433	80.75
248.666	78.75
248.899	87.75
249.133	78.75
249.366	93.75
249.599	100.75
249.832	72.75
250.066	76.75
250.299	87.75
250.532	72.75
250.765	77.75
250.998	70.75
251.231	64.75
251.465	71.75
251.698	72.75
251.931	61.75
252.164	75.75
252.397	77.75
252.63	78.75
252.863	72.75
253.096	63.75
253.329	79.75
253.562	74.75
253.795	79.75
254.028	85.75
254.261	76.75
254.494	80.75
254.727	82.75
254.96	88.75
255.193	75.75
255.426	81.75
255.659	65.75
255.892	73.75
256.124	67.75
256.357	81.75
256.59	82.75
256.823	86.75
257.056	81.75
257.289	71.75
257.521	79.75
257.754	71.75
257.987	68.75
258.22	83.75
258.452	90.75
258.685	75.75
258.918	70.75
259.151	64.75
259.383	85.75
259.616	69.75
259.849	78.75
260.081	83.75
260.314	80.75
260.547	70.75
260.779	75.75
261.012	79.75
261.244	79.75
261.477	76.75
261.71	77.75
261.942	116.75
262.175	111.75
262.407	76.75
262.64	81.75
262.872	82.75
263.105	76.75
263.337	89.75
263.57	87.75
263.802	80.75
264.035	72.75
264.267	77.75
264.499	69.75
264.732	88.75
264.964	87.75
265.197	80.75
265.429	69.75
265.661	81.75
265.894	78.75
266.126	80.75
266.358	72.75
266.591	75.75
266.823	88.75
267.055	79.75
267.287	69.75
267.52	91.75
267.752	74.75
267.984	92.75
268.216	85.75
268.448	85.75
268.681	78.75
268.913	83.75
269.145	63.75
269.377	70.75
269.609	85.75
269.841	66.75
270.073	81.75
270.306	84.75
270.538	68.75
270.77	76.75
271.002	77.75
271.234	76.75
271.466	87.75
271.698	82.75
271.93	87.75
272.162	81.75
272.394	88.75
272.626	89.75
272.858	85.75
273.09	82.75
273.322	83.75
273.553	75.75
273.785	87.75
274.017	84.75
274.249	72.75
274.481	82.75
274.713	79.75
274.945	94.75
275.176	86.75
275.408	91.75
275.64	76.75
275.872	82.75
276.104	73.75
276.335	87.75
276.567	102.75
276.799	92.75
277.031	85.75
277.262	95.75
277.494	86.75
277.726	78.75
277.957	80.75
278.189	72.75
278.421	88.75
278.652	77.75
278.884	77.75
279.115	95.75
279.347	81.75
279.579	74.75
279.81	69.75
280.042	82.75
280.273	92.75
280.505	87.75
280.736	86.75
280.968	83.75
281.199	72.75
281.431	82.75
281.662	67.75
281.894	83.75
282.125	87.75
282.356	106.75
282.588	120.75
282.819	114.75
283.051	76.75
283.282	83.75
283.513	83.75
283.745	78.75
283.976	68.75
284.207	71.75
284.439	106.75
284.67	91.75
284.901	79.75
285.132	87.75
285.364	88.75
285.595	73.75
285.826	69.75
286.057	83.75
286.288	88.75
286.52	71.75
286.751	81.75
286.982	91.75
287.213	78.75
287.444	81.75
287.675	86.75
287.906	94.75
288.138	77.75
288.369	86.75
288.6	85.75
288.831	81.75
289.062	77.75
289.293	89.75
289.524	80.75
289.755	79.75
289.986	87.75
290.217	86.75
290.448	77.75
290.679	76.75
290.91	86.75
291.141	74.75
291.371	74.75
291.602	88.75
291.833	87.75
292.064	95.75
292.295	75.75
292.526	79.75
292.757	93.75
292.987	83.75
293.218	80.75
293.449	84.75
293.68	102.75
293.91	85.75
294.141	110.75
294.372	72.75
294.603	78.75
294.833	78.75
295.064	86.75
295.295	83.75
295.525	98.75
295.756	89.75
295.987	101.75
296.217	127.75
296.448	115.75
296.679	97.75
296.909	91.75
297.14	76.75
297.37	82.75
297.601	80.75
297.831	85.75
298.062	83.75
298.292	91.75
298.523	82.75
298.753	85.75
298.984	83.75
299.214	88.75
299.445	79.75
299.675	95.75
299.905	92.75
300.136	94.75
300.366	94.75
300.597	95.75
300.827	70.75
301.057	91.75
301.288	89.75
301.518	77.75
301.748	80.75
301.979	94.75
302.209	90.75
302.439	88.75
302.669	95.75
302.9	88.75
303.13	73.75
303.36	79.75
303.59	88.75
303.82	94.75
304.051	78.75
304.281	85.75
304.511	88.75
304.741	83.75
304.971	84.75
305.201	82.75
305.431	85.75
305.661	87.75
305.891	88.75
306.121	90.75
306.352	90.75
306.582	82.75
306.812	87.75
307.042	95.75
307.272	81.75
307.502	82.75
307.731	86.75
307.961	90.75
308.191	83.75
308.421	97.75
308.651	79.75
308.881	90.75
309.111	84.75
309.341	92.75
309.571	113.75
309.8	79.75
310.03	84.75
310.26	91.75
310.49	83.75
310.72	91.75
310.949	112.75
311.179	100.75
311.409	94.75
311.639	85.75
311.868	94.75
312.098	93.75
312.328	95.75
312.557	94.75
312.787	95.75
313.017	103.75
313.246	84.75
313.476	98.75
313.706	90.75
313.935	90.75
314.165	87.75
314.394	103.75
314.624	98.75
314.853	97.75
315.083	73.75
315.312	82.75
315.542	67.75
315.771	96.75
316.001	95.75
316.23	87.75
316.46	85.75
316.689	82.75
316.919	96.75
317.148	66.75
317.377	87.75
317.607	74.75
317.836	88.75
318.065	79.75
318.295	96.75
318.524	77.75
318.753	79.75
318.983	101.75
319.212	96.75
319.441	100.75
319.67	108.75
319.9	84.75
320.129	90.75
320.358	94.75
320.587	94.75
320.816	97.75
321.046	92.75
321.275	91.75
321.504	82.75
321.733	67.75
321.962	96.75
322.191	101.75
322.42	100.75
322.649	100.75
322.878	103.75
323.108	108.75
323.337	119.75
323.566	122.75
323.795	122.75
324.024	199.75
324.253	358.75
324.482	726.75
324.71	1409.75
324.939	1808.75
325.168	687.75
325.397	208.75
325.626	136.75
325.855	115.75
326.084	117.75
326.313	117.75
326.542	138.75
326.77	196.75
326.999	420.75
327.228	794.75
327.457	1406.75
327.686	1088.75
327.914	301.75
328.143	172.75
328.372	134.75
328.6	116.75
328.829	108.75
329.058	116.75
329.287	123.75
329.515	98.75
329.744	84.75
329.972	107.75
330.201	85.75
330.43	104.75
330.658	112.75
330.887	136.75
331.115	109.75
331.344	87.75
331.572	101.75
331.801	109.75
332.03	103.75
332.258	87.75
332.486	79.75
332.715	79.75
332.943	92.75
333.172	81.75
333.4	94.75
333.629	106.75
333.857	101.75
334.085	89.75
334.314	111.75
334.542	93.75
334.771	89.75
334.999	107.75
335.227	97.75
335.455	100.75
335.684	87.75
335.912	88.75
336.14	102.75
336.369	95.75
336.597	103.75
336.825	92.75
337.053	90.75
337.281	89.75
337.51	100.75
337.738	76.75
337.966	83.75
338.194	87.75
338.422	97.75
338.65	97.75
338.878	90.75
339.106	80.75
339.334	76.75
339.562	77.75
339.79	90.75
340.018	89.75
340.246	83.75
340.474	82.75
340.702	97.75
340.93	100.75
341.158	84.75
341.386	92.75
341.614	98.75
341.842	101.75
342.07	82.75
342.298	76.75
342.526	74.75
342.754	99.75
342.981	81.75
343.209	84.75
343.437	92.75
343.665	97.75
343.893	79.75
344.12	88.75
344.348	83.75
344.576	82.75
344.804	97.75
345.031	75.75
345.259	96.75
345.487	74.75
345.714	80.75
345.942	92.75
346.17	81.75
346.397	92.75
346.625	88.75
346.853	86.75
347.08	92.75
347.308	83.75
347.535	106.75
347.763	104.75
347.99	88.75
348.218	106.75
348.445	97.75
348.673	101.75
348.9	94.75
349.128	82.75
349.355	86.75
349.583	95.75
349.81	78.75
350.037	84.75
350.265	91.75
350.492	92.75
350.72	71.75
350.947	96.75
351.174	107.75
351.402	123.75
351.629	98.75
351.856	85.75
352.083	94.75
352.311	116.75
352.538	107.75
352.765	85.75
352.992	101.75
353.22	105.75
353.447	84.75
353.674	93.75
353.901	78.75
354.128	107.75
354.355	109.75
354.583	90.75
354.81	83.75
355.037	95.75
355.264	88.75
355.491	88.75
355.718	101.75
355.945	101.75
356.172	98.75
356.399	93.75
356.626	84.75
356.853	88.75
357.08	94.75
357.307	85.75
357.534	78.75
357.761	92.75
357.988	88.75
358.215	98.75
358.441	83.75
358.668	77.75
358.895	71.75
359.122	70.75
359.349	85.75
359.576	83.75
359.802	72.75
360.029	107.75
360.256	98.75
360.483	107.75
360.709	85.75
360.936	87.75
361.163	84.75
361.39	84.75
361.616	86.75
361.843	82.75
362.07	96.75
362.296	100.75
362.523	81.75
362.749	86.75
362.976	83.75
363.203	89.75
363.429	94.75
363.656	79.75
363.882	94.75
364.109	100.75
364.335	85.75
364.562	80.75
364.788	71.75
365.015	86.75
365.241	91.75
365.468	97.75
365.694	99.75
365.92	72.75
366.147	82.75
366.373	91.75
366.599	93.75
366.826	91.75
367.052	81.75
367.278	98.75
367.505	98.75
367.731	95.75
367.957	84.75
368.184	92.75
368.41	91.75
368.636	87.75
368.862	110.75
369.089	92.75
369.315	74.75
369.541	76.75
369.767	88.75
369.993	84.75
370.219	95.75
370.445	76.75
370.672	84.75
370.898	84.75
371.124	87.75
371.35	79.75
371.576	95.75
371.802	85.75
372.028	96.75
372.254	77.75
372.48	87.75
372.706	75.75
372.932	74.75
373.158	86.75
373.384	95.75
373.61	103.75
373.835	92.75
374.061	91.75
374.287	98.75
374.513	76.75
374.739	72.75
374.965	69.75
375.191	83.75
375.416	101.75
375.642	81.75
375.868	88.75
376.094	95.75
376.319	86.75
376.545	86.75
376.771	77.75
376.997	93.75
377.222	96.75
377.448	82.75
377.674	90.75
377.899	98.75
378.125	86.75
378.35	84.75
378.576	69.75
378.802	88.75
379.027	100.75
379.253	84.75
379.478	87.75
379.704	83.75
379.929	84.75
380.155	91.75
380.38	79.75
380.606	92.75
380.831	92.75
381.057	73.75
381.282	79.75
381.507	77.75
381.733	83.75
381.958	91.75
382.184	95.75
382.409	93.75
382.634	88.75
382.86	84.75
383.085	93.75
383.31	98.75
383.535	88.75
383.761	87.75
383.986	87.75
384.211	88.75
384.436	87.75
384.662	78.75
384.887	94.75
385.112	99.75
385.337	102.75
385.562	91.75
385.787	92.75
386.013	99.75
386.238	100.75
386.463	98.75
386.688	93.75
386.913	101.75
387.138	96.75
387.363	92.75
387.588	99.75
387.813	106.75
388.038	99.75
388.263	116.75
388.488	92.75
388.713	106.75
388.938	74.75
389.163	94.75
389.387	95.75
389.612	82.75
389.837	84.75
390.062	83.75
390.287	95.75
390.512	99.75
390.736	84.75
390.961	106.75
391.186	86.75
391.411	95.75
391.636	91.75
391.86	93.75
392.085	84.75
392.31	88.75
392.534	83.75
392.759	96.75
392.984	83.75
393.208	92.75
393.433	68.75
393.658	87.75
393.882	91.75
394.107	79.75
394.331	75.75
394.556	80.75
394.78	76.75
395.005	79.75
395.229	82.75
395.454	93.75
395.678	80.75
395.903	79.75
396.127	79.75
396.352	75.75
396.576	70.75
396.801	78.75
397.025	80.75
397.249	95.75
397.474	94.75
397.698	76.75
397.922	79.75
398.147	74.75
398.371	81.75
398.595	90.75
398.82	75.75
399.044	87.75
399.268	95.75
399.492	79.75
399.717	87.75
399.941	94.75
400.165	79.75
400.389	90.75
400.613	74.75
400.837	76.75
401.062	79.75
401.286	82.75
401.51	95.75
401.734	99.75
401.958	94.75
402.182	105.75
402.406	150.75
402.63	96.75
402.854	77.75
403.078	86.75
403.302	84.75
403.526	66.75
403.75	81.75
403.974	75.75
404.198	80.75
404.422	91.75
404.645	94.75
404.869	92.75
405.093	77.75
405.317	86.75
405.541	105.75
405.765	82.75
405.988	118.75
406.212	162.75
406.436	195.75
406.66	146.75
406.883	108.75
407.107	83.75
407.331	98.75
407.555	83.75
407.778	91.75
408.002	85.75
408.226	82.75
408.449	76.75
408.673	91.75
408.896	102.75
409.12	88.75
409.344	110.75
409.567	89.75
409.791	84.75
410.014	85.75
410.238	82.75
410.461	91.75
410.685	87.75
410.908	98.75
411.132	98.75
411.355	86.75
411.578	98.75
411.802	90.75
412.025	77.75
412.249	87.75
412.472	91.75
412.695	93.75
412.919	89.75
413.142	91.75
413.365	70.75
413.589	78.75
413.812	67.75
414.035	89.75
414.258	77.75
414.482	82.75
414.705	99.75
414.928	90.75
415.151	89.75
415.374	82.75
415.597	72.75
415.821	63.75
416.044	84.75
416.267	86.75
416.49	93.75
416.713	68.75
416.936	95.75
417.159	82.75
417.382	86.75
417.605	82.75
417.828	79.75
418.051	75.75
418.274	101.75
418.497	86.75
418.72	75.75
418.943	92.75
419.166	82.75
419.389	72.75
419.611	94.75
419.834	81.75
420.057	81.75
420.28	81.75
420.503	76.75
420.726	85.75
420.948	89.75
421.171	81.75
421.394	83.75
421.617	80.75
421.839	86.75
422.062	87.75
422.285	102.75
422.507	88.75
422.73	87.75
422.953	80.75
423.175	83.75
423.398	73.75
423.621	83.75
423.843	84.75
424.066	80.75
424.288	92.75
424.511	94.75
424.733	88.75
424.956	88.75
425.178	104.75
425.401	88.75
425.623	83.75
425.846	82.75
426.068	78.75
426.291	95.75
426.513	92.75
426.735	81.75
426.958	92.75
427.18	93.75
427.402	119.75
427.625	158.75
427.847	115.75
428.069	98.75
428.292	79.75
428.514	79.75
428.736	86.75
428.958	71.75
429.181	73.75
429.403	84.75
429.625	91.75
429.847	91.75
430.069	84.75
430.292	79.75
430.514	82.75
430.736	74.75
430.958	82.75
431.18	81.75
431.402	85.75
431.624	90.75
431.846	79.75
432.068	87.75
432.29	94.75
432.512	88.75
432.734	78.75
432.956	75.75
433.178	89.75
433.4	84.75
433.622	94.75
433.844	84.75
434.066	88.75
434.287	87.75
434.509	101.75
434.731	84.75
434.953	88.75
435.175	76.75
435.397	85.75
435.618	82.75
435.84	87.75
436.062	111.75
436.284	108.75
436.505	84.75
436.727	100.75
436.949	80.75
437.17	86.75
437.392	88.75
437.614	93.75
437.835	98.75
438.057	103.75
438.278	91.75
438.5	93.75
438.721	104.75
438.943	108.75
439.165	97.75
439.386	89.75
439.608	79.75
439.829	94.75
440.05	119.75
440.272	130.75
440.493	88.75
440.715	81.75
440.936	71.75
441.158	76.75
441.379	77.75
441.6	90.75
441.822	83.75
442.043	96.75
442.264	90.75
442.486	86.75
442.707	85.75
442.928	86.75
443.149	118.75
443.371	122.75
443.592	104.75
443.813	104.75
444.034	102.75
444.255	99.75
444.476	75.75
444.698	92.75
444.919	83.75
445.14	119.75
445.361	123.75
445.582	111.75
445.803	122.75
446.024	131.75
446.245	120.75
446.466	114.75
446.687	76.75
446.908	83.75
447.129	86.75
447.35	75.75
447.571	68.75
447.792	92.75
448.013	102.75
448.234	99.75
448.455	107.75
448.675	92.75
448.896	116.75
449.117	94.75
449.338	87.75
449.559	107.75
449.779	124.75
450	88.75
450.221	91.75
450.442	86.75
450.662	78.75
450.883	110.75
451.104	100.75
451.324	84.75
451.545	87.75
451.766	83.75
451.986	86.75
452.207	77.75
452.428	94.75
452.648	89.75
452.869	108.75
453.089	115.75
453.31	100.75
453.53	96.75
453.751	83.75
453.971	81.75
454.192	96.75
454.412	79.75
454.633	93.75
454.853	80.75
455.073	92.75
455.294	77.75
455.514	94.75
455.734	86.75
455.955	86.75
456.175	82.75
456.395	80.75
456.616	67.75
456.836	80.75
457.056	84.75
457.276	78.75
457.497	88.75
457.717	78.75
457.937	78.75
458.157	79.75
458.377	84.75
458.598	111.75
458.818	149.75
459.038	152.75
459.258	108.75
459.478	101.75
459.698	87.75
459.918	86.75
460.138	93.75
460.358	74.75
460.578	96.75
460.798	101.75
461.018	76.75
461.238	76.75
461.458	70.75
461.678	91.75
461.898	77.75
462.118	85.75
462.338	90.75
462.558	75.75
462.777	62.75
462.997	84.75
463.217	76.75
463.437	85.75
463.657	73.75
463.876	84.75
464.096	98.75
464.316	85.75
464.536	82.75
464.755	74.75
464.975	97.75
465.195	126.75
465.414	153.75
465.634	96.75
465.854	76.75
466.073	82.75
466.293	79.75
466.512	75.75
466.732	77.75
466.951	72.75
467.171	74.75
467.391	81.75
467.61	92.75
467.829	80.75
468.049	82.75
468.268	76.75
468.488	79.75
468.707	71.75
468.927	69.75
469.146	74.75
469.365	68.75
469.585	97.75
469.804	82.75
470.023	78.75
470.243	88.75
470.462	103.75
470.681	95.75
470.901	84.75
471.12	84.75
471.339	76.75
471.558	67.75
471.777	69.75
471.997	90.75
472.216	87.75
472.435	90.75
472.654	81.75
472.873	86.75
473.092	75.75
473.311	95.75
473.53	81.75
473.749	87.75
473.968	90.75
474.187	96.75
474.406	80.75
474.625	81.75
474.844	83.75
475.063	85.75
475.282	77.75
475.501	93.75
475.72	70.75
475.939	81.75
476.158	71.75
476.377	76.75
476.596	81.75
476.814	87.75
477.033	84.75
477.252	80.75
477.471	92.75
477.69	85.75
477.908	98.75
478.127	91.75
478.346	78.75
478.564	86.75
478.783	78.75
479.002	81.75
479.22	80.75
479.439	80.75
479.658	93.75
479.876	92.75
480.095	86.75
480.313	70.75
480.532	85.75
480.751	76.75
480.969	91.75
481.188	96.75
481.406	84.75
481.624	74.75
481.843	72.75
482.061	79.75
482.28	83.75
482.498	95.75
482.717	78.75
482.935	86.75
483.153	75.75
483.372	71.75
483.59	93.75
483.808	82.75
484.027	75.75
484.245	85.75
484.463	88.75
484.681	74.75
484.9	74.75
485.118	89.75
485.336	75.75
485.554	80.75
485.772	87.75
485.99	102.75
486.209	104.75
486.427	88.75
486.645	93.75
486.863	109.75
487.081	98.75
487.299	74.75
487.517	90.75
487.735	96.75
487.953	93.75
488.171	89.75
488.389	74.75
488.607	93.75
488.825	83.75
489.043	92.75
489.261	80.75
489.479	83.75
489.696	78.75
489.914	73.75
490.132	72.75
490.35	84.75
490.568	86.75
490.786	96.75
491.003	94.75
491.221	89.75
491.439	75.75
491.657	83.75
491.874	87.75
492.092	88.75
492.31	92.75
492.527	85.75
492.745	82.75
492.963	90.75
493.18	78.75
493.398	74.75
493.615	93.75
493.833	82.75
494.05	84.75
494.268	79.75
494.485	62.75
494.703	89.75
494.92	83.75
495.138	91.75
495.355	85.75
495.573	76.75
495.79	93.75
496.008	83.75
496.225	83.75
496.442	78.75
496.66	92.75
496.877	82.75
497.094	88.75
497.312	87.75
497.529	81.75
497.746	84.75
497.963	72.75
498.181	65.75
498.398	73.75
498.615	89.75
498.832	92.75
499.049	92.75
499.267	87.75
499.484	79.75
499.701	78.75
499.918	79.75
500.135	85.75
500.352	74.75
500.569	79.75
500.786	79.75
501.003	76.75
501.22	89.75
501.437	90.75
501.654	88.75
501.871	92.75
502.088	75.75
502.305	88.75
502.522	98.75
502.739	104.75
502.956	93.75
503.172	75.75
503.389	90.75
503.606	93.75
503.823	102.75
504.04	72.75
504.256	79.75
504.473	84.75
504.69	85.75
504.907	88.75
505.123	92.75
505.34	70.75
505.557	90.75
505.773	92.75
505.99	85.75
506.207	85.75
506.423	76.75
506.64	87.75
506.856	76.75
507.073	96.75
507.289	85.75
507.506	103.75
507.722	109.75
507.939	96.75
508.155	84.75
508.372	86.75
508.588	96.75
508.805	94.75
509.021	82.75
509.238	87.75
509.454	93.75
509.67	100.75
509.887	107.75
510.103	126.75
510.319	198.75
510.536	734.75
510.752	2240.75
510.968	602.75
511.184	159.75
511.401	113.75
511.617	98.75
511.833	82.75
512.049	90.75
512.265	77.75
512.481	91.75
512.698	92.75
512.914	88.75
513.13	107.75
513.346	95.75
513.562	94.75
513.778	93.75
513.994	100.75
514.21	99.75
514.426	103.75
514.642	101.75
514.858	107.75
515.074	158.75
515.29	447.75
515.506	1364.75
515.721	508.75
515.937	133.75
516.153	106.75
516.369	94.75
516.585	84.75
516.801	83.75
517.016	96.75
517.232	84.75
517.448	79.75
