Data from Uncirc_2001_H10_HRD10591_00078.txt Node
Date: Wed Jan 03 10:44:12 EST 2024
User: Yrep
Spectrometer: HR+D1059
Trigger mode: 1
Integration Time (sec): 1.000000E-1
Scans to average: 1
Electric dark correction enabled: true
Nonlinearity correction enabled: false
Boxcar width: 0
XAxis mode: Wavelengths
Number of Pixels in Spectrum: 2048
>>>>>Begin Spectral Data<<<<<
223.165	-32.44
223.4	-32.44
223.635	-32.44
223.869	-17.44
224.104	-23.44
224.338	-21.44
224.573	-17.44
224.808	-9.44
225.042	-18.44
225.277	-9.44
225.511	-10.44
225.746	16.56
225.98	14.56
226.215	12.56
226.449	35.56
226.683	31.56
226.918	20.56
227.152	28.56
227.387	27.56
227.621	43.56
227.856	47.56
228.09	54.56
228.324	45.56
228.559	66.56
228.793	64.56
229.027	59.56
229.262	68.56
229.496	74.56
229.73	71.56
229.964	87.56
230.199	74.56
230.433	63.56
230.667	80.56
230.901	83.56
231.136	83.56
231.37	72.56
231.604	96.56
231.838	74.56
232.072	81.56
232.306	70.56
232.541	86.56
232.775	85.56
233.009	79.56
233.243	82.56
233.477	77.56
233.711	85.56
233.945	72.56
234.179	80.56
234.413	78.56
234.647	76.56
234.881	88.56
235.115	74.56
235.349	73.56
235.583	68.56
235.817	82.56
236.051	73.56
236.285	69.56
236.519	74.56
236.753	84.56
236.987	74.56
237.221	92.56
237.455	83.56
237.689	61.56
237.922	76.56
238.156	83.56
238.39	69.56
238.624	77.56
238.858	67.56
239.091	69.56
239.325	83.56
239.559	88.56
239.793	61.56
240.027	64.56
240.26	74.56
240.494	69.56
240.728	69.56
240.961	78.56
241.195	74.56
241.429	90.56
241.662	82.56
241.896	73.56
242.13	80.56
242.363	67.56
242.597	71.56
242.83	76.56
243.064	86.56
243.298	71.56
243.531	79.56
243.765	74.56
243.998	87.56
244.232	82.56
244.465	79.56
244.699	91.56
244.932	78.56
245.166	77.56
245.399	82.56
245.633	77.56
245.866	89.56
246.099	86.56
246.333	77.56
246.566	85.56
246.8	78.56
247.033	76.56
247.266	72.56
247.5	85.56
247.733	81.56
247.966	87.56
248.2	61.56
248.433	80.56
248.666	78.56
248.899	80.56
249.133	81.56
249.366	89.56
249.599	97.56
249.832	71.56
250.066	85.56
250.299	66.56
250.532	72.56
250.765	65.56
250.998	77.56
251.231	69.56
251.465	91.56
251.698	67.56
251.931	85.56
252.164	90.56
252.397	73.56
252.63	77.56
252.863	95.56
253.096	73.56
253.329	87.56
253.562	78.56
253.795	73.56
254.028	71.56
254.261	90.56
254.494	75.56
254.727	85.56
254.96	74.56
255.193	70.56
255.426	88.56
255.659	71.56
255.892	73.56
256.124	78.56
256.357	72.56
256.59	73.56
256.823	74.56
257.056	73.56
257.289	81.56
257.521	82.56
257.754	82.56
257.987	77.56
258.22	83.56
258.452	90.56
258.685	72.56
258.918	78.56
259.151	82.56
259.383	82.56
259.616	80.56
259.849	70.56
260.081	87.56
260.314	83.56
260.547	86.56
260.779	95.56
261.012	82.56
261.244	88.56
261.477	89.56
261.71	95.56
261.942	94.56
262.175	100.56
262.407	98.56
262.64	73.56
262.872	82.56
263.105	82.56
263.337	105.56
263.57	76.56
263.802	97.56
264.035	91.56
264.267	77.56
264.499	67.56
264.732	90.56
264.964	82.56
265.197	73.56
265.429	75.56
265.661	83.56
265.894	81.56
266.126	75.56
266.358	95.56
266.591	73.56
266.823	71.56
267.055	71.56
267.287	84.56
267.52	91.56
267.752	80.56
267.984	87.56
268.216	78.56
268.448	76.56
268.681	80.56
268.913	82.56
269.145	80.56
269.377	91.56
269.609	89.56
269.841	93.56
270.073	55.56
270.306	82.56
270.538	81.56
270.77	80.56
271.002	71.56
271.234	86.56
271.466	84.56
271.698	85.56
271.93	78.56
272.162	75.56
272.394	73.56
272.626	91.56
272.858	89.56
273.09	87.56
273.322	86.56
273.553	94.56
273.785	75.56
274.017	85.56
274.249	97.56
274.481	82.56
274.713	88.56
274.945	82.56
275.176	82.56
275.408	81.56
275.64	82.56
275.872	86.56
276.104	85.56
276.335	90.56
276.567	96.56
276.799	92.56
277.031	91.56
277.262	91.56
277.494	82.56
277.726	86.56
277.957	75.56
278.189	75.56
278.421	74.56
278.652	79.56
278.884	89.56
279.115	84.56
279.347	93.56
279.579	75.56
279.81	89.56
280.042	81.56
280.273	79.56
280.505	79.56
280.736	74.56
280.968	70.56
281.199	79.56
281.431	83.56
281.662	83.56
281.894	100.56
282.125	86.56
282.356	95.56
282.588	127.56
282.819	116.56
283.051	94.56
283.282	73.56
283.513	71.56
283.745	89.56
283.976	86.56
284.207	86.56
284.439	84.56
284.67	71.56
284.901	79.56
285.132	82.56
285.364	79.56
285.595	99.56
285.826	81.56
286.057	98.56
286.288	74.56
286.52	90.56
286.751	76.56
286.982	79.56
287.213	95.56
287.444	98.56
287.675	89.56
287.906	81.56
288.138	89.56
288.369	90.56
288.6	92.56
288.831	78.56
289.062	72.56
289.293	75.56
289.524	82.56
289.755	75.56
289.986	93.56
290.217	73.56
290.448	80.56
290.679	70.56
290.91	84.56
291.141	89.56
291.371	69.56
291.602	79.56
291.833	82.56
292.064	82.56
292.295	95.56
292.526	89.56
292.757	85.56
292.987	86.56
293.218	93.56
293.449	93.56
293.68	78.56
293.91	80.56
294.141	78.56
294.372	86.56
294.603	87.56
294.833	85.56
295.064	81.56
295.295	94.56
295.525	96.56
295.756	101.56
295.987	95.56
296.217	119.56
296.448	100.56
296.679	91.56
296.909	69.56
297.14	90.56
297.37	94.56
297.601	85.56
297.831	80.56
298.062	70.56
298.292	84.56
298.523	85.56
298.753	91.56
298.984	80.56
299.214	70.56
299.445	88.56
299.675	78.56
299.905	94.56
300.136	84.56
300.366	91.56
300.597	95.56
300.827	74.56
301.057	82.56
301.288	91.56
301.518	92.56
301.748	73.56
301.979	94.56
302.209	81.56
302.439	81.56
302.669	85.56
302.9	91.56
303.13	99.56
303.36	93.56
303.59	102.56
303.82	100.56
304.051	100.56
304.281	86.56
304.511	91.56
304.741	106.56
304.971	81.56
305.201	97.56
305.431	97.56
305.661	76.56
305.891	102.56
306.121	87.56
306.352	95.56
306.582	92.56
306.812	71.56
307.042	87.56
307.272	84.56
307.502	80.56
307.731	74.56
307.961	88.56
308.191	87.56
308.421	93.56
308.651	103.56
308.881	81.56
309.111	83.56
309.341	87.56
309.571	98.56
309.8	87.56
310.03	87.56
310.26	98.56
310.49	92.56
310.72	107.56
310.949	87.56
311.179	97.56
311.409	90.56
311.639	100.56
311.868	102.56
312.098	96.56
312.328	82.56
312.557	94.56
312.787	102.56
313.017	93.56
313.246	80.56
313.476	72.56
313.706	97.56
313.935	97.56
314.165	94.56
314.394	88.56
314.624	89.56
314.853	80.56
315.083	85.56
315.312	73.56
315.542	106.56
315.771	94.56
316.001	89.56
316.23	93.56
316.46	86.56
316.689	69.56
316.919	80.56
317.148	101.56
317.377	88.56
317.607	85.56
317.836	98.56
318.065	93.56
318.295	92.56
318.524	85.56
318.753	78.56
318.983	72.56
319.212	112.56
319.441	101.56
319.67	100.56
319.9	99.56
320.129	87.56
320.358	81.56
320.587	77.56
320.816	88.56
321.046	93.56
321.275	95.56
321.504	94.56
321.733	86.56
321.962	106.56
322.191	97.56
322.42	91.56
322.649	92.56
322.878	107.56
323.108	109.56
323.337	118.56
323.566	114.56
323.795	150.56
324.024	176.56
324.253	359.56
324.482	737.56
324.71	1460.56
324.939	1861.56
325.168	695.56
325.397	222.56
325.626	151.56
325.855	130.56
326.084	111.56
326.313	134.56
326.542	151.56
326.77	202.56
326.999	400.56
327.228	803.56
327.457	1405.56
327.686	1121.56
327.914	301.56
328.143	165.56
328.372	136.56
328.6	111.56
328.829	114.56
329.058	126.56
329.287	122.56
329.515	103.56
329.744	89.56
329.972	96.56
330.201	95.56
330.43	107.56
330.658	115.56
330.887	134.56
331.115	118.56
331.344	91.56
331.572	112.56
331.801	102.56
332.03	112.56
332.258	80.56
332.486	87.56
332.715	91.56
332.943	101.56
333.172	98.56
333.4	98.56
333.629	99.56
333.857	99.56
334.085	96.56
334.314	88.56
334.542	91.56
334.771	94.56
334.999	101.56
335.227	80.56
335.455	90.56
335.684	83.56
335.912	88.56
336.14	97.56
336.369	90.56
336.597	91.56
336.825	98.56
337.053	95.56
337.281	94.56
337.51	93.56
337.738	89.56
337.966	94.56
338.194	92.56
338.422	86.56
338.65	94.56
338.878	77.56
339.106	95.56
339.334	86.56
339.562	93.56
339.79	101.56
340.018	89.56
340.246	88.56
340.474	97.56
340.702	101.56
340.93	80.56
341.158	88.56
341.386	89.56
341.614	90.56
341.842	100.56
342.07	72.56
342.298	75.56
342.526	70.56
342.754	89.56
342.981	95.56
343.209	92.56
343.437	96.56
343.665	104.56
343.893	93.56
344.12	91.56
344.348	81.56
344.576	86.56
344.804	94.56
345.031	107.56
345.259	93.56
345.487	87.56
345.714	91.56
345.942	94.56
346.17	83.56
346.397	94.56
346.625	90.56
346.853	89.56
347.08	85.56
347.308	88.56
347.535	93.56
347.763	103.56
347.99	91.56
348.218	85.56
348.445	110.56
348.673	97.56
348.9	90.56
349.128	77.56
349.355	73.56
349.583	78.56
349.81	86.56
350.037	94.56
350.265	92.56
350.492	90.56
350.72	106.56
350.947	101.56
351.174	96.56
351.402	96.56
351.629	108.56
351.856	87.56
352.083	99.56
352.311	95.56
352.538	99.56
352.765	105.56
352.992	94.56
353.22	105.56
353.447	93.56
353.674	104.56
353.901	104.56
354.128	85.56
354.355	98.56
354.583	96.56
354.81	87.56
355.037	93.56
355.264	89.56
355.491	84.56
355.718	105.56
355.945	91.56
356.172	89.56
356.399	91.56
356.626	92.56
356.853	91.56
357.08	99.56
357.307	87.56
357.534	90.56
357.761	90.56
357.988	72.56
358.215	75.56
358.441	88.56
358.668	97.56
358.895	96.56
359.122	96.56
359.349	83.56
359.576	100.56
359.802	95.56
360.029	106.56
360.256	101.56
360.483	96.56
360.709	104.56
360.936	101.56
361.163	84.56
361.39	92.56
361.616	85.56
361.843	93.56
362.07	73.56
362.296	75.56
362.523	81.56
362.749	83.56
362.976	91.56
363.203	96.56
363.429	89.56
363.656	85.56
363.882	78.56
364.109	90.56
364.335	82.56
364.562	98.56
364.788	97.56
365.015	89.56
365.241	89.56
365.468	100.56
365.694	104.56
365.92	81.56
366.147	82.56
366.373	91.56
366.599	75.56
366.826	77.56
367.052	78.56
367.278	79.56
367.505	90.56
367.731	82.56
367.957	69.56
368.184	92.56
368.41	90.56
368.636	114.56
368.862	116.56
369.089	103.56
369.315	104.56
369.541	84.56
369.767	84.56
369.993	88.56
370.219	86.56
370.445	88.56
370.672	79.56
370.898	96.56
371.124	79.56
371.35	95.56
371.576	84.56
371.802	88.56
372.028	79.56
372.254	83.56
372.48	85.56
372.706	93.56
372.932	88.56
373.158	90.56
373.384	84.56
373.61	84.56
373.835	82.56
374.061	79.56
374.287	89.56
374.513	98.56
374.739	84.56
374.965	69.56
375.191	67.56
375.416	90.56
375.642	89.56
375.868	81.56
376.094	98.56
376.319	80.56
376.545	88.56
376.771	90.56
376.997	77.56
377.222	80.56
377.448	89.56
377.674	94.56
377.899	91.56
378.125	97.56
378.35	95.56
378.576	87.56
378.802	77.56
379.027	86.56
379.253	101.56
379.478	76.56
379.704	76.56
379.929	89.56
380.155	81.56
380.38	87.56
380.606	87.56
380.831	80.56
381.057	92.56
381.282	82.56
381.507	91.56
381.733	97.56
381.958	97.56
382.184	111.56
382.409	88.56
382.634	101.56
382.86	76.56
383.085	103.56
383.31	101.56
383.535	102.56
383.761	91.56
383.986	104.56
384.211	94.56
384.436	93.56
384.662	78.56
384.887	89.56
385.112	95.56
385.337	92.56
385.562	85.56
385.787	108.56
386.013	105.56
386.238	105.56
386.463	98.56
386.688	98.56
386.913	86.56
387.138	86.56
387.363	93.56
387.588	89.56
387.813	95.56
388.038	103.56
388.263	83.56
388.488	103.56
388.713	96.56
388.938	94.56
389.163	77.56
389.387	80.56
389.612	96.56
389.837	80.56
390.062	92.56
390.287	83.56
390.512	93.56
390.736	81.56
390.961	86.56
391.186	81.56
391.411	95.56
391.636	80.56
391.86	81.56
392.085	97.56
392.31	78.56
392.534	83.56
392.759	89.56
392.984	91.56
393.208	90.56
393.433	84.56
393.658	81.56
393.882	88.56
394.107	72.56
394.331	104.56
394.556	84.56
394.78	93.56
395.005	82.56
395.229	93.56
395.454	81.56
395.678	87.56
395.903	81.56
396.127	82.56
396.352	70.56
396.576	86.56
396.801	70.56
397.025	82.56
397.249	87.56
397.474	88.56
397.698	84.56
397.922	91.56
398.147	90.56
398.371	84.56
398.595	100.56
398.82	78.56
399.044	77.56
399.268	72.56
399.492	85.56
399.717	74.56
399.941	90.56
400.165	86.56
400.389	80.56
400.613	81.56
400.837	82.56
401.062	80.56
401.286	81.56
401.51	89.56
401.734	87.56
401.958	94.56
402.182	119.56
402.406	157.56
402.63	126.56
402.854	90.56
403.078	81.56
403.302	79.56
403.526	82.56
403.75	80.56
403.974	85.56
404.198	76.56
404.422	83.56
404.645	79.56
404.869	73.56
405.093	91.56
405.317	91.56
405.541	101.56
405.765	91.56
405.988	122.56
406.212	164.56
406.436	219.56
406.66	131.56
406.883	87.56
407.107	93.56
407.331	84.56
407.555	101.56
407.778	99.56
408.002	102.56
408.226	91.56
408.449	101.56
408.673	84.56
408.896	94.56
409.12	93.56
409.344	79.56
409.567	85.56
409.791	89.56
410.014	76.56
410.238	97.56
410.461	79.56
410.685	94.56
410.908	83.56
411.132	107.56
411.355	110.56
411.578	80.56
411.802	88.56
412.025	82.56
412.249	94.56
412.472	90.56
412.695	80.56
412.919	86.56
413.142	88.56
413.365	78.56
413.589	80.56
413.812	96.56
414.035	84.56
414.258	88.56
414.482	79.56
414.705	87.56
414.928	91.56
415.151	87.56
415.374	89.56
415.597	87.56
415.821	90.56
416.044	96.56
416.267	99.56
416.49	80.56
416.713	97.56
416.936	96.56
417.159	99.56
417.382	82.56
417.605	96.56
417.828	90.56
418.051	98.56
418.274	88.56
418.497	79.56
418.72	90.56
418.943	97.56
419.166	88.56
419.389	101.56
419.611	94.56
419.834	81.56
420.057	83.56
420.28	88.56
420.503	63.56
420.726	86.56
420.948	86.56
421.171	97.56
421.394	74.56
421.617	83.56
421.839	83.56
422.062	96.56
422.285	82.56
422.507	79.56
422.73	100.56
422.953	98.56
423.175	85.56
423.398	100.56
423.621	95.56
423.843	91.56
424.066	87.56
424.288	83.56
424.511	96.56
424.733	93.56
424.956	106.56
425.178	92.56
425.401	97.56
425.623	103.56
425.846	90.56
426.068	91.56
426.291	94.56
426.513	78.56
426.735	82.56
426.958	95.56
427.18	113.56
427.402	123.56
427.625	157.56
427.847	106.56
428.069	99.56
428.292	91.56
428.514	91.56
428.736	93.56
428.958	99.56
429.181	92.56
429.403	80.56
429.625	85.56
429.847	86.56
430.069	101.56
430.292	97.56
430.514	84.56
430.736	71.56
430.958	86.56
431.18	81.56
431.402	87.56
431.624	81.56
431.846	79.56
432.068	88.56
432.29	85.56
432.512	81.56
432.734	98.56
432.956	90.56
433.178	106.56
433.4	109.56
433.622	86.56
433.844	86.56
434.066	90.56
434.287	99.56
434.509	87.56
434.731	79.56
434.953	86.56
435.175	70.56
435.397	86.56
435.618	89.56
435.84	107.56
436.062	96.56
436.284	111.56
436.505	98.56
436.727	80.56
436.949	93.56
437.17	90.56
437.392	87.56
437.614	84.56
437.835	112.56
438.057	122.56
438.278	103.56
438.5	100.56
438.721	101.56
438.943	106.56
439.165	86.56
439.386	80.56
439.608	80.56
439.829	98.56
440.05	108.56
440.272	136.56
440.493	95.56
440.715	97.56
440.936	88.56
441.158	77.56
441.379	87.56
441.6	92.56
441.822	85.56
442.043	95.56
442.264	80.56
442.486	95.56
442.707	105.56
442.928	98.56
443.149	131.56
443.371	140.56
443.592	123.56
443.813	103.56
444.034	110.56
444.255	93.56
444.476	90.56
444.698	87.56
444.919	87.56
445.14	127.56
445.361	113.56
445.582	105.56
445.803	124.56
446.024	128.56
446.245	142.56
446.466	110.56
446.687	97.56
446.908	74.56
447.129	84.56
447.35	93.56
447.571	95.56
447.792	82.56
448.013	90.56
448.234	107.56
448.455	105.56
448.675	110.56
448.896	113.56
449.117	95.56
449.338	98.56
449.559	111.56
449.779	141.56
450	103.56
450.221	101.56
450.442	82.56
450.662	90.56
450.883	94.56
451.104	108.56
451.324	103.56
451.545	90.56
451.766	88.56
451.986	84.56
452.207	85.56
452.428	95.56
452.648	94.56
452.869	118.56
453.089	92.56
453.31	98.56
453.53	98.56
453.751	87.56
453.971	102.56
454.192	103.56
454.412	90.56
454.633	86.56
454.853	88.56
455.073	94.56
455.294	70.56
455.514	95.56
455.734	98.56
455.955	88.56
456.175	73.56
456.395	79.56
456.616	81.56
456.836	78.56
457.056	87.56
457.276	82.56
457.497	85.56
457.717	77.56
457.937	88.56
458.157	83.56
458.377	91.56
458.598	118.56
458.818	130.56
459.038	143.56
459.258	135.56
459.478	87.56
459.698	95.56
459.918	95.56
460.138	90.56
460.358	81.56
460.578	93.56
460.798	100.56
461.018	79.56
461.238	82.56
461.458	67.56
461.678	81.56
461.898	79.56
462.118	82.56
462.338	98.56
462.558	94.56
462.777	91.56
462.997	81.56
463.217	91.56
463.437	79.56
463.657	75.56
463.876	87.56
464.096	86.56
464.316	92.56
464.536	89.56
464.755	89.56
464.975	95.56
465.195	155.56
465.414	157.56
465.634	95.56
465.854	83.56
466.073	86.56
466.293	89.56
466.512	79.56
466.732	92.56
466.951	96.56
467.171	77.56
467.391	104.56
467.61	95.56
467.829	90.56
468.049	88.56
468.268	95.56
468.488	91.56
468.707	75.56
468.927	98.56
469.146	81.56
469.365	85.56
469.585	81.56
469.804	98.56
470.023	91.56
470.243	91.56
470.462	102.56
470.681	102.56
470.901	79.56
471.12	90.56
471.339	86.56
471.558	91.56
471.777	83.56
471.997	79.56
472.216	88.56
472.435	83.56
472.654	81.56
472.873	81.56
473.092	70.56
473.311	88.56
473.53	90.56
473.749	78.56
473.968	97.56
474.187	92.56
474.406	94.56
474.625	83.56
474.844	77.56
475.063	89.56
475.282	90.56
475.501	93.56
475.72	96.56
475.939	97.56
476.158	78.56
476.377	77.56
476.596	85.56
476.814	89.56
477.033	102.56
477.252	90.56
477.471	77.56
477.69	96.56
477.908	103.56
478.127	96.56
478.346	85.56
478.564	102.56
478.783	90.56
479.002	97.56
479.22	104.56
479.439	101.56
479.658	111.56
479.876	83.56
480.095	84.56
480.313	102.56
480.532	93.56
480.751	96.56
480.969	80.56
481.188	98.56
481.406	96.56
481.624	76.56
481.843	77.56
482.061	86.56
482.28	97.56
482.498	88.56
482.717	87.56
482.935	90.56
483.153	93.56
483.372	72.56
483.59	88.56
483.808	77.56
484.027	99.56
484.245	103.56
484.463	96.56
484.681	93.56
484.9	86.56
485.118	87.56
485.336	107.56
485.554	103.56
485.772	91.56
485.99	100.56
486.209	104.56
486.427	102.56
486.645	86.56
486.863	122.56
487.081	99.56
487.299	99.56
487.517	85.56
487.735	96.56
487.953	99.56
488.171	87.56
488.389	97.56
488.607	96.56
488.825	86.56
489.043	81.56
489.261	78.56
489.479	86.56
489.696	78.56
489.914	83.56
490.132	106.56
490.35	89.56
490.568	91.56
490.786	86.56
491.003	70.56
491.221	83.56
491.439	77.56
491.657	91.56
491.874	95.56
492.092	88.56
492.31	82.56
492.527	84.56
492.745	93.56
492.963	91.56
493.18	88.56
493.398	92.56
493.615	94.56
493.833	89.56
494.05	96.56
494.268	93.56
494.485	95.56
494.703	77.56
494.92	79.56
495.138	87.56
495.355	86.56
495.573	99.56
495.79	102.56
496.008	96.56
496.225	80.56
496.442	97.56
496.66	80.56
496.877	84.56
497.094	101.56
497.312	88.56
497.529	88.56
497.746	94.56
497.963	90.56
498.181	87.56
498.398	113.56
498.615	109.56
498.832	86.56
499.049	93.56
499.267	83.56
499.484	81.56
499.701	97.56
499.918	68.56
500.135	78.56
500.352	93.56
500.569	91.56
500.786	92.56
501.003	99.56
501.22	90.56
501.437	73.56
501.654	100.56
501.871	96.56
502.088	72.56
502.305	84.56
502.522	82.56
502.739	84.56
502.956	84.56
503.172	88.56
503.389	101.56
503.606	98.56
503.823	107.56
504.04	89.56
504.256	97.56
504.473	85.56
504.69	94.56
504.907	93.56
505.123	80.56
505.34	93.56
505.557	87.56
505.773	78.56
505.99	92.56
506.207	81.56
506.423	85.56
506.64	98.56
506.856	83.56
507.073	95.56
507.289	100.56
507.506	100.56
507.722	115.56
507.939	110.56
508.155	86.56
508.372	81.56
508.588	83.56
508.805	94.56
509.021	98.56
509.238	101.56
509.454	84.56
509.67	100.56
509.887	104.56
510.103	127.56
510.319	218.56
510.536	738.56
510.752	2331.56
510.968	637.56
511.184	168.56
511.401	102.56
511.617	102.56
511.833	84.56
512.049	105.56
512.265	79.56
512.481	83.56
512.698	98.56
512.914	78.56
513.13	89.56
513.346	94.56
513.562	72.56
513.778	102.56
513.994	99.56
514.21	94.56
514.426	116.56
514.642	138.56
514.858	117.56
515.074	173.56
515.29	453.56
515.506	1451.56
515.721	537.56
515.937	147.56
516.153	114.56
516.369	106.56
516.585	107.56
516.801	100.56
