Data from Uncirc_2001_H10_HRD10591_00058.txt Node
Date: Wed Jan 03 10:44:08 EST 2024
User: Yrep
Spectrometer: HR+D1059
Trigger mode: 1
Integration Time (sec): 1.000000E-1
Scans to average: 1
Electric dark correction enabled: true
Nonlinearity correction enabled: false
Boxcar width: 0
XAxis mode: Wavelengths
Number of Pixels in Spectrum: 2048
>>>>>Begin Spectral Data<<<<<
223.165	-17.44
223.4	-17.44
223.635	-17.44
223.869	-30.44
224.104	-11.44
224.338	-9.44
224.573	-17.44
224.808	1.56
225.042	-13.44
225.277	-2.44
225.511	-2.44
225.746	-5.44
225.98	5.56
226.215	13.56
226.449	17.56
226.683	27.56
226.918	23.56
227.152	20.56
227.387	27.56
227.621	35.56
227.856	45.56
228.09	33.56
228.324	53.56
228.559	51.56
228.793	59.56
229.027	63.56
229.262	74.56
229.496	77.56
229.73	73.56
229.964	88.56
230.199	79.56
230.433	71.56
230.667	68.56
230.901	72.56
231.136	66.56
231.37	83.56
231.604	75.56
231.838	74.56
232.072	71.56
232.306	64.56
232.541	88.56
232.775	67.56
233.009	78.56
233.243	78.56
233.477	87.56
233.711	79.56
233.945	64.56
234.179	84.56
234.413	96.56
234.647	72.56
234.881	72.56
235.115	72.56
235.349	81.56
235.583	69.56
235.817	74.56
236.051	58.56
236.285	81.56
236.519	54.56
236.753	75.56
236.987	81.56
237.221	84.56
237.455	83.56
237.689	76.56
237.922	73.56
238.156	74.56
238.39	98.56
238.624	67.56
238.858	83.56
239.091	71.56
239.325	77.56
239.559	79.56
239.793	75.56
240.027	70.56
240.26	77.56
240.494	69.56
240.728	78.56
240.961	69.56
241.195	82.56
241.429	74.56
241.662	65.56
241.896	74.56
242.13	71.56
242.363	62.56
242.597	77.56
242.83	79.56
243.064	87.56
243.298	79.56
243.531	73.56
243.765	77.56
243.998	73.56
244.232	75.56
244.465	78.56
244.699	82.56
244.932	79.56
245.166	67.56
245.399	79.56
245.633	88.56
245.866	74.56
246.099	69.56
246.333	58.56
246.566	75.56
246.8	77.56
247.033	84.56
247.266	72.56
247.5	76.56
247.733	80.56
247.966	57.56
248.2	81.56
248.433	86.56
248.666	70.56
248.899	76.56
249.133	82.56
249.366	96.56
249.599	89.56
249.832	83.56
250.066	81.56
250.299	73.56
250.532	82.56
250.765	77.56
250.998	65.56
251.231	64.56
251.465	77.56
251.698	85.56
251.931	72.56
252.164	83.56
252.397	67.56
252.63	82.56
252.863	78.56
253.096	69.56
253.329	98.56
253.562	79.56
253.795	84.56
254.028	82.56
254.261	82.56
254.494	84.56
254.727	90.56
254.96	78.56
255.193	81.56
255.426	81.56
255.659	73.56
255.892	76.56
256.124	60.56
256.357	95.56
256.59	73.56
256.823	72.56
257.056	64.56
257.289	75.56
257.521	83.56
257.754	74.56
257.987	83.56
258.22	76.56
258.452	80.56
258.685	82.56
258.918	85.56
259.151	63.56
259.383	78.56
259.616	82.56
259.849	77.56
260.081	88.56
260.314	72.56
260.547	65.56
260.779	77.56
261.012	102.56
261.244	75.56
261.477	86.56
261.71	86.56
261.942	107.56
262.175	106.56
262.407	92.56
262.64	89.56
262.872	92.56
263.105	81.56
263.337	73.56
263.57	65.56
263.802	87.56
264.035	80.56
264.267	77.56
264.499	81.56
264.732	83.56
264.964	77.56
265.197	71.56
265.429	92.56
265.661	81.56
265.894	75.56
266.126	74.56
266.358	90.56
266.591	74.56
266.823	79.56
267.055	73.56
267.287	77.56
267.52	82.56
267.752	88.56
267.984	77.56
268.216	87.56
268.448	82.56
268.681	88.56
268.913	55.56
269.145	71.56
269.377	65.56
269.609	86.56
269.841	73.56
270.073	84.56
270.306	82.56
270.538	83.56
270.77	75.56
271.002	72.56
271.234	81.56
271.466	77.56
271.698	78.56
271.93	84.56
272.162	78.56
272.394	77.56
272.626	85.56
272.858	79.56
273.09	70.56
273.322	92.56
273.553	88.56
273.785	89.56
274.017	75.56
274.249	70.56
274.481	86.56
274.713	80.56
274.945	91.56
275.176	91.56
275.408	87.56
275.64	95.56
275.872	73.56
276.104	90.56
276.335	85.56
276.567	101.56
276.799	97.56
277.031	99.56
277.262	90.56
277.494	93.56
277.726	90.56
277.957	88.56
278.189	85.56
278.421	86.56
278.652	87.56
278.884	93.56
279.115	77.56
279.347	75.56
279.579	79.56
279.81	82.56
280.042	94.56
280.273	78.56
280.505	88.56
280.736	63.56
280.968	90.56
281.199	77.56
281.431	88.56
281.662	79.56
281.894	81.56
282.125	97.56
282.356	128.56
282.588	147.56
282.819	104.56
283.051	79.56
283.282	81.56
283.513	82.56
283.745	77.56
283.976	94.56
284.207	94.56
284.439	71.56
284.67	90.56
284.901	91.56
285.132	80.56
285.364	81.56
285.595	73.56
285.826	79.56
286.057	89.56
286.288	80.56
286.52	81.56
286.751	75.56
286.982	81.56
287.213	94.56
287.444	73.56
287.675	84.56
287.906	80.56
288.138	88.56
288.369	89.56
288.6	73.56
288.831	77.56
289.062	72.56
289.293	92.56
289.524	91.56
289.755	86.56
289.986	89.56
290.217	79.56
290.448	89.56
290.679	92.56
290.91	80.56
291.141	81.56
291.371	80.56
291.602	94.56
291.833	86.56
292.064	87.56
292.295	85.56
292.526	80.56
292.757	87.56
292.987	78.56
293.218	88.56
293.449	77.56
293.68	80.56
293.91	83.56
294.141	98.56
294.372	86.56
294.603	75.56
294.833	86.56
295.064	82.56
295.295	80.56
295.525	90.56
295.756	97.56
295.987	116.56
296.217	110.56
296.448	105.56
296.679	93.56
296.909	86.56
297.14	87.56
297.37	90.56
297.601	76.56
297.831	88.56
298.062	78.56
298.292	74.56
298.523	89.56
298.753	93.56
298.984	81.56
299.214	83.56
299.445	92.56
299.675	84.56
299.905	79.56
300.136	85.56
300.366	86.56
300.597	94.56
300.827	77.56
301.057	82.56
301.288	87.56
301.518	102.56
301.748	88.56
301.979	104.56
302.209	93.56
302.439	92.56
302.669	80.56
302.9	106.56
303.13	100.56
303.36	103.56
303.59	82.56
303.82	101.56
304.051	108.56
304.281	85.56
304.511	79.56
304.741	74.56
304.971	79.56
305.201	95.56
305.431	79.56
305.661	88.56
305.891	101.56
306.121	97.56
306.352	94.56
306.582	97.56
306.812	98.56
307.042	101.56
307.272	88.56
307.502	96.56
307.731	95.56
307.961	86.56
308.191	97.56
308.421	79.56
308.651	101.56
308.881	86.56
309.111	92.56
309.341	98.56
309.571	83.56
309.8	89.56
310.03	103.56
310.26	83.56
310.49	98.56
310.72	102.56
310.949	98.56
311.179	96.56
311.409	82.56
311.639	92.56
311.868	86.56
312.098	90.56
312.328	95.56
312.557	93.56
312.787	86.56
313.017	96.56
313.246	90.56
313.476	91.56
313.706	94.56
313.935	100.56
314.165	87.56
314.394	96.56
314.624	92.56
314.853	92.56
315.083	99.56
315.312	89.56
315.542	89.56
315.771	99.56
316.001	98.56
316.23	91.56
316.46	89.56
316.689	89.56
316.919	97.56
317.148	74.56
317.377	85.56
317.607	94.56
317.836	90.56
318.065	105.56
318.295	85.56
318.524	95.56
318.753	82.56
318.983	90.56
319.212	95.56
319.441	95.56
319.67	118.56
319.9	96.56
320.129	86.56
320.358	82.56
320.587	90.56
320.816	97.56
321.046	110.56
321.275	99.56
321.504	91.56
321.733	91.56
321.962	101.56
322.191	96.56
322.42	104.56
322.649	89.56
322.878	87.56
323.108	117.56
323.337	98.56
323.566	136.56
323.795	159.56
324.024	195.56
324.253	334.56
324.482	724.56
324.71	1460.56
324.939	1829.56
325.168	696.56
325.397	213.56
325.626	134.56
325.855	116.56
326.084	121.56
326.313	116.56
326.542	137.56
326.77	205.56
326.999	413.56
327.228	802.56
327.457	1404.56
327.686	1105.56
327.914	303.56
328.143	175.56
328.372	138.56
328.6	115.56
328.829	98.56
329.058	118.56
329.287	110.56
329.515	100.56
329.744	101.56
329.972	87.56
330.201	80.56
330.43	114.56
330.658	110.56
330.887	122.56
331.115	111.56
331.344	98.56
331.572	91.56
331.801	99.56
332.03	85.56
332.258	98.56
332.486	99.56
332.715	79.56
332.943	82.56
333.172	101.56
333.4	86.56
333.629	99.56
333.857	87.56
334.085	104.56
334.314	89.56
334.542	94.56
334.771	88.56
334.999	85.56
335.227	97.56
335.455	95.56
335.684	85.56
335.912	93.56
336.14	98.56
336.369	83.56
336.597	105.56
336.825	101.56
337.053	83.56
337.281	93.56
337.51	91.56
337.738	84.56
337.966	94.56
338.194	94.56
338.422	94.56
338.65	87.56
338.878	90.56
339.106	84.56
339.334	100.56
339.562	81.56
339.79	83.56
340.018	100.56
340.246	92.56
340.474	95.56
340.702	93.56
340.93	87.56
341.158	70.56
341.386	97.56
341.614	88.56
341.842	92.56
342.07	88.56
342.298	87.56
342.526	74.56
342.754	101.56
342.981	84.56
343.209	88.56
343.437	97.56
343.665	96.56
343.893	81.56
344.12	93.56
344.348	84.56
344.576	86.56
344.804	82.56
345.031	93.56
345.259	92.56
345.487	86.56
345.714	72.56
345.942	83.56
346.17	87.56
346.397	91.56
346.625	84.56
346.853	94.56
347.08	101.56
347.308	115.56
347.535	97.56
347.763	109.56
347.99	90.56
348.218	90.56
348.445	95.56
348.673	88.56
348.9	87.56
349.128	94.56
349.355	85.56
349.583	91.56
349.81	80.56
350.037	90.56
350.265	84.56
350.492	89.56
350.72	81.56
350.947	90.56
351.174	104.56
351.402	105.56
351.629	103.56
351.856	98.56
352.083	103.56
352.311	90.56
352.538	105.56
352.765	118.56
352.992	103.56
353.22	115.56
353.447	94.56
353.674	87.56
353.901	109.56
354.128	108.56
354.355	88.56
354.583	91.56
354.81	83.56
355.037	71.56
355.264	106.56
355.491	90.56
355.718	93.56
355.945	107.56
356.172	96.56
356.399	89.56
356.626	101.56
356.853	83.56
357.08	91.56
357.307	95.56
357.534	106.56
357.761	95.56
357.988	97.56
358.215	86.56
358.441	89.56
358.668	93.56
358.895	83.56
359.122	76.56
359.349	89.56
359.576	88.56
359.802	85.56
360.029	99.56
360.256	111.56
360.483	78.56
360.709	88.56
360.936	90.56
361.163	80.56
361.39	98.56
361.616	88.56
361.843	85.56
362.07	100.56
362.296	86.56
362.523	89.56
362.749	100.56
362.976	97.56
363.203	88.56
363.429	78.56
363.656	86.56
363.882	78.56
364.109	93.56
364.335	89.56
364.562	90.56
364.788	89.56
365.015	93.56
365.241	95.56
365.468	101.56
365.694	112.56
365.92	87.56
366.147	96.56
366.373	89.56
366.599	90.56
366.826	94.56
367.052	84.56
367.278	93.56
367.505	82.56
367.731	94.56
367.957	92.56
368.184	82.56
368.41	92.56
368.636	107.56
368.862	112.56
369.089	105.56
369.315	90.56
369.541	101.56
369.767	84.56
369.993	82.56
370.219	72.56
370.445	87.56
370.672	83.56
370.898	89.56
371.124	73.56
371.35	80.56
371.576	77.56
371.802	79.56
372.028	80.56
372.254	85.56
372.48	78.56
372.706	88.56
372.932	80.56
373.158	75.56
373.384	89.56
373.61	93.56
373.835	78.56
374.061	80.56
374.287	83.56
374.513	83.56
374.739	89.56
374.965	92.56
375.191	86.56
375.416	75.56
375.642	80.56
375.868	92.56
376.094	82.56
376.319	78.56
376.545	90.56
376.771	84.56
376.997	90.56
377.222	87.56
377.448	94.56
377.674	79.56
377.899	96.56
378.125	84.56
378.35	93.56
378.576	96.56
378.802	83.56
379.027	80.56
379.253	82.56
379.478	83.56
379.704	86.56
379.929	74.56
380.155	89.56
380.38	83.56
380.606	97.56
380.831	104.56
381.057	97.56
381.282	84.56
381.507	100.56
381.733	80.56
381.958	84.56
382.184	78.56
382.409	102.56
382.634	88.56
382.86	91.56
383.085	98.56
383.31	85.56
383.535	101.56
383.761	112.56
383.986	90.56
384.211	88.56
384.436	88.56
384.662	101.56
384.887	76.56
385.112	87.56
385.337	106.56
385.562	95.56
385.787	89.56
386.013	106.56
386.238	104.56
386.463	110.56
386.688	111.56
386.913	91.56
387.138	107.56
387.363	105.56
387.588	97.56
387.813	96.56
388.038	102.56
388.263	112.56
388.488	107.56
388.713	93.56
388.938	94.56
389.163	90.56
389.387	87.56
389.612	96.56
389.837	87.56
390.062	90.56
390.287	104.56
390.512	84.56
390.736	72.56
390.961	84.56
391.186	90.56
391.411	89.56
391.636	78.56
391.86	70.56
392.085	73.56
392.31	85.56
392.534	67.56
392.759	79.56
392.984	94.56
393.208	83.56
393.433	75.56
393.658	80.56
393.882	69.56
394.107	78.56
394.331	88.56
394.556	79.56
394.78	77.56
395.005	93.56
395.229	102.56
395.454	85.56
395.678	85.56
395.903	100.56
396.127	95.56
396.352	78.56
396.576	82.56
396.801	87.56
397.025	80.56
397.249	93.56
397.474	76.56
397.698	68.56
397.922	95.56
398.147	88.56
398.371	94.56
398.595	85.56
398.82	87.56
399.044	97.56
399.268	85.56
399.492	91.56
399.717	85.56
399.941	88.56
400.165	101.56
400.389	83.56
400.613	83.56
400.837	81.56
401.062	81.56
401.286	83.56
401.51	94.56
401.734	79.56
401.958	83.56
402.182	117.56
402.406	150.56
402.63	105.56
402.854	97.56
403.078	100.56
403.302	88.56
403.526	78.56
403.75	68.56
403.974	78.56
404.198	83.56
404.422	89.56
404.645	86.56
404.869	87.56
405.093	84.56
405.317	98.56
405.541	97.56
405.765	90.56
405.988	112.56
406.212	163.56
406.436	222.56
406.66	141.56
406.883	94.56
407.107	90.56
407.331	87.56
407.555	85.56
407.778	91.56
408.002	83.56
408.226	89.56
408.449	90.56
408.673	87.56
408.896	87.56
409.12	101.56
409.344	77.56
409.567	88.56
409.791	95.56
410.014	106.56
410.238	102.56
410.461	89.56
410.685	96.56
410.908	83.56
411.132	72.56
411.355	87.56
411.578	93.56
411.802	88.56
412.025	82.56
412.249	96.56
412.472	90.56
412.695	95.56
412.919	72.56
413.142	73.56
413.365	81.56
413.589	86.56
413.812	74.56
414.035	83.56
414.258	80.56
414.482	98.56
414.705	72.56
414.928	71.56
415.151	92.56
415.374	85.56
415.597	83.56
415.821	86.56
416.044	95.56
416.267	89.56
416.49	83.56
416.713	84.56
416.936	84.56
417.159	76.56
417.382	94.56
417.605	86.56
417.828	89.56
418.051	87.56
418.274	100.56
418.497	94.56
418.72	89.56
418.943	82.56
419.166	90.56
419.389	85.56
419.611	103.56
419.834	86.56
420.057	81.56
420.28	88.56
420.503	82.56
420.726	80.56
420.948	84.56
421.171	99.56
421.394	94.56
421.617	89.56
421.839	83.56
422.062	94.56
422.285	89.56
422.507	96.56
422.73	93.56
422.953	93.56
423.175	98.56
423.398	86.56
423.621	77.56
423.843	95.56
424.066	86.56
424.288	90.56
424.511	91.56
424.733	90.56
424.956	89.56
425.178	104.56
425.401	77.56
425.623	95.56
425.846	84.56
426.068	103.56
426.291	82.56
426.513	78.56
426.735	78.56
426.958	78.56
427.18	107.56
427.402	123.56
427.625	142.56
427.847	116.56
428.069	104.56
428.292	102.56
428.514	94.56
428.736	91.56
428.958	76.56
429.181	89.56
429.403	79.56
429.625	79.56
429.847	82.56
430.069	96.56
430.292	76.56
430.514	68.56
430.736	96.56
430.958	91.56
431.18	85.56
431.402	83.56
431.624	76.56
431.846	85.56
432.068	95.56
432.29	82.56
432.512	88.56
432.734	75.56
432.956	90.56
433.178	93.56
433.4	96.56
433.622	88.56
433.844	83.56
434.066	77.56
434.287	102.56
434.509	88.56
434.731	95.56
434.953	95.56
435.175	84.56
435.397	81.56
435.618	89.56
435.84	96.56
436.062	101.56
436.284	109.56
436.505	83.56
436.727	96.56
436.949	91.56
437.17	106.56
437.392	74.56
437.614	89.56
437.835	102.56
438.057	116.56
438.278	101.56
438.5	92.56
438.721	114.56
438.943	97.56
439.165	101.56
439.386	99.56
439.608	93.56
439.829	104.56
440.05	111.56
440.272	124.56
440.493	95.56
440.715	86.56
440.936	91.56
441.158	93.56
441.379	77.56
441.6	94.56
441.822	101.56
442.043	90.56
442.264	109.56
442.486	90.56
442.707	85.56
442.928	95.56
443.149	120.56
443.371	120.56
443.592	109.56
443.813	95.56
444.034	89.56
444.255	89.56
444.476	78.56
444.698	83.56
444.919	90.56
445.14	131.56
445.361	111.56
445.582	105.56
445.803	116.56
446.024	114.56
446.245	137.56
446.466	108.56
446.687	87.56
446.908	90.56
447.129	85.56
447.35	85.56
447.571	87.56
447.792	87.56
448.013	90.56
448.234	99.56
448.455	90.56
448.675	110.56
448.896	105.56
449.117	99.56
449.338	95.56
449.559	106.56
449.779	107.56
450	89.56
450.221	95.56
450.442	77.56
450.662	83.56
450.883	85.56
451.104	99.56
451.324	102.56
451.545	73.56
451.766	87.56
451.986	82.56
452.207	91.56
452.428	89.56
452.648	98.56
452.869	122.56
453.089	103.56
453.31	104.56
453.53	84.56
453.751	91.56
453.971	95.56
454.192	85.56
454.412	93.56
454.633	81.56
454.853	83.56
455.073	93.56
455.294	85.56
455.514	77.56
455.734	87.56
455.955	81.56
456.175	79.56
456.395	80.56
456.616	101.56
456.836	85.56
457.056	86.56
457.276	72.56
457.497	64.56
457.717	77.56
457.937	65.56
458.157	98.56
458.377	87.56
458.598	104.56
458.818	126.56
459.038	138.56
459.258	107.56
459.478	75.56
459.698	72.56
459.918	91.56
460.138	79.56
460.358	91.56
460.578	78.56
460.798	99.56
461.018	78.56
461.238	96.56
461.458	82.56
461.678	76.56
461.898	94.56
462.118	85.56
462.338	96.56
462.558	81.56
462.777	75.56
462.997	85.56
463.217	86.56
463.437	89.56
463.657	92.56
463.876	95.56
464.096	86.56
464.316	89.56
464.536	96.56
464.755	88.56
464.975	95.56
465.195	149.56
465.414	151.56
465.634	102.56
465.854	89.56
466.073	85.56
466.293	79.56
466.512	81.56
466.732	84.56
466.951	91.56
467.171	104.56
467.391	90.56
467.61	110.56
467.829	97.56
468.049	89.56
468.268	74.56
468.488	79.56
468.707	81.56
468.927	76.56
469.146	89.56
469.365	86.56
469.585	92.56
469.804	96.56
470.023	96.56
470.243	87.56
470.462	100.56
470.681	98.56
470.901	61.56
471.12	88.56
471.339	81.56
471.558	70.56
471.777	93.56
471.997	92.56
472.216	78.56
472.435	78.56
472.654	94.56
472.873	72.56
473.092	77.56
473.311	72.56
473.53	69.56
473.749	85.56
473.968	80.56
474.187	83.56
474.406	90.56
474.625	88.56
474.844	91.56
475.063	99.56
475.282	87.56
475.501	93.56
475.72	106.56
475.939	84.56
476.158	72.56
476.377	72.56
476.596	87.56
476.814	90.56
477.033	89.56
477.252	90.56
477.471	92.56
477.69	88.56
477.908	91.56
478.127	85.56
478.346	91.56
478.564	83.56
478.783	99.56
479.002	88.56
479.22	99.56
479.439	91.56
479.658	104.56
479.876	104.56
480.095	84.56
480.313	79.56
480.532	82.56
480.751	94.56
480.969	105.56
481.188	84.56
481.406	99.56
481.624	89.56
481.843	79.56
482.061	84.56
482.28	85.56
482.498	74.56
482.717	77.56
482.935	80.56
483.153	84.56
483.372	86.56
483.59	86.56
483.808	80.56
484.027	90.56
484.245	88.56
484.463	84.56
484.681	96.56
484.9	81.56
485.118	86.56
485.336	97.56
485.554	80.56
485.772	96.56
485.99	102.56
486.209	98.56
486.427	104.56
486.645	95.56
486.863	109.56
487.081	95.56
487.299	84.56
487.517	99.56
487.735	81.56
487.953	93.56
488.171	96.56
488.389	96.56
488.607	112.56
488.825	96.56
489.043	86.56
489.261	76.56
489.479	81.56
489.696	85.56
489.914	85.56
490.132	85.56
490.35	93.56
490.568	82.56
490.786	83.56
491.003	94.56
491.221	89.56
491.439	87.56
491.657	101.56
491.874	79.56
492.092	85.56
492.31	87.56
492.527	78.56
492.745	95.56
492.963	88.56
493.18	89.56
493.398	90.56
493.615	91.56
493.833	94.56
494.05	93.56
494.268	95.56
494.485	84.56
494.703	98.56
494.92	80.56
495.138	79.56
495.355	67.56
495.573	85.56
495.79	91.56
496.008	90.56
496.225	85.56
496.442	102.56
496.66	91.56
496.877	95.56
497.094	87.56
497.312	83.56
497.529	80.56
497.746	74.56
497.963	102.56
498.181	73.56
498.398	90.56
498.615	112.56
498.832	84.56
499.049	83.56
499.267	82.56
499.484	84.56
499.701	91.56
499.918	89.56
500.135	92.56
500.352	78.56
500.569	83.56
500.786	90.56
501.003	89.56
501.22	81.56
501.437	88.56
501.654	81.56
501.871	105.56
502.088	77.56
502.305	84.56
502.522	85.56
502.739	79.56
502.956	95.56
503.172	93.56
503.389	99.56
503.606	115.56
503.823	96.56
504.04	97.56
504.256	72.56
504.473	86.56
504.69	87.56
504.907	88.56
505.123	92.56
505.34	85.56
505.557	85.56
505.773	93.56
505.99	87.56
506.207	93.56
506.423	95.56
506.64	81.56
506.856	86.56
507.073	71.56
507.289	88.56
507.506	89.56
507.722	109.56
507.939	102.56
508.155	99.56
508.372	85.56
508.588	83.56
508.805	99.56
509.021	90.56
509.238	80.56
509.454	100.56
509.67	88.56
509.887	111.56
510.103	129.56
510.319	210.56
510.536	715.56
510.752	2212.56
510.968	619.56
511.184	150.56
511.401	110.56
511.617	102.56
511.833	81.56
512.049	91.56
512.265	77.56
512.481	98.56
512.698	97.56
512.914	90.56
513.13	96.56
513.346	80.56
513.562	79.56
513.778	103.56
513.994	107.56
514.21	87.56
514.426	116.56
514.642	136.56
514.858	130.56
515.074	161.56
515.29	419.56
515.506	1339.56
515.721	513.56
515.937	157.56
516.153	116.56
516.369	90.56
516.585	97.56
516.801	91.56
517.016	93.56
