Data from Uncirc_2001_H10_HRD10591_00001.txt Node
Date: Wed Jan 03 10:43:57 EST 2024
User: Yrep
Spectrometer: HR+D1059
Trigger mode: 1
Integration Time (sec): 1.000000E-1
Scans to average: 1
Electric dark correction enabled: true
Nonlinearity correction enabled: false
Boxcar width: 0
XAxis mode: Wavelengths
Number of Pixels in Spectrum: 2048
>>>>>Begin Spectral Data<<<<<
223.165	-22.81
223.4	-22.81
223.635	-22.81
223.869	-14.81
224.104	-27.81
224.338	-3.81
224.573	-11.81
224.808	-17.81
225.042	-17.81
225.277	-2.81
225.511	10.19
225.746	4.19
225.98	20.19
226.215	7.19
226.449	12.19
226.683	10.19
226.918	24.19
227.152	31.19
227.387	27.19
227.621	32.19
227.856	40.19
228.09	43.19
228.324	53.19
228.559	58.19
228.793	55.19
229.027	66.19
229.262	57.19
229.496	70.19
229.73	72.19
229.964	56.19
230.199	62.19
230.433	74.19
230.667	94.19
230.901	66.19
231.136	69.19
231.37	73.19
231.604	79.19
231.838	91.19
232.072	80.19
232.306	72.19
232.541	83.19
232.775	76.19
233.009	82.19
233.243	80.19
233.477	80.19
233.711	71.19
233.945	78.19
234.179	93.19
234.413	84.19
234.647	70.19
234.881	82.19
235.115	65.19
235.349	79.19
235.583	90.19
235.817	85.19
236.051	78.19
236.285	78.19
236.519	82.19
236.753	71.19
236.987	84.19
237.221	83.19
237.455	84.19
237.689	81.19
237.922	72.19
238.156	89.19
238.39	79.19
238.624	82.19
238.858	75.19
239.091	75.19
239.325	67.19
239.559	83.19
239.793	83.19
240.027	68.19
240.26	70.19
240.494	85.19
240.728	74.19
240.961	79.19
241.195	72.19
241.429	67.19
241.662	68.19
241.896	88.19
242.13	67.19
242.363	86.19
242.597	81.19
242.83	61.19
243.064	67.19
243.298	70.19
243.531	75.19
243.765	82.19
243.998	82.19
244.232	90.19
244.465	77.19
244.699	76.19
244.932	60.19
245.166	78.19
245.399	70.19
245.633	79.19
245.866	76.19
246.099	83.19
246.333	73.19
246.566	76.19
246.8	82.19
247.033	78.19
247.266	74.19
247.5	81.19
247.733	90.19
247.966	70.19
248.2	92.19
248.433	88.19
248.666	84.19
248.899	81.19
249.133	84.19
249.366	89.19
249.599	75.19
249.832	81.19
250.066	65.19
250.299	71.19
250.532	76.19
250.765	71.19
250.998	85.19
251.231	80.19
251.465	80.19
251.698	73.19
251.931	82.19
252.164	86.19
252.397	71.19
252.63	106.19
252.863	72.19
253.096	90.19
253.329	91.19
253.562	69.19
253.795	74.19
254.028	90.19
254.261	71.19
254.494	83.19
254.727	71.19
254.96	69.19
255.193	79.19
255.426	95.19
255.659	84.19
255.892	80.19
256.124	75.19
256.357	92.19
256.59	88.19
256.823	81.19
257.056	76.19
257.289	83.19
257.521	83.19
257.754	74.19
257.987	86.19
258.22	85.19
258.452	79.19
258.685	76.19
258.918	73.19
259.151	79.19
259.383	72.19
259.616	94.19
259.849	86.19
260.081	99.19
260.314	92.19
260.547	83.19
260.779	92.19
261.012	91.19
261.244	81.19
261.477	74.19
261.71	90.19
261.942	99.19
262.175	88.19
262.407	72.19
262.64	70.19
262.872	68.19
263.105	77.19
263.337	81.19
263.57	74.19
263.802	89.19
264.035	81.19
264.267	74.19
264.499	80.19
264.732	87.19
264.964	84.19
265.197	95.19
265.429	89.19
265.661	80.19
265.894	98.19
266.126	88.19
266.358	73.19
266.591	83.19
266.823	82.19
267.055	89.19
267.287	72.19
267.52	79.19
267.752	90.19
267.984	80.19
268.216	97.19
268.448	82.19
268.681	71.19
268.913	89.19
269.145	77.19
269.377	79.19
269.609	78.19
269.841	79.19
270.073	77.19
270.306	96.19
270.538	76.19
270.77	91.19
271.002	80.19
271.234	72.19
271.466	87.19
271.698	81.19
271.93	94.19
272.162	81.19
272.394	80.19
272.626	79.19
272.858	85.19
273.09	88.19
273.322	89.19
273.553	76.19
273.785	88.19
274.017	75.19
274.249	73.19
274.481	86.19
274.713	81.19
274.945	75.19
275.176	74.19
275.408	74.19
275.64	78.19
275.872	98.19
276.104	95.19
276.335	87.19
276.567	98.19
276.799	96.19
277.031	80.19
277.262	78.19
277.494	86.19
277.726	89.19
277.957	83.19
278.189	88.19
278.421	80.19
278.652	83.19
278.884	82.19
279.115	82.19
279.347	66.19
279.579	75.19
279.81	90.19
280.042	78.19
280.273	90.19
280.505	83.19
280.736	96.19
280.968	90.19
281.199	83.19
281.431	77.19
281.662	84.19
281.894	92.19
282.125	83.19
282.356	93.19
282.588	111.19
282.819	107.19
283.051	90.19
283.282	69.19
283.513	79.19
283.745	83.19
283.976	95.19
284.207	79.19
284.439	77.19
284.67	84.19
284.901	89.19
285.132	77.19
285.364	71.19
285.595	81.19
285.826	86.19
286.057	100.19
286.288	80.19
286.52	96.19
286.751	92.19
286.982	86.19
287.213	84.19
287.444	71.19
287.675	79.19
287.906	96.19
288.138	84.19
288.369	87.19
288.6	89.19
288.831	84.19
289.062	84.19
289.293	72.19
289.524	82.19
289.755	83.19
289.986	85.19
290.217	88.19
290.448	87.19
290.679	79.19
290.91	81.19
291.141	83.19
291.371	99.19
291.602	79.19
291.833	99.19
292.064	87.19
292.295	86.19
292.526	97.19
292.757	84.19
292.987	83.19
293.218	79.19
293.449	77.19
293.68	81.19
293.91	76.19
294.141	99.19
294.372	88.19
294.603	81.19
294.833	85.19
295.064	88.19
295.295	92.19
295.525	99.19
295.756	104.19
295.987	97.19
296.217	106.19
296.448	92.19
296.679	99.19
296.909	96.19
297.14	94.19
297.37	71.19
297.601	87.19
297.831	87.19
298.062	104.19
298.292	92.19
298.523	77.19
298.753	96.19
298.984	89.19
299.214	85.19
299.445	85.19
299.675	92.19
299.905	94.19
300.136	86.19
300.366	85.19
300.597	89.19
300.827	98.19
301.057	87.19
301.288	94.19
301.518	91.19
301.748	94.19
301.979	104.19
302.209	81.19
302.439	87.19
302.669	89.19
302.9	92.19
303.13	76.19
303.36	99.19
303.59	87.19
303.82	85.19
304.051	89.19
304.281	87.19
304.511	93.19
304.741	85.19
304.971	96.19
305.201	86.19
305.431	79.19
305.661	94.19
305.891	96.19
306.121	87.19
306.352	87.19
306.582	107.19
306.812	83.19
307.042	83.19
307.272	91.19
307.502	96.19
307.731	74.19
307.961	79.19
308.191	91.19
308.421	84.19
308.651	85.19
308.881	94.19
309.111	91.19
309.341	81.19
309.571	101.19
309.8	80.19
310.03	103.19
310.26	95.19
310.49	118.19
310.72	85.19
310.949	91.19
311.179	91.19
311.409	96.19
311.639	98.19
311.868	88.19
312.098	93.19
312.328	98.19
312.557	101.19
312.787	94.19
313.017	95.19
313.246	100.19
313.476	89.19
313.706	90.19
313.935	96.19
314.165	96.19
314.394	78.19
314.624	94.19
314.853	97.19
315.083	78.19
315.312	98.19
315.542	82.19
315.771	76.19
316.001	89.19
316.23	85.19
316.46	78.19
316.689	71.19
316.919	81.19
317.148	82.19
317.377	94.19
317.607	81.19
317.836	85.19
318.065	84.19
318.295	93.19
318.524	90.19
318.753	76.19
318.983	91.19
319.212	100.19
319.441	95.19
319.67	103.19
319.9	82.19
320.129	89.19
320.358	83.19
320.587	92.19
320.816	85.19
321.046	95.19
321.275	88.19
321.504	94.19
321.733	101.19
321.962	77.19
322.191	91.19
322.42	96.19
322.649	90.19
322.878	95.19
323.108	103.19
323.337	106.19
323.566	109.19
323.795	119.19
324.024	165.19
324.253	255.19
324.482	520.19
324.71	1013.19
324.939	1314.19
325.168	524.19
325.397	174.19
325.626	106.19
325.855	104.19
326.084	101.19
326.313	122.19
326.542	139.19
326.77	175.19
326.999	324.19
327.228	610.19
327.457	1033.19
327.686	804.19
327.914	260.19
328.143	139.19
328.372	126.19
328.6	113.19
328.829	111.19
329.058	107.19
329.287	115.19
329.515	99.19
329.744	93.19
329.972	91.19
330.201	82.19
330.43	90.19
330.658	100.19
330.887	112.19
331.115	98.19
331.344	102.19
331.572	85.19
331.801	102.19
332.03	108.19
332.258	87.19
332.486	68.19
332.715	72.19
332.943	82.19
333.172	89.19
333.4	104.19
333.629	104.19
333.857	98.19
334.085	96.19
334.314	101.19
334.542	87.19
334.771	82.19
334.999	90.19
335.227	92.19
335.455	101.19
335.684	81.19
335.912	81.19
336.14	100.19
336.369	101.19
336.597	91.19
336.825	102.19
337.053	91.19
337.281	97.19
337.51	90.19
337.738	84.19
337.966	90.19
338.194	78.19
338.422	91.19
338.65	81.19
338.878	81.19
339.106	77.19
339.334	87.19
339.562	76.19
339.79	85.19
340.018	74.19
340.246	104.19
340.474	83.19
340.702	77.19
340.93	97.19
341.158	80.19
341.386	86.19
341.614	89.19
341.842	92.19
342.07	87.19
342.298	94.19
342.526	79.19
342.754	96.19
342.981	94.19
343.209	87.19
343.437	92.19
343.665	81.19
343.893	86.19
344.12	88.19
344.348	92.19
344.576	89.19
344.804	82.19
345.031	89.19
345.259	100.19
345.487	82.19
345.714	92.19
345.942	100.19
346.17	88.19
346.397	99.19
346.625	91.19
346.853	90.19
347.08	84.19
347.308	80.19
347.535	98.19
347.763	87.19
347.99	95.19
348.218	94.19
348.445	99.19
348.673	87.19
348.9	102.19
349.128	88.19
349.355	83.19
349.583	99.19
349.81	87.19
350.037	95.19
350.265	105.19
350.492	83.19
350.72	110.19
350.947	96.19
351.174	96.19
351.402	99.19
351.629	102.19
351.856	89.19
352.083	91.19
352.311	108.19
352.538	113.19
352.765	116.19
352.992	102.19
353.22	108.19
353.447	98.19
353.674	94.19
353.901	107.19
354.128	93.19
354.355	104.19
354.583	98.19
354.81	102.19
355.037	96.19
355.264	88.19
355.491	102.19
355.718	96.19
355.945	111.19
356.172	95.19
356.399	100.19
356.626	102.19
356.853	94.19
357.08	87.19
357.307	94.19
357.534	92.19
357.761	106.19
357.988	106.19
358.215	95.19
358.441	94.19
358.668	109.19
358.895	86.19
359.122	99.19
359.349	84.19
359.576	92.19
359.802	87.19
360.029	100.19
360.256	110.19
360.483	87.19
360.709	95.19
360.936	91.19
361.163	89.19
361.39	90.19
361.616	79.19
361.843	95.19
362.07	88.19
362.296	87.19
362.523	89.19
362.749	90.19
362.976	90.19
363.203	102.19
363.429	102.19
363.656	98.19
363.882	99.19
364.109	99.19
364.335	97.19
364.562	96.19
364.788	88.19
365.015	86.19
365.241	92.19
365.468	99.19
365.694	101.19
365.92	97.19
366.147	92.19
366.373	93.19
366.599	86.19
366.826	81.19
367.052	96.19
367.278	99.19
367.505	91.19
367.731	100.19
367.957	101.19
368.184	99.19
368.41	100.19
368.636	91.19
368.862	112.19
369.089	90.19
369.315	96.19
369.541	111.19
369.767	102.19
369.993	101.19
370.219	91.19
370.445	75.19
370.672	75.19
370.898	98.19
371.124	90.19
371.35	67.19
371.576	91.19
371.802	89.19
372.028	93.19
372.254	85.19
372.48	76.19
372.706	87.19
372.932	84.19
373.158	87.19
373.384	92.19
373.61	96.19
373.835	94.19
374.061	96.19
374.287	77.19
374.513	91.19
374.739	106.19
374.965	92.19
375.191	95.19
375.416	94.19
375.642	99.19
375.868	97.19
376.094	102.19
376.319	91.19
376.545	102.19
376.771	87.19
376.997	83.19
377.222	101.19
377.448	87.19
377.674	104.19
377.899	89.19
378.125	82.19
378.35	92.19
378.576	89.19
378.802	84.19
379.027	91.19
379.253	94.19
379.478	96.19
379.704	105.19
379.929	99.19
380.155	114.19
380.38	104.19
380.606	79.19
380.831	108.19
381.057	108.19
381.282	110.19
381.507	101.19
381.733	107.19
381.958	101.19
382.184	96.19
382.409	113.19
382.634	116.19
382.86	122.19
383.085	124.19
383.31	121.19
383.535	120.19
383.761	102.19
383.986	115.19
384.211	110.19
384.436	134.19
384.662	133.19
384.887	143.19
385.112	127.19
385.337	129.19
385.562	135.19
385.787	139.19
386.013	122.19
386.238	152.19
386.463	124.19
386.688	132.19
386.913	134.19
387.138	132.19
387.363	130.19
387.588	116.19
387.813	122.19
388.038	126.19
388.263	158.19
388.488	138.19
388.713	88.19
388.938	111.19
389.163	102.19
389.387	100.19
389.612	102.19
389.837	79.19
390.062	93.19
390.287	95.19
390.512	99.19
390.736	96.19
390.961	103.19
391.186	93.19
391.411	89.19
391.636	91.19
391.86	97.19
392.085	99.19
392.31	91.19
392.534	89.19
392.759	103.19
392.984	97.19
393.208	96.19
393.433	99.19
393.658	82.19
393.882	80.19
394.107	83.19
394.331	87.19
394.556	85.19
394.78	98.19
395.005	87.19
395.229	88.19
395.454	80.19
395.678	105.19
395.903	76.19
396.127	88.19
396.352	80.19
396.576	81.19
396.801	95.19
397.025	111.19
397.249	102.19
397.474	86.19
397.698	71.19
397.922	63.19
398.147	92.19
398.371	97.19
398.595	83.19
398.82	93.19
399.044	96.19
399.268	96.19
399.492	101.19
399.717	83.19
399.941	82.19
400.165	83.19
400.389	89.19
400.613	103.19
400.837	102.19
401.062	93.19
401.286	89.19
401.51	101.19
401.734	75.19
401.958	86.19
402.182	114.19
402.406	125.19
402.63	102.19
402.854	83.19
403.078	75.19
403.302	87.19
403.526	78.19
403.75	80.19
403.974	87.19
404.198	90.19
404.422	96.19
404.645	79.19
404.869	91.19
405.093	92.19
405.317	86.19
405.541	103.19
405.765	94.19
405.988	103.19
406.212	142.19
406.436	163.19
406.66	121.19
406.883	110.19
407.107	84.19
407.331	95.19
407.555	94.19
407.778	96.19
408.002	90.19
408.226	81.19
408.449	92.19
408.673	96.19
408.896	95.19
409.12	106.19
409.344	100.19
409.567	87.19
409.791	86.19
410.014	91.19
410.238	96.19
410.461	101.19
410.685	100.19
410.908	105.19
411.132	99.19
411.355	93.19
411.578	92.19
411.802	104.19
412.025	100.19
412.249	98.19
412.472	92.19
412.695	94.19
412.919	74.19
413.142	85.19
413.365	91.19
413.589	91.19
413.812	102.19
414.035	87.19
414.258	92.19
414.482	102.19
414.705	98.19
414.928	108.19
415.151	106.19
415.374	97.19
415.597	93.19
415.821	86.19
416.044	96.19
416.267	88.19
416.49	90.19
416.713	90.19
416.936	102.19
417.159	84.19
417.382	87.19
417.605	88.19
417.828	89.19
418.051	88.19
418.274	87.19
418.497	96.19
418.72	95.19
418.943	84.19
419.166	78.19
419.389	78.19
419.611	88.19
419.834	81.19
420.057	92.19
420.28	92.19
420.503	95.19
420.726	96.19
420.948	89.19
421.171	91.19
421.394	98.19
421.617	98.19
421.839	92.19
422.062	96.19
422.285	78.19
422.507	103.19
422.73	106.19
422.953	88.19
423.175	84.19
423.398	92.19
423.621	87.19
423.843	93.19
424.066	81.19
424.288	93.19
424.511	106.19
424.733	87.19
424.956	96.19
425.178	91.19
425.401	97.19
425.623	105.19
425.846	88.19
426.068	85.19
426.291	95.19
426.513	105.19
426.735	97.19
426.958	79.19
427.18	101.19
427.402	126.19
427.625	130.19
427.847	112.19
428.069	98.19
428.292	95.19
428.514	96.19
428.736	78.19
428.958	65.19
429.181	66.19
429.403	90.19
429.625	92.19
429.847	101.19
430.069	93.19
430.292	91.19
430.514	106.19
430.736	77.19
430.958	85.19
431.18	98.19
431.402	78.19
431.624	85.19
431.846	75.19
432.068	79.19
432.29	85.19
432.512	75.19
432.734	84.19
432.956	94.19
433.178	102.19
433.4	99.19
433.622	110.19
433.844	76.19
434.066	94.19
434.287	84.19
434.509	83.19
434.731	81.19
434.953	91.19
435.175	81.19
435.397	95.19
435.618	82.19
435.84	82.19
436.062	108.19
436.284	91.19
436.505	83.19
436.727	99.19
436.949	88.19
437.17	84.19
437.392	97.19
437.614	83.19
437.835	103.19
438.057	100.19
438.278	99.19
438.5	83.19
438.721	121.19
438.943	99.19
439.165	98.19
439.386	86.19
439.608	89.19
439.829	99.19
440.05	113.19
440.272	115.19
440.493	102.19
440.715	102.19
440.936	86.19
441.158	79.19
441.379	92.19
441.6	98.19
441.822	92.19
442.043	96.19
442.264	82.19
442.486	84.19
442.707	89.19
442.928	89.19
443.149	118.19
443.371	107.19
443.592	97.19
443.813	95.19
444.034	96.19
444.255	86.19
444.476	94.19
444.698	83.19
444.919	90.19
445.14	120.19
445.361	107.19
445.582	92.19
445.803	119.19
446.024	130.19
446.245	118.19
446.466	106.19
446.687	77.19
446.908	94.19
447.129	83.19
447.35	90.19
447.571	91.19
447.792	99.19
448.013	97.19
448.234	89.19
448.455	90.19
448.675	101.19
448.896	104.19
449.117	106.19
449.338	81.19
449.559	106.19
449.779	115.19
450	88.19
450.221	90.19
450.442	85.19
450.662	79.19
450.883	114.19
451.104	86.19
451.324	83.19
451.545	98.19
451.766	102.19
451.986	80.19
452.207	81.19
452.428	94.19
452.648	97.19
452.869	94.19
453.089	88.19
453.31	102.19
453.53	85.19
453.751	85.19
453.971	98.19
454.192	99.19
454.412	99.19
454.633	95.19
454.853	86.19
455.073	101.19
455.294	80.19
455.514	87.19
455.734	88.19
455.955	73.19
456.175	62.19
456.395	80.19
456.616	83.19
456.836	104.19
457.056	93.19
457.276	79.19
457.497	86.19
457.717	96.19
457.937	77.19
458.157	84.19
458.377	81.19
458.598	96.19
458.818	103.19
459.038	116.19
459.258	92.19
459.478	83.19
459.698	90.19
459.918	84.19
460.138	80.19
460.358	80.19
460.578	90.19
460.798	78.19
461.018	100.19
461.238	84.19
461.458	71.19
461.678	83.19
461.898	85.19
462.118	94.19
462.338	83.19
462.558	84.19
462.777	85.19
462.997	89.19
463.217	79.19
463.437	85.19
463.657	80.19
463.876	85.19
464.096	85.19
464.316	91.19
464.536	87.19
464.755	96.19
464.975	100.19
465.195	133.19
465.414	117.19
465.634	81.19
465.854	87.19
466.073	90.19
466.293	95.19
466.512	84.19
466.732	86.19
466.951	98.19
467.171	95.19
467.391	93.19
467.61	92.19
467.829	97.19
468.049	90.19
468.268	99.19
468.488	82.19
468.707	86.19
468.927	90.19
469.146	92.19
469.365	85.19
469.585	79.19
469.804	105.19
470.023	90.19
470.243	99.19
470.462	98.19
470.681	91.19
470.901	110.19
471.12	99.19
471.339	79.19
471.558	86.19
471.777	86.19
471.997	80.19
472.216	88.19
472.435	91.19
472.654	81.19
472.873	94.19
473.092	85.19
473.311	91.19
473.53	78.19
473.749	94.19
473.968	93.19
474.187	102.19
474.406	84.19
474.625	96.19
474.844	79.19
475.063	78.19
475.282	87.19
475.501	84.19
475.72	95.19
475.939	69.19
476.158	76.19
476.377	102.19
476.596	88.19
476.814	90.19
477.033	81.19
477.252	93.19
477.471	79.19
477.69	95.19
477.908	85.19
478.127	90.19
478.346	90.19
478.564	97.19
478.783	81.19
479.002	89.19
479.22	101.19
479.439	100.19
479.658	100.19
479.876	89.19
480.095	102.19
480.313	83.19
480.532	91.19
480.751	80.19
480.969	84.19
481.188	100.19
481.406	90.19
481.624	86.19
481.843	96.19
482.061	87.19
482.28	88.19
482.498	95.19
482.717	82.19
482.935	87.19
483.153	94.19
483.372	71.19
483.59	92.19
483.808	69.19
484.027	91.19
484.245	102.19
484.463	98.19
484.681	81.19
484.9	84.19
485.118	105.19
485.336	107.19
485.554	100.19
485.772	98.19
485.99	104.19
486.209	111.19
486.427	89.19
486.645	106.19
486.863	108.19
487.081	105.19
487.299	100.19
487.517	91.19
487.735	96.19
487.953	95.19
488.171	90.19
488.389	89.19
488.607	88.19
488.825	89.19
489.043	99.19
489.261	90.19
489.479	86.19
489.696	86.19
489.914	96.19
490.132	84.19
490.35	82.19
490.568	102.19
490.786	74.19
491.003	94.19
491.221	95.19
491.439	86.19
491.657	91.19
491.874	73.19
492.092	84.19
492.31	102.19
492.527	96.19
492.745	91.19
492.963	90.19
493.18	99.19
493.398	89.19
493.615	98.19
493.833	98.19
494.05	92.19
494.268	95.19
494.485	83.19
494.703	87.19
494.92	92.19
495.138	95.19
495.355	82.19
495.573	100.19
495.79	94.19
496.008	103.19
496.225	98.19
496.442	89.19
496.66	102.19
496.877	86.19
497.094	115.19
497.312	92.19
497.529	80.19
497.746	90.19
497.963	102.19
498.181	99.19
498.398	103.19
498.615	113.19
498.832	98.19
499.049	92.19
499.267	89.19
499.484	100.19
499.701	82.19
499.918	82.19
500.135	88.19
500.352	85.19
500.569	92.19
500.786	83.19
501.003	92.19
501.22	91.19
501.437	86.19
501.654	94.19
501.871	99.19
502.088	83.19
502.305	100.19
502.522	85.19
502.739	86.19
502.956	97.19
503.172	85.19
503.389	92.19
503.606	96.19
503.823	98.19
504.04	93.19
504.256	80.19
504.473	90.19
504.69	82.19
504.907	97.19
505.123	96.19
505.34	95.19
505.557	88.19
505.773	86.19
505.99	82.19
506.207	92.19
506.423	75.19
506.64	76.19
506.856	74.19
507.073	84.19
507.289	105.19
507.506	108.19
507.722	103.19
507.939	101.19
508.155	95.19
508.372	90.19
508.588	83.19
508.805	84.19
509.021	90.19
509.238	106.19
509.454	98.19
509.67	99.19
509.887	111.19
510.103	116.19
510.319	162.19
510.536	538.19
510.752	1490.19
510.968	440.19
511.184	135.19
511.401	99.19
511.617	90.19
511.833	101.19
512.049	80.19
512.265	72.19
512.481	84.19
512.698	83.19
512.914	101.19
513.13	89.19
513.346	96.19
513.562	69.19
513.778	101.19
513.994	91.19
514.21	99.19
514.426	101.19
514.642	96.19
514.858	112.19
515.074	142.19
515.29	331.19
515.506	960.19
515.721	375.19
515.937	128.19
516.153	102.19
516.369	103.19
