Data from Uncirc_2001_H10_HRD10591_00070.txt Node
Date: Wed Jan 03 10:44:10 EST 2024
User: Yrep
Spectrometer: HR+D1059
Trigger mode: 1
Integration Time (sec): 1.000000E-1
Scans to average: 1
Electric dark correction enabled: true
Nonlinearity correction enabled: false
Boxcar width: 0
XAxis mode: Wavelengths
Number of Pixels in Spectrum: 2048
>>>>>Begin Spectral Data<<<<<
223.165	-8.12
223.4	-8.12
223.635	-8.12
223.869	-25.12
224.104	-23.12
224.338	-19.12
224.573	-9.12
224.808	-15.12
225.042	-7.12
225.277	-2.12
225.511	0.88
225.746	-1.12
225.98	-0.12
226.215	16.88
226.449	20.88
226.683	22.88
226.918	25.88
227.152	22.88
227.387	29.88
227.621	22.88
227.856	43.88
228.09	43.88
228.324	41.88
228.559	63.88
228.793	60.88
229.027	63.88
229.262	69.88
229.496	80.88
229.73	81.88
229.964	76.88
230.199	72.88
230.433	87.88
230.667	75.88
230.901	83.88
231.136	82.88
231.37	78.88
231.604	81.88
231.838	81.88
232.072	81.88
232.306	82.88
232.541	81.88
232.775	92.88
233.009	74.88
233.243	76.88
233.477	85.88
233.711	76.88
233.945	80.88
234.179	76.88
234.413	74.88
234.647	57.88
234.881	67.88
235.115	54.88
235.349	79.88
235.583	77.88
235.817	79.88
236.051	67.88
236.285	71.88
236.519	77.88
236.753	67.88
236.987	86.88
237.221	87.88
237.455	68.88
237.689	77.88
237.922	82.88
238.156	74.88
238.39	82.88
238.624	75.88
238.858	67.88
239.091	85.88
239.325	83.88
239.559	82.88
239.793	91.88
240.027	69.88
240.26	76.88
240.494	65.88
240.728	83.88
240.961	76.88
241.195	79.88
241.429	69.88
241.662	77.88
241.896	79.88
242.13	76.88
242.363	82.88
242.597	82.88
242.83	74.88
243.064	78.88
243.298	83.88
243.531	90.88
243.765	80.88
243.998	88.88
244.232	93.88
244.465	92.88
244.699	77.88
244.932	73.88
245.166	83.88
245.399	81.88
245.633	85.88
245.866	77.88
246.099	85.88
246.333	84.88
246.566	73.88
246.8	76.88
247.033	84.88
247.266	66.88
247.5	79.88
247.733	83.88
247.966	102.88
248.2	91.88
248.433	76.88
248.666	58.88
248.899	79.88
249.133	64.88
249.366	96.88
249.599	85.88
249.832	79.88
250.066	79.88
250.299	83.88
250.532	78.88
250.765	76.88
250.998	89.88
251.231	68.88
251.465	94.88
251.698	77.88
251.931	86.88
252.164	75.88
252.397	67.88
252.63	80.88
252.863	82.88
253.096	78.88
253.329	75.88
253.562	74.88
253.795	72.88
254.028	70.88
254.261	94.88
254.494	73.88
254.727	90.88
254.96	82.88
255.193	81.88
255.426	91.88
255.659	79.88
255.892	89.88
256.124	74.88
256.357	75.88
256.59	88.88
256.823	81.88
257.056	79.88
257.289	77.88
257.521	92.88
257.754	93.88
257.987	83.88
258.22	92.88
258.452	72.88
258.685	89.88
258.918	99.88
259.151	83.88
259.383	85.88
259.616	80.88
259.849	84.88
260.081	72.88
260.314	68.88
260.547	91.88
260.779	76.88
261.012	85.88
261.244	87.88
261.477	92.88
261.71	93.88
261.942	115.88
262.175	108.88
262.407	87.88
262.64	79.88
262.872	79.88
263.105	78.88
263.337	68.88
263.57	88.88
263.802	81.88
264.035	87.88
264.267	89.88
264.499	78.88
264.732	85.88
264.964	95.88
265.197	79.88
265.429	71.88
265.661	94.88
265.894	75.88
266.126	82.88
266.358	94.88
266.591	101.88
266.823	88.88
267.055	83.88
267.287	90.88
267.52	85.88
267.752	81.88
267.984	85.88
268.216	76.88
268.448	88.88
268.681	95.88
268.913	94.88
269.145	57.88
269.377	85.88
269.609	86.88
269.841	79.88
270.073	93.88
270.306	88.88
270.538	102.88
270.77	77.88
271.002	82.88
271.234	98.88
271.466	84.88
271.698	88.88
271.93	88.88
272.162	74.88
272.394	90.88
272.626	85.88
272.858	86.88
273.09	84.88
273.322	84.88
273.553	71.88
273.785	83.88
274.017	85.88
274.249	84.88
274.481	82.88
274.713	82.88
274.945	84.88
275.176	84.88
275.408	97.88
275.64	75.88
275.872	84.88
276.104	99.88
276.335	85.88
276.567	96.88
276.799	104.88
277.031	104.88
277.262	92.88
277.494	76.88
277.726	86.88
277.957	93.88
278.189	70.88
278.421	76.88
278.652	71.88
278.884	92.88
279.115	76.88
279.347	86.88
279.579	96.88
279.81	83.88
280.042	86.88
280.273	91.88
280.505	92.88
280.736	95.88
280.968	85.88
281.199	89.88
281.431	78.88
281.662	87.88
281.894	81.88
282.125	99.88
282.356	111.88
282.588	136.88
282.819	124.88
283.051	97.88
283.282	87.88
283.513	90.88
283.745	94.88
283.976	99.88
284.207	77.88
284.439	78.88
284.67	91.88
284.901	92.88
285.132	93.88
285.364	75.88
285.595	79.88
285.826	81.88
286.057	89.88
286.288	89.88
286.52	104.88
286.751	77.88
286.982	91.88
287.213	93.88
287.444	88.88
287.675	84.88
287.906	84.88
288.138	92.88
288.369	98.88
288.6	86.88
288.831	95.88
289.062	89.88
289.293	85.88
289.524	99.88
289.755	78.88
289.986	82.88
290.217	88.88
290.448	91.88
290.679	81.88
290.91	90.88
291.141	75.88
291.371	85.88
291.602	87.88
291.833	82.88
292.064	97.88
292.295	97.88
292.526	83.88
292.757	92.88
292.987	85.88
293.218	81.88
293.449	78.88
293.68	84.88
293.91	96.88
294.141	82.88
294.372	67.88
294.603	79.88
294.833	100.88
295.064	85.88
295.295	85.88
295.525	91.88
295.756	115.88
295.987	124.88
296.217	110.88
296.448	116.88
296.679	99.88
296.909	81.88
297.14	88.88
297.37	86.88
297.601	91.88
297.831	85.88
298.062	82.88
298.292	101.88
298.523	97.88
298.753	99.88
298.984	90.88
299.214	84.88
299.445	92.88
299.675	100.88
299.905	99.88
300.136	80.88
300.366	83.88
300.597	91.88
300.827	97.88
301.057	83.88
301.288	97.88
301.518	85.88
301.748	84.88
301.979	84.88
302.209	89.88
302.439	79.88
302.669	86.88
302.9	90.88
303.13	101.88
303.36	82.88
303.59	99.88
303.82	112.88
304.051	101.88
304.281	93.88
304.511	98.88
304.741	103.88
304.971	93.88
305.201	89.88
305.431	74.88
305.661	79.88
305.891	88.88
306.121	99.88
306.352	102.88
306.582	105.88
306.812	86.88
307.042	86.88
307.272	85.88
307.502	100.88
307.731	84.88
307.961	82.88
308.191	90.88
308.421	89.88
308.651	88.88
308.881	86.88
309.111	80.88
309.341	88.88
309.571	85.88
309.8	107.88
310.03	93.88
310.26	101.88
310.49	92.88
310.72	91.88
310.949	94.88
311.179	103.88
311.409	100.88
311.639	95.88
311.868	93.88
312.098	103.88
312.328	91.88
312.557	95.88
312.787	110.88
313.017	90.88
313.246	94.88
313.476	91.88
313.706	97.88
313.935	102.88
314.165	99.88
314.394	113.88
314.624	103.88
314.853	109.88
315.083	93.88
315.312	82.88
315.542	79.88
315.771	79.88
316.001	82.88
316.23	85.88
316.46	101.88
316.689	91.88
316.919	104.88
317.148	99.88
317.377	95.88
317.607	100.88
317.836	90.88
318.065	92.88
318.295	97.88
318.524	87.88
318.753	86.88
318.983	88.88
319.212	103.88
319.441	90.88
319.67	102.88
319.9	84.88
320.129	93.88
320.358	95.88
320.587	99.88
320.816	92.88
321.046	87.88
321.275	95.88
321.504	86.88
321.733	101.88
321.962	103.88
322.191	102.88
322.42	93.88
322.649	106.88
322.878	117.88
323.108	111.88
323.337	122.88
323.566	128.88
323.795	149.88
324.024	188.88
324.253	381.88
324.482	767.88
324.71	1529.88
324.939	1930.88
325.168	724.88
325.397	224.88
325.626	148.88
325.855	122.88
326.084	128.88
326.313	125.88
326.542	151.88
326.77	212.88
326.999	406.88
327.228	850.88
327.457	1507.88
327.686	1186.88
327.914	332.88
328.143	202.88
328.372	156.88
328.6	131.88
328.829	105.88
329.058	113.88
329.287	123.88
329.515	115.88
329.744	111.88
329.972	115.88
330.201	113.88
330.43	111.88
330.658	119.88
330.887	144.88
331.115	137.88
331.344	103.88
331.572	104.88
331.801	118.88
332.03	127.88
332.258	92.88
332.486	92.88
332.715	83.88
332.943	78.88
333.172	102.88
333.4	86.88
333.629	95.88
333.857	97.88
334.085	104.88
334.314	98.88
334.542	88.88
334.771	99.88
334.999	92.88
335.227	95.88
335.455	90.88
335.684	95.88
335.912	115.88
336.14	112.88
336.369	92.88
336.597	103.88
336.825	102.88
337.053	84.88
337.281	101.88
337.51	86.88
337.738	83.88
337.966	92.88
338.194	99.88
338.422	90.88
338.65	75.88
338.878	73.88
339.106	90.88
339.334	101.88
339.562	83.88
339.79	95.88
340.018	92.88
340.246	90.88
340.474	95.88
340.702	88.88
340.93	82.88
341.158	81.88
341.386	100.88
341.614	97.88
341.842	91.88
342.07	98.88
342.298	101.88
342.526	103.88
342.754	90.88
342.981	84.88
343.209	77.88
343.437	95.88
343.665	89.88
343.893	92.88
344.12	99.88
344.348	96.88
344.576	87.88
344.804	90.88
345.031	97.88
345.259	88.88
345.487	99.88
345.714	86.88
345.942	87.88
346.17	90.88
346.397	93.88
346.625	102.88
346.853	93.88
347.08	93.88
347.308	86.88
347.535	83.88
347.763	96.88
347.99	100.88
348.218	106.88
348.445	110.88
348.673	103.88
348.9	102.88
349.128	91.88
349.355	89.88
349.583	102.88
349.81	88.88
350.037	75.88
350.265	84.88
350.492	90.88
350.72	96.88
350.947	87.88
351.174	103.88
351.402	101.88
351.629	95.88
351.856	96.88
352.083	103.88
352.311	116.88
352.538	98.88
352.765	103.88
352.992	122.88
353.22	104.88
353.447	97.88
353.674	95.88
353.901	100.88
354.128	95.88
354.355	105.88
354.583	92.88
354.81	92.88
355.037	90.88
355.264	114.88
355.491	99.88
355.718	91.88
355.945	99.88
356.172	91.88
356.399	95.88
356.626	90.88
356.853	92.88
357.08	88.88
357.307	84.88
357.534	99.88
357.761	99.88
357.988	99.88
358.215	115.88
358.441	82.88
358.668	81.88
358.895	87.88
359.122	92.88
359.349	95.88
359.576	90.88
359.802	110.88
360.029	101.88
360.256	97.88
360.483	81.88
360.709	97.88
360.936	78.88
361.163	71.88
361.39	91.88
361.616	105.88
361.843	72.88
362.07	97.88
362.296	93.88
362.523	97.88
362.749	87.88
362.976	89.88
363.203	96.88
363.429	90.88
363.656	95.88
363.882	99.88
364.109	93.88
364.335	91.88
364.562	96.88
364.788	85.88
365.015	104.88
365.241	86.88
365.468	90.88
365.694	100.88
365.92	105.88
366.147	103.88
366.373	96.88
366.599	79.88
366.826	86.88
367.052	79.88
367.278	80.88
367.505	79.88
367.731	89.88
367.957	98.88
368.184	99.88
368.41	96.88
368.636	110.88
368.862	111.88
369.089	102.88
369.315	87.88
369.541	82.88
369.767	98.88
369.993	95.88
370.219	96.88
370.445	82.88
370.672	91.88
370.898	88.88
371.124	82.88
371.35	94.88
371.576	104.88
371.802	94.88
372.028	92.88
372.254	88.88
372.48	82.88
372.706	90.88
372.932	87.88
373.158	81.88
373.384	82.88
373.61	104.88
373.835	85.88
374.061	93.88
374.287	96.88
374.513	90.88
374.739	88.88
374.965	90.88
375.191	80.88
375.416	84.88
375.642	95.88
375.868	92.88
376.094	87.88
376.319	85.88
376.545	89.88
376.771	87.88
376.997	84.88
377.222	94.88
377.448	89.88
377.674	88.88
377.899	94.88
378.125	100.88
378.35	91.88
378.576	95.88
378.802	92.88
379.027	77.88
379.253	75.88
379.478	100.88
379.704	91.88
379.929	86.88
380.155	75.88
380.38	92.88
380.606	102.88
380.831	91.88
381.057	89.88
381.282	91.88
381.507	93.88
381.733	91.88
381.958	90.88
382.184	97.88
382.409	101.88
382.634	96.88
382.86	92.88
383.085	98.88
383.31	99.88
383.535	96.88
383.761	98.88
383.986	99.88
384.211	93.88
384.436	90.88
384.662	89.88
384.887	96.88
385.112	96.88
385.337	96.88
385.562	100.88
385.787	113.88
386.013	109.88
386.238	109.88
386.463	93.88
386.688	106.88
386.913	86.88
387.138	103.88
387.363	105.88
387.588	85.88
387.813	85.88
388.038	99.88
388.263	109.88
388.488	112.88
388.713	93.88
388.938	93.88
389.163	83.88
389.387	101.88
389.612	95.88
389.837	94.88
390.062	99.88
390.287	100.88
390.512	84.88
390.736	93.88
390.961	86.88
391.186	82.88
391.411	95.88
391.636	84.88
391.86	77.88
392.085	90.88
392.31	84.88
392.534	90.88
392.759	82.88
392.984	93.88
393.208	84.88
393.433	92.88
393.658	99.88
393.882	99.88
394.107	76.88
394.331	74.88
394.556	93.88
394.78	95.88
395.005	82.88
395.229	84.88
395.454	88.88
395.678	75.88
395.903	77.88
396.127	89.88
396.352	82.88
396.576	87.88
396.801	80.88
397.025	84.88
397.249	81.88
397.474	88.88
397.698	87.88
397.922	90.88
398.147	98.88
398.371	95.88
398.595	76.88
398.82	91.88
399.044	93.88
399.268	90.88
399.492	95.88
399.717	94.88
399.941	100.88
400.165	89.88
400.389	97.88
400.613	101.88
400.837	91.88
401.062	89.88
401.286	90.88
401.51	88.88
401.734	102.88
401.958	105.88
402.182	117.88
402.406	153.88
402.63	119.88
402.854	87.88
403.078	89.88
403.302	111.88
403.526	85.88
403.75	90.88
403.974	88.88
404.198	83.88
404.422	84.88
404.645	86.88
404.869	90.88
405.093	101.88
405.317	93.88
405.541	102.88
405.765	100.88
405.988	108.88
406.212	175.88
406.436	235.88
406.66	153.88
406.883	97.88
407.107	88.88
407.331	96.88
407.555	92.88
407.778	92.88
408.002	89.88
408.226	80.88
408.449	99.88
408.673	80.88
408.896	82.88
409.12	98.88
409.344	96.88
409.567	83.88
409.791	82.88
410.014	87.88
410.238	93.88
410.461	86.88
410.685	88.88
410.908	94.88
411.132	113.88
411.355	111.88
411.578	82.88
411.802	84.88
412.025	83.88
412.249	86.88
412.472	85.88
412.695	109.88
412.919	99.88
413.142	92.88
413.365	72.88
413.589	87.88
413.812	76.88
414.035	87.88
414.258	99.88
414.482	90.88
414.705	83.88
414.928	98.88
415.151	101.88
415.374	98.88
415.597	89.88
415.821	95.88
416.044	93.88
416.267	72.88
416.49	73.88
416.713	91.88
416.936	87.88
417.159	96.88
417.382	89.88
417.605	71.88
417.828	83.88
418.051	84.88
418.274	93.88
418.497	84.88
418.72	100.88
418.943	85.88
419.166	94.88
419.389	95.88
419.611	91.88
419.834	78.88
420.057	89.88
420.28	83.88
420.503	87.88
420.726	89.88
420.948	84.88
421.171	85.88
421.394	91.88
421.617	100.88
421.839	89.88
422.062	89.88
422.285	92.88
422.507	84.88
422.73	91.88
422.953	91.88
423.175	98.88
423.398	88.88
423.621	90.88
423.843	74.88
424.066	81.88
424.288	81.88
424.511	98.88
424.733	104.88
424.956	106.88
425.178	90.88
425.401	98.88
425.623	105.88
425.846	86.88
426.068	83.88
426.291	87.88
426.513	93.88
426.735	91.88
426.958	106.88
427.18	100.88
427.402	132.88
427.625	155.88
427.847	123.88
428.069	95.88
428.292	73.88
428.514	81.88
428.736	86.88
428.958	85.88
429.181	70.88
429.403	86.88
429.625	79.88
429.847	88.88
430.069	96.88
430.292	107.88
430.514	89.88
430.736	83.88
430.958	92.88
431.18	73.88
431.402	82.88
431.624	76.88
431.846	94.88
432.068	90.88
432.29	87.88
432.512	92.88
432.734	83.88
432.956	81.88
433.178	108.88
433.4	91.88
433.622	89.88
433.844	84.88
434.066	84.88
434.287	79.88
434.509	86.88
434.731	86.88
434.953	103.88
435.175	85.88
435.397	95.88
435.618	110.88
435.84	97.88
436.062	120.88
436.284	98.88
436.505	99.88
436.727	95.88
436.949	91.88
437.17	85.88
437.392	88.88
437.614	92.88
437.835	96.88
438.057	113.88
438.278	99.88
438.5	91.88
438.721	109.88
438.943	89.88
439.165	80.88
439.386	92.88
439.608	99.88
439.829	94.88
440.05	143.88
440.272	139.88
440.493	99.88
440.715	74.88
440.936	93.88
441.158	81.88
441.379	91.88
441.6	84.88
441.822	92.88
442.043	105.88
442.264	101.88
442.486	96.88
442.707	100.88
442.928	115.88
443.149	123.88
443.371	136.88
443.592	97.88
443.813	105.88
444.034	112.88
444.255	93.88
444.476	83.88
444.698	69.88
444.919	89.88
445.14	108.88
445.361	115.88
445.582	116.88
445.803	133.88
446.024	128.88
446.245	129.88
446.466	109.88
446.687	73.88
446.908	92.88
447.129	98.88
447.35	89.88
447.571	90.88
447.792	97.88
448.013	92.88
448.234	107.88
448.455	104.88
448.675	112.88
448.896	106.88
449.117	114.88
449.338	105.88
449.559	131.88
449.779	126.88
450	102.88
450.221	82.88
450.442	90.88
450.662	88.88
450.883	103.88
451.104	113.88
451.324	93.88
451.545	80.88
451.766	92.88
451.986	90.88
452.207	97.88
452.428	96.88
452.648	102.88
452.869	107.88
453.089	108.88
453.31	110.88
453.53	81.88
453.751	104.88
453.971	84.88
454.192	114.88
454.412	102.88
454.633	90.88
454.853	88.88
455.073	80.88
455.294	87.88
455.514	93.88
455.734	95.88
455.955	82.88
456.175	84.88
456.395	81.88
456.616	85.88
456.836	88.88
457.056	82.88
457.276	82.88
457.497	84.88
457.717	81.88
457.937	78.88
458.157	87.88
458.377	91.88
458.598	106.88
458.818	153.88
459.038	162.88
459.258	113.88
459.478	90.88
459.698	89.88
459.918	92.88
460.138	74.88
460.358	76.88
460.578	89.88
460.798	92.88
461.018	87.88
461.238	84.88
461.458	87.88
461.678	92.88
461.898	85.88
462.118	81.88
462.338	78.88
462.558	82.88
462.777	76.88
462.997	91.88
463.217	76.88
463.437	86.88
463.657	91.88
463.876	79.88
464.096	96.88
464.316	95.88
464.536	92.88
464.755	99.88
464.975	95.88
465.195	156.88
465.414	161.88
465.634	95.88
465.854	100.88
466.073	78.88
466.293	87.88
466.512	97.88
466.732	99.88
466.951	87.88
467.171	97.88
467.391	101.88
467.61	93.88
467.829	92.88
468.049	89.88
468.268	81.88
468.488	91.88
468.707	83.88
468.927	76.88
469.146	70.88
469.365	77.88
469.585	79.88
469.804	93.88
470.023	98.88
470.243	85.88
470.462	99.88
470.681	93.88
470.901	83.88
471.12	96.88
471.339	96.88
471.558	83.88
471.777	89.88
471.997	74.88
472.216	87.88
472.435	88.88
472.654	85.88
472.873	85.88
473.092	91.88
473.311	100.88
473.53	72.88
473.749	94.88
473.968	92.88
474.187	118.88
474.406	97.88
474.625	98.88
474.844	92.88
475.063	77.88
475.282	89.88
475.501	80.88
475.72	93.88
475.939	92.88
476.158	84.88
476.377	85.88
476.596	85.88
476.814	92.88
477.033	90.88
477.252	96.88
477.471	93.88
477.69	89.88
477.908	89.88
478.127	82.88
478.346	79.88
478.564	90.88
478.783	88.88
479.002	103.88
479.22	96.88
479.439	104.88
479.658	101.88
479.876	99.88
480.095	86.88
480.313	90.88
480.532	93.88
480.751	85.88
480.969	84.88
481.188	106.88
481.406	104.88
481.624	92.88
481.843	87.88
482.061	86.88
482.28	87.88
482.498	81.88
482.717	84.88
482.935	87.88
483.153	99.88
483.372	76.88
483.59	88.88
483.808	83.88
484.027	96.88
484.245	78.88
484.463	93.88
484.681	91.88
484.9	84.88
485.118	96.88
485.336	87.88
485.554	98.88
485.772	91.88
485.99	90.88
486.209	99.88
486.427	101.88
486.645	97.88
486.863	100.88
487.081	101.88
487.299	104.88
487.517	99.88
487.735	96.88
487.953	98.88
488.171	104.88
488.389	89.88
488.607	101.88
488.825	105.88
489.043	90.88
489.261	101.88
489.479	88.88
489.696	83.88
489.914	85.88
490.132	85.88
490.35	89.88
490.568	97.88
490.786	87.88
491.003	85.88
491.221	84.88
491.439	104.88
491.657	83.88
491.874	83.88
492.092	88.88
492.31	83.88
492.527	87.88
492.745	90.88
492.963	89.88
493.18	93.88
493.398	97.88
493.615	107.88
493.833	99.88
494.05	84.88
494.268	88.88
494.485	91.88
494.703	78.88
494.92	88.88
495.138	99.88
495.355	97.88
495.573	87.88
495.79	84.88
496.008	99.88
496.225	79.88
496.442	103.88
496.66	101.88
496.877	83.88
497.094	89.88
497.312	81.88
497.529	87.88
497.746	85.88
497.963	90.88
498.181	95.88
498.398	95.88
498.615	103.88
498.832	117.88
499.049	71.88
499.267	85.88
499.484	93.88
499.701	89.88
499.918	90.88
500.135	87.88
500.352	91.88
500.569	89.88
500.786	99.88
501.003	95.88
501.22	91.88
501.437	84.88
501.654	100.88
501.871	106.88
502.088	102.88
502.305	95.88
502.522	86.88
502.739	97.88
502.956	100.88
503.172	97.88
503.389	100.88
503.606	106.88
503.823	102.88
504.04	82.88
504.256	81.88
504.473	93.88
504.69	92.88
504.907	89.88
505.123	92.88
505.34	93.88
505.557	97.88
505.773	91.88
505.99	108.88
506.207	96.88
506.423	82.88
506.64	90.88
506.856	99.88
507.073	83.88
507.289	92.88
507.506	83.88
507.722	109.88
507.939	110.88
508.155	106.88
508.372	99.88
508.588	112.88
508.805	88.88
509.021	93.88
509.238	98.88
509.454	83.88
509.67	93.88
509.887	101.88
510.103	139.88
510.319	200.88
510.536	778.88
510.752	2436.88
510.968	682.88
511.184	155.88
511.401	118.88
511.617	103.88
511.833	98.88
512.049	78.88
512.265	87.88
512.481	91.88
512.698	91.88
512.914	87.88
513.13	101.88
513.346	111.88
513.562	97.88
513.778	89.88
513.994	109.88
514.21	102.88
514.426	119.88
514.642	138.88
514.858	114.88
515.074	178.88
515.29	485.88
515.506	1503.88
515.721	538.88
515.937	154.88
516.153	107.88
