Data from Uncirc_2001_H10_HRD10591_00043.txt Node
Date: Wed Jan 03 10:44:05 EST 2024
User: Yrep
Spectrometer: HR+D1059
Trigger mode: 1
Integration Time (sec): 1.000000E-1
Scans to average: 1
Electric dark correction enabled: true
Nonlinearity correction enabled: false
Boxcar width: 0
XAxis mode: Wavelengths
Number of Pixels in Spectrum: 2048
>>>>>Begin Spectral Data<<<<<
223.165	-17.69
223.4	-17.69
223.635	-17.69
223.869	-33.69
224.104	-21.69
224.338	-7.69
224.573	-12.69
224.808	-16.69
225.042	-12.69
225.277	-0.69
225.511	-4.69
225.746	0.31
225.98	5.31
226.215	7.31
226.449	27.31
226.683	17.31
226.918	32.31
227.152	38.31
227.387	36.31
227.621	34.31
227.856	44.31
228.09	44.31
228.324	42.31
228.559	54.31
228.793	62.31
229.027	60.31
229.262	70.31
229.496	68.31
229.73	78.31
229.964	86.31
230.199	76.31
230.433	70.31
230.667	75.31
230.901	63.31
231.136	73.31
231.37	82.31
231.604	71.31
231.838	72.31
232.072	74.31
232.306	85.31
232.541	79.31
232.775	83.31
233.009	67.31
233.243	68.31
233.477	63.31
233.711	70.31
233.945	69.31
234.179	85.31
234.413	84.31
234.647	70.31
234.881	66.31
235.115	69.31
235.349	74.31
235.583	74.31
235.817	76.31
236.051	85.31
236.285	64.31
236.519	77.31
236.753	71.31
236.987	72.31
237.221	88.31
237.455	75.31
237.689	67.31
237.922	62.31
238.156	74.31
238.39	71.31
238.624	82.31
238.858	74.31
239.091	74.31
239.325	89.31
239.559	81.31
239.793	84.31
240.027	75.31
240.26	62.31
240.494	80.31
240.728	83.31
240.961	69.31
241.195	81.31
241.429	74.31
241.662	67.31
241.896	63.31
242.13	72.31
242.363	62.31
242.597	67.31
242.83	91.31
243.064	78.31
243.298	78.31
243.531	87.31
243.765	79.31
243.998	76.31
244.232	73.31
244.465	83.31
244.699	66.31
244.932	78.31
245.166	72.31
245.399	84.31
245.633	77.31
245.866	84.31
246.099	80.31
246.333	66.31
246.566	74.31
246.8	66.31
247.033	70.31
247.266	83.31
247.5	87.31
247.733	75.31
247.966	63.31
248.2	83.31
248.433	62.31
248.666	81.31
248.899	70.31
249.133	74.31
249.366	88.31
249.599	95.31
249.832	83.31
250.066	80.31
250.299	63.31
250.532	70.31
250.765	80.31
250.998	70.31
251.231	78.31
251.465	62.31
251.698	70.31
251.931	59.31
252.164	79.31
252.397	72.31
252.63	77.31
252.863	74.31
253.096	69.31
253.329	74.31
253.562	83.31
253.795	73.31
254.028	77.31
254.261	66.31
254.494	66.31
254.727	69.31
254.96	85.31
255.193	77.31
255.426	79.31
255.659	79.31
255.892	79.31
256.124	87.31
256.357	75.31
256.59	65.31
256.823	69.31
257.056	75.31
257.289	79.31
257.521	71.31
257.754	72.31
257.987	74.31
258.22	84.31
258.452	77.31
258.685	83.31
258.918	82.31
259.151	76.31
259.383	77.31
259.616	72.31
259.849	81.31
260.081	83.31
260.314	74.31
260.547	62.31
260.779	62.31
261.012	74.31
261.244	70.31
261.477	72.31
261.71	75.31
261.942	88.31
262.175	100.31
262.407	66.31
262.64	80.31
262.872	74.31
263.105	66.31
263.337	79.31
263.57	86.31
263.802	88.31
264.035	86.31
264.267	77.31
264.499	77.31
264.732	79.31
264.964	76.31
265.197	75.31
265.429	66.31
265.661	67.31
265.894	80.31
266.126	67.31
266.358	77.31
266.591	60.31
266.823	81.31
267.055	91.31
267.287	79.31
267.52	65.31
267.752	87.31
267.984	92.31
268.216	68.31
268.448	78.31
268.681	84.31
268.913	77.31
269.145	66.31
269.377	68.31
269.609	75.31
269.841	84.31
270.073	77.31
270.306	83.31
270.538	78.31
270.77	86.31
271.002	88.31
271.234	79.31
271.466	71.31
271.698	87.31
271.93	87.31
272.162	91.31
272.394	87.31
272.626	79.31
272.858	91.31
273.09	59.31
273.322	70.31
273.553	79.31
273.785	74.31
274.017	77.31
274.249	80.31
274.481	88.31
274.713	72.31
274.945	81.31
275.176	73.31
275.408	95.31
275.64	94.31
275.872	73.31
276.104	95.31
276.335	82.31
276.567	97.31
276.799	93.31
277.031	81.31
277.262	93.31
277.494	95.31
277.726	87.31
277.957	80.31
278.189	84.31
278.421	78.31
278.652	78.31
278.884	70.31
279.115	72.31
279.347	92.31
279.579	84.31
279.81	94.31
280.042	90.31
280.273	94.31
280.505	100.31
280.736	80.31
280.968	70.31
281.199	89.31
281.431	99.31
281.662	84.31
281.894	63.31
282.125	98.31
282.356	108.31
282.588	136.31
282.819	88.31
283.051	71.31
283.282	94.31
283.513	87.31
283.745	71.31
283.976	82.31
284.207	86.31
284.439	80.31
284.67	79.31
284.901	72.31
285.132	64.31
285.364	80.31
285.595	90.31
285.826	78.31
286.057	94.31
286.288	81.31
286.52	92.31
286.751	86.31
286.982	73.31
287.213	66.31
287.444	68.31
287.675	81.31
287.906	89.31
288.138	97.31
288.369	84.31
288.6	82.31
288.831	78.31
289.062	91.31
289.293	72.31
289.524	77.31
289.755	90.31
289.986	87.31
290.217	84.31
290.448	80.31
290.679	80.31
290.91	62.31
291.141	84.31
291.371	75.31
291.602	91.31
291.833	103.31
292.064	78.31
292.295	87.31
292.526	80.31
292.757	91.31
292.987	87.31
293.218	80.31
293.449	94.31
293.68	87.31
293.91	79.31
294.141	93.31
294.372	87.31
294.603	74.31
294.833	74.31
295.064	83.31
295.295	92.31
295.525	96.31
295.756	88.31
295.987	115.31
296.217	127.31
296.448	107.31
296.679	90.31
296.909	81.31
297.14	72.31
297.37	94.31
297.601	81.31
297.831	79.31
298.062	85.31
298.292	84.31
298.523	79.31
298.753	71.31
298.984	66.31
299.214	83.31
299.445	82.31
299.675	74.31
299.905	77.31
300.136	88.31
300.366	84.31
300.597	88.31
300.827	90.31
301.057	96.31
301.288	86.31
301.518	82.31
301.748	76.31
301.979	101.31
302.209	82.31
302.439	89.31
302.669	83.31
302.9	97.31
303.13	86.31
303.36	78.31
303.59	91.31
303.82	105.31
304.051	85.31
304.281	78.31
304.511	82.31
304.741	82.31
304.971	66.31
305.201	91.31
305.431	76.31
305.661	78.31
305.891	94.31
306.121	94.31
306.352	82.31
306.582	98.31
306.812	96.31
307.042	90.31
307.272	86.31
307.502	88.31
307.731	85.31
307.961	81.31
308.191	93.31
308.421	90.31
308.651	100.31
308.881	74.31
309.111	88.31
309.341	90.31
309.571	93.31
309.8	78.31
310.03	79.31
310.26	92.31
310.49	87.31
310.72	108.31
310.949	94.31
311.179	93.31
311.409	78.31
311.639	87.31
311.868	96.31
312.098	81.31
312.328	90.31
312.557	96.31
312.787	90.31
313.017	94.31
313.246	89.31
313.476	79.31
313.706	78.31
313.935	88.31
314.165	97.31
314.394	99.31
314.624	99.31
314.853	103.31
315.083	97.31
315.312	81.31
315.542	77.31
315.771	94.31
316.001	88.31
316.23	91.31
316.46	82.31
316.689	96.31
316.919	87.31
317.148	90.31
317.377	85.31
317.607	98.31
317.836	79.31
318.065	94.31
318.295	86.31
318.524	94.31
318.753	85.31
318.983	99.31
319.212	103.31
319.441	95.31
319.67	99.31
319.9	86.31
320.129	87.31
320.358	82.31
320.587	94.31
320.816	93.31
321.046	91.31
321.275	83.31
321.504	86.31
321.733	83.31
321.962	87.31
322.191	101.31
322.42	89.31
322.649	99.31
322.878	106.31
323.108	106.31
323.337	113.31
323.566	114.31
323.795	138.31
324.024	187.31
324.253	341.31
324.482	682.31
324.71	1399.31
324.939	1775.31
325.168	663.31
325.397	206.31
325.626	133.31
325.855	128.31
326.084	103.31
326.313	113.31
326.542	135.31
326.77	226.31
326.999	403.31
327.228	794.31
327.457	1404.31
327.686	1087.31
327.914	294.31
328.143	173.31
328.372	112.31
328.6	117.31
328.829	127.31
329.058	119.31
329.287	110.31
329.515	107.31
329.744	90.31
329.972	96.31
330.201	95.31
330.43	99.31
330.658	108.31
330.887	119.31
331.115	114.31
331.344	89.31
331.572	109.31
331.801	101.31
332.03	90.31
332.258	91.31
332.486	85.31
332.715	84.31
332.943	87.31
333.172	88.31
333.4	97.31
333.629	105.31
333.857	101.31
334.085	97.31
334.314	84.31
334.542	92.31
334.771	90.31
334.999	73.31
335.227	93.31
335.455	100.31
335.684	101.31
335.912	89.31
336.14	106.31
336.369	80.31
336.597	92.31
336.825	99.31
337.053	85.31
337.281	88.31
337.51	94.31
337.738	96.31
337.966	98.31
338.194	103.31
338.422	92.31
338.65	84.31
338.878	78.31
339.106	93.31
339.334	71.31
339.562	94.31
339.79	79.31
340.018	68.31
340.246	78.31
340.474	86.31
340.702	82.31
340.93	98.31
341.158	70.31
341.386	84.31
341.614	82.31
341.842	80.31
342.07	98.31
342.298	105.31
342.526	99.31
342.754	86.31
342.981	84.31
343.209	91.31
343.437	95.31
343.665	88.31
343.893	88.31
344.12	81.31
344.348	96.31
344.576	98.31
344.804	77.31
345.031	92.31
345.259	89.31
345.487	70.31
345.714	90.31
345.942	78.31
346.17	77.31
346.397	93.31
346.625	102.31
346.853	87.31
347.08	93.31
347.308	97.31
347.535	82.31
347.763	87.31
347.99	98.31
348.218	108.31
348.445	100.31
348.673	98.31
348.9	88.31
349.128	86.31
349.355	97.31
349.583	83.31
349.81	84.31
350.037	85.31
350.265	88.31
350.492	84.31
350.72	94.31
350.947	95.31
351.174	107.31
351.402	98.31
351.629	98.31
351.856	80.31
352.083	96.31
352.311	101.31
352.538	107.31
352.765	107.31
352.992	84.31
353.22	83.31
353.447	97.31
353.674	95.31
353.901	102.31
354.128	108.31
354.355	82.31
354.583	100.31
354.81	101.31
355.037	85.31
355.264	94.31
355.491	88.31
355.718	88.31
355.945	87.31
356.172	80.31
356.399	88.31
356.626	75.31
356.853	70.31
357.08	93.31
357.307	99.31
357.534	77.31
357.761	90.31
357.988	93.31
358.215	95.31
358.441	71.31
358.668	79.31
358.895	80.31
359.122	93.31
359.349	87.31
359.576	88.31
359.802	98.31
360.029	89.31
360.256	98.31
360.483	94.31
360.709	98.31
360.936	93.31
361.163	95.31
361.39	92.31
361.616	82.31
361.843	89.31
362.07	90.31
362.296	83.31
362.523	84.31
362.749	89.31
362.976	87.31
363.203	72.31
363.429	97.31
363.656	87.31
363.882	82.31
364.109	86.31
364.335	94.31
364.562	86.31
364.788	79.31
365.015	85.31
365.241	86.31
365.468	109.31
365.694	90.31
365.92	90.31
366.147	88.31
366.373	70.31
366.599	93.31
366.826	88.31
367.052	84.31
367.278	82.31
367.505	86.31
367.731	95.31
367.957	90.31
368.184	89.31
368.41	70.31
368.636	102.31
368.862	97.31
369.089	100.31
369.315	89.31
369.541	87.31
369.767	80.31
369.993	97.31
370.219	75.31
370.445	89.31
370.672	88.31
370.898	88.31
371.124	89.31
371.35	86.31
371.576	75.31
371.802	87.31
372.028	88.31
372.254	83.31
372.48	72.31
372.706	76.31
372.932	77.31
373.158	87.31
373.384	79.31
373.61	99.31
373.835	88.31
374.061	97.31
374.287	74.31
374.513	96.31
374.739	87.31
374.965	86.31
375.191	100.31
375.416	86.31
375.642	76.31
375.868	92.31
376.094	92.31
376.319	83.31
376.545	83.31
376.771	92.31
376.997	82.31
377.222	95.31
377.448	102.31
377.674	79.31
377.899	83.31
378.125	92.31
378.35	84.31
378.576	90.31
378.802	80.31
379.027	73.31
379.253	90.31
379.478	96.31
379.704	107.31
379.929	82.31
380.155	81.31
380.38	86.31
380.606	88.31
380.831	87.31
381.057	97.31
381.282	92.31
381.507	93.31
381.733	93.31
381.958	93.31
382.184	90.31
382.409	99.31
382.634	80.31
382.86	90.31
383.085	98.31
383.31	89.31
383.535	81.31
383.761	91.31
383.986	105.31
384.211	83.31
384.436	88.31
384.662	84.31
384.887	96.31
385.112	97.31
385.337	103.31
385.562	107.31
385.787	89.31
386.013	93.31
386.238	104.31
386.463	92.31
386.688	101.31
386.913	101.31
387.138	101.31
387.363	101.31
387.588	97.31
387.813	105.31
388.038	96.31
388.263	95.31
388.488	106.31
388.713	83.31
388.938	84.31
389.163	92.31
389.387	104.31
389.612	99.31
389.837	93.31
390.062	87.31
390.287	85.31
390.512	82.31
390.736	81.31
390.961	91.31
391.186	80.31
391.411	86.31
391.636	63.31
391.86	86.31
392.085	84.31
392.31	70.31
392.534	78.31
392.759	86.31
392.984	83.31
393.208	88.31
393.433	101.31
393.658	85.31
393.882	72.31
394.107	86.31
394.331	67.31
394.556	77.31
394.78	101.31
395.005	79.31
395.229	85.31
395.454	72.31
395.678	88.31
395.903	76.31
396.127	94.31
396.352	87.31
396.576	80.31
396.801	83.31
397.025	88.31
397.249	79.31
397.474	79.31
397.698	92.31
397.922	85.31
398.147	81.31
398.371	80.31
398.595	76.31
398.82	82.31
399.044	96.31
399.268	91.31
399.492	76.31
399.717	71.31
399.941	76.31
400.165	86.31
400.389	78.31
400.613	95.31
400.837	94.31
401.062	87.31
401.286	82.31
401.51	85.31
401.734	88.31
401.958	80.31
402.182	119.31
402.406	140.31
402.63	100.31
402.854	95.31
403.078	92.31
403.302	93.31
403.526	81.31
403.75	76.31
403.974	83.31
404.198	78.31
404.422	87.31
404.645	87.31
404.869	97.31
405.093	71.31
405.317	94.31
405.541	91.31
405.765	115.31
405.988	121.31
406.212	158.31
406.436	204.31
406.66	122.31
406.883	92.31
407.107	101.31
407.331	93.31
407.555	99.31
407.778	86.31
408.002	88.31
408.226	78.31
408.449	83.31
408.673	88.31
408.896	86.31
409.12	90.31
409.344	80.31
409.567	75.31
409.791	89.31
410.014	81.31
410.238	80.31
410.461	104.31
410.685	87.31
410.908	100.31
411.132	100.31
411.355	88.31
411.578	81.31
411.802	84.31
412.025	68.31
412.249	86.31
412.472	87.31
412.695	95.31
412.919	81.31
413.142	78.31
413.365	94.31
413.589	85.31
413.812	75.31
414.035	83.31
414.258	94.31
414.482	86.31
414.705	87.31
414.928	82.31
415.151	87.31
415.374	87.31
415.597	96.31
415.821	95.31
416.044	89.31
416.267	91.31
416.49	72.31
416.713	90.31
416.936	70.31
417.159	82.31
417.382	77.31
417.605	83.31
417.828	92.31
418.051	88.31
418.274	85.31
418.497	72.31
418.72	82.31
418.943	61.31
419.166	84.31
419.389	92.31
419.611	68.31
419.834	78.31
420.057	84.31
420.28	81.31
420.503	71.31
420.726	88.31
420.948	77.31
421.171	94.31
421.394	76.31
421.617	84.31
421.839	88.31
422.062	86.31
422.285	67.31
422.507	88.31
422.73	101.31
422.953	90.31
423.175	81.31
423.398	81.31
423.621	87.31
423.843	100.31
424.066	83.31
424.288	96.31
424.511	98.31
424.733	94.31
424.956	95.31
425.178	96.31
425.401	109.31
425.623	107.31
425.846	80.31
426.068	98.31
426.291	93.31
426.513	83.31
426.735	83.31
426.958	87.31
427.18	94.31
427.402	140.31
427.625	135.31
427.847	106.31
428.069	93.31
428.292	85.31
428.514	80.31
428.736	74.31
428.958	65.31
429.181	89.31
429.403	79.31
429.625	86.31
429.847	95.31
430.069	94.31
430.292	89.31
430.514	82.31
430.736	82.31
430.958	87.31
431.18	65.31
431.402	74.31
431.624	83.31
431.846	87.31
432.068	91.31
432.29	76.31
432.512	74.31
432.734	75.31
432.956	83.31
433.178	80.31
433.4	80.31
433.622	80.31
433.844	84.31
434.066	93.31
434.287	73.31
434.509	91.31
434.731	83.31
434.953	68.31
435.175	89.31
435.397	88.31
435.618	78.31
435.84	92.31
436.062	108.31
436.284	92.31
436.505	95.31
436.727	86.31
436.949	90.31
437.17	88.31
437.392	87.31
437.614	103.31
437.835	106.31
438.057	115.31
438.278	84.31
438.5	94.31
438.721	101.31
438.943	102.31
439.165	83.31
439.386	78.31
439.608	84.31
439.829	101.31
440.05	108.31
440.272	108.31
440.493	101.31
440.715	87.31
440.936	79.31
441.158	83.31
441.379	82.31
441.6	85.31
441.822	95.31
442.043	92.31
442.264	81.31
442.486	102.31
442.707	81.31
442.928	85.31
443.149	137.31
443.371	112.31
443.592	102.31
443.813	95.31
444.034	105.31
444.255	80.31
444.476	88.31
444.698	85.31
444.919	97.31
445.14	119.31
445.361	126.31
445.582	112.31
445.803	124.31
446.024	102.31
446.245	112.31
446.466	96.31
446.687	75.31
446.908	64.31
447.129	79.31
447.35	89.31
447.571	87.31
447.792	73.31
448.013	96.31
448.234	112.31
448.455	95.31
448.675	98.31
448.896	97.31
449.117	87.31
449.338	83.31
449.559	113.31
449.779	120.31
450	88.31
450.221	67.31
450.442	77.31
450.662	79.31
450.883	98.31
451.104	92.31
451.324	82.31
451.545	71.31
451.766	78.31
451.986	84.31
452.207	88.31
452.428	71.31
452.648	81.31
452.869	97.31
453.089	109.31
453.31	103.31
453.53	82.31
453.751	89.31
453.971	81.31
454.192	86.31
454.412	82.31
454.633	95.31
454.853	90.31
455.073	84.31
455.294	81.31
455.514	90.31
455.734	78.31
455.955	83.31
456.175	69.31
456.395	84.31
456.616	76.31
456.836	83.31
457.056	71.31
457.276	82.31
457.497	82.31
457.717	85.31
457.937	82.31
458.157	83.31
458.377	92.31
458.598	108.31
458.818	139.31
459.038	144.31
459.258	123.31
459.478	90.31
459.698	66.31
459.918	66.31
460.138	68.31
460.358	73.31
460.578	73.31
460.798	93.31
461.018	78.31
461.238	62.31
461.458	88.31
461.678	75.31
461.898	82.31
462.118	82.31
462.338	71.31
462.558	91.31
462.777	84.31
462.997	87.31
463.217	72.31
463.437	85.31
463.657	69.31
463.876	83.31
464.096	82.31
464.316	85.31
464.536	81.31
464.755	75.31
464.975	102.31
465.195	136.31
465.414	143.31
465.634	79.31
465.854	97.31
466.073	88.31
466.293	85.31
466.512	97.31
466.732	85.31
466.951	83.31
467.171	85.31
467.391	83.31
467.61	98.31
467.829	91.31
468.049	75.31
468.268	70.31
468.488	72.31
468.707	81.31
468.927	90.31
469.146	81.31
469.365	85.31
469.585	81.31
469.804	86.31
470.023	93.31
470.243	86.31
470.462	95.31
470.681	98.31
470.901	90.31
471.12	88.31
471.339	92.31
471.558	77.31
471.777	78.31
471.997	94.31
472.216	79.31
472.435	75.31
472.654	87.31
472.873	91.31
473.092	79.31
473.311	79.31
473.53	80.31
473.749	106.31
473.968	93.31
474.187	102.31
474.406	83.31
474.625	78.31
474.844	82.31
475.063	72.31
475.282	92.31
475.501	73.31
475.72	84.31
475.939	71.31
476.158	78.31
476.377	95.31
476.596	75.31
476.814	86.31
477.033	89.31
477.252	80.31
477.471	87.31
477.69	77.31
477.908	94.31
478.127	88.31
478.346	83.31
478.564	78.31
478.783	84.31
479.002	82.31
479.22	92.31
479.439	93.31
479.658	81.31
479.876	84.31
480.095	84.31
480.313	95.31
480.532	75.31
480.751	87.31
480.969	89.31
481.188	95.31
481.406	97.31
481.624	100.31
481.843	88.31
482.061	71.31
482.28	90.31
482.498	75.31
482.717	82.31
482.935	96.31
483.153	80.31
483.372	93.31
483.59	97.31
483.808	78.31
484.027	86.31
484.245	91.31
484.463	72.31
484.681	102.31
484.9	90.31
485.118	99.31
485.336	92.31
485.554	96.31
485.772	95.31
485.99	101.31
486.209	103.31
486.427	81.31
486.645	76.31
486.863	90.31
487.081	88.31
487.299	90.31
487.517	90.31
487.735	80.31
487.953	78.31
488.171	82.31
488.389	84.31
488.607	94.31
488.825	83.31
489.043	80.31
489.261	75.31
489.479	96.31
489.696	69.31
489.914	85.31
490.132	89.31
490.35	79.31
490.568	79.31
490.786	91.31
491.003	79.31
491.221	80.31
491.439	87.31
491.657	83.31
491.874	83.31
492.092	88.31
492.31	95.31
492.527	83.31
492.745	72.31
492.963	70.31
493.18	80.31
493.398	72.31
493.615	92.31
493.833	84.31
494.05	98.31
494.268	101.31
494.485	81.31
494.703	76.31
494.92	93.31
495.138	84.31
495.355	80.31
495.573	77.31
495.79	74.31
496.008	93.31
496.225	91.31
496.442	91.31
496.66	108.31
496.877	97.31
497.094	91.31
497.312	71.31
497.529	85.31
497.746	92.31
497.963	103.31
498.181	75.31
498.398	82.31
498.615	100.31
498.832	106.31
499.049	73.31
499.267	91.31
499.484	83.31
499.701	84.31
499.918	92.31
500.135	88.31
500.352	95.31
500.569	81.31
500.786	94.31
501.003	109.31
501.22	75.31
501.437	84.31
501.654	82.31
501.871	88.31
502.088	85.31
502.305	84.31
502.522	72.31
502.739	88.31
502.956	72.31
503.172	81.31
503.389	95.31
503.606	113.31
503.823	108.31
504.04	85.31
504.256	86.31
504.473	85.31
504.69	88.31
504.907	81.31
505.123	84.31
505.34	78.31
505.557	88.31
505.773	87.31
505.99	83.31
506.207	89.31
506.423	80.31
506.64	84.31
506.856	88.31
507.073	70.31
507.289	94.31
507.506	85.31
507.722	122.31
507.939	102.31
508.155	89.31
508.372	91.31
508.588	96.31
508.805	91.31
509.021	93.31
509.238	82.31
509.454	86.31
509.67	98.31
509.887	115.31
510.103	127.31
510.319	192.31
510.536	729.31
510.752	2274.31
510.968	633.31
511.184	160.31
511.401	109.31
511.617	106.31
511.833	87.31
512.049	91.31
512.265	76.31
512.481	96.31
512.698	96.31
512.914	90.31
513.13	92.31
513.346	87.31
513.562	80.31
513.778	79.31
513.994	88.31
514.21	102.31
514.426	116.31
514.642	116.31
514.858	122.31
515.074	158.31
515.29	438.31
515.506	1395.31
515.721	499.31
515.937	135.31
516.153	112.31
516.369	88.31
516.585	108.31
516.801	87.31
517.016	89.31
517.232	75.31
517.448	81.31
517.664	82.31
