Data from Uncirc_2001_H10_HRD10591_00025.txt Node
Date: Wed Jan 03 10:44:01 EST 2024
User: Yrep
Spectrometer: HR+D1059
Trigger mode: 1
Integration Time (sec): 1.000000E-1
Scans to average: 1
Electric dark correction enabled: true
Nonlinearity correction enabled: false
Boxcar width: 0
XAxis mode: Wavelengths
Number of Pixels in Spectrum: 2048
>>>>>Begin Spectral Data<<<<<
223.165	-26.56
223.4	-26.56
223.635	-26.56
223.869	-23.56
224.104	-22.56
224.338	-1.56
224.573	-9.56
224.808	-15.56
225.042	-12.56
225.277	3.44
225.511	8.44
225.746	1.44
225.98	16.44
226.215	10.44
226.449	3.44
226.683	17.44
226.918	25.44
227.152	25.44
227.387	34.44
227.621	35.44
227.856	47.44
228.09	40.44
228.324	61.44
228.559	54.44
228.793	70.44
229.027	59.44
229.262	71.44
229.496	76.44
229.73	70.44
229.964	85.44
230.199	69.44
230.433	74.44
230.667	90.44
230.901	80.44
231.136	79.44
231.37	85.44
231.604	86.44
231.838	83.44
232.072	73.44
232.306	79.44
232.541	93.44
232.775	81.44
233.009	66.44
233.243	84.44
233.477	77.44
233.711	75.44
233.945	81.44
234.179	70.44
234.413	85.44
234.647	79.44
234.881	84.44
235.115	75.44
235.349	85.44
235.583	80.44
235.817	93.44
236.051	73.44
236.285	78.44
236.519	75.44
236.753	64.44
236.987	80.44
237.221	73.44
237.455	98.44
237.689	82.44
237.922	87.44
238.156	67.44
238.39	95.44
238.624	79.44
238.858	85.44
239.091	76.44
239.325	89.44
239.559	71.44
239.793	74.44
240.027	75.44
240.26	67.44
240.494	82.44
240.728	75.44
240.961	83.44
241.195	77.44
241.429	89.44
241.662	77.44
241.896	75.44
242.13	63.44
242.363	73.44
242.597	84.44
242.83	79.44
243.064	76.44
243.298	60.44
243.531	80.44
243.765	79.44
243.998	85.44
244.232	81.44
244.465	69.44
244.699	82.44
244.932	73.44
245.166	79.44
245.399	84.44
245.633	75.44
245.866	90.44
246.099	79.44
246.333	82.44
246.566	68.44
246.8	81.44
247.033	83.44
247.266	87.44
247.5	83.44
247.733	86.44
247.966	71.44
248.2	75.44
248.433	85.44
248.666	89.44
248.899	92.44
249.133	81.44
249.366	99.44
249.599	82.44
249.832	73.44
250.066	71.44
250.299	75.44
250.532	77.44
250.765	78.44
250.998	87.44
251.231	66.44
251.465	83.44
251.698	76.44
251.931	76.44
252.164	87.44
252.397	89.44
252.63	76.44
252.863	66.44
253.096	80.44
253.329	82.44
253.562	64.44
253.795	76.44
254.028	83.44
254.261	74.44
254.494	84.44
254.727	76.44
254.96	80.44
255.193	83.44
255.426	89.44
255.659	74.44
255.892	70.44
256.124	80.44
256.357	83.44
256.59	69.44
256.823	75.44
257.056	104.44
257.289	77.44
257.521	75.44
257.754	82.44
257.987	77.44
258.22	77.44
258.452	73.44
258.685	82.44
258.918	79.44
259.151	79.44
259.383	89.44
259.616	84.44
259.849	85.44
260.081	76.44
260.314	87.44
260.547	79.44
260.779	84.44
261.012	80.44
261.244	65.44
261.477	82.44
261.71	98.44
261.942	99.44
262.175	95.44
262.407	90.44
262.64	92.44
262.872	79.44
263.105	76.44
263.337	77.44
263.57	89.44
263.802	74.44
264.035	78.44
264.267	88.44
264.499	79.44
264.732	78.44
264.964	80.44
265.197	79.44
265.429	79.44
265.661	81.44
265.894	78.44
266.126	93.44
266.358	73.44
266.591	78.44
266.823	82.44
267.055	84.44
267.287	82.44
267.52	86.44
267.752	80.44
267.984	80.44
268.216	92.44
268.448	92.44
268.681	80.44
268.913	91.44
269.145	79.44
269.377	93.44
269.609	83.44
269.841	87.44
270.073	95.44
270.306	72.44
270.538	88.44
270.77	84.44
271.002	86.44
271.234	80.44
271.466	85.44
271.698	87.44
271.93	91.44
272.162	84.44
272.394	86.44
272.626	87.44
272.858	92.44
273.09	79.44
273.322	81.44
273.553	89.44
273.785	90.44
274.017	100.44
274.249	79.44
274.481	88.44
274.713	80.44
274.945	88.44
275.176	85.44
275.408	85.44
275.64	74.44
275.872	86.44
276.104	76.44
276.335	73.44
276.567	84.44
276.799	87.44
277.031	89.44
277.262	93.44
277.494	76.44
277.726	98.44
277.957	88.44
278.189	83.44
278.421	97.44
278.652	79.44
278.884	77.44
279.115	72.44
279.347	93.44
279.579	85.44
279.81	76.44
280.042	72.44
280.273	96.44
280.505	96.44
280.736	80.44
280.968	82.44
281.199	75.44
281.431	106.44
281.662	84.44
281.894	78.44
282.125	107.44
282.356	112.44
282.588	128.44
282.819	104.44
283.051	92.44
283.282	87.44
283.513	91.44
283.745	75.44
283.976	97.44
284.207	94.44
284.439	82.44
284.67	91.44
284.901	82.44
285.132	86.44
285.364	93.44
285.595	100.44
285.826	88.44
286.057	98.44
286.288	80.44
286.52	97.44
286.751	93.44
286.982	80.44
287.213	82.44
287.444	70.44
287.675	80.44
287.906	88.44
288.138	93.44
288.369	91.44
288.6	96.44
288.831	88.44
289.062	81.44
289.293	105.44
289.524	82.44
289.755	88.44
289.986	79.44
290.217	83.44
290.448	84.44
290.679	96.44
290.91	86.44
291.141	80.44
291.371	81.44
291.602	85.44
291.833	76.44
292.064	94.44
292.295	85.44
292.526	98.44
292.757	92.44
292.987	83.44
293.218	99.44
293.449	104.44
293.68	92.44
293.91	89.44
294.141	99.44
294.372	92.44
294.603	84.44
294.833	103.44
295.064	91.44
295.295	95.44
295.525	101.44
295.756	99.44
295.987	116.44
296.217	127.44
296.448	106.44
296.679	89.44
296.909	99.44
297.14	83.44
297.37	102.44
297.601	90.44
297.831	89.44
298.062	83.44
298.292	92.44
298.523	84.44
298.753	75.44
298.984	100.44
299.214	88.44
299.445	92.44
299.675	73.44
299.905	97.44
300.136	95.44
300.366	76.44
300.597	88.44
300.827	87.44
301.057	115.44
301.288	90.44
301.518	85.44
301.748	84.44
301.979	88.44
302.209	99.44
302.439	88.44
302.669	104.44
302.9	86.44
303.13	104.44
303.36	96.44
303.59	99.44
303.82	104.44
304.051	85.44
304.281	76.44
304.511	113.44
304.741	105.44
304.971	89.44
305.201	90.44
305.431	87.44
305.661	92.44
305.891	98.44
306.121	86.44
306.352	96.44
306.582	106.44
306.812	98.44
307.042	91.44
307.272	91.44
307.502	90.44
307.731	96.44
307.961	87.44
308.191	85.44
308.421	96.44
308.651	91.44
308.881	91.44
309.111	99.44
309.341	88.44
309.571	94.44
309.8	91.44
310.03	97.44
310.26	85.44
310.49	100.44
310.72	110.44
310.949	112.44
311.179	100.44
311.409	91.44
311.639	102.44
311.868	110.44
312.098	98.44
312.328	85.44
312.557	107.44
312.787	100.44
313.017	102.44
313.246	99.44
313.476	76.44
313.706	90.44
313.935	75.44
314.165	97.44
314.394	93.44
314.624	86.44
314.853	91.44
315.083	82.44
315.312	89.44
315.542	84.44
315.771	95.44
316.001	89.44
316.23	81.44
316.46	79.44
316.689	93.44
316.919	101.44
317.148	101.44
317.377	92.44
317.607	99.44
317.836	92.44
318.065	100.44
318.295	95.44
318.524	92.44
318.753	90.44
318.983	101.44
319.212	99.44
319.441	91.44
319.67	95.44
319.9	88.44
320.129	94.44
320.358	108.44
320.587	99.44
320.816	100.44
321.046	100.44
321.275	99.44
321.504	92.44
321.733	97.44
321.962	88.44
322.191	99.44
322.42	82.44
322.649	108.44
322.878	108.44
323.108	114.44
323.337	112.44
323.566	127.44
323.795	128.44
324.024	180.44
324.253	322.44
324.482	675.44
324.71	1297.44
324.939	1723.44
325.168	626.44
325.397	212.44
325.626	145.44
325.855	118.44
326.084	104.44
326.313	128.44
326.542	141.44
326.77	212.44
326.999	363.44
327.228	724.44
327.457	1284.44
327.686	1010.44
327.914	305.44
328.143	175.44
328.372	137.44
328.6	133.44
328.829	115.44
329.058	130.44
329.287	113.44
329.515	113.44
329.744	80.44
329.972	93.44
330.201	111.44
330.43	104.44
330.658	113.44
330.887	124.44
331.115	110.44
331.344	84.44
331.572	92.44
331.801	106.44
332.03	97.44
332.258	92.44
332.486	88.44
332.715	97.44
332.943	92.44
333.172	89.44
333.4	98.44
333.629	100.44
333.857	104.44
334.085	100.44
334.314	91.44
334.542	93.44
334.771	105.44
334.999	88.44
335.227	92.44
335.455	97.44
335.684	99.44
335.912	96.44
336.14	107.44
336.369	104.44
336.597	100.44
336.825	99.44
337.053	97.44
337.281	76.44
337.51	84.44
337.738	87.44
337.966	91.44
338.194	101.44
338.422	93.44
338.65	101.44
338.878	96.44
339.106	85.44
339.334	85.44
339.562	79.44
339.79	91.44
340.018	86.44
340.246	91.44
340.474	87.44
340.702	99.44
340.93	81.44
341.158	85.44
341.386	97.44
341.614	83.44
341.842	90.44
342.07	96.44
342.298	94.44
342.526	88.44
342.754	98.44
342.981	89.44
343.209	83.44
343.437	94.44
343.665	79.44
343.893	72.44
344.12	87.44
344.348	82.44
344.576	85.44
344.804	86.44
345.031	83.44
345.259	103.44
345.487	83.44
345.714	92.44
345.942	96.44
346.17	90.44
346.397	103.44
346.625	79.44
346.853	87.44
347.08	84.44
347.308	95.44
347.535	98.44
347.763	113.44
347.99	94.44
348.218	118.44
348.445	99.44
348.673	104.44
348.9	88.44
349.128	90.44
349.355	103.44
349.583	93.44
349.81	90.44
350.037	86.44
350.265	88.44
350.492	86.44
350.72	99.44
350.947	81.44
351.174	105.44
351.402	113.44
351.629	100.44
351.856	105.44
352.083	100.44
352.311	107.44
352.538	116.44
352.765	125.44
352.992	110.44
353.22	112.44
353.447	95.44
353.674	101.44
353.901	102.44
354.128	105.44
354.355	82.44
354.583	93.44
354.81	91.44
355.037	93.44
355.264	95.44
355.491	91.44
355.718	91.44
355.945	92.44
356.172	101.44
356.399	101.44
356.626	98.44
356.853	84.44
357.08	91.44
357.307	79.44
357.534	95.44
357.761	98.44
357.988	98.44
358.215	94.44
358.441	92.44
358.668	95.44
358.895	92.44
359.122	96.44
359.349	93.44
359.576	83.44
359.802	82.44
360.029	112.44
360.256	109.44
360.483	92.44
360.709	89.44
360.936	81.44
361.163	87.44
361.39	91.44
361.616	83.44
361.843	103.44
362.07	94.44
362.296	83.44
362.523	85.44
362.749	96.44
362.976	80.44
363.203	95.44
363.429	92.44
363.656	101.44
363.882	90.44
364.109	92.44
364.335	89.44
364.562	88.44
364.788	98.44
365.015	92.44
365.241	102.44
365.468	100.44
365.694	103.44
365.92	105.44
366.147	88.44
366.373	79.44
366.599	98.44
366.826	84.44
367.052	93.44
367.278	74.44
367.505	86.44
367.731	100.44
367.957	90.44
368.184	88.44
368.41	87.44
368.636	116.44
368.862	120.44
369.089	110.44
369.315	102.44
369.541	98.44
369.767	83.44
369.993	104.44
370.219	97.44
370.445	76.44
370.672	87.44
370.898	89.44
371.124	88.44
371.35	82.44
371.576	93.44
371.802	83.44
372.028	97.44
372.254	86.44
372.48	86.44
372.706	79.44
372.932	88.44
373.158	88.44
373.384	93.44
373.61	83.44
373.835	82.44
374.061	86.44
374.287	90.44
374.513	100.44
374.739	87.44
374.965	81.44
375.191	87.44
375.416	86.44
375.642	89.44
375.868	81.44
376.094	90.44
376.319	80.44
376.545	98.44
376.771	91.44
376.997	92.44
377.222	106.44
377.448	98.44
377.674	88.44
377.899	75.44
378.125	87.44
378.35	97.44
378.576	75.44
378.802	83.44
379.027	80.44
379.253	91.44
379.478	76.44
379.704	89.44
379.929	91.44
380.155	101.44
380.38	100.44
380.606	88.44
380.831	96.44
381.057	102.44
381.282	91.44
381.507	101.44
381.733	101.44
381.958	99.44
382.184	96.44
382.409	99.44
382.634	99.44
382.86	96.44
383.085	100.44
383.31	87.44
383.535	91.44
383.761	100.44
383.986	106.44
384.211	100.44
384.436	97.44
384.662	103.44
384.887	100.44
385.112	106.44
385.337	105.44
385.562	96.44
385.787	119.44
386.013	106.44
386.238	117.44
386.463	105.44
386.688	124.44
386.913	110.44
387.138	107.44
387.363	105.44
387.588	105.44
387.813	99.44
388.038	107.44
388.263	114.44
388.488	124.44
388.713	92.44
388.938	94.44
389.163	91.44
389.387	92.44
389.612	89.44
389.837	96.44
390.062	88.44
390.287	94.44
390.512	81.44
390.736	84.44
390.961	88.44
391.186	95.44
391.411	93.44
391.636	90.44
391.86	79.44
392.085	92.44
392.31	84.44
392.534	84.44
392.759	86.44
392.984	96.44
393.208	90.44
393.433	113.44
393.658	87.44
393.882	97.44
394.107	93.44
394.331	87.44
394.556	92.44
394.78	81.44
395.005	81.44
395.229	89.44
395.454	87.44
395.678	99.44
395.903	88.44
396.127	92.44
396.352	82.44
396.576	85.44
396.801	90.44
397.025	103.44
397.249	80.44
397.474	89.44
397.698	89.44
397.922	85.44
398.147	89.44
398.371	98.44
398.595	81.44
398.82	81.44
399.044	84.44
399.268	76.44
399.492	80.44
399.717	88.44
399.941	91.44
400.165	83.44
400.389	88.44
400.613	79.44
400.837	87.44
401.062	97.44
401.286	86.44
401.51	94.44
401.734	99.44
401.958	98.44
402.182	119.44
402.406	135.44
402.63	109.44
402.854	93.44
403.078	90.44
403.302	76.44
403.526	97.44
403.75	95.44
403.974	98.44
404.198	90.44
404.422	79.44
404.645	87.44
404.869	93.44
405.093	106.44
405.317	100.44
405.541	98.44
405.765	111.44
405.988	116.44
406.212	160.44
406.436	207.44
406.66	137.44
406.883	93.44
407.107	93.44
407.331	86.44
407.555	92.44
407.778	95.44
408.002	80.44
408.226	98.44
408.449	94.44
408.673	91.44
408.896	110.44
409.12	103.44
409.344	93.44
409.567	91.44
409.791	97.44
410.014	87.44
410.238	93.44
410.461	103.44
410.685	102.44
410.908	93.44
411.132	83.44
411.355	92.44
411.578	103.44
411.802	91.44
412.025	90.44
412.249	98.44
412.472	103.44
412.695	93.44
412.919	89.44
413.142	88.44
413.365	92.44
413.589	92.44
413.812	89.44
414.035	102.44
414.258	77.44
414.482	90.44
414.705	86.44
414.928	89.44
415.151	92.44
415.374	96.44
415.597	89.44
415.821	83.44
416.044	81.44
416.267	84.44
416.49	79.44
416.713	86.44
416.936	94.44
417.159	92.44
417.382	75.44
417.605	86.44
417.828	75.44
418.051	85.44
418.274	93.44
418.497	93.44
418.72	97.44
418.943	88.44
419.166	90.44
419.389	87.44
419.611	101.44
419.834	90.44
420.057	86.44
420.28	102.44
420.503	87.44
420.726	80.44
420.948	89.44
421.171	94.44
421.394	83.44
421.617	82.44
421.839	90.44
422.062	89.44
422.285	80.44
422.507	99.44
422.73	105.44
422.953	95.44
423.175	83.44
423.398	95.44
423.621	87.44
423.843	91.44
424.066	87.44
424.288	99.44
424.511	85.44
424.733	92.44
424.956	104.44
425.178	100.44
425.401	93.44
425.623	89.44
425.846	68.44
426.068	82.44
426.291	88.44
426.513	92.44
426.735	98.44
426.958	89.44
427.18	83.44
427.402	130.44
427.625	139.44
427.847	115.44
428.069	91.44
428.292	75.44
428.514	91.44
428.736	85.44
428.958	96.44
429.181	77.44
429.403	77.44
429.625	81.44
429.847	90.44
430.069	78.44
430.292	91.44
430.514	89.44
430.736	86.44
430.958	92.44
431.18	81.44
431.402	76.44
431.624	84.44
431.846	81.44
432.068	99.44
432.29	85.44
432.512	98.44
432.734	86.44
432.956	88.44
433.178	106.44
433.4	96.44
433.622	91.44
433.844	88.44
434.066	94.44
434.287	91.44
434.509	82.44
434.731	84.44
434.953	83.44
435.175	68.44
435.397	93.44
435.618	99.44
435.84	96.44
436.062	116.44
436.284	122.44
436.505	108.44
436.727	96.44
436.949	99.44
437.17	83.44
437.392	90.44
437.614	99.44
437.835	101.44
438.057	120.44
438.278	106.44
438.5	99.44
438.721	109.44
438.943	88.44
439.165	86.44
439.386	96.44
439.608	95.44
439.829	98.44
440.05	104.44
440.272	134.44
440.493	105.44
440.715	71.44
440.936	79.44
441.158	74.44
441.379	94.44
441.6	99.44
441.822	106.44
442.043	98.44
442.264	100.44
442.486	97.44
442.707	90.44
442.928	115.44
443.149	129.44
443.371	108.44
443.592	108.44
443.813	100.44
444.034	104.44
444.255	89.44
444.476	85.44
444.698	88.44
444.919	91.44
445.14	112.44
445.361	113.44
445.582	105.44
445.803	132.44
446.024	107.44
446.245	119.44
446.466	108.44
446.687	87.44
446.908	86.44
447.129	90.44
447.35	87.44
447.571	94.44
447.792	94.44
448.013	91.44
448.234	116.44
448.455	95.44
448.675	109.44
448.896	103.44
449.117	88.44
449.338	96.44
449.559	121.44
449.779	115.44
450	100.44
450.221	90.44
450.442	93.44
450.662	103.44
450.883	95.44
451.104	113.44
451.324	105.44
451.545	80.44
451.766	90.44
451.986	84.44
452.207	74.44
452.428	92.44
452.648	84.44
452.869	107.44
453.089	112.44
453.31	115.44
453.53	96.44
453.751	97.44
453.971	116.44
454.192	108.44
454.412	95.44
454.633	84.44
454.853	83.44
455.073	79.44
455.294	86.44
455.514	87.44
455.734	80.44
455.955	91.44
456.175	87.44
456.395	68.44
456.616	88.44
456.836	101.44
457.056	75.44
457.276	103.44
457.497	83.44
457.717	85.44
457.937	83.44
458.157	82.44
458.377	95.44
458.598	108.44
458.818	144.44
459.038	150.44
459.258	100.44
459.478	97.44
459.698	83.44
459.918	88.44
460.138	73.44
460.358	84.44
460.578	89.44
460.798	89.44
461.018	84.44
461.238	75.44
461.458	82.44
461.678	85.44
461.898	89.44
462.118	89.44
462.338	88.44
462.558	91.44
462.777	93.44
462.997	87.44
463.217	103.44
463.437	94.44
463.657	90.44
463.876	81.44
464.096	94.44
464.316	81.44
464.536	92.44
464.755	83.44
464.975	98.44
465.195	162.44
465.414	152.44
465.634	108.44
465.854	84.44
466.073	98.44
466.293	85.44
466.512	91.44
466.732	71.44
466.951	97.44
467.171	112.44
467.391	92.44
467.61	104.44
467.829	83.44
468.049	88.44
468.268	84.44
468.488	80.44
468.707	93.44
468.927	86.44
469.146	76.44
469.365	80.44
469.585	93.44
469.804	92.44
470.023	104.44
470.243	97.44
470.462	105.44
470.681	94.44
470.901	81.44
471.12	93.44
471.339	84.44
471.558	91.44
471.777	72.44
471.997	86.44
472.216	82.44
472.435	88.44
472.654	92.44
472.873	83.44
473.092	86.44
473.311	79.44
473.53	77.44
473.749	91.44
473.968	91.44
474.187	108.44
474.406	91.44
474.625	99.44
474.844	75.44
475.063	98.44
475.282	86.44
475.501	82.44
475.72	81.44
475.939	88.44
476.158	91.44
476.377	90.44
476.596	95.44
476.814	93.44
477.033	97.44
477.252	76.44
477.471	77.44
477.69	96.44
477.908	95.44
478.127	92.44
478.346	97.44
478.564	90.44
478.783	100.44
479.002	94.44
479.22	92.44
479.439	111.44
479.658	89.44
479.876	77.44
480.095	97.44
480.313	99.44
480.532	94.44
480.751	87.44
480.969	77.44
481.188	98.44
481.406	106.44
481.624	91.44
481.843	91.44
482.061	96.44
482.28	101.44
482.498	81.44
482.717	91.44
482.935	80.44
483.153	88.44
483.372	89.44
483.59	79.44
483.808	85.44
484.027	75.44
484.245	97.44
484.463	84.44
484.681	102.44
484.9	100.44
485.118	103.44
485.336	83.44
485.554	101.44
485.772	100.44
485.99	92.44
486.209	88.44
486.427	100.44
486.645	110.44
486.863	102.44
487.081	89.44
487.299	93.44
487.517	100.44
487.735	88.44
487.953	88.44
488.171	97.44
488.389	90.44
488.607	108.44
488.825	83.44
489.043	82.44
489.261	90.44
489.479	98.44
489.696	92.44
489.914	99.44
490.132	86.44
490.35	67.44
490.568	93.44
490.786	91.44
491.003	98.44
491.221	95.44
491.439	99.44
491.657	104.44
491.874	86.44
492.092	103.44
492.31	96.44
492.527	78.44
492.745	85.44
492.963	90.44
493.18	100.44
493.398	93.44
493.615	104.44
493.833	92.44
494.05	81.44
494.268	96.44
494.485	85.44
494.703	94.44
494.92	92.44
495.138	79.44
495.355	84.44
495.573	81.44
495.79	74.44
496.008	79.44
496.225	86.44
496.442	70.44
496.66	85.44
496.877	87.44
497.094	89.44
497.312	72.44
497.529	81.44
497.746	87.44
497.963	88.44
498.181	94.44
498.398	90.44
498.615	117.44
498.832	95.44
499.049	91.44
499.267	99.44
499.484	80.44
499.701	96.44
499.918	82.44
500.135	106.44
500.352	103.44
500.569	85.44
500.786	100.44
501.003	98.44
501.22	82.44
501.437	96.44
501.654	99.44
501.871	117.44
502.088	96.44
502.305	98.44
502.522	75.44
502.739	97.44
502.956	87.44
503.172	89.44
503.389	109.44
503.606	111.44
503.823	81.44
504.04	91.44
504.256	98.44
504.473	84.44
504.69	85.44
504.907	93.44
505.123	87.44
505.34	89.44
505.557	92.44
505.773	85.44
505.99	80.44
506.207	91.44
506.423	89.44
506.64	98.44
506.856	99.44
507.073	92.44
507.289	85.44
507.506	100.44
507.722	101.44
507.939	118.44
508.155	93.44
508.372	88.44
508.588	89.44
508.805	88.44
509.021	105.44
509.238	100.44
509.454	96.44
509.67	102.44
509.887	119.44
510.103	127.44
510.319	211.44
510.536	702.44
510.752	2187.44
510.968	625.44
511.184	155.44
511.401	113.44
511.617	95.44
511.833	90.44
512.049	90.44
512.265	100.44
512.481	95.44
512.698	108.44
512.914	99.44
513.13	96.44
513.346	92.44
513.562	84.44
513.778	87.44
513.994	89.44
514.21	102.44
514.426	119.44
514.642	135.44
514.858	122.44
515.074	167.44
515.29	427.44
515.506	1358.44
515.721	515.44
515.937	154.44
516.153	101.44
