Data from Uncirc_2001_H10_HRD10591_00031.txt Node
Date: Wed Jan 03 10:44:03 EST 2024
User: Yrep
Spectrometer: HR+D1059
Trigger mode: 1
Integration Time (sec): 1.000000E-1
Scans to average: 1
Electric dark correction enabled: true
Nonlinearity correction enabled: false
Boxcar width: 0
XAxis mode: Wavelengths
Number of Pixels in Spectrum: 2048
>>>>>Begin Spectral Data<<<<<
223.165	-21.62
223.4	-21.62
223.635	-21.62
223.869	-19.62
224.104	-17.62
224.338	-24.62
224.573	-15.62
224.808	-2.62
225.042	-14.62
225.277	-4.62
225.511	-1.62
225.746	6.38
225.98	17.38
226.215	9.38
226.449	18.38
226.683	21.38
226.918	20.38
227.152	29.38
227.387	25.38
227.621	37.38
227.856	38.38
228.09	57.38
228.324	54.38
228.559	49.38
228.793	61.38
229.027	62.38
229.262	58.38
229.496	68.38
229.73	77.38
229.964	72.38
230.199	64.38
230.433	73.38
230.667	86.38
230.901	68.38
231.136	78.38
231.37	73.38
231.604	87.38
231.838	89.38
232.072	74.38
232.306	73.38
232.541	68.38
232.775	74.38
233.009	59.38
233.243	84.38
233.477	75.38
233.711	99.38
233.945	75.38
234.179	77.38
234.413	91.38
234.647	78.38
234.881	62.38
235.115	91.38
235.349	74.38
235.583	76.38
235.817	89.38
236.051	76.38
236.285	76.38
236.519	78.38
236.753	86.38
236.987	75.38
237.221	77.38
237.455	88.38
237.689	90.38
237.922	68.38
238.156	71.38
238.39	66.38
238.624	79.38
238.858	74.38
239.091	67.38
239.325	87.38
239.559	81.38
239.793	86.38
240.027	86.38
240.26	78.38
240.494	68.38
240.728	87.38
240.961	80.38
241.195	79.38
241.429	82.38
241.662	86.38
241.896	75.38
242.13	70.38
242.363	55.38
242.597	76.38
242.83	72.38
243.064	73.38
243.298	76.38
243.531	76.38
243.765	68.38
243.998	83.38
244.232	78.38
244.465	82.38
244.699	82.38
244.932	74.38
245.166	73.38
245.399	70.38
245.633	69.38
245.866	69.38
246.099	88.38
246.333	78.38
246.566	83.38
246.8	66.38
247.033	75.38
247.266	83.38
247.5	84.38
247.733	85.38
247.966	76.38
248.2	79.38
248.433	84.38
248.666	84.38
248.899	78.38
249.133	77.38
249.366	96.38
249.599	90.38
249.832	80.38
250.066	81.38
250.299	69.38
250.532	85.38
250.765	76.38
250.998	81.38
251.231	79.38
251.465	74.38
251.698	76.38
251.931	71.38
252.164	70.38
252.397	87.38
252.63	85.38
252.863	87.38
253.096	92.38
253.329	71.38
253.562	83.38
253.795	89.38
254.028	73.38
254.261	96.38
254.494	89.38
254.727	88.38
254.96	76.38
255.193	85.38
255.426	83.38
255.659	83.38
255.892	89.38
256.124	85.38
256.357	97.38
256.59	88.38
256.823	76.38
257.056	75.38
257.289	83.38
257.521	60.38
257.754	90.38
257.987	75.38
258.22	74.38
258.452	88.38
258.685	77.38
258.918	75.38
259.151	74.38
259.383	92.38
259.616	71.38
259.849	83.38
260.081	79.38
260.314	84.38
260.547	88.38
260.779	94.38
261.012	76.38
261.244	73.38
261.477	83.38
261.71	96.38
261.942	108.38
262.175	112.38
262.407	77.38
262.64	76.38
262.872	83.38
263.105	100.38
263.337	86.38
263.57	82.38
263.802	69.38
264.035	85.38
264.267	74.38
264.499	89.38
264.732	95.38
264.964	95.38
265.197	61.38
265.429	76.38
265.661	86.38
265.894	80.38
266.126	81.38
266.358	85.38
266.591	81.38
266.823	74.38
267.055	76.38
267.287	93.38
267.52	93.38
267.752	79.38
267.984	91.38
268.216	87.38
268.448	92.38
268.681	75.38
268.913	80.38
269.145	76.38
269.377	78.38
269.609	66.38
269.841	76.38
270.073	85.38
270.306	78.38
270.538	86.38
270.77	80.38
271.002	64.38
271.234	90.38
271.466	69.38
271.698	86.38
271.93	85.38
272.162	80.38
272.394	87.38
272.626	105.38
272.858	93.38
273.09	88.38
273.322	74.38
273.553	88.38
273.785	77.38
274.017	85.38
274.249	85.38
274.481	92.38
274.713	90.38
274.945	77.38
275.176	101.38
275.408	84.38
275.64	104.38
275.872	70.38
276.104	86.38
276.335	93.38
276.567	90.38
276.799	85.38
277.031	113.38
277.262	87.38
277.494	90.38
277.726	93.38
277.957	63.38
278.189	65.38
278.421	83.38
278.652	87.38
278.884	101.38
279.115	75.38
279.347	77.38
279.579	82.38
279.81	101.38
280.042	89.38
280.273	92.38
280.505	69.38
280.736	84.38
280.968	93.38
281.199	98.38
281.431	83.38
281.662	86.38
281.894	78.38
282.125	107.38
282.356	102.38
282.588	142.38
282.819	105.38
283.051	94.38
283.282	92.38
283.513	76.38
283.745	75.38
283.976	86.38
284.207	86.38
284.439	87.38
284.67	94.38
284.901	84.38
285.132	81.38
285.364	93.38
285.595	88.38
285.826	83.38
286.057	85.38
286.288	73.38
286.52	90.38
286.751	82.38
286.982	98.38
287.213	94.38
287.444	86.38
287.675	84.38
287.906	75.38
288.138	100.38
288.369	90.38
288.6	91.38
288.831	79.38
289.062	90.38
289.293	84.38
289.524	84.38
289.755	78.38
289.986	81.38
290.217	84.38
290.448	82.38
290.679	77.38
290.91	98.38
291.141	90.38
291.371	88.38
291.602	94.38
291.833	89.38
292.064	90.38
292.295	95.38
292.526	78.38
292.757	81.38
292.987	99.38
293.218	104.38
293.449	92.38
293.68	82.38
293.91	88.38
294.141	94.38
294.372	74.38
294.603	93.38
294.833	81.38
295.064	84.38
295.295	92.38
295.525	95.38
295.756	91.38
295.987	112.38
296.217	137.38
296.448	118.38
296.679	101.38
296.909	94.38
297.14	86.38
297.37	102.38
297.601	78.38
297.831	84.38
298.062	105.38
298.292	91.38
298.523	79.38
298.753	94.38
298.984	76.38
299.214	73.38
299.445	92.38
299.675	79.38
299.905	89.38
300.136	88.38
300.366	92.38
300.597	89.38
300.827	92.38
301.057	104.38
301.288	105.38
301.518	85.38
301.748	91.38
301.979	100.38
302.209	91.38
302.439	76.38
302.669	87.38
302.9	98.38
303.13	87.38
303.36	95.38
303.59	132.38
303.82	104.38
304.051	82.38
304.281	93.38
304.511	81.38
304.741	89.38
304.971	76.38
305.201	95.38
305.431	92.38
305.661	103.38
305.891	94.38
306.121	113.38
306.352	90.38
306.582	83.38
306.812	92.38
307.042	85.38
307.272	85.38
307.502	76.38
307.731	102.38
307.961	86.38
308.191	105.38
308.421	84.38
308.651	80.38
308.881	96.38
309.111	82.38
309.341	102.38
309.571	96.38
309.8	96.38
310.03	94.38
310.26	89.38
310.49	91.38
310.72	97.38
310.949	111.38
311.179	107.38
311.409	99.38
311.639	100.38
311.868	81.38
312.098	76.38
312.328	92.38
312.557	104.38
312.787	111.38
313.017	113.38
313.246	102.38
313.476	98.38
313.706	97.38
313.935	95.38
314.165	113.38
314.394	101.38
314.624	79.38
314.853	90.38
315.083	94.38
315.312	94.38
315.542	88.38
315.771	99.38
316.001	98.38
316.23	100.38
316.46	88.38
316.689	87.38
316.919	95.38
317.148	100.38
317.377	88.38
317.607	99.38
317.836	91.38
318.065	92.38
318.295	93.38
318.524	104.38
318.753	82.38
318.983	85.38
319.212	97.38
319.441	114.38
319.67	119.38
319.9	114.38
320.129	98.38
320.358	88.38
320.587	102.38
320.816	100.38
321.046	87.38
321.275	112.38
321.504	93.38
321.733	103.38
321.962	89.38
322.191	94.38
322.42	102.38
322.649	103.38
322.878	115.38
323.108	111.38
323.337	104.38
323.566	128.38
323.795	136.38
324.024	193.38
324.253	360.38
324.482	728.38
324.71	1448.38
324.939	1814.38
325.168	696.38
325.397	221.38
325.626	132.38
325.855	124.38
326.084	129.38
326.313	120.38
326.542	148.38
326.77	215.38
326.999	409.38
327.228	791.38
327.457	1381.38
327.686	1100.38
327.914	308.38
328.143	185.38
328.372	156.38
328.6	123.38
328.829	111.38
329.058	122.38
329.287	124.38
329.515	105.38
329.744	113.38
329.972	97.38
330.201	104.38
330.43	98.38
330.658	121.38
330.887	140.38
331.115	140.38
331.344	105.38
331.572	100.38
331.801	104.38
332.03	101.38
332.258	91.38
332.486	94.38
332.715	95.38
332.943	94.38
333.172	97.38
333.4	116.38
333.629	94.38
333.857	95.38
334.085	104.38
334.314	83.38
334.542	107.38
334.771	98.38
334.999	91.38
335.227	98.38
335.455	100.38
335.684	76.38
335.912	100.38
336.14	110.38
336.369	96.38
336.597	93.38
336.825	85.38
337.053	93.38
337.281	84.38
337.51	101.38
337.738	88.38
337.966	100.38
338.194	98.38
338.422	90.38
338.65	88.38
338.878	94.38
339.106	90.38
339.334	87.38
339.562	80.38
339.79	85.38
340.018	78.38
340.246	83.38
340.474	100.38
340.702	92.38
340.93	99.38
341.158	92.38
341.386	93.38
341.614	87.38
341.842	99.38
342.07	76.38
342.298	86.38
342.526	103.38
342.754	85.38
342.981	87.38
343.209	92.38
343.437	102.38
343.665	101.38
343.893	82.38
344.12	87.38
344.348	94.38
344.576	94.38
344.804	78.38
345.031	106.38
345.259	93.38
345.487	100.38
345.714	87.38
345.942	101.38
346.17	91.38
346.397	79.38
346.625	84.38
346.853	84.38
347.08	97.38
347.308	91.38
347.535	94.38
347.763	82.38
347.99	97.38
348.218	90.38
348.445	104.38
348.673	100.38
348.9	104.38
349.128	88.38
349.355	86.38
349.583	70.38
349.81	89.38
350.037	83.38
350.265	98.38
350.492	83.38
350.72	90.38
350.947	93.38
351.174	98.38
351.402	118.38
351.629	94.38
351.856	104.38
352.083	107.38
352.311	98.38
352.538	107.38
352.765	98.38
352.992	122.38
353.22	98.38
353.447	105.38
353.674	105.38
353.901	98.38
354.128	97.38
354.355	94.38
354.583	102.38
354.81	104.38
355.037	98.38
355.264	109.38
355.491	95.38
355.718	105.38
355.945	102.38
356.172	90.38
356.399	91.38
356.626	77.38
356.853	105.38
357.08	86.38
357.307	104.38
357.534	98.38
357.761	75.38
357.988	85.38
358.215	90.38
358.441	80.38
358.668	95.38
358.895	89.38
359.122	97.38
359.349	84.38
359.576	82.38
359.802	88.38
360.029	108.38
360.256	93.38
360.483	103.38
360.709	83.38
360.936	86.38
361.163	84.38
361.39	105.38
361.616	88.38
361.843	91.38
362.07	97.38
362.296	103.38
362.523	108.38
362.749	83.38
362.976	104.38
363.203	92.38
363.429	74.38
363.656	84.38
363.882	93.38
364.109	95.38
364.335	104.38
364.562	94.38
364.788	99.38
365.015	96.38
365.241	100.38
365.468	98.38
365.694	96.38
365.92	81.38
366.147	89.38
366.373	80.38
366.599	100.38
366.826	96.38
367.052	88.38
367.278	82.38
367.505	91.38
367.731	88.38
367.957	80.38
368.184	101.38
368.41	94.38
368.636	114.38
368.862	117.38
369.089	95.38
369.315	86.38
369.541	91.38
369.767	84.38
369.993	110.38
370.219	93.38
370.445	76.38
370.672	94.38
370.898	81.38
371.124	85.38
371.35	93.38
371.576	89.38
371.802	91.38
372.028	81.38
372.254	89.38
372.48	93.38
372.706	89.38
372.932	102.38
373.158	93.38
373.384	101.38
373.61	83.38
373.835	92.38
374.061	91.38
374.287	92.38
374.513	86.38
374.739	103.38
374.965	98.38
375.191	80.38
375.416	80.38
375.642	87.38
375.868	85.38
376.094	69.38
376.319	89.38
376.545	97.38
376.771	91.38
376.997	87.38
377.222	62.38
377.448	87.38
377.674	80.38
377.899	87.38
378.125	78.38
378.35	97.38
378.576	88.38
378.802	84.38
379.027	85.38
379.253	85.38
379.478	82.38
379.704	85.38
379.929	103.38
380.155	100.38
380.38	101.38
380.606	94.38
380.831	76.38
381.057	98.38
381.282	91.38
381.507	92.38
381.733	109.38
381.958	100.38
382.184	100.38
382.409	111.38
382.634	94.38
382.86	115.38
383.085	96.38
383.31	100.38
383.535	102.38
383.761	94.38
383.986	101.38
384.211	98.38
384.436	120.38
384.662	93.38
384.887	102.38
385.112	99.38
385.337	99.38
385.562	84.38
385.787	105.38
386.013	121.38
386.238	105.38
386.463	104.38
386.688	109.38
386.913	105.38
387.138	109.38
387.363	112.38
387.588	83.38
387.813	110.38
388.038	104.38
388.263	120.38
388.488	109.38
388.713	97.38
388.938	78.38
389.163	101.38
389.387	105.38
389.612	93.38
389.837	100.38
390.062	95.38
390.287	90.38
390.512	76.38
390.736	100.38
390.961	86.38
391.186	86.38
391.411	88.38
391.636	100.38
391.86	95.38
392.085	90.38
392.31	81.38
392.534	72.38
392.759	66.38
392.984	95.38
393.208	81.38
393.433	94.38
393.658	84.38
393.882	94.38
394.107	84.38
394.331	94.38
394.556	87.38
394.78	89.38
395.005	76.38
395.229	93.38
395.454	97.38
395.678	88.38
395.903	111.38
396.127	96.38
396.352	87.38
396.576	93.38
396.801	82.38
397.025	94.38
397.249	80.38
397.474	86.38
397.698	82.38
397.922	90.38
398.147	88.38
398.371	96.38
398.595	109.38
398.82	94.38
399.044	85.38
399.268	78.38
399.492	93.38
399.717	95.38
399.941	84.38
400.165	93.38
400.389	93.38
400.613	70.38
400.837	77.38
401.062	73.38
401.286	93.38
401.51	96.38
401.734	99.38
401.958	97.38
402.182	142.38
402.406	172.38
402.63	114.38
402.854	89.38
403.078	89.38
403.302	81.38
403.526	87.38
403.75	92.38
403.974	85.38
404.198	88.38
404.422	94.38
404.645	102.38
404.869	89.38
405.093	89.38
405.317	98.38
405.541	96.38
405.765	86.38
405.988	120.38
406.212	158.38
406.436	224.38
406.66	134.38
406.883	102.38
407.107	89.38
407.331	84.38
407.555	93.38
407.778	92.38
408.002	78.38
408.226	91.38
408.449	90.38
408.673	109.38
408.896	109.38
409.12	92.38
409.344	87.38
409.567	86.38
409.791	94.38
410.014	92.38
410.238	100.38
410.461	92.38
410.685	99.38
410.908	99.38
411.132	91.38
411.355	92.38
411.578	89.38
411.802	88.38
412.025	90.38
412.249	97.38
412.472	87.38
412.695	85.38
412.919	87.38
413.142	80.38
413.365	75.38
413.589	87.38
413.812	102.38
414.035	93.38
414.258	77.38
414.482	81.38
414.705	91.38
414.928	92.38
415.151	100.38
415.374	89.38
415.597	83.38
415.821	76.38
416.044	85.38
416.267	85.38
416.49	99.38
416.713	88.38
416.936	93.38
417.159	85.38
417.382	82.38
417.605	98.38
417.828	96.38
418.051	90.38
418.274	93.38
418.497	88.38
418.72	85.38
418.943	85.38
419.166	82.38
419.389	90.38
419.611	87.38
419.834	90.38
420.057	85.38
420.28	85.38
420.503	89.38
420.726	82.38
420.948	98.38
421.171	80.38
421.394	91.38
421.617	93.38
421.839	73.38
422.062	83.38
422.285	94.38
422.507	109.38
422.73	101.38
422.953	100.38
423.175	85.38
423.398	91.38
423.621	85.38
423.843	90.38
424.066	90.38
424.288	81.38
424.511	94.38
424.733	100.38
424.956	89.38
425.178	99.38
425.401	101.38
425.623	102.38
425.846	90.38
426.068	92.38
426.291	86.38
426.513	79.38
426.735	98.38
426.958	96.38
427.18	94.38
427.402	124.38
427.625	152.38
427.847	112.38
428.069	80.38
428.292	91.38
428.514	86.38
428.736	98.38
428.958	86.38
429.181	91.38
429.403	90.38
429.625	80.38
429.847	89.38
430.069	98.38
430.292	98.38
430.514	76.38
430.736	71.38
430.958	92.38
431.18	81.38
431.402	89.38
431.624	76.38
431.846	93.38
432.068	77.38
432.29	89.38
432.512	108.38
432.734	85.38
432.956	85.38
433.178	100.38
433.4	94.38
433.622	82.38
433.844	84.38
434.066	87.38
434.287	86.38
434.509	96.38
434.731	89.38
434.953	91.38
435.175	85.38
435.397	84.38
435.618	94.38
435.84	104.38
436.062	103.38
436.284	108.38
436.505	104.38
436.727	89.38
436.949	90.38
437.17	99.38
437.392	83.38
437.614	82.38
437.835	118.38
438.057	123.38
438.278	108.38
438.5	91.38
438.721	113.38
438.943	104.38
439.165	90.38
439.386	94.38
439.608	101.38
439.829	96.38
440.05	122.38
440.272	125.38
440.493	102.38
440.715	98.38
440.936	85.38
441.158	94.38
441.379	90.38
441.6	77.38
441.822	102.38
442.043	82.38
442.264	100.38
442.486	102.38
442.707	96.38
442.928	106.38
443.149	111.38
443.371	117.38
443.592	100.38
443.813	98.38
444.034	102.38
444.255	84.38
444.476	82.38
444.698	84.38
444.919	93.38
445.14	115.38
445.361	115.38
445.582	96.38
445.803	109.38
446.024	122.38
446.245	114.38
446.466	102.38
446.687	73.38
446.908	82.38
447.129	93.38
447.35	79.38
447.571	104.38
447.792	91.38
448.013	99.38
448.234	100.38
448.455	90.38
448.675	109.38
448.896	103.38
449.117	104.38
449.338	102.38
449.559	116.38
449.779	128.38
450	94.38
450.221	96.38
450.442	89.38
450.662	97.38
450.883	97.38
451.104	104.38
451.324	102.38
451.545	87.38
451.766	94.38
451.986	77.38
452.207	104.38
452.428	87.38
452.648	102.38
452.869	101.38
453.089	109.38
453.31	117.38
453.53	90.38
453.751	106.38
453.971	109.38
454.192	107.38
454.412	71.38
454.633	86.38
454.853	96.38
455.073	77.38
455.294	91.38
455.514	95.38
455.734	98.38
455.955	97.38
456.175	95.38
456.395	82.38
456.616	86.38
456.836	86.38
457.056	94.38
457.276	92.38
457.497	74.38
457.717	85.38
457.937	84.38
458.157	81.38
458.377	94.38
458.598	110.38
458.818	143.38
459.038	144.38
459.258	115.38
459.478	89.38
459.698	92.38
459.918	87.38
460.138	90.38
460.358	90.38
460.578	83.38
460.798	93.38
461.018	70.38
461.238	74.38
461.458	89.38
461.678	77.38
461.898	93.38
462.118	90.38
462.338	94.38
462.558	94.38
462.777	73.38
462.997	91.38
463.217	90.38
463.437	82.38
463.657	83.38
463.876	73.38
464.096	82.38
464.316	88.38
464.536	90.38
464.755	94.38
464.975	102.38
465.195	164.38
465.414	155.38
465.634	92.38
465.854	95.38
466.073	97.38
466.293	101.38
466.512	75.38
466.732	85.38
466.951	79.38
467.171	99.38
467.391	102.38
467.61	99.38
467.829	89.38
468.049	93.38
468.268	88.38
468.488	88.38
468.707	96.38
468.927	86.38
469.146	76.38
469.365	88.38
469.585	89.38
469.804	74.38
470.023	94.38
470.243	95.38
470.462	86.38
470.681	109.38
470.901	93.38
471.12	84.38
471.339	78.38
471.558	91.38
471.777	89.38
471.997	83.38
472.216	85.38
472.435	92.38
472.654	94.38
472.873	95.38
473.092	92.38
473.311	83.38
473.53	94.38
473.749	69.38
473.968	88.38
474.187	106.38
474.406	105.38
474.625	91.38
474.844	87.38
475.063	81.38
475.282	81.38
475.501	87.38
475.72	93.38
475.939	90.38
476.158	90.38
476.377	89.38
476.596	73.38
476.814	89.38
477.033	96.38
477.252	78.38
477.471	91.38
477.69	78.38
477.908	91.38
478.127	97.38
478.346	93.38
478.564	102.38
478.783	93.38
479.002	92.38
479.22	91.38
479.439	103.38
479.658	90.38
479.876	72.38
480.095	90.38
480.313	85.38
480.532	98.38
480.751	102.38
480.969	86.38
481.188	95.38
481.406	97.38
481.624	101.38
481.843	91.38
482.061	87.38
482.28	88.38
482.498	77.38
482.717	57.38
482.935	100.38
483.153	75.38
483.372	77.38
483.59	72.38
483.808	79.38
484.027	85.38
484.245	99.38
484.463	88.38
484.681	89.38
484.9	89.38
485.118	91.38
485.336	89.38
485.554	92.38
485.772	91.38
485.99	92.38
486.209	106.38
486.427	99.38
486.645	107.38
486.863	110.38
487.081	100.38
487.299	95.38
487.517	90.38
487.735	81.38
487.953	89.38
488.171	84.38
488.389	92.38
488.607	106.38
488.825	84.38
489.043	85.38
489.261	90.38
489.479	103.38
489.696	82.38
489.914	84.38
490.132	89.38
490.35	95.38
490.568	86.38
490.786	89.38
491.003	77.38
491.221	92.38
491.439	76.38
491.657	103.38
491.874	93.38
492.092	96.38
492.31	93.38
492.527	81.38
492.745	86.38
492.963	82.38
493.18	84.38
493.398	72.38
493.615	94.38
493.833	97.38
494.05	98.38
494.268	83.38
494.485	100.38
494.703	96.38
494.92	96.38
495.138	97.38
495.355	98.38
495.573	90.38
495.79	76.38
496.008	95.38
496.225	95.38
496.442	88.38
496.66	89.38
496.877	93.38
497.094	88.38
497.312	90.38
497.529	76.38
497.746	86.38
497.963	95.38
498.181	92.38
498.398	98.38
498.615	117.38
498.832	91.38
499.049	84.38
499.267	84.38
499.484	87.38
499.701	107.38
499.918	96.38
500.135	85.38
500.352	88.38
500.569	88.38
500.786	93.38
501.003	91.38
501.22	86.38
501.437	99.38
501.654	90.38
501.871	116.38
502.088	104.38
502.305	89.38
502.522	85.38
502.739	91.38
502.956	89.38
503.172	103.38
503.389	104.38
503.606	91.38
503.823	109.38
504.04	102.38
504.256	79.38
504.473	77.38
504.69	84.38
504.907	114.38
505.123	98.38
505.34	96.38
505.557	89.38
505.773	86.38
505.99	95.38
506.207	66.38
506.423	84.38
506.64	92.38
506.856	85.38
507.073	90.38
507.289	92.38
507.506	112.38
507.722	107.38
507.939	99.38
508.155	96.38
508.372	88.38
508.588	106.38
508.805	104.38
509.021	100.38
509.238	97.38
509.454	88.38
509.67	82.38
509.887	107.38
510.103	133.38
510.319	222.38
510.536	775.38
510.752	2341.38
510.968	634.38
511.184	157.38
511.401	108.38
511.617	98.38
511.833	112.38
512.049	100.38
512.265	84.38
512.481	97.38
512.698	88.38
512.914	90.38
513.13	80.38
513.346	91.38
513.562	66.38
513.778	95.38
513.994	93.38
514.21	98.38
514.426	121.38
514.642	133.38
514.858	130.38
515.074	167.38
515.29	457.38
515.506	1478.38
515.721	534.38
