Data from Uncirc_2001_H10_HRD10591_00057.txt Node
Date: Wed Jan 03 10:44:08 EST 2024
User: Yrep
Spectrometer: HR+D1059
Trigger mode: 1
Integration Time (sec): 1.000000E-1
Scans to average: 1
Electric dark correction enabled: true
Nonlinearity correction enabled: false
Boxcar width: 0
XAxis mode: Wavelengths
Number of Pixels in Spectrum: 2048
>>>>>Begin Spectral Data<<<<<
223.165	-8.62
223.4	-8.62
223.635	-8.62
223.869	-11.62
224.104	-30.62
224.338	-19.62
224.573	-26.62
224.808	-11.62
225.042	-9.62
225.277	-9.62
225.511	3.38
225.746	12.38
225.98	7.38
226.215	9.38
226.449	25.38
226.683	12.38
226.918	15.38
227.152	42.38
227.387	43.38
227.621	46.38
227.856	42.38
228.09	49.38
228.324	51.38
228.559	54.38
228.793	57.38
229.027	52.38
229.262	72.38
229.496	65.38
229.73	87.38
229.964	74.38
230.199	71.38
230.433	94.38
230.667	81.38
230.901	79.38
231.136	80.38
231.37	91.38
231.604	88.38
231.838	92.38
232.072	78.38
232.306	78.38
232.541	78.38
232.775	76.38
233.009	85.38
233.243	85.38
233.477	76.38
233.711	74.38
233.945	76.38
234.179	81.38
234.413	70.38
234.647	88.38
234.881	84.38
235.115	80.38
235.349	75.38
235.583	75.38
235.817	75.38
236.051	80.38
236.285	79.38
236.519	77.38
236.753	79.38
236.987	78.38
237.221	78.38
237.455	75.38
237.689	87.38
237.922	74.38
238.156	88.38
238.39	75.38
238.624	80.38
238.858	68.38
239.091	82.38
239.325	82.38
239.559	83.38
239.793	89.38
240.027	84.38
240.26	77.38
240.494	75.38
240.728	91.38
240.961	68.38
241.195	79.38
241.429	70.38
241.662	73.38
241.896	57.38
242.13	84.38
242.363	79.38
242.597	82.38
242.83	74.38
243.064	84.38
243.298	71.38
243.531	71.38
243.765	72.38
243.998	84.38
244.232	84.38
244.465	84.38
244.699	70.38
244.932	79.38
245.166	83.38
245.399	83.38
245.633	72.38
245.866	86.38
246.099	68.38
246.333	66.38
246.566	67.38
246.8	90.38
247.033	74.38
247.266	88.38
247.5	73.38
247.733	93.38
247.966	71.38
248.2	90.38
248.433	84.38
248.666	79.38
248.899	84.38
249.133	94.38
249.366	99.38
249.599	83.38
249.832	91.38
250.066	77.38
250.299	84.38
250.532	86.38
250.765	78.38
250.998	88.38
251.231	96.38
251.465	80.38
251.698	85.38
251.931	75.38
252.164	75.38
252.397	58.38
252.63	77.38
252.863	80.38
253.096	85.38
253.329	80.38
253.562	81.38
253.795	77.38
254.028	98.38
254.261	97.38
254.494	77.38
254.727	81.38
254.96	84.38
255.193	84.38
255.426	70.38
255.659	81.38
255.892	79.38
256.124	75.38
256.357	72.38
256.59	72.38
256.823	83.38
257.056	77.38
257.289	87.38
257.521	77.38
257.754	73.38
257.987	57.38
258.22	87.38
258.452	83.38
258.685	83.38
258.918	93.38
259.151	83.38
259.383	96.38
259.616	80.38
259.849	83.38
260.081	75.38
260.314	82.38
260.547	76.38
260.779	74.38
261.012	73.38
261.244	87.38
261.477	98.38
261.71	93.38
261.942	111.38
262.175	99.38
262.407	80.38
262.64	79.38
262.872	93.38
263.105	84.38
263.337	93.38
263.57	96.38
263.802	74.38
264.035	91.38
264.267	79.38
264.499	87.38
264.732	82.38
264.964	88.38
265.197	84.38
265.429	74.38
265.661	90.38
265.894	92.38
266.126	90.38
266.358	93.38
266.591	74.38
266.823	81.38
267.055	75.38
267.287	77.38
267.52	86.38
267.752	85.38
267.984	87.38
268.216	85.38
268.448	93.38
268.681	72.38
268.913	81.38
269.145	85.38
269.377	76.38
269.609	82.38
269.841	84.38
270.073	84.38
270.306	82.38
270.538	77.38
270.77	88.38
271.002	93.38
271.234	85.38
271.466	78.38
271.698	83.38
271.93	98.38
272.162	95.38
272.394	90.38
272.626	89.38
272.858	72.38
273.09	92.38
273.322	92.38
273.553	87.38
273.785	94.38
274.017	89.38
274.249	91.38
274.481	86.38
274.713	84.38
274.945	84.38
275.176	84.38
275.408	89.38
275.64	85.38
275.872	97.38
276.104	87.38
276.335	87.38
276.567	109.38
276.799	108.38
277.031	88.38
277.262	81.38
277.494	88.38
277.726	88.38
277.957	81.38
278.189	99.38
278.421	92.38
278.652	92.38
278.884	89.38
279.115	91.38
279.347	96.38
279.579	88.38
279.81	98.38
280.042	87.38
280.273	88.38
280.505	85.38
280.736	90.38
280.968	83.38
281.199	84.38
281.431	91.38
281.662	97.38
281.894	95.38
282.125	95.38
282.356	113.38
282.588	133.38
282.819	94.38
283.051	97.38
283.282	76.38
283.513	79.38
283.745	88.38
283.976	95.38
284.207	75.38
284.439	82.38
284.67	81.38
284.901	89.38
285.132	96.38
285.364	83.38
285.595	96.38
285.826	87.38
286.057	70.38
286.288	85.38
286.52	92.38
286.751	100.38
286.982	77.38
287.213	100.38
287.444	77.38
287.675	103.38
287.906	91.38
288.138	108.38
288.369	89.38
288.6	90.38
288.831	81.38
289.062	91.38
289.293	84.38
289.524	98.38
289.755	84.38
289.986	87.38
290.217	92.38
290.448	85.38
290.679	104.38
290.91	92.38
291.141	99.38
291.371	84.38
291.602	100.38
291.833	79.38
292.064	83.38
292.295	96.38
292.526	81.38
292.757	87.38
292.987	88.38
293.218	72.38
293.449	91.38
293.68	96.38
293.91	77.38
294.141	103.38
294.372	103.38
294.603	90.38
294.833	82.38
295.064	81.38
295.295	88.38
295.525	89.38
295.756	107.38
295.987	112.38
296.217	120.38
296.448	117.38
296.679	92.38
296.909	90.38
297.14	93.38
297.37	89.38
297.601	86.38
297.831	91.38
298.062	111.38
298.292	103.38
298.523	83.38
298.753	97.38
298.984	77.38
299.214	99.38
299.445	82.38
299.675	76.38
299.905	92.38
300.136	96.38
300.366	81.38
300.597	83.38
300.827	84.38
301.057	96.38
301.288	102.38
301.518	97.38
301.748	94.38
301.979	100.38
302.209	106.38
302.439	100.38
302.669	88.38
302.9	95.38
303.13	85.38
303.36	77.38
303.59	102.38
303.82	101.38
304.051	94.38
304.281	95.38
304.511	85.38
304.741	85.38
304.971	88.38
305.201	88.38
305.431	87.38
305.661	98.38
305.891	92.38
306.121	93.38
306.352	95.38
306.582	113.38
306.812	79.38
307.042	99.38
307.272	94.38
307.502	91.38
307.731	97.38
307.961	95.38
308.191	81.38
308.421	95.38
308.651	91.38
308.881	89.38
309.111	87.38
309.341	97.38
309.571	98.38
309.8	85.38
310.03	100.38
310.26	91.38
310.49	104.38
310.72	93.38
310.949	120.38
311.179	96.38
311.409	105.38
311.639	87.38
311.868	91.38
312.098	94.38
312.328	88.38
312.557	99.38
312.787	115.38
313.017	82.38
313.246	92.38
313.476	76.38
313.706	75.38
313.935	102.38
314.165	85.38
314.394	111.38
314.624	108.38
314.853	97.38
315.083	92.38
315.312	94.38
315.542	94.38
315.771	84.38
316.001	97.38
316.23	97.38
316.46	95.38
316.689	92.38
316.919	95.38
317.148	90.38
317.377	90.38
317.607	101.38
317.836	100.38
318.065	85.38
318.295	90.38
318.524	90.38
318.753	100.38
318.983	104.38
319.212	87.38
319.441	108.38
319.67	101.38
319.9	80.38
320.129	98.38
320.358	82.38
320.587	98.38
320.816	98.38
321.046	92.38
321.275	93.38
321.504	90.38
321.733	98.38
321.962	94.38
322.191	100.38
322.42	92.38
322.649	106.38
322.878	104.38
323.108	124.38
323.337	115.38
323.566	121.38
323.795	148.38
324.024	192.38
324.253	369.38
324.482	740.38
324.71	1490.38
324.939	1859.38
325.168	691.38
325.397	222.38
325.626	165.38
325.855	116.38
326.084	118.38
326.313	129.38
326.542	151.38
326.77	226.38
326.999	395.38
327.228	831.38
327.457	1461.38
327.686	1170.38
327.914	329.38
328.143	179.38
328.372	137.38
328.6	127.38
328.829	103.38
329.058	109.38
329.287	123.38
329.515	106.38
329.744	101.38
329.972	86.38
330.201	118.38
330.43	96.38
330.658	131.38
330.887	147.38
331.115	123.38
331.344	102.38
331.572	110.38
331.801	104.38
332.03	106.38
332.258	95.38
332.486	92.38
332.715	89.38
332.943	92.38
333.172	83.38
333.4	88.38
333.629	99.38
333.857	105.38
334.085	105.38
334.314	87.38
334.542	96.38
334.771	91.38
334.999	104.38
335.227	91.38
335.455	86.38
335.684	95.38
335.912	104.38
336.14	97.38
336.369	96.38
336.597	104.38
336.825	95.38
337.053	94.38
337.281	90.38
337.51	94.38
337.738	92.38
337.966	89.38
338.194	99.38
338.422	87.38
338.65	95.38
338.878	97.38
339.106	81.38
339.334	100.38
339.562	85.38
339.79	76.38
340.018	88.38
340.246	100.38
340.474	94.38
340.702	101.38
340.93	80.38
341.158	92.38
341.386	88.38
341.614	99.38
341.842	95.38
342.07	100.38
342.298	91.38
342.526	91.38
342.754	88.38
342.981	81.38
343.209	84.38
343.437	81.38
343.665	89.38
343.893	91.38
344.12	87.38
344.348	92.38
344.576	93.38
344.804	91.38
345.031	88.38
345.259	96.38
345.487	92.38
345.714	96.38
345.942	79.38
346.17	99.38
346.397	86.38
346.625	97.38
346.853	104.38
347.08	99.38
347.308	91.38
347.535	91.38
347.763	116.38
347.99	97.38
348.218	107.38
348.445	103.38
348.673	101.38
348.9	90.38
349.128	109.38
349.355	95.38
349.583	86.38
349.81	107.38
350.037	87.38
350.265	91.38
350.492	103.38
350.72	93.38
350.947	101.38
351.174	106.38
351.402	112.38
351.629	109.38
351.856	97.38
352.083	105.38
352.311	101.38
352.538	109.38
352.765	111.38
352.992	109.38
353.22	108.38
353.447	109.38
353.674	87.38
353.901	96.38
354.128	99.38
354.355	85.38
354.583	90.38
354.81	104.38
355.037	101.38
355.264	94.38
355.491	94.38
355.718	82.38
355.945	104.38
356.172	98.38
356.399	91.38
356.626	98.38
356.853	92.38
357.08	83.38
357.307	101.38
357.534	93.38
357.761	80.38
357.988	98.38
358.215	98.38
358.441	88.38
358.668	97.38
358.895	92.38
359.122	65.38
359.349	82.38
359.576	84.38
359.802	105.38
360.029	111.38
360.256	116.38
360.483	104.38
360.709	85.38
360.936	107.38
361.163	94.38
361.39	93.38
361.616	106.38
361.843	93.38
362.07	82.38
362.296	101.38
362.523	96.38
362.749	88.38
362.976	90.38
363.203	95.38
363.429	86.38
363.656	90.38
363.882	91.38
364.109	83.38
364.335	105.38
364.562	87.38
364.788	79.38
365.015	96.38
365.241	99.38
365.468	106.38
365.694	97.38
365.92	92.38
366.147	90.38
366.373	87.38
366.599	96.38
366.826	101.38
367.052	90.38
367.278	96.38
367.505	87.38
367.731	97.38
367.957	105.38
368.184	91.38
368.41	95.38
368.636	103.38
368.862	123.38
369.089	98.38
369.315	84.38
369.541	99.38
369.767	86.38
369.993	88.38
370.219	101.38
370.445	91.38
370.672	91.38
370.898	76.38
371.124	81.38
371.35	90.38
371.576	84.38
371.802	80.38
372.028	79.38
372.254	71.38
372.48	94.38
372.706	83.38
372.932	87.38
373.158	87.38
373.384	88.38
373.61	83.38
373.835	96.38
374.061	82.38
374.287	92.38
374.513	83.38
374.739	87.38
374.965	85.38
375.191	93.38
375.416	85.38
375.642	88.38
375.868	100.38
376.094	103.38
376.319	83.38
376.545	89.38
376.771	82.38
376.997	87.38
377.222	90.38
377.448	93.38
377.674	85.38
377.899	81.38
378.125	91.38
378.35	103.38
378.576	93.38
378.802	96.38
379.027	89.38
379.253	102.38
379.478	88.38
379.704	73.38
379.929	96.38
380.155	89.38
380.38	86.38
380.606	101.38
380.831	98.38
381.057	105.38
381.282	92.38
381.507	79.38
381.733	88.38
381.958	92.38
382.184	88.38
382.409	96.38
382.634	99.38
382.86	87.38
383.085	108.38
383.31	107.38
383.535	99.38
383.761	79.38
383.986	93.38
384.211	99.38
384.436	91.38
384.662	89.38
384.887	98.38
385.112	90.38
385.337	106.38
385.562	102.38
385.787	107.38
386.013	87.38
386.238	109.38
386.463	116.38
386.688	97.38
386.913	106.38
387.138	100.38
387.363	108.38
387.588	98.38
387.813	105.38
388.038	96.38
388.263	108.38
388.488	116.38
388.713	101.38
388.938	81.38
389.163	87.38
389.387	93.38
389.612	89.38
389.837	89.38
390.062	84.38
390.287	85.38
390.512	91.38
390.736	92.38
390.961	95.38
391.186	112.38
391.411	99.38
391.636	89.38
391.86	72.38
392.085	85.38
392.31	92.38
392.534	84.38
392.759	82.38
392.984	80.38
393.208	81.38
393.433	87.38
393.658	89.38
393.882	72.38
394.107	82.38
394.331	92.38
394.556	87.38
394.78	58.38
395.005	87.38
395.229	83.38
395.454	86.38
395.678	80.38
395.903	84.38
396.127	85.38
396.352	80.38
396.576	89.38
396.801	93.38
397.025	91.38
397.249	92.38
397.474	102.38
397.698	83.38
397.922	86.38
398.147	90.38
398.371	86.38
398.595	88.38
398.82	83.38
399.044	99.38
399.268	92.38
399.492	110.38
399.717	90.38
399.941	81.38
400.165	85.38
400.389	99.38
400.613	89.38
400.837	93.38
401.062	91.38
401.286	92.38
401.51	79.38
401.734	80.38
401.958	100.38
402.182	121.38
402.406	159.38
402.63	114.38
402.854	92.38
403.078	89.38
403.302	82.38
403.526	97.38
403.75	93.38
403.974	77.38
404.198	91.38
404.422	87.38
404.645	98.38
404.869	90.38
405.093	93.38
405.317	105.38
405.541	94.38
405.765	89.38
405.988	117.38
406.212	165.38
406.436	228.38
406.66	135.38
406.883	104.38
407.107	91.38
407.331	83.38
407.555	88.38
407.778	95.38
408.002	97.38
408.226	85.38
408.449	85.38
408.673	87.38
408.896	84.38
409.12	83.38
409.344	76.38
409.567	95.38
409.791	104.38
410.014	94.38
410.238	105.38
410.461	93.38
410.685	98.38
410.908	83.38
411.132	114.38
411.355	90.38
411.578	86.38
411.802	78.38
412.025	84.38
412.249	80.38
412.472	83.38
412.695	101.38
412.919	90.38
413.142	93.38
413.365	82.38
413.589	85.38
413.812	80.38
414.035	95.38
414.258	92.38
414.482	97.38
414.705	82.38
414.928	91.38
415.151	84.38
415.374	92.38
415.597	81.38
415.821	98.38
416.044	95.38
416.267	77.38
416.49	93.38
416.713	82.38
416.936	93.38
417.159	89.38
417.382	77.38
417.605	104.38
417.828	76.38
418.051	76.38
418.274	93.38
418.497	82.38
418.72	79.38
418.943	93.38
419.166	89.38
419.389	84.38
419.611	93.38
419.834	86.38
420.057	84.38
420.28	89.38
420.503	93.38
420.726	84.38
420.948	91.38
421.171	95.38
421.394	88.38
421.617	88.38
421.839	81.38
422.062	91.38
422.285	111.38
422.507	103.38
422.73	95.38
422.953	76.38
423.175	96.38
423.398	84.38
423.621	88.38
423.843	84.38
424.066	86.38
424.288	96.38
424.511	90.38
424.733	86.38
424.956	100.38
425.178	96.38
425.401	90.38
425.623	106.38
425.846	100.38
426.068	99.38
426.291	97.38
426.513	91.38
426.735	84.38
426.958	104.38
427.18	98.38
427.402	139.38
427.625	161.38
427.847	127.38
428.069	95.38
428.292	90.38
428.514	83.38
428.736	96.38
428.958	87.38
429.181	88.38
429.403	84.38
429.625	92.38
429.847	87.38
430.069	91.38
430.292	86.38
430.514	86.38
430.736	77.38
430.958	93.38
431.18	92.38
431.402	77.38
431.624	82.38
431.846	82.38
432.068	85.38
432.29	97.38
432.512	95.38
432.734	80.38
432.956	87.38
433.178	103.38
433.4	93.38
433.622	95.38
433.844	83.38
434.066	100.38
434.287	93.38
434.509	93.38
434.731	96.38
434.953	88.38
435.175	79.38
435.397	96.38
435.618	83.38
435.84	77.38
436.062	106.38
436.284	102.38
436.505	96.38
436.727	105.38
436.949	106.38
437.17	90.38
437.392	84.38
437.614	92.38
437.835	102.38
438.057	119.38
438.278	112.38
438.5	104.38
438.721	111.38
438.943	103.38
439.165	103.38
439.386	85.38
439.608	92.38
439.829	88.38
440.05	124.38
440.272	130.38
440.493	89.38
440.715	83.38
440.936	88.38
441.158	83.38
441.379	86.38
441.6	96.38
441.822	91.38
442.043	98.38
442.264	103.38
442.486	99.38
442.707	89.38
442.928	106.38
443.149	120.38
443.371	128.38
443.592	116.38
443.813	97.38
444.034	103.38
444.255	72.38
444.476	84.38
444.698	78.38
444.919	87.38
445.14	123.38
445.361	112.38
445.582	103.38
445.803	142.38
446.024	136.38
446.245	120.38
446.466	118.38
446.687	100.38
446.908	97.38
447.129	98.38
447.35	103.38
447.571	95.38
447.792	88.38
448.013	96.38
448.234	96.38
448.455	86.38
448.675	108.38
448.896	116.38
449.117	109.38
449.338	103.38
449.559	119.38
449.779	122.38
450	93.38
450.221	81.38
450.442	92.38
450.662	90.38
450.883	95.38
451.104	121.38
451.324	96.38
451.545	95.38
451.766	89.38
451.986	76.38
452.207	79.38
452.428	93.38
452.648	98.38
452.869	101.38
453.089	111.38
453.31	118.38
453.53	85.38
453.751	88.38
453.971	109.38
454.192	111.38
454.412	92.38
454.633	82.38
454.853	87.38
455.073	92.38
455.294	85.38
455.514	94.38
455.734	89.38
455.955	80.38
456.175	72.38
456.395	84.38
456.616	79.38
456.836	83.38
457.056	86.38
457.276	81.38
457.497	84.38
457.717	79.38
457.937	97.38
458.157	89.38
458.377	97.38
458.598	115.38
458.818	143.38
459.038	144.38
459.258	95.38
459.478	99.38
459.698	91.38
459.918	80.38
460.138	86.38
460.358	86.38
460.578	84.38
460.798	83.38
461.018	101.38
461.238	91.38
461.458	93.38
461.678	89.38
461.898	81.38
462.118	83.38
462.338	82.38
462.558	85.38
462.777	78.38
462.997	104.38
463.217	85.38
463.437	74.38
463.657	93.38
463.876	100.38
464.096	94.38
464.316	94.38
464.536	92.38
464.755	98.38
464.975	114.38
465.195	186.38
465.414	143.38
465.634	96.38
465.854	92.38
466.073	83.38
466.293	89.38
466.512	87.38
466.732	76.38
466.951	89.38
467.171	97.38
467.391	99.38
467.61	97.38
467.829	84.38
468.049	84.38
468.268	87.38
468.488	83.38
468.707	97.38
468.927	95.38
469.146	86.38
469.365	79.38
469.585	93.38
469.804	91.38
470.023	103.38
470.243	101.38
470.462	96.38
470.681	106.38
470.901	112.38
471.12	89.38
471.339	90.38
471.558	93.38
471.777	81.38
471.997	89.38
472.216	86.38
472.435	107.38
472.654	92.38
472.873	97.38
473.092	90.38
473.311	96.38
473.53	89.38
473.749	91.38
473.968	94.38
474.187	99.38
474.406	97.38
474.625	98.38
474.844	87.38
475.063	101.38
475.282	91.38
475.501	90.38
475.72	86.38
475.939	86.38
476.158	87.38
476.377	104.38
476.596	90.38
476.814	100.38
477.033	105.38
477.252	96.38
477.471	87.38
477.69	86.38
477.908	83.38
478.127	95.38
478.346	93.38
478.564	80.38
478.783	93.38
479.002	95.38
479.22	73.38
479.439	92.38
479.658	101.38
479.876	87.38
480.095	89.38
480.313	107.38
480.532	93.38
480.751	87.38
480.969	92.38
481.188	106.38
481.406	92.38
481.624	97.38
481.843	81.38
482.061	87.38
482.28	85.38
482.498	69.38
482.717	82.38
482.935	78.38
483.153	89.38
483.372	92.38
483.59	88.38
483.808	98.38
484.027	77.38
484.245	87.38
484.463	93.38
484.681	97.38
484.9	95.38
485.118	89.38
485.336	84.38
485.554	88.38
485.772	101.38
485.99	94.38
486.209	97.38
486.427	102.38
486.645	115.38
486.863	103.38
487.081	113.38
487.299	92.38
487.517	93.38
487.735	98.38
487.953	93.38
488.171	92.38
488.389	89.38
488.607	100.38
488.825	90.38
489.043	94.38
489.261	101.38
489.479	90.38
489.696	87.38
489.914	80.38
490.132	79.38
490.35	98.38
490.568	76.38
490.786	92.38
491.003	96.38
491.221	80.38
491.439	92.38
491.657	61.38
491.874	90.38
492.092	90.38
492.31	73.38
492.527	87.38
492.745	91.38
492.963	80.38
493.18	90.38
493.398	84.38
493.615	84.38
493.833	90.38
494.05	99.38
494.268	81.38
494.485	77.38
494.703	93.38
494.92	80.38
495.138	87.38
495.355	97.38
495.573	99.38
495.79	88.38
496.008	88.38
496.225	93.38
496.442	97.38
496.66	103.38
496.877	83.38
497.094	101.38
497.312	82.38
497.529	90.38
497.746	96.38
497.963	87.38
498.181	91.38
498.398	100.38
498.615	107.38
498.832	100.38
499.049	97.38
499.267	92.38
499.484	89.38
499.701	86.38
499.918	94.38
500.135	97.38
500.352	87.38
500.569	83.38
500.786	97.38
501.003	95.38
501.22	93.38
501.437	70.38
501.654	99.38
501.871	106.38
502.088	92.38
502.305	111.38
502.522	92.38
502.739	88.38
502.956	85.38
503.172	84.38
503.389	90.38
503.606	91.38
503.823	98.38
504.04	78.38
504.256	84.38
504.473	85.38
504.69	85.38
504.907	109.38
505.123	77.38
505.34	92.38
505.557	91.38
505.773	91.38
505.99	88.38
506.207	84.38
506.423	92.38
506.64	86.38
506.856	89.38
507.073	89.38
507.289	105.38
507.506	107.38
507.722	107.38
507.939	111.38
508.155	107.38
508.372	107.38
508.588	94.38
508.805	99.38
509.021	92.38
509.238	94.38
509.454	89.38
509.67	102.38
509.887	107.38
510.103	133.38
510.319	223.38
510.536	756.38
510.752	2410.38
510.968	655.38
511.184	173.38
511.401	104.38
511.617	88.38
511.833	94.38
512.049	85.38
512.265	89.38
512.481	91.38
512.698	87.38
512.914	97.38
513.13	92.38
513.346	98.38
513.562	101.38
513.778	100.38
513.994	90.38
514.21	102.38
514.426	121.38
514.642	125.38
514.858	127.38
515.074	150.38
515.29	461.38
515.506	1512.38
515.721	552.38
515.937	153.38
516.153	117.38
