Data from Uncirc_2001_H10_HRD10591_00015.txt Node
Date: Wed Jan 03 10:43:59 EST 2024
User: Yrep
Spectrometer: HR+D1059
Trigger mode: 1
Integration Time (sec): 1.000000E-1
Scans to average: 1
Electric dark correction enabled: true
Nonlinearity correction enabled: false
Boxcar width: 0
XAxis mode: Wavelengths
Number of Pixels in Spectrum: 2048
>>>>>Begin Spectral Data<<<<<
223.165	-14.5
223.4	-14.5
223.635	-14.5
223.869	-12.5
224.104	-21.5
224.338	-29.5
224.573	-19.5
224.808	-12.5
225.042	-3.5
225.277	-0.5
225.511	0.5
225.746	-1.5
225.98	17.5
226.215	-4.5
226.449	24.5
226.683	14.5
226.918	29.5
227.152	33.5
227.387	36.5
227.621	47.5
227.856	30.5
228.09	46.5
228.324	51.5
228.559	54.5
228.793	51.5
229.027	79.5
229.262	51.5
229.496	74.5
229.73	91.5
229.964	78.5
230.199	72.5
230.433	83.5
230.667	82.5
230.901	75.5
231.136	80.5
231.37	76.5
231.604	79.5
231.838	88.5
232.072	84.5
232.306	85.5
232.541	79.5
232.775	62.5
233.009	68.5
233.243	73.5
233.477	74.5
233.711	82.5
233.945	90.5
234.179	68.5
234.413	89.5
234.647	84.5
234.881	77.5
235.115	87.5
235.349	82.5
235.583	88.5
235.817	81.5
236.051	74.5
236.285	74.5
236.519	84.5
236.753	96.5
236.987	84.5
237.221	74.5
237.455	95.5
237.689	78.5
237.922	83.5
238.156	74.5
238.39	83.5
238.624	68.5
238.858	72.5
239.091	75.5
239.325	89.5
239.559	94.5
239.793	89.5
240.027	64.5
240.26	75.5
240.494	75.5
240.728	88.5
240.961	70.5
241.195	72.5
241.429	63.5
241.662	75.5
241.896	69.5
242.13	74.5
242.363	71.5
242.597	73.5
242.83	88.5
243.064	67.5
243.298	78.5
243.531	74.5
243.765	68.5
243.998	89.5
244.232	58.5
244.465	62.5
244.699	89.5
244.932	72.5
245.166	87.5
245.399	92.5
245.633	83.5
245.866	68.5
246.099	91.5
246.333	71.5
246.566	65.5
246.8	82.5
247.033	81.5
247.266	79.5
247.5	79.5
247.733	76.5
247.966	89.5
248.2	82.5
248.433	83.5
248.666	84.5
248.899	85.5
249.133	74.5
249.366	85.5
249.599	91.5
249.832	78.5
250.066	94.5
250.299	83.5
250.532	79.5
250.765	81.5
250.998	74.5
251.231	89.5
251.465	75.5
251.698	70.5
251.931	68.5
252.164	75.5
252.397	84.5
252.63	92.5
252.863	77.5
253.096	91.5
253.329	95.5
253.562	81.5
253.795	79.5
254.028	79.5
254.261	74.5
254.494	86.5
254.727	98.5
254.96	76.5
255.193	69.5
255.426	81.5
255.659	69.5
255.892	80.5
256.124	88.5
256.357	88.5
256.59	85.5
256.823	67.5
257.056	82.5
257.289	78.5
257.521	85.5
257.754	100.5
257.987	76.5
258.22	71.5
258.452	75.5
258.685	84.5
258.918	74.5
259.151	70.5
259.383	71.5
259.616	91.5
259.849	89.5
260.081	73.5
260.314	76.5
260.547	84.5
260.779	92.5
261.012	90.5
261.244	93.5
261.477	87.5
261.71	98.5
261.942	99.5
262.175	103.5
262.407	88.5
262.64	92.5
262.872	87.5
263.105	76.5
263.337	89.5
263.57	74.5
263.802	87.5
264.035	90.5
264.267	80.5
264.499	71.5
264.732	81.5
264.964	75.5
265.197	84.5
265.429	89.5
265.661	68.5
265.894	88.5
266.126	82.5
266.358	83.5
266.591	87.5
266.823	64.5
267.055	87.5
267.287	76.5
267.52	94.5
267.752	89.5
267.984	89.5
268.216	79.5
268.448	83.5
268.681	79.5
268.913	96.5
269.145	96.5
269.377	86.5
269.609	83.5
269.841	89.5
270.073	82.5
270.306	95.5
270.538	79.5
270.77	92.5
271.002	82.5
271.234	84.5
271.466	82.5
271.698	83.5
271.93	84.5
272.162	93.5
272.394	90.5
272.626	80.5
272.858	79.5
273.09	80.5
273.322	90.5
273.553	82.5
273.785	80.5
274.017	80.5
274.249	78.5
274.481	85.5
274.713	75.5
274.945	88.5
275.176	93.5
275.408	92.5
275.64	90.5
275.872	76.5
276.104	80.5
276.335	104.5
276.567	101.5
276.799	98.5
277.031	83.5
277.262	88.5
277.494	90.5
277.726	81.5
277.957	88.5
278.189	92.5
278.421	73.5
278.652	81.5
278.884	74.5
279.115	85.5
279.347	83.5
279.579	90.5
279.81	84.5
280.042	79.5
280.273	85.5
280.505	88.5
280.736	81.5
280.968	92.5
281.199	81.5
281.431	87.5
281.662	97.5
281.894	82.5
282.125	83.5
282.356	112.5
282.588	125.5
282.819	108.5
283.051	103.5
283.282	79.5
283.513	88.5
283.745	99.5
283.976	87.5
284.207	86.5
284.439	92.5
284.67	85.5
284.901	86.5
285.132	76.5
285.364	74.5
285.595	95.5
285.826	78.5
286.057	89.5
286.288	91.5
286.52	75.5
286.751	74.5
286.982	89.5
287.213	74.5
287.444	75.5
287.675	89.5
287.906	91.5
288.138	82.5
288.369	77.5
288.6	88.5
288.831	85.5
289.062	65.5
289.293	85.5
289.524	80.5
289.755	89.5
289.986	75.5
290.217	87.5
290.448	88.5
290.679	87.5
290.91	92.5
291.141	89.5
291.371	83.5
291.602	87.5
291.833	79.5
292.064	77.5
292.295	89.5
292.526	95.5
292.757	83.5
292.987	87.5
293.218	94.5
293.449	83.5
293.68	99.5
293.91	71.5
294.141	79.5
294.372	87.5
294.603	78.5
294.833	81.5
295.064	83.5
295.295	90.5
295.525	94.5
295.756	98.5
295.987	104.5
296.217	135.5
296.448	123.5
296.679	95.5
296.909	87.5
297.14	92.5
297.37	90.5
297.601	89.5
297.831	87.5
298.062	91.5
298.292	87.5
298.523	85.5
298.753	86.5
298.984	85.5
299.214	92.5
299.445	89.5
299.675	76.5
299.905	77.5
300.136	82.5
300.366	72.5
300.597	121.5
300.827	102.5
301.057	104.5
301.288	103.5
301.518	92.5
301.748	110.5
301.979	92.5
302.209	95.5
302.439	86.5
302.669	88.5
302.9	83.5
303.13	100.5
303.36	86.5
303.59	101.5
303.82	105.5
304.051	103.5
304.281	88.5
304.511	91.5
304.741	84.5
304.971	103.5
305.201	104.5
305.431	74.5
305.661	93.5
305.891	103.5
306.121	94.5
306.352	93.5
306.582	78.5
306.812	94.5
307.042	91.5
307.272	100.5
307.502	86.5
307.731	92.5
307.961	83.5
308.191	82.5
308.421	92.5
308.651	86.5
308.881	98.5
309.111	94.5
309.341	98.5
309.571	100.5
309.8	100.5
310.03	71.5
310.26	100.5
310.49	106.5
310.72	106.5
310.949	93.5
311.179	101.5
311.409	90.5
311.639	85.5
311.868	92.5
312.098	92.5
312.328	83.5
312.557	100.5
312.787	113.5
313.017	89.5
313.246	83.5
313.476	88.5
313.706	95.5
313.935	100.5
314.165	84.5
314.394	91.5
314.624	92.5
314.853	86.5
315.083	79.5
315.312	102.5
315.542	83.5
315.771	102.5
316.001	91.5
316.23	84.5
316.46	87.5
316.689	85.5
316.919	85.5
317.148	95.5
317.377	102.5
317.607	74.5
317.836	86.5
318.065	93.5
318.295	88.5
318.524	90.5
318.753	84.5
318.983	85.5
319.212	107.5
319.441	94.5
319.67	103.5
319.9	98.5
320.129	87.5
320.358	95.5
320.587	89.5
320.816	102.5
321.046	93.5
321.275	98.5
321.504	86.5
321.733	94.5
321.962	90.5
322.191	102.5
322.42	92.5
322.649	99.5
322.878	105.5
323.108	111.5
323.337	112.5
323.566	135.5
323.795	138.5
324.024	175.5
324.253	316.5
324.482	688.5
324.71	1326.5
324.939	1673.5
325.168	626.5
325.397	215.5
325.626	150.5
325.855	116.5
326.084	115.5
326.313	118.5
326.542	145.5
326.77	206.5
326.999	377.5
327.228	748.5
327.457	1339.5
327.686	1055.5
327.914	321.5
328.143	175.5
328.372	146.5
328.6	122.5
328.829	115.5
329.058	127.5
329.287	120.5
329.515	124.5
329.744	111.5
329.972	100.5
330.201	96.5
330.43	110.5
330.658	99.5
330.887	125.5
331.115	105.5
331.344	89.5
331.572	104.5
331.801	107.5
332.03	99.5
332.258	92.5
332.486	73.5
332.715	93.5
332.943	86.5
333.172	98.5
333.4	94.5
333.629	107.5
333.857	111.5
334.085	97.5
334.314	98.5
334.542	93.5
334.771	94.5
334.999	98.5
335.227	99.5
335.455	86.5
335.684	101.5
335.912	93.5
336.14	86.5
336.369	99.5
336.597	104.5
336.825	103.5
337.053	80.5
337.281	86.5
337.51	90.5
337.738	79.5
337.966	87.5
338.194	101.5
338.422	87.5
338.65	86.5
338.878	93.5
339.106	91.5
339.334	87.5
339.562	86.5
339.79	82.5
340.018	82.5
340.246	95.5
340.474	90.5
340.702	89.5
340.93	84.5
341.158	101.5
341.386	114.5
341.614	97.5
341.842	109.5
342.07	95.5
342.298	88.5
342.526	107.5
342.754	92.5
342.981	94.5
343.209	88.5
343.437	89.5
343.665	107.5
343.893	87.5
344.12	94.5
344.348	90.5
344.576	104.5
344.804	94.5
345.031	84.5
345.259	87.5
345.487	95.5
345.714	98.5
345.942	88.5
346.17	102.5
346.397	95.5
346.625	101.5
346.853	91.5
347.08	90.5
347.308	97.5
347.535	113.5
347.763	83.5
347.99	94.5
348.218	100.5
348.445	97.5
348.673	96.5
348.9	95.5
349.128	90.5
349.355	90.5
349.583	96.5
349.81	98.5
350.037	87.5
350.265	93.5
350.492	99.5
350.72	104.5
350.947	108.5
351.174	111.5
351.402	105.5
351.629	90.5
351.856	95.5
352.083	101.5
352.311	106.5
352.538	95.5
352.765	88.5
352.992	105.5
353.22	104.5
353.447	116.5
353.674	102.5
353.901	90.5
354.128	78.5
354.355	86.5
354.583	98.5
354.81	114.5
355.037	115.5
355.264	97.5
355.491	96.5
355.718	83.5
355.945	88.5
356.172	91.5
356.399	105.5
356.626	101.5
356.853	85.5
357.08	86.5
357.307	89.5
357.534	97.5
357.761	95.5
357.988	93.5
358.215	94.5
358.441	91.5
358.668	96.5
358.895	88.5
359.122	98.5
359.349	87.5
359.576	96.5
359.802	95.5
360.029	116.5
360.256	104.5
360.483	96.5
360.709	107.5
360.936	101.5
361.163	97.5
361.39	86.5
361.616	100.5
361.843	86.5
362.07	91.5
362.296	97.5
362.523	91.5
362.749	101.5
362.976	96.5
363.203	97.5
363.429	90.5
363.656	90.5
363.882	79.5
364.109	90.5
364.335	83.5
364.562	92.5
364.788	75.5
365.015	91.5
365.241	110.5
365.468	104.5
365.694	86.5
365.92	78.5
366.147	101.5
366.373	83.5
366.599	86.5
366.826	81.5
367.052	95.5
367.278	80.5
367.505	97.5
367.731	89.5
367.957	95.5
368.184	99.5
368.41	98.5
368.636	103.5
368.862	110.5
369.089	95.5
369.315	87.5
369.541	75.5
369.767	85.5
369.993	84.5
370.219	84.5
370.445	95.5
370.672	86.5
370.898	87.5
371.124	91.5
371.35	92.5
371.576	82.5
371.802	98.5
372.028	81.5
372.254	83.5
372.48	90.5
372.706	77.5
372.932	82.5
373.158	90.5
373.384	99.5
373.61	91.5
373.835	83.5
374.061	80.5
374.287	84.5
374.513	95.5
374.739	86.5
374.965	85.5
375.191	81.5
375.416	107.5
375.642	101.5
375.868	89.5
376.094	85.5
376.319	84.5
376.545	80.5
376.771	95.5
376.997	97.5
377.222	100.5
377.448	85.5
377.674	89.5
377.899	84.5
378.125	83.5
378.35	91.5
378.576	79.5
378.802	89.5
379.027	81.5
379.253	89.5
379.478	91.5
379.704	79.5
379.929	98.5
380.155	87.5
380.38	94.5
380.606	78.5
380.831	123.5
381.057	96.5
381.282	83.5
381.507	97.5
381.733	79.5
381.958	102.5
382.184	89.5
382.409	91.5
382.634	113.5
382.86	109.5
383.085	97.5
383.31	91.5
383.535	87.5
383.761	98.5
383.986	94.5
384.211	101.5
384.436	100.5
384.662	98.5
384.887	98.5
385.112	106.5
385.337	107.5
385.562	112.5
385.787	108.5
386.013	111.5
386.238	115.5
386.463	116.5
386.688	115.5
386.913	108.5
387.138	98.5
387.363	112.5
387.588	104.5
387.813	114.5
388.038	106.5
388.263	130.5
388.488	114.5
388.713	100.5
388.938	97.5
389.163	98.5
389.387	92.5
389.612	94.5
389.837	110.5
390.062	93.5
390.287	93.5
390.512	87.5
390.736	80.5
390.961	87.5
391.186	84.5
391.411	110.5
391.636	86.5
391.86	91.5
392.085	87.5
392.31	83.5
392.534	90.5
392.759	77.5
392.984	81.5
393.208	105.5
393.433	115.5
393.658	93.5
393.882	79.5
394.107	83.5
394.331	92.5
394.556	79.5
394.78	80.5
395.005	96.5
395.229	82.5
395.454	78.5
395.678	89.5
395.903	97.5
396.127	91.5
396.352	100.5
396.576	87.5
396.801	87.5
397.025	106.5
397.249	97.5
397.474	99.5
397.698	89.5
397.922	87.5
398.147	97.5
398.371	90.5
398.595	89.5
398.82	76.5
399.044	80.5
399.268	91.5
399.492	100.5
399.717	87.5
399.941	83.5
400.165	100.5
400.389	85.5
400.613	94.5
400.837	74.5
401.062	80.5
401.286	88.5
401.51	87.5
401.734	94.5
401.958	86.5
402.182	126.5
402.406	138.5
402.63	116.5
402.854	80.5
403.078	90.5
403.302	84.5
403.526	101.5
403.75	76.5
403.974	96.5
404.198	95.5
404.422	88.5
404.645	79.5
404.869	83.5
405.093	91.5
405.317	92.5
405.541	78.5
405.765	92.5
405.988	113.5
406.212	156.5
406.436	194.5
406.66	128.5
406.883	102.5
407.107	90.5
407.331	86.5
407.555	86.5
407.778	98.5
408.002	82.5
408.226	102.5
408.449	92.5
408.673	82.5
408.896	91.5
409.12	82.5
409.344	74.5
409.567	82.5
409.791	93.5
410.014	85.5
410.238	84.5
410.461	85.5
410.685	96.5
410.908	95.5
411.132	97.5
411.355	80.5
411.578	91.5
411.802	90.5
412.025	78.5
412.249	104.5
412.472	86.5
412.695	92.5
412.919	89.5
413.142	77.5
413.365	76.5
413.589	76.5
413.812	89.5
414.035	88.5
414.258	103.5
414.482	87.5
414.705	81.5
414.928	103.5
415.151	90.5
415.374	101.5
415.597	78.5
415.821	85.5
416.044	86.5
416.267	76.5
416.49	96.5
416.713	75.5
416.936	82.5
417.159	91.5
417.382	85.5
417.605	98.5
417.828	88.5
418.051	92.5
418.274	79.5
418.497	96.5
418.72	74.5
418.943	72.5
419.166	98.5
419.389	87.5
419.611	101.5
419.834	92.5
420.057	82.5
420.28	84.5
420.503	96.5
420.726	91.5
420.948	70.5
421.171	96.5
421.394	92.5
421.617	81.5
421.839	88.5
422.062	81.5
422.285	85.5
422.507	92.5
422.73	94.5
422.953	89.5
423.175	85.5
423.398	82.5
423.621	86.5
423.843	81.5
424.066	80.5
424.288	90.5
424.511	80.5
424.733	96.5
424.956	103.5
425.178	96.5
425.401	89.5
425.623	98.5
425.846	85.5
426.068	107.5
426.291	81.5
426.513	100.5
426.735	92.5
426.958	89.5
427.18	107.5
427.402	125.5
427.625	145.5
427.847	113.5
428.069	92.5
428.292	90.5
428.514	87.5
428.736	73.5
428.958	80.5
429.181	68.5
429.403	82.5
429.625	89.5
429.847	100.5
430.069	95.5
430.292	89.5
430.514	96.5
430.736	83.5
430.958	88.5
431.18	93.5
431.402	86.5
431.624	88.5
431.846	97.5
432.068	83.5
432.29	77.5
432.512	90.5
432.734	82.5
432.956	94.5
433.178	87.5
433.4	84.5
433.622	93.5
433.844	85.5
434.066	87.5
434.287	94.5
434.509	110.5
434.731	87.5
434.953	89.5
435.175	89.5
435.397	91.5
435.618	94.5
435.84	90.5
436.062	106.5
436.284	110.5
436.505	91.5
436.727	91.5
436.949	101.5
437.17	88.5
437.392	84.5
437.614	82.5
437.835	99.5
438.057	107.5
438.278	97.5
438.5	97.5
438.721	132.5
438.943	101.5
439.165	73.5
439.386	82.5
439.608	95.5
439.829	102.5
440.05	123.5
440.272	136.5
440.493	86.5
440.715	94.5
440.936	83.5
441.158	86.5
441.379	84.5
441.6	86.5
441.822	90.5
442.043	91.5
442.264	100.5
442.486	96.5
442.707	90.5
442.928	100.5
443.149	119.5
443.371	126.5
443.592	97.5
443.813	89.5
444.034	98.5
444.255	89.5
444.476	78.5
444.698	94.5
444.919	90.5
445.14	116.5
445.361	101.5
445.582	111.5
445.803	116.5
446.024	128.5
446.245	119.5
446.466	94.5
446.687	74.5
446.908	87.5
447.129	89.5
447.35	96.5
447.571	94.5
447.792	96.5
448.013	100.5
448.234	96.5
448.455	95.5
448.675	112.5
448.896	126.5
449.117	104.5
449.338	101.5
449.559	119.5
449.779	121.5
450	102.5
450.221	81.5
450.442	98.5
450.662	89.5
450.883	103.5
451.104	105.5
451.324	95.5
451.545	86.5
451.766	80.5
451.986	92.5
452.207	81.5
452.428	84.5
452.648	95.5
452.869	115.5
453.089	115.5
453.31	125.5
453.53	92.5
453.751	93.5
453.971	102.5
454.192	110.5
454.412	84.5
454.633	85.5
454.853	79.5
455.073	85.5
455.294	81.5
455.514	91.5
455.734	96.5
455.955	83.5
456.175	86.5
456.395	68.5
456.616	98.5
456.836	85.5
457.056	88.5
457.276	82.5
457.497	83.5
457.717	83.5
457.937	88.5
458.157	86.5
458.377	83.5
458.598	106.5
458.818	149.5
459.038	141.5
459.258	111.5
459.478	98.5
459.698	88.5
459.918	75.5
460.138	85.5
460.358	86.5
460.578	80.5
460.798	91.5
461.018	77.5
461.238	104.5
461.458	83.5
461.678	75.5
461.898	91.5
462.118	74.5
462.338	84.5
462.558	92.5
462.777	87.5
462.997	91.5
463.217	70.5
463.437	74.5
463.657	90.5
463.876	83.5
464.096	84.5
464.316	93.5
464.536	76.5
464.755	92.5
464.975	98.5
465.195	147.5
465.414	142.5
465.634	75.5
465.854	89.5
466.073	72.5
466.293	97.5
466.512	89.5
466.732	85.5
466.951	89.5
467.171	85.5
467.391	95.5
467.61	100.5
467.829	103.5
468.049	96.5
468.268	82.5
468.488	73.5
468.707	69.5
468.927	67.5
469.146	71.5
469.365	63.5
469.585	78.5
469.804	89.5
470.023	87.5
470.243	79.5
470.462	94.5
470.681	92.5
470.901	92.5
471.12	80.5
471.339	98.5
471.558	90.5
471.777	68.5
471.997	83.5
472.216	75.5
472.435	91.5
472.654	89.5
472.873	86.5
473.092	84.5
473.311	83.5
473.53	80.5
473.749	98.5
473.968	88.5
474.187	105.5
474.406	93.5
474.625	85.5
474.844	85.5
475.063	86.5
475.282	85.5
475.501	66.5
475.72	96.5
475.939	70.5
476.158	70.5
476.377	90.5
476.596	86.5
476.814	83.5
477.033	98.5
477.252	86.5
477.471	92.5
477.69	81.5
477.908	77.5
478.127	91.5
478.346	92.5
478.564	95.5
478.783	87.5
479.002	90.5
479.22	83.5
479.439	96.5
479.658	99.5
479.876	82.5
480.095	101.5
480.313	94.5
480.532	90.5
480.751	68.5
480.969	78.5
481.188	90.5
481.406	90.5
481.624	89.5
481.843	89.5
482.061	77.5
482.28	88.5
482.498	96.5
482.717	93.5
482.935	87.5
483.153	95.5
483.372	79.5
483.59	81.5
483.808	99.5
484.027	92.5
484.245	95.5
484.463	93.5
484.681	96.5
484.9	94.5
485.118	99.5
485.336	92.5
485.554	100.5
485.772	84.5
485.99	95.5
486.209	89.5
486.427	94.5
486.645	101.5
486.863	99.5
487.081	98.5
487.299	92.5
487.517	100.5
487.735	85.5
487.953	81.5
488.171	89.5
488.389	91.5
488.607	89.5
488.825	103.5
489.043	94.5
489.261	92.5
489.479	88.5
489.696	82.5
489.914	89.5
490.132	87.5
490.35	80.5
490.568	81.5
490.786	92.5
491.003	95.5
491.221	84.5
491.439	86.5
491.657	76.5
491.874	96.5
492.092	99.5
492.31	76.5
492.527	89.5
492.745	76.5
492.963	108.5
493.18	85.5
493.398	83.5
493.615	87.5
493.833	86.5
494.05	95.5
494.268	87.5
494.485	98.5
494.703	91.5
494.92	102.5
495.138	96.5
495.355	72.5
495.573	75.5
495.79	79.5
496.008	111.5
496.225	87.5
496.442	108.5
496.66	100.5
496.877	95.5
497.094	90.5
497.312	87.5
497.529	102.5
497.746	93.5
497.963	81.5
498.181	81.5
498.398	92.5
498.615	96.5
498.832	92.5
499.049	103.5
499.267	80.5
499.484	108.5
499.701	96.5
499.918	66.5
500.135	87.5
500.352	98.5
500.569	94.5
500.786	85.5
501.003	87.5
501.22	91.5
501.437	89.5
501.654	83.5
501.871	110.5
502.088	80.5
502.305	96.5
502.522	86.5
502.739	83.5
502.956	86.5
503.172	75.5
503.389	82.5
503.606	106.5
503.823	110.5
504.04	89.5
504.256	79.5
504.473	84.5
504.69	82.5
504.907	92.5
505.123	89.5
505.34	92.5
505.557	88.5
505.773	88.5
505.99	85.5
506.207	89.5
506.423	77.5
506.64	100.5
506.856	89.5
507.073	108.5
507.289	90.5
507.506	99.5
507.722	102.5
507.939	92.5
508.155	86.5
508.372	90.5
508.588	92.5
508.805	98.5
509.021	96.5
509.238	98.5
509.454	95.5
509.67	102.5
509.887	106.5
510.103	128.5
510.319	187.5
510.536	682.5
510.752	1986.5
510.968	549.5
511.184	134.5
511.401	96.5
511.617	97.5
511.833	94.5
512.049	78.5
512.265	107.5
512.481	88.5
512.698	100.5
512.914	99.5
513.13	107.5
513.346	86.5
513.562	94.5
513.778	110.5
513.994	85.5
514.21	90.5
514.426	105.5
514.642	121.5
514.858	128.5
515.074	170.5
515.29	395.5
515.506	1270.5
515.721	464.5
515.937	131.5
516.153	104.5
516.369	92.5
516.585	92.5
516.801	82.5
517.016	94.5
517.232	80.5
517.448	98.5
517.664	92.5
517.879	89.5
518.095	96.5
518.311	86.5
518.527	90.5
518.742	93.5
518.958	85.5
519.173	80.5
519.389	85.5
519.605	88.5
519.82	94.5
520.036	99.5
520.251	123.5
520.467	111.5
520.682	111.5
520.898	109.5
521.113	116.5
521.329	142.5
521.544	188.5
521.76	500.5
521.975	2054.5
522.19	1250.5
522.406	264.5
522.621	115.5
522.836	98.5
523.052	94.5
523.267	99.5
523.482	87.5
523.698	84.5
523.913	104.5
524.128	99.5
524.343	98.5
524.559	93.5
524.774	95.5
524.989	80.5
525.204	106.5
525.419	88.5
525.634	107.5
525.849	89.5
526.064	96.5
526.28	101.5
526.495	87.5
526.71	85.5
526.925	79.5
527.14	96.5
527.355	86.5
527.57	83.5
527.785	78.5
527.999	69.5
528.214	84.5
528.429	84.5
528.644	91.5
528.859	87.5
529.074	88.5
529.289	134.5
529.503	175.5
529.718	92.5
529.933	76.5
530.148	99.5
530.363	92.5
530.577	79.5
530.792	93.5
531.007	84.5
531.221	83.5
531.436	89.5
531.651	95.5
531.865	87.5
532.08	103.5
532.295	92.5
532.509	84.5
532.724	89.5
532.938	97.5
533.153	105.5
533.367	80.5
533.582	96.5
533.796	93.5
534.011	86.5
534.225	90.5
534.44	77.5
534.654	93.5
534.868	89.5
535.083	92.5
535.297	94.5
535.511	91.5
535.726	108.5
535.94	111.5
536.154	79.5
