Data from Uncirc_2001_H10_HRD10591_00007.txt Node
Date: Wed Jan 03 10:43:58 EST 2024
User: Yrep
Spectrometer: HR+D1059
Trigger mode: 1
Integration Time (sec): 1.000000E-1
Scans to average: 1
Electric dark correction enabled: true
Nonlinearity correction enabled: false
Boxcar width: 0
XAxis mode: Wavelengths
Number of Pixels in Spectrum: 2048
>>>>>Begin Spectral Data<<<<<
223.165	-27
223.4	-27
223.635	-27
223.869	-13
224.104	-16
224.338	-17
224.573	-12
224.808	-12
225.042	-9
225.277	2
225.511	-12
225.746	3
225.98	7
226.215	18
226.449	20
226.683	25
226.918	18
227.152	25
227.387	27
227.621	27
227.856	51
228.09	45
228.324	47
228.559	65
228.793	54
229.027	68
229.262	53
229.496	70
229.73	65
229.964	69
230.199	68
230.433	66
230.667	68
230.901	88
231.136	81
231.37	79
231.604	84
231.838	69
232.072	81
232.306	84
232.541	83
232.775	86
233.009	71
233.243	85
233.477	70
233.711	81
233.945	63
234.179	82
234.413	71
234.647	81
234.881	74
235.115	71
235.349	68
235.583	65
235.817	72
236.051	87
236.285	58
236.519	82
236.753	81
236.987	87
237.221	78
237.455	67
237.689	78
237.922	69
238.156	81
238.39	69
238.624	74
238.858	72
239.091	80
239.325	71
239.559	83
239.793	82
240.027	66
240.26	84
240.494	73
240.728	79
240.961	67
241.195	78
241.429	70
241.662	79
241.896	70
242.13	72
242.363	58
242.597	73
242.83	78
243.064	79
243.298	69
243.531	71
243.765	71
243.998	68
244.232	66
244.465	72
244.699	69
244.932	65
245.166	71
245.399	77
245.633	77
245.866	59
246.099	68
246.333	84
246.566	82
246.8	74
247.033	99
247.266	73
247.5	85
247.733	75
247.966	77
248.2	87
248.433	84
248.666	86
248.899	89
249.133	86
249.366	99
249.599	80
249.832	85
250.066	89
250.299	91
250.532	82
250.765	67
250.998	75
251.231	78
251.465	69
251.698	71
251.931	65
252.164	85
252.397	86
252.63	63
252.863	85
253.096	89
253.329	83
253.562	77
253.795	74
254.028	75
254.261	72
254.494	85
254.727	78
254.96	90
255.193	78
255.426	86
255.659	79
255.892	73
256.124	52
256.357	70
256.59	99
256.823	83
257.056	81
257.289	84
257.521	69
257.754	73
257.987	72
258.22	79
258.452	69
258.685	73
258.918	73
259.151	90
259.383	90
259.616	91
259.849	76
260.081	83
260.314	87
260.547	76
260.779	63
261.012	82
261.244	80
261.477	91
261.71	89
261.942	103
262.175	90
262.407	74
262.64	73
262.872	79
263.105	87
263.337	78
263.57	77
263.802	90
264.035	95
264.267	103
264.499	78
264.732	89
264.964	87
265.197	91
265.429	110
265.661	80
265.894	82
266.126	89
266.358	81
266.591	75
266.823	95
267.055	78
267.287	81
267.52	76
267.752	78
267.984	82
268.216	78
268.448	92
268.681	80
268.913	74
269.145	82
269.377	80
269.609	63
269.841	88
270.073	87
270.306	69
270.538	86
270.77	75
271.002	79
271.234	92
271.466	89
271.698	86
271.93	81
272.162	84
272.394	89
272.626	93
272.858	78
273.09	90
273.322	83
273.553	73
273.785	85
274.017	86
274.249	88
274.481	88
274.713	78
274.945	76
275.176	80
275.408	82
275.64	92
275.872	75
276.104	82
276.335	99
276.567	80
276.799	106
277.031	89
277.262	83
277.494	82
277.726	78
277.957	93
278.189	68
278.421	89
278.652	79
278.884	73
279.115	87
279.347	86
279.579	89
279.81	93
280.042	85
280.273	68
280.505	84
280.736	83
280.968	74
281.199	89
281.431	92
281.662	80
281.894	92
282.125	83
282.356	102
282.588	124
282.819	90
283.051	78
283.282	89
283.513	105
283.745	77
283.976	80
284.207	77
284.439	73
284.67	91
284.901	84
285.132	88
285.364	96
285.595	92
285.826	87
286.057	91
286.288	93
286.52	75
286.751	85
286.982	79
287.213	91
287.444	78
287.675	87
287.906	86
288.138	82
288.369	85
288.6	91
288.831	93
289.062	86
289.293	80
289.524	70
289.755	93
289.986	71
290.217	87
290.448	85
290.679	90
290.91	84
291.141	80
291.371	85
291.602	79
291.833	76
292.064	91
292.295	83
292.526	76
292.757	102
292.987	76
293.218	85
293.449	80
293.68	88
293.91	100
294.141	94
294.372	83
294.603	82
294.833	82
295.064	90
295.295	75
295.525	91
295.756	98
295.987	102
296.217	114
296.448	88
296.679	99
296.909	85
297.14	93
297.37	86
297.601	90
297.831	84
298.062	81
298.292	85
298.523	93
298.753	77
298.984	90
299.214	89
299.445	89
299.675	89
299.905	102
300.136	92
300.366	78
300.597	86
300.827	86
301.057	86
301.288	82
301.518	91
301.748	80
301.979	97
302.209	82
302.439	69
302.669	84
302.9	88
303.13	79
303.36	86
303.59	88
303.82	81
304.051	100
304.281	77
304.511	107
304.741	83
304.971	87
305.201	83
305.431	89
305.661	90
305.891	103
306.121	111
306.352	103
306.582	91
306.812	91
307.042	92
307.272	102
307.502	102
307.731	86
307.961	72
308.191	94
308.421	82
308.651	93
308.881	86
309.111	90
309.341	103
309.571	94
309.8	82
310.03	100
310.26	94
310.49	77
310.72	109
310.949	107
311.179	97
311.409	86
311.639	98
311.868	97
312.098	87
312.328	101
312.557	106
312.787	91
313.017	88
313.246	95
313.476	97
313.706	93
313.935	83
314.165	87
314.394	117
314.624	87
314.853	89
315.083	95
315.312	81
315.542	94
315.771	87
316.001	88
316.23	73
316.46	91
316.689	92
316.919	84
317.148	93
317.377	80
317.607	83
317.836	89
318.065	90
318.295	91
318.524	94
318.753	78
318.983	90
319.212	80
319.441	106
319.67	98
319.9	99
320.129	91
320.358	90
320.587	100
320.816	95
321.046	98
321.275	90
321.504	84
321.733	89
321.962	87
322.191	93
322.42	88
322.649	95
322.878	99
323.108	103
323.337	110
323.566	118
323.795	122
324.024	170
324.253	313
324.482	571
324.71	1092
324.939	1419
325.168	547
325.397	185
325.626	126
325.855	106
326.084	106
326.313	119
326.542	126
326.77	183
326.999	339
327.228	623
327.457	1122
327.686	902
327.914	265
328.143	150
328.372	127
328.6	108
328.829	107
329.058	127
329.287	108
329.515	113
329.744	91
329.972	101
330.201	110
330.43	97
330.658	103
330.887	130
331.115	109
331.344	93
331.572	99
331.801	78
332.03	92
332.258	86
332.486	86
332.715	108
332.943	92
333.172	90
333.4	94
333.629	90
333.857	92
334.085	94
334.314	95
334.542	96
334.771	88
334.999	90
335.227	85
335.455	82
335.684	100
335.912	87
336.14	88
336.369	72
336.597	100
336.825	97
337.053	102
337.281	98
337.51	87
337.738	67
337.966	75
338.194	88
338.422	83
338.65	100
338.878	89
339.106	85
339.334	85
339.562	94
339.79	102
340.018	92
340.246	103
340.474	104
340.702	90
340.93	101
341.158	84
341.386	95
341.614	101
341.842	94
342.07	97
342.298	85
342.526	79
342.754	79
342.981	87
343.209	79
343.437	102
343.665	89
343.893	86
344.12	76
344.348	85
344.576	101
344.804	95
345.031	97
345.259	99
345.487	87
345.714	106
345.942	81
346.17	73
346.397	93
346.625	79
346.853	86
347.08	95
347.308	105
347.535	89
347.763	92
347.99	95
348.218	111
348.445	98
348.673	97
348.9	90
349.128	95
349.355	90
349.583	81
349.81	83
350.037	89
350.265	86
350.492	84
350.72	90
350.947	94
351.174	109
351.402	112
351.629	87
351.856	109
352.083	100
352.311	115
352.538	99
352.765	115
352.992	106
353.22	100
353.447	94
353.674	102
353.901	100
354.128	82
354.355	82
354.583	90
354.81	90
355.037	84
355.264	86
355.491	91
355.718	107
355.945	90
356.172	97
356.399	97
356.626	99
356.853	94
357.08	86
357.307	91
357.534	90
357.761	88
357.988	95
358.215	89
358.441	100
358.668	86
358.895	98
359.122	95
359.349	84
359.576	103
359.802	117
360.029	82
360.256	97
360.483	82
360.709	78
360.936	101
361.163	97
361.39	81
361.616	97
361.843	78
362.07	93
362.296	90
362.523	95
362.749	84
362.976	93
363.203	101
363.429	89
363.656	83
363.882	91
364.109	80
364.335	90
364.562	87
364.788	89
365.015	100
365.241	94
365.468	106
365.694	93
365.92	107
366.147	81
366.373	85
366.599	83
366.826	88
367.052	79
367.278	86
367.505	91
367.731	91
367.957	93
368.184	90
368.41	90
368.636	102
368.862	108
369.089	99
369.315	82
369.541	92
369.767	87
369.993	87
370.219	86
370.445	87
370.672	85
370.898	87
371.124	98
371.35	82
371.576	89
371.802	90
372.028	86
372.254	78
372.48	84
372.706	88
372.932	95
373.158	83
373.384	97
373.61	90
373.835	88
374.061	90
374.287	89
374.513	87
374.739	78
374.965	90
375.191	94
375.416	85
375.642	90
375.868	84
376.094	100
376.319	95
376.545	107
376.771	74
376.997	80
377.222	98
377.448	93
377.674	97
377.899	98
378.125	94
378.35	106
378.576	76
378.802	84
379.027	102
379.253	99
379.478	88
379.704	83
379.929	101
380.155	96
380.38	98
380.606	87
380.831	104
381.057	97
381.282	112
381.507	115
381.733	108
381.958	97
382.184	101
382.409	118
382.634	103
382.86	103
383.085	115
383.31	106
383.535	107
383.761	95
383.986	90
384.211	107
384.436	116
384.662	118
384.887	112
385.112	119
385.337	121
385.562	117
385.787	105
386.013	103
386.238	126
386.463	138
386.688	119
386.913	119
387.138	127
387.363	98
387.588	88
387.813	124
388.038	122
388.263	118
388.488	135
388.713	111
388.938	103
389.163	89
389.387	97
389.612	97
389.837	94
390.062	87
390.287	89
390.512	93
390.736	89
390.961	104
391.186	89
391.411	102
391.636	89
391.86	83
392.085	80
392.31	73
392.534	85
392.759	87
392.984	83
393.208	86
393.433	96
393.658	109
393.882	79
394.107	94
394.331	73
394.556	79
394.78	78
395.005	92
395.229	94
395.454	95
395.678	78
395.903	74
396.127	80
396.352	82
396.576	86
396.801	99
397.025	85
397.249	68
397.474	88
397.698	86
397.922	70
398.147	78
398.371	91
398.595	77
398.82	75
399.044	91
399.268	67
399.492	88
399.717	81
399.941	97
400.165	88
400.389	95
400.613	85
400.837	83
401.062	82
401.286	92
401.51	75
401.734	77
401.958	103
402.182	108
402.406	107
402.63	96
402.854	89
403.078	96
403.302	82
403.526	97
403.75	78
403.974	92
404.198	74
404.422	96
404.645	90
404.869	87
405.093	92
405.317	81
405.541	99
405.765	98
405.988	118
406.212	144
406.436	176
406.66	111
406.883	102
407.107	88
407.331	87
407.555	93
407.778	91
408.002	85
408.226	86
408.449	88
408.673	99
408.896	95
409.12	83
409.344	94
409.567	95
409.791	102
410.014	98
410.238	75
410.461	92
410.685	79
410.908	98
411.132	109
411.355	87
411.578	96
411.802	91
412.025	103
412.249	88
412.472	84
412.695	96
412.919	81
413.142	75
413.365	88
413.589	84
413.812	102
414.035	95
414.258	85
414.482	93
414.705	86
414.928	105
415.151	95
415.374	98
415.597	82
415.821	101
416.044	102
416.267	79
416.49	85
416.713	91
416.936	82
417.159	87
417.382	89
417.605	83
417.828	93
418.051	85
418.274	75
418.497	103
418.72	85
418.943	92
419.166	90
419.389	86
419.611	87
419.834	92
420.057	96
420.28	79
420.503	88
420.726	88
420.948	90
421.171	81
421.394	80
421.617	86
421.839	94
422.062	79
422.285	99
422.507	101
422.73	87
422.953	91
423.175	82
423.398	87
423.621	95
423.843	92
424.066	81
424.288	94
424.511	81
424.733	100
424.956	93
425.178	97
425.401	86
425.623	94
425.846	66
426.068	77
426.291	98
426.513	81
426.735	92
426.958	104
427.18	94
427.402	105
427.625	131
427.847	113
428.069	101
428.292	97
428.514	83
428.736	95
428.958	69
429.181	68
429.403	92
429.625	90
429.847	78
430.069	94
430.292	89
430.514	81
430.736	74
430.958	83
431.18	90
431.402	87
431.624	70
431.846	87
432.068	79
432.29	77
432.512	83
432.734	78
432.956	98
433.178	84
433.4	93
433.622	95
433.844	84
434.066	78
434.287	88
434.509	87
434.731	85
434.953	78
435.175	87
435.397	85
435.618	87
435.84	83
436.062	96
436.284	104
436.505	88
436.727	82
436.949	89
437.17	87
437.392	99
437.614	98
437.835	113
438.057	90
438.278	106
438.5	109
438.721	104
438.943	91
439.165	78
439.386	82
439.608	89
439.829	90
440.05	93
440.272	116
440.493	86
440.715	84
440.936	81
441.158	91
441.379	70
441.6	75
441.822	87
442.043	79
442.264	88
442.486	98
442.707	96
442.928	96
443.149	96
443.371	128
443.592	107
443.813	86
444.034	109
444.255	91
444.476	81
444.698	84
444.919	76
445.14	124
445.361	112
445.582	99
445.803	110
446.024	110
446.245	110
446.466	111
446.687	90
446.908	89
447.129	88
447.35	93
447.571	89
447.792	91
448.013	90
448.234	95
448.455	88
448.675	103
448.896	94
449.117	85
449.338	116
449.559	111
449.779	128
450	93
450.221	91
450.442	82
450.662	96
450.883	91
451.104	97
451.324	83
451.545	91
451.766	81
451.986	68
452.207	82
452.428	86
452.648	83
452.869	106
453.089	105
453.31	97
453.53	97
453.751	87
453.971	93
454.192	87
454.412	72
454.633	89
454.853	84
455.073	82
455.294	72
455.514	81
455.734	74
455.955	68
456.175	82
456.395	78
456.616	78
456.836	87
457.056	81
457.276	79
457.497	89
457.717	88
457.937	87
458.157	87
458.377	93
458.598	89
458.818	112
459.038	133
459.258	97
459.478	90
459.698	77
459.918	88
460.138	71
460.358	91
460.578	90
460.798	94
461.018	77
461.238	97
461.458	87
461.678	85
461.898	76
462.118	89
462.338	75
462.558	89
462.777	82
462.997	90
463.217	85
463.437	88
463.657	94
463.876	85
464.096	68
464.316	95
464.536	80
464.755	85
464.975	114
465.195	122
465.414	108
465.634	83
465.854	79
466.073	99
466.293	86
466.512	85
466.732	91
466.951	74
467.171	88
467.391	84
467.61	103
467.829	92
468.049	87
468.268	88
468.488	69
468.707	89
468.927	86
469.146	66
469.365	83
469.585	79
469.804	73
470.023	101
470.243	90
470.462	97
470.681	113
470.901	85
471.12	74
471.339	75
471.558	81
471.777	73
471.997	81
472.216	91
472.435	83
472.654	85
472.873	89
473.092	84
473.311	79
473.53	83
473.749	80
473.968	81
474.187	81
474.406	72
474.625	72
474.844	83
475.063	85
475.282	100
475.501	83
475.72	77
475.939	77
476.158	86
476.377	74
476.596	81
476.814	81
477.033	78
477.252	68
477.471	89
477.69	94
477.908	82
478.127	97
478.346	97
478.564	86
478.783	79
479.002	102
479.22	88
479.439	82
479.658	101
479.876	96
480.095	90
480.313	93
480.532	68
480.751	80
480.969	78
481.188	87
481.406	90
481.624	90
481.843	94
482.061	79
482.28	96
482.498	87
482.717	92
482.935	85
483.153	80
483.372	74
483.59	90
483.808	78
484.027	83
484.245	101
484.463	87
484.681	84
484.9	98
485.118	85
485.336	88
485.554	83
485.772	100
485.99	96
486.209	109
486.427	97
486.645	110
486.863	121
487.081	89
487.299	78
487.517	85
487.735	82
487.953	84
488.171	106
488.389	91
488.607	106
488.825	104
489.043	82
489.261	93
489.479	73
489.696	79
489.914	82
490.132	81
490.35	103
490.568	88
490.786	77
491.003	74
491.221	85
491.439	95
491.657	86
491.874	78
492.092	95
492.31	96
492.527	88
492.745	88
492.963	68
493.18	86
493.398	88
493.615	87
493.833	86
494.05	95
494.268	85
494.485	89
494.703	94
494.92	73
495.138	89
495.355	100
495.573	81
495.79	91
496.008	93
496.225	98
496.442	86
496.66	83
496.877	91
497.094	72
497.312	74
497.529	90
497.746	77
497.963	85
498.181	89
498.398	95
498.615	99
498.832	89
499.049	91
499.267	95
499.484	84
499.701	86
499.918	79
500.135	83
500.352	91
500.569	86
500.786	102
501.003	101
501.22	102
501.437	89
501.654	87
501.871	104
502.088	94
502.305	78
502.522	77
502.739	82
502.956	69
503.172	107
503.389	95
503.606	101
503.823	88
504.04	85
504.256	87
504.473	87
504.69	88
504.907	99
505.123	92
505.34	77
505.557	82
505.773	76
505.99	100
506.207	77
506.423	97
506.64	91
506.856	82
507.073	74
507.289	97
507.506	105
507.722	94
507.939	101
508.155	82
508.372	87
508.588	96
508.805	101
509.021	81
509.238	101
509.454	90
509.67	91
509.887	94
510.103	109
510.319	165
510.536	560
510.752	1594
510.968	471
511.184	133
511.401	101
511.617	114
511.833	91
512.049	103
512.265	97
512.481	99
512.698	97
512.914	81
513.13	90
513.346	99
513.562	93
513.778	89
513.994	86
514.21	105
514.426	100
514.642	118
514.858	118
515.074	133
515.29	349
515.506	961
515.721	369
515.937	147
516.153	108
516.369	82
516.585	73
516.801	77
517.016	85
517.232	85
517.448	88
517.664	88
517.879	87
518.095	98
518.311	90
518.527	91
518.742	90
518.958	88
519.173	86
519.389	77
519.605	91
519.82	107
520.036	99
520.251	107
520.467	100
520.682	97
520.898	100
521.113	112
521.329	127
521.544	184
521.76	400
521.975	1610
522.19	971
522.406	234
522.621	121
522.836	90
523.052	105
523.267	76
523.482	77
523.698	84
523.913	109
524.128	98
524.343	95
524.559	83
524.774	67
524.989	86
525.204	107
525.419	83
525.634	82
525.849	97
526.064	103
526.28	84
526.495	68
526.71	90
526.925	93
527.14	80
527.355	76
527.57	92
527.785	86
527.999	110
528.214	87
528.429	101
528.644	78
528.859	103
529.074	93
529.289	112
529.503	145
529.718	99
529.933	82
530.148	100
530.363	85
530.577	87
530.792	94
531.007	89
531.221	83
531.436	87
531.651	87
531.865	97
532.08	95
532.295	91
532.509	99
532.724	83
532.938	97
533.153	102
533.367	87
533.582	104
533.796	106
534.011	93
534.225	101
534.44	96
534.654	94
534.868	70
535.083	77
535.297	93
535.511	83
535.726	93
535.94	101
536.154	90
536.369	90
536.583	92
536.797	70
537.011	82
537.225	82
537.44	90
537.654	90
537.868	79
538.082	87
538.296	88
538.51	99
538.724	85
538.938	90
539.153	88
539.367	89
539.581	103
539.795	97
540.009	98
540.222	82
540.436	88
540.65	101
540.864	101
541.078	102
541.292	87
541.506	89
541.72	99
541.934	93
542.147	86
542.361	83
542.575	92
542.789	80
543.002	92
543.216	86
543.43	91
543.644	90
543.857	91
544.071	96
544.285	89
544.498	66
544.712	94
544.925	91
545.139	97
545.352	98
545.566	87
545.779	82
545.993	91
546.206	87
546.42	91
546.633	88
546.847	90
547.06	83
547.274	82
547.487	78
547.7	85
547.914	86
548.127	84
548.34	83
548.554	97
548.767	93
548.98	91
549.193	91
549.407	84
549.62	79
549.833	94
550.046	83
550.259	72
550.473	95
550.686	91
550.899	84
551.112	94
551.325	97
551.538	97
551.751	89
551.964	93
552.177	81
552.39	82
552.603	79
552.816	90
553.029	83
553.242	84
553.455	87
553.667	106
553.88	89
554.093	102
554.306	75
554.519	96
554.732	95
554.944	95
555.157	94
555.37	90
555.583	99
555.795	103
556.008	98
556.221	81
556.433	89
556.646	93
556.859	95
557.071	87
557.284	89
557.496	83
557.709	98
557.921	101
558.134	88
558.346	97
558.559	98
558.771	79
558.984	100
559.196	99
559.409	88
559.621	86
559.833	92
560.046	83
560.258	99
560.47	86
560.683	86
560.895	97
561.107	88
561.32	91
561.532	91
561.744	89
561.956	86
562.168	89
562.381	91
562.593	92
562.805	80
563.017	89
563.229	88
563.441	83
563.653	91
563.865	88
564.077	90
564.289	86
564.501	88
564.713	92
564.925	94
565.137	89
565.349	73
565.561	94
565.773	86
565.985	98
566.197	93
566.408	76
566.62	88
566.832	102
567.044	91
567.255	86
567.467	88
567.679	81
567.891	75
568.102	77
568.314	83
568.526	81
568.737	78
568.949	81
569.161	94
569.372	96
569.584	90
569.795	91
570.007	94
570.218	201
570.43	121
570.641	89
570.853	87
571.064	82
571.276	94
571.487	91
571.698	87
571.91	99
572.121	81
572.333	85
572.544	90
572.755	85
572.966	84
573.178	85
573.389	103
573.6	91
573.811	102
574.023	83
574.234	94
574.445	93
574.656	75
574.867	91
575.078	80
575.289	99
575.501	93
575.712	98
575.923	105
576.134	92
576.345	80
576.556	99
576.767	83
576.978	82
577.188	87
577.399	77
577.61	96
577.821	96
578.032	99
578.243	226
578.454	566
578.665	194
578.875	88
579.086	99
579.297	96
579.508	79
579.718	99
579.929	83
580.14	91
580.35	75
580.561	91
580.772	76
580.982	79
581.193	85
581.403	89
581.614	90
581.825	85
582.035	94
582.246	88
582.456	83
582.667	74
582.877	81
583.087	69
583.298	90
583.508	111
583.719	82
583.929	84
584.139	86
584.35	89
584.56	66
584.77	82
584.981	87
585.191	97
585.401	79
585.611	83
585.821	85
586.032	93
