Data from Uncirc_2001_H10_HRD10591_00048.txt Node
Date: Wed Jan 03 10:44:06 EST 2024
User: Yrep
Spectrometer: HR+D1059
Trigger mode: 1
Integration Time (sec): 1.000000E-1
Scans to average: 1
Electric dark correction enabled: true
Nonlinearity correction enabled: false
Boxcar width: 0
XAxis mode: Wavelengths
Number of Pixels in Spectrum: 2048
>>>>>Begin Spectral Data<<<<<
223.165	-19.31
223.4	-19.31
223.635	-19.31
223.869	-20.31
224.104	-16.31
224.338	-11.31
224.573	-9.31
224.808	-7.31
225.042	-4.31
225.277	-19.31
225.511	-3.31
225.746	1.69
225.98	3.69
226.215	9.69
226.449	12.69
226.683	22.69
226.918	27.69
227.152	32.69
227.387	47.69
227.621	37.69
227.856	48.69
228.09	56.69
228.324	44.69
228.559	74.69
228.793	63.69
229.027	53.69
229.262	64.69
229.496	63.69
229.73	72.69
229.964	68.69
230.199	67.69
230.433	66.69
230.667	85.69
230.901	82.69
231.136	82.69
231.37	73.69
231.604	88.69
231.838	77.69
232.072	90.69
232.306	81.69
232.541	81.69
232.775	82.69
233.009	93.69
233.243	76.69
233.477	82.69
233.711	75.69
233.945	73.69
234.179	77.69
234.413	77.69
234.647	82.69
234.881	75.69
235.115	65.69
235.349	66.69
235.583	84.69
235.817	73.69
236.051	73.69
236.285	86.69
236.519	64.69
236.753	83.69
236.987	77.69
237.221	76.69
237.455	90.69
237.689	86.69
237.922	76.69
238.156	65.69
238.39	71.69
238.624	69.69
238.858	79.69
239.091	82.69
239.325	79.69
239.559	56.69
239.793	87.69
240.027	74.69
240.26	74.69
240.494	77.69
240.728	73.69
240.961	74.69
241.195	83.69
241.429	70.69
241.662	75.69
241.896	80.69
242.13	83.69
242.363	86.69
242.597	90.69
242.83	88.69
243.064	80.69
243.298	74.69
243.531	74.69
243.765	72.69
243.998	89.69
244.232	69.69
244.465	76.69
244.699	84.69
244.932	74.69
245.166	70.69
245.399	76.69
245.633	82.69
245.866	70.69
246.099	88.69
246.333	84.69
246.566	83.69
246.8	79.69
247.033	74.69
247.266	77.69
247.5	83.69
247.733	79.69
247.966	85.69
248.2	71.69
248.433	85.69
248.666	95.69
248.899	74.69
249.133	79.69
249.366	81.69
249.599	97.69
249.832	77.69
250.066	78.69
250.299	81.69
250.532	91.69
250.765	79.69
250.998	81.69
251.231	76.69
251.465	92.69
251.698	90.69
251.931	79.69
252.164	92.69
252.397	87.69
252.63	86.69
252.863	79.69
253.096	66.69
253.329	79.69
253.562	66.69
253.795	80.69
254.028	85.69
254.261	84.69
254.494	89.69
254.727	80.69
254.96	91.69
255.193	82.69
255.426	76.69
255.659	84.69
255.892	82.69
256.124	72.69
256.357	80.69
256.59	89.69
256.823	71.69
257.056	91.69
257.289	70.69
257.521	94.69
257.754	80.69
257.987	83.69
258.22	82.69
258.452	89.69
258.685	82.69
258.918	93.69
259.151	80.69
259.383	81.69
259.616	68.69
259.849	76.69
260.081	90.69
260.314	73.69
260.547	74.69
260.779	94.69
261.012	79.69
261.244	76.69
261.477	89.69
261.71	91.69
261.942	113.69
262.175	105.69
262.407	88.69
262.64	76.69
262.872	91.69
263.105	89.69
263.337	87.69
263.57	90.69
263.802	81.69
264.035	84.69
264.267	71.69
264.499	65.69
264.732	71.69
264.964	78.69
265.197	74.69
265.429	81.69
265.661	81.69
265.894	91.69
266.126	93.69
266.358	91.69
266.591	77.69
266.823	91.69
267.055	77.69
267.287	82.69
267.52	95.69
267.752	79.69
267.984	72.69
268.216	75.69
268.448	69.69
268.681	75.69
268.913	70.69
269.145	85.69
269.377	92.69
269.609	82.69
269.841	83.69
270.073	73.69
270.306	82.69
270.538	81.69
270.77	81.69
271.002	90.69
271.234	81.69
271.466	78.69
271.698	69.69
271.93	83.69
272.162	73.69
272.394	91.69
272.626	93.69
272.858	77.69
273.09	79.69
273.322	87.69
273.553	80.69
273.785	84.69
274.017	87.69
274.249	81.69
274.481	77.69
274.713	77.69
274.945	96.69
275.176	82.69
275.408	90.69
275.64	80.69
275.872	97.69
276.104	93.69
276.335	95.69
276.567	100.69
276.799	108.69
277.031	100.69
277.262	90.69
277.494	86.69
277.726	94.69
277.957	78.69
278.189	65.69
278.421	91.69
278.652	78.69
278.884	92.69
279.115	75.69
279.347	87.69
279.579	90.69
279.81	90.69
280.042	85.69
280.273	96.69
280.505	90.69
280.736	99.69
280.968	82.69
281.199	73.69
281.431	90.69
281.662	84.69
281.894	89.69
282.125	113.69
282.356	130.69
282.588	129.69
282.819	110.69
283.051	87.69
283.282	81.69
283.513	85.69
283.745	78.69
283.976	101.69
284.207	85.69
284.439	93.69
284.67	95.69
284.901	97.69
285.132	82.69
285.364	77.69
285.595	85.69
285.826	73.69
286.057	76.69
286.288	87.69
286.52	88.69
286.751	89.69
286.982	106.69
287.213	81.69
287.444	88.69
287.675	81.69
287.906	84.69
288.138	88.69
288.369	84.69
288.6	98.69
288.831	106.69
289.062	91.69
289.293	90.69
289.524	100.69
289.755	89.69
289.986	76.69
290.217	80.69
290.448	98.69
290.679	88.69
290.91	88.69
291.141	96.69
291.371	84.69
291.602	94.69
291.833	96.69
292.064	81.69
292.295	92.69
292.526	88.69
292.757	107.69
292.987	88.69
293.218	99.69
293.449	88.69
293.68	94.69
293.91	91.69
294.141	85.69
294.372	93.69
294.603	69.69
294.833	96.69
295.064	71.69
295.295	91.69
295.525	99.69
295.756	91.69
295.987	113.69
296.217	130.69
296.448	120.69
296.679	90.69
296.909	96.69
297.14	96.69
297.37	108.69
297.601	87.69
297.831	78.69
298.062	90.69
298.292	76.69
298.523	88.69
298.753	88.69
298.984	92.69
299.214	84.69
299.445	88.69
299.675	92.69
299.905	101.69
300.136	71.69
300.366	83.69
300.597	84.69
300.827	87.69
301.057	100.69
301.288	99.69
301.518	99.69
301.748	92.69
301.979	98.69
302.209	88.69
302.439	100.69
302.669	92.69
302.9	89.69
303.13	101.69
303.36	86.69
303.59	98.69
303.82	103.69
304.051	82.69
304.281	84.69
304.511	79.69
304.741	83.69
304.971	86.69
305.201	96.69
305.431	84.69
305.661	81.69
305.891	88.69
306.121	94.69
306.352	88.69
306.582	92.69
306.812	92.69
307.042	82.69
307.272	85.69
307.502	91.69
307.731	101.69
307.961	93.69
308.191	87.69
308.421	86.69
308.651	97.69
308.881	93.69
309.111	91.69
309.341	102.69
309.571	101.69
309.8	89.69
310.03	101.69
310.26	93.69
310.49	105.69
310.72	107.69
310.949	105.69
311.179	110.69
311.409	100.69
311.639	101.69
311.868	86.69
312.098	81.69
312.328	100.69
312.557	102.69
312.787	106.69
313.017	87.69
313.246	94.69
313.476	101.69
313.706	84.69
313.935	96.69
314.165	97.69
314.394	91.69
314.624	104.69
314.853	98.69
315.083	99.69
315.312	84.69
315.542	86.69
315.771	98.69
316.001	80.69
316.23	91.69
316.46	92.69
316.689	92.69
316.919	79.69
317.148	96.69
317.377	102.69
317.607	89.69
317.836	93.69
318.065	90.69
318.295	92.69
318.524	92.69
318.753	80.69
318.983	97.69
319.212	109.69
319.441	105.69
319.67	99.69
319.9	91.69
320.129	87.69
320.358	102.69
320.587	99.69
320.816	89.69
321.046	107.69
321.275	95.69
321.504	84.69
321.733	97.69
321.962	85.69
322.191	101.69
322.42	105.69
322.649	108.69
322.878	108.69
323.108	108.69
323.337	119.69
323.566	128.69
323.795	133.69
324.024	195.69
324.253	364.69
324.482	703.69
324.71	1370.69
324.939	1772.69
325.168	673.69
325.397	210.69
325.626	143.69
325.855	105.69
326.084	116.69
326.313	129.69
326.542	135.69
326.77	195.69
326.999	400.69
327.228	779.69
327.457	1371.69
327.686	1062.69
327.914	309.69
328.143	173.69
328.372	141.69
328.6	120.69
328.829	112.69
329.058	111.69
329.287	142.69
329.515	103.69
329.744	112.69
329.972	84.69
330.201	98.69
330.43	99.69
330.658	113.69
330.887	127.69
331.115	116.69
331.344	91.69
331.572	106.69
331.801	97.69
332.03	103.69
332.258	93.69
332.486	90.69
332.715	95.69
332.943	90.69
333.172	87.69
333.4	96.69
333.629	94.69
333.857	98.69
334.085	104.69
334.314	93.69
334.542	100.69
334.771	102.69
334.999	99.69
335.227	85.69
335.455	93.69
335.684	99.69
335.912	86.69
336.14	97.69
336.369	93.69
336.597	103.69
336.825	95.69
337.053	88.69
337.281	89.69
337.51	89.69
337.738	86.69
337.966	82.69
338.194	101.69
338.422	92.69
338.65	100.69
338.878	112.69
339.106	93.69
339.334	98.69
339.562	85.69
339.79	85.69
340.018	90.69
340.246	93.69
340.474	91.69
340.702	87.69
340.93	98.69
341.158	85.69
341.386	101.69
341.614	91.69
341.842	92.69
342.07	87.69
342.298	107.69
342.526	96.69
342.754	91.69
342.981	91.69
343.209	103.69
343.437	99.69
343.665	104.69
343.893	80.69
344.12	85.69
344.348	91.69
344.576	101.69
344.804	92.69
345.031	101.69
345.259	98.69
345.487	80.69
345.714	103.69
345.942	103.69
346.17	108.69
346.397	98.69
346.625	96.69
346.853	106.69
347.08	93.69
347.308	106.69
347.535	102.69
347.763	93.69
347.99	93.69
348.218	103.69
348.445	100.69
348.673	104.69
348.9	93.69
349.128	99.69
349.355	112.69
349.583	100.69
349.81	81.69
350.037	74.69
350.265	97.69
350.492	92.69
350.72	97.69
350.947	105.69
351.174	96.69
351.402	96.69
351.629	105.69
351.856	108.69
352.083	101.69
352.311	92.69
352.538	106.69
352.765	103.69
352.992	116.69
353.22	105.69
353.447	90.69
353.674	86.69
353.901	100.69
354.128	95.69
354.355	95.69
354.583	89.69
354.81	96.69
355.037	108.69
355.264	90.69
355.491	97.69
355.718	93.69
355.945	93.69
356.172	101.69
356.399	98.69
356.626	85.69
356.853	95.69
357.08	88.69
357.307	89.69
357.534	92.69
357.761	94.69
357.988	100.69
358.215	95.69
358.441	92.69
358.668	100.69
358.895	96.69
359.122	80.69
359.349	89.69
359.576	91.69
359.802	96.69
360.029	101.69
360.256	95.69
360.483	84.69
360.709	66.69
360.936	84.69
361.163	88.69
361.39	88.69
361.616	93.69
361.843	88.69
362.07	82.69
362.296	99.69
362.523	97.69
362.749	97.69
362.976	82.69
363.203	88.69
363.429	68.69
363.656	94.69
363.882	103.69
364.109	104.69
364.335	89.69
364.562	82.69
364.788	96.69
365.015	97.69
365.241	101.69
365.468	97.69
365.694	104.69
365.92	89.69
366.147	86.69
366.373	83.69
366.599	75.69
366.826	96.69
367.052	81.69
367.278	93.69
367.505	85.69
367.731	104.69
367.957	88.69
368.184	93.69
368.41	101.69
368.636	102.69
368.862	114.69
369.089	104.69
369.315	93.69
369.541	83.69
369.767	98.69
369.993	89.69
370.219	89.69
370.445	99.69
370.672	82.69
370.898	86.69
371.124	92.69
371.35	85.69
371.576	87.69
371.802	86.69
372.028	84.69
372.254	84.69
372.48	87.69
372.706	77.69
372.932	89.69
373.158	99.69
373.384	71.69
373.61	83.69
373.835	86.69
374.061	95.69
374.287	90.69
374.513	84.69
374.739	91.69
374.965	100.69
375.191	84.69
375.416	84.69
375.642	84.69
375.868	84.69
376.094	87.69
376.319	87.69
376.545	92.69
376.771	103.69
376.997	63.69
377.222	80.69
377.448	87.69
377.674	90.69
377.899	93.69
378.125	89.69
378.35	93.69
378.576	90.69
378.802	82.69
379.027	79.69
379.253	96.69
379.478	84.69
379.704	107.69
379.929	101.69
380.155	91.69
380.38	96.69
380.606	91.69
380.831	89.69
381.057	98.69
381.282	90.69
381.507	91.69
381.733	79.69
381.958	97.69
382.184	91.69
382.409	95.69
382.634	81.69
382.86	79.69
383.085	101.69
383.31	92.69
383.535	106.69
383.761	86.69
383.986	97.69
384.211	95.69
384.436	103.69
384.662	99.69
384.887	95.69
385.112	101.69
385.337	109.69
385.562	103.69
385.787	102.69
386.013	108.69
386.238	101.69
386.463	101.69
386.688	105.69
386.913	92.69
387.138	101.69
387.363	96.69
387.588	94.69
387.813	88.69
388.038	108.69
388.263	94.69
388.488	105.69
388.713	98.69
388.938	91.69
389.163	105.69
389.387	92.69
389.612	87.69
389.837	105.69
390.062	93.69
390.287	108.69
390.512	97.69
390.736	84.69
390.961	99.69
391.186	94.69
391.411	75.69
391.636	90.69
391.86	85.69
392.085	83.69
392.31	89.69
392.534	75.69
392.759	83.69
392.984	81.69
393.208	89.69
393.433	90.69
393.658	87.69
393.882	83.69
394.107	88.69
394.331	84.69
394.556	85.69
394.78	89.69
395.005	89.69
395.229	93.69
395.454	90.69
395.678	80.69
395.903	79.69
396.127	89.69
396.352	87.69
396.576	76.69
396.801	80.69
397.025	69.69
397.249	84.69
397.474	76.69
397.698	85.69
397.922	76.69
398.147	67.69
398.371	88.69
398.595	86.69
398.82	83.69
399.044	80.69
399.268	82.69
399.492	73.69
399.717	73.69
399.941	87.69
400.165	86.69
400.389	81.69
400.613	76.69
400.837	90.69
401.062	87.69
401.286	81.69
401.51	83.69
401.734	91.69
401.958	100.69
402.182	132.69
402.406	147.69
402.63	107.69
402.854	111.69
403.078	79.69
403.302	87.69
403.526	103.69
403.75	80.69
403.974	84.69
404.198	86.69
404.422	91.69
404.645	85.69
404.869	75.69
405.093	86.69
405.317	84.69
405.541	95.69
405.765	103.69
405.988	113.69
406.212	163.69
406.436	235.69
406.66	143.69
406.883	99.69
407.107	88.69
407.331	99.69
407.555	102.69
407.778	98.69
408.002	76.69
408.226	73.69
408.449	84.69
408.673	92.69
408.896	91.69
409.12	93.69
409.344	80.69
409.567	91.69
409.791	88.69
410.014	92.69
410.238	92.69
410.461	100.69
410.685	94.69
410.908	92.69
411.132	98.69
411.355	100.69
411.578	79.69
411.802	75.69
412.025	86.69
412.249	91.69
412.472	91.69
412.695	90.69
412.919	87.69
413.142	82.69
413.365	90.69
413.589	83.69
413.812	72.69
414.035	83.69
414.258	95.69
414.482	92.69
414.705	81.69
414.928	81.69
415.151	91.69
415.374	89.69
415.597	93.69
415.821	84.69
416.044	94.69
416.267	87.69
416.49	97.69
416.713	92.69
416.936	90.69
417.159	86.69
417.382	85.69
417.605	88.69
417.828	99.69
418.051	86.69
418.274	78.69
418.497	103.69
418.72	81.69
418.943	80.69
419.166	98.69
419.389	96.69
419.611	81.69
419.834	103.69
420.057	74.69
420.28	88.69
420.503	96.69
420.726	94.69
420.948	73.69
421.171	95.69
421.394	76.69
421.617	87.69
421.839	85.69
422.062	82.69
422.285	87.69
422.507	109.69
422.73	108.69
422.953	91.69
423.175	88.69
423.398	100.69
423.621	101.69
423.843	93.69
424.066	77.69
424.288	89.69
424.511	83.69
424.733	106.69
424.956	99.69
425.178	93.69
425.401	99.69
425.623	102.69
425.846	93.69
426.068	85.69
426.291	76.69
426.513	96.69
426.735	100.69
426.958	96.69
427.18	92.69
427.402	123.69
427.625	156.69
427.847	102.69
428.069	93.69
428.292	81.69
428.514	80.69
428.736	79.69
428.958	91.69
429.181	87.69
429.403	78.69
429.625	74.69
429.847	90.69
430.069	92.69
430.292	96.69
430.514	93.69
430.736	79.69
430.958	81.69
431.18	81.69
431.402	92.69
431.624	87.69
431.846	79.69
432.068	76.69
432.29	88.69
432.512	99.69
432.734	81.69
432.956	89.69
433.178	82.69
433.4	91.69
433.622	84.69
433.844	95.69
434.066	85.69
434.287	91.69
434.509	92.69
434.731	83.69
434.953	85.69
435.175	93.69
435.397	96.69
435.618	90.69
435.84	109.69
436.062	121.69
436.284	107.69
436.505	100.69
436.727	105.69
436.949	95.69
437.17	92.69
437.392	80.69
437.614	101.69
437.835	101.69
438.057	111.69
438.278	91.69
438.5	87.69
438.721	108.69
438.943	108.69
439.165	90.69
439.386	77.69
439.608	69.69
439.829	104.69
440.05	120.69
440.272	141.69
440.493	101.69
440.715	82.69
440.936	86.69
441.158	87.69
441.379	81.69
441.6	88.69
441.822	78.69
442.043	86.69
442.264	93.69
442.486	96.69
442.707	101.69
442.928	104.69
443.149	125.69
443.371	123.69
443.592	96.69
443.813	100.69
444.034	97.69
444.255	78.69
444.476	86.69
444.698	82.69
444.919	89.69
445.14	142.69
445.361	115.69
445.582	113.69
445.803	124.69
446.024	117.69
446.245	115.69
446.466	98.69
446.687	75.69
446.908	95.69
447.129	79.69
447.35	92.69
447.571	84.69
447.792	92.69
448.013	94.69
448.234	104.69
448.455	99.69
448.675	100.69
448.896	94.69
449.117	101.69
449.338	93.69
449.559	110.69
449.779	108.69
450	99.69
450.221	81.69
450.442	79.69
450.662	101.69
450.883	97.69
451.104	112.69
451.324	83.69
451.545	79.69
451.766	87.69
451.986	86.69
452.207	69.69
452.428	78.69
452.648	89.69
452.869	92.69
453.089	118.69
453.31	108.69
453.53	96.69
453.751	86.69
453.971	95.69
454.192	103.69
454.412	89.69
454.633	87.69
454.853	81.69
455.073	80.69
455.294	85.69
455.514	99.69
455.734	86.69
455.955	91.69
456.175	84.69
456.395	93.69
456.616	96.69
456.836	80.69
457.056	76.69
457.276	100.69
457.497	85.69
457.717	77.69
457.937	88.69
458.157	104.69
458.377	93.69
458.598	111.69
458.818	134.69
459.038	142.69
459.258	112.69
459.478	83.69
459.698	97.69
459.918	92.69
460.138	81.69
460.358	93.69
460.578	93.69
460.798	93.69
461.018	91.69
461.238	99.69
461.458	78.69
461.678	86.69
461.898	79.69
462.118	93.69
462.338	85.69
462.558	93.69
462.777	81.69
462.997	84.69
463.217	79.69
463.437	82.69
463.657	82.69
463.876	89.69
464.096	88.69
464.316	92.69
464.536	98.69
464.755	76.69
464.975	97.69
465.195	156.69
465.414	158.69
465.634	91.69
465.854	78.69
466.073	87.69
466.293	89.69
466.512	93.69
466.732	94.69
466.951	82.69
467.171	95.69
467.391	89.69
467.61	88.69
467.829	90.69
468.049	80.69
468.268	68.69
468.488	74.69
468.707	83.69
468.927	94.69
469.146	79.69
469.365	95.69
469.585	74.69
469.804	90.69
470.023	71.69
470.243	87.69
470.462	73.69
470.681	100.69
470.901	85.69
471.12	87.69
471.339	83.69
471.558	80.69
471.777	99.69
471.997	85.69
472.216	91.69
472.435	88.69
472.654	84.69
472.873	100.69
473.092	85.69
473.311	75.69
473.53	88.69
473.749	79.69
473.968	78.69
474.187	92.69
474.406	92.69
474.625	83.69
474.844	82.69
475.063	88.69
475.282	87.69
475.501	84.69
475.72	77.69
475.939	77.69
476.158	83.69
476.377	88.69
476.596	92.69
476.814	88.69
477.033	79.69
477.252	94.69
477.471	80.69
477.69	75.69
477.908	86.69
478.127	85.69
478.346	88.69
478.564	89.69
478.783	88.69
479.002	90.69
479.22	89.69
479.439	91.69
479.658	91.69
479.876	97.69
480.095	93.69
480.313	91.69
480.532	91.69
480.751	80.69
480.969	83.69
481.188	98.69
481.406	82.69
481.624	75.69
481.843	99.69
482.061	101.69
482.28	88.69
482.498	95.69
482.717	90.69
482.935	91.69
483.153	86.69
483.372	86.69
483.59	92.69
483.808	87.69
484.027	98.69
484.245	89.69
484.463	80.69
484.681	92.69
484.9	96.69
485.118	88.69
485.336	87.69
485.554	96.69
485.772	102.69
485.99	99.69
486.209	103.69
486.427	96.69
486.645	113.69
486.863	108.69
487.081	80.69
487.299	85.69
487.517	85.69
487.735	88.69
487.953	97.69
488.171	79.69
488.389	108.69
488.607	111.69
488.825	93.69
489.043	89.69
489.261	91.69
489.479	97.69
489.696	100.69
489.914	96.69
490.132	86.69
490.35	89.69
490.568	85.69
490.786	88.69
491.003	89.69
491.221	90.69
491.439	80.69
491.657	98.69
491.874	79.69
492.092	89.69
492.31	78.69
492.527	104.69
492.745	91.69
492.963	79.69
493.18	94.69
493.398	107.69
493.615	99.69
493.833	91.69
494.05	91.69
494.268	91.69
494.485	74.69
494.703	88.69
494.92	88.69
495.138	84.69
495.355	92.69
495.573	79.69
495.79	98.69
496.008	88.69
496.225	71.69
496.442	89.69
496.66	111.69
496.877	99.69
497.094	85.69
497.312	96.69
497.529	89.69
497.746	80.69
497.963	110.69
498.181	96.69
498.398	99.69
498.615	117.69
498.832	90.69
499.049	98.69
499.267	90.69
499.484	87.69
499.701	82.69
499.918	99.69
500.135	77.69
500.352	93.69
500.569	84.69
500.786	92.69
501.003	106.69
501.22	79.69
501.437	82.69
501.654	101.69
501.871	87.69
502.088	84.69
502.305	108.69
502.522	91.69
502.739	99.69
502.956	90.69
503.172	89.69
503.389	100.69
503.606	96.69
503.823	76.69
504.04	81.69
504.256	87.69
504.473	80.69
504.69	79.69
504.907	84.69
505.123	99.69
505.34	95.69
505.557	88.69
505.773	100.69
505.99	86.69
506.207	92.69
506.423	81.69
506.64	95.69
506.856	100.69
507.073	87.69
507.289	107.69
507.506	92.69
507.722	119.69
507.939	99.69
508.155	98.69
508.372	101.69
508.588	86.69
508.805	92.69
509.021	89.69
509.238	111.69
509.454	90.69
509.67	99.69
509.887	119.69
510.103	123.69
510.319	211.69
510.536	771.69
510.752	2403.69
510.968	642.69
511.184	161.69
511.401	108.69
511.617	112.69
511.833	97.69
512.049	85.69
512.265	95.69
512.481	97.69
512.698	82.69
512.914	84.69
513.13	88.69
513.346	82.69
513.562	79.69
513.778	105.69
513.994	90.69
514.21	108.69
514.426	116.69
514.642	123.69
514.858	128.69
515.074	152.69
515.29	460.69
515.506	1465.69
515.721	515.69
515.937	149.69
516.153	118.69
516.369	79.69
