Data from Uncirc_2001_H10_HRD10591_00032.txt Node
Date: Wed Jan 03 10:44:03 EST 2024
User: Yrep
Spectrometer: HR+D1059
Trigger mode: 1
Integration Time (sec): 1.000000E-1
Scans to average: 1
Electric dark correction enabled: true
Nonlinearity correction enabled: false
Boxcar width: 0
XAxis mode: Wavelengths
Number of Pixels in Spectrum: 2048
>>>>>Begin Spectral Data<<<<<
223.165	-9.25
223.4	-9.25
223.635	-9.25
223.869	-19.25
224.104	-27.25
224.338	-16.25
224.573	-22.25
224.808	-12.25
225.042	-6.25
225.277	9.75
225.511	-12.25
225.746	5.75
225.98	1.75
226.215	23.75
226.449	23.75
226.683	17.75
226.918	26.75
227.152	15.75
227.387	31.75
227.621	33.75
227.856	29.75
228.09	47.75
228.324	40.75
228.559	49.75
228.793	57.75
229.027	65.75
229.262	51.75
229.496	71.75
229.73	78.75
229.964	74.75
230.199	63.75
230.433	76.75
230.667	65.75
230.901	78.75
231.136	81.75
231.37	74.75
231.604	89.75
231.838	85.75
232.072	88.75
232.306	95.75
232.541	75.75
232.775	73.75
233.009	77.75
233.243	94.75
233.477	89.75
233.711	77.75
233.945	73.75
234.179	79.75
234.413	80.75
234.647	70.75
234.881	82.75
235.115	85.75
235.349	64.75
235.583	75.75
235.817	70.75
236.051	80.75
236.285	76.75
236.519	78.75
236.753	90.75
236.987	78.75
237.221	73.75
237.455	85.75
237.689	83.75
237.922	66.75
238.156	67.75
238.39	89.75
238.624	58.75
238.858	78.75
239.091	92.75
239.325	85.75
239.559	77.75
239.793	68.75
240.027	74.75
240.26	85.75
240.494	87.75
240.728	78.75
240.961	73.75
241.195	75.75
241.429	73.75
241.662	73.75
241.896	78.75
242.13	76.75
242.363	95.75
242.597	86.75
242.83	85.75
243.064	82.75
243.298	80.75
243.531	69.75
243.765	81.75
243.998	82.75
244.232	90.75
244.465	85.75
244.699	63.75
244.932	70.75
245.166	79.75
245.399	73.75
245.633	75.75
245.866	73.75
246.099	79.75
246.333	74.75
246.566	69.75
246.8	75.75
247.033	82.75
247.266	69.75
247.5	73.75
247.733	75.75
247.966	83.75
248.2	83.75
248.433	75.75
248.666	75.75
248.899	75.75
249.133	81.75
249.366	87.75
249.599	85.75
249.832	77.75
250.066	94.75
250.299	74.75
250.532	73.75
250.765	74.75
250.998	81.75
251.231	69.75
251.465	78.75
251.698	80.75
251.931	73.75
252.164	76.75
252.397	79.75
252.63	75.75
252.863	80.75
253.096	78.75
253.329	79.75
253.562	67.75
253.795	71.75
254.028	72.75
254.261	86.75
254.494	63.75
254.727	66.75
254.96	82.75
255.193	79.75
255.426	66.75
255.659	83.75
255.892	80.75
256.124	81.75
256.357	96.75
256.59	76.75
256.823	79.75
257.056	85.75
257.289	78.75
257.521	86.75
257.754	87.75
257.987	85.75
258.22	78.75
258.452	72.75
258.685	81.75
258.918	78.75
259.151	75.75
259.383	84.75
259.616	75.75
259.849	85.75
260.081	88.75
260.314	90.75
260.547	77.75
260.779	80.75
261.012	75.75
261.244	58.75
261.477	84.75
261.71	80.75
261.942	105.75
262.175	109.75
262.407	79.75
262.64	96.75
262.872	71.75
263.105	74.75
263.337	86.75
263.57	84.75
263.802	70.75
264.035	68.75
264.267	87.75
264.499	82.75
264.732	80.75
264.964	77.75
265.197	60.75
265.429	87.75
265.661	93.75
265.894	82.75
266.126	88.75
266.358	88.75
266.591	68.75
266.823	78.75
267.055	94.75
267.287	71.75
267.52	81.75
267.752	86.75
267.984	80.75
268.216	73.75
268.448	80.75
268.681	88.75
268.913	90.75
269.145	76.75
269.377	79.75
269.609	77.75
269.841	85.75
270.073	82.75
270.306	86.75
270.538	92.75
270.77	82.75
271.002	75.75
271.234	79.75
271.466	72.75
271.698	80.75
271.93	88.75
272.162	91.75
272.394	77.75
272.626	84.75
272.858	69.75
273.09	81.75
273.322	68.75
273.553	82.75
273.785	89.75
274.017	82.75
274.249	77.75
274.481	90.75
274.713	83.75
274.945	94.75
275.176	79.75
275.408	85.75
275.64	65.75
275.872	85.75
276.104	89.75
276.335	87.75
276.567	103.75
276.799	88.75
277.031	97.75
277.262	87.75
277.494	74.75
277.726	58.75
277.957	74.75
278.189	77.75
278.421	86.75
278.652	95.75
278.884	83.75
279.115	74.75
279.347	96.75
279.579	83.75
279.81	71.75
280.042	83.75
280.273	86.75
280.505	78.75
280.736	90.75
280.968	89.75
281.199	77.75
281.431	82.75
281.662	86.75
281.894	91.75
282.125	87.75
282.356	105.75
282.588	128.75
282.819	104.75
283.051	79.75
283.282	74.75
283.513	94.75
283.745	87.75
283.976	94.75
284.207	91.75
284.439	93.75
284.67	92.75
284.901	90.75
285.132	90.75
285.364	83.75
285.595	81.75
285.826	95.75
286.057	100.75
286.288	80.75
286.52	85.75
286.751	79.75
286.982	84.75
287.213	84.75
287.444	80.75
287.675	101.75
287.906	95.75
288.138	78.75
288.369	96.75
288.6	88.75
288.831	95.75
289.062	79.75
289.293	86.75
289.524	81.75
289.755	92.75
289.986	81.75
290.217	65.75
290.448	88.75
290.679	87.75
290.91	79.75
291.141	90.75
291.371	71.75
291.602	89.75
291.833	85.75
292.064	87.75
292.295	84.75
292.526	80.75
292.757	83.75
292.987	88.75
293.218	86.75
293.449	83.75
293.68	81.75
293.91	98.75
294.141	85.75
294.372	98.75
294.603	93.75
294.833	97.75
295.064	82.75
295.295	86.75
295.525	78.75
295.756	89.75
295.987	109.75
296.217	124.75
296.448	123.75
296.679	85.75
296.909	104.75
297.14	85.75
297.37	104.75
297.601	90.75
297.831	87.75
298.062	86.75
298.292	88.75
298.523	77.75
298.753	80.75
298.984	86.75
299.214	86.75
299.445	81.75
299.675	92.75
299.905	100.75
300.136	96.75
300.366	95.75
300.597	78.75
300.827	91.75
301.057	90.75
301.288	104.75
301.518	90.75
301.748	84.75
301.979	109.75
302.209	84.75
302.439	71.75
302.669	88.75
302.9	71.75
303.13	88.75
303.36	95.75
303.59	89.75
303.82	91.75
304.051	88.75
304.281	87.75
304.511	91.75
304.741	82.75
304.971	87.75
305.201	87.75
305.431	88.75
305.661	87.75
305.891	88.75
306.121	81.75
306.352	88.75
306.582	97.75
306.812	86.75
307.042	82.75
307.272	86.75
307.502	89.75
307.731	87.75
307.961	86.75
308.191	92.75
308.421	91.75
308.651	94.75
308.881	93.75
309.111	69.75
309.341	94.75
309.571	100.75
309.8	88.75
310.03	102.75
310.26	100.75
310.49	83.75
310.72	95.75
310.949	101.75
311.179	99.75
311.409	96.75
311.639	101.75
311.868	96.75
312.098	91.75
312.328	102.75
312.557	95.75
312.787	102.75
313.017	95.75
313.246	78.75
313.476	89.75
313.706	80.75
313.935	84.75
314.165	96.75
314.394	111.75
314.624	88.75
314.853	95.75
315.083	93.75
315.312	89.75
315.542	95.75
315.771	74.75
316.001	84.75
316.23	81.75
316.46	91.75
316.689	88.75
316.919	87.75
317.148	94.75
317.377	92.75
317.607	103.75
317.836	75.75
318.065	91.75
318.295	87.75
318.524	83.75
318.753	87.75
318.983	80.75
319.212	100.75
319.441	92.75
319.67	105.75
319.9	83.75
320.129	100.75
320.358	87.75
320.587	97.75
320.816	97.75
321.046	90.75
321.275	100.75
321.504	90.75
321.733	95.75
321.962	85.75
322.191	94.75
322.42	114.75
322.649	108.75
322.878	111.75
323.108	110.75
323.337	123.75
323.566	119.75
323.795	142.75
324.024	181.75
324.253	355.75
324.482	709.75
324.71	1403.75
324.939	1826.75
325.168	686.75
325.397	227.75
325.626	151.75
325.855	125.75
326.084	99.75
326.313	119.75
326.542	139.75
326.77	217.75
326.999	400.75
327.228	813.75
327.457	1404.75
327.686	1114.75
327.914	306.75
328.143	172.75
328.372	143.75
328.6	122.75
328.829	116.75
329.058	110.75
329.287	117.75
329.515	111.75
329.744	106.75
329.972	102.75
330.201	97.75
330.43	102.75
330.658	106.75
330.887	133.75
331.115	119.75
331.344	99.75
331.572	117.75
331.801	109.75
332.03	94.75
332.258	95.75
332.486	84.75
332.715	88.75
332.943	85.75
333.172	83.75
333.4	92.75
333.629	105.75
333.857	104.75
334.085	97.75
334.314	94.75
334.542	90.75
334.771	100.75
334.999	96.75
335.227	89.75
335.455	88.75
335.684	103.75
335.912	99.75
336.14	89.75
336.369	99.75
336.597	104.75
336.825	97.75
337.053	90.75
337.281	90.75
337.51	93.75
337.738	84.75
337.966	80.75
338.194	94.75
338.422	94.75
338.65	100.75
338.878	72.75
339.106	86.75
339.334	81.75
339.562	81.75
339.79	89.75
340.018	93.75
340.246	97.75
340.474	91.75
340.702	98.75
340.93	101.75
341.158	86.75
341.386	89.75
341.614	91.75
341.842	95.75
342.07	89.75
342.298	87.75
342.526	86.75
342.754	83.75
342.981	72.75
343.209	101.75
343.437	90.75
343.665	79.75
343.893	90.75
344.12	88.75
344.348	102.75
344.576	96.75
344.804	90.75
345.031	91.75
345.259	108.75
345.487	86.75
345.714	94.75
345.942	86.75
346.17	85.75
346.397	82.75
346.625	97.75
346.853	91.75
347.08	95.75
347.308	100.75
347.535	95.75
347.763	100.75
347.99	111.75
348.218	98.75
348.445	94.75
348.673	97.75
348.9	94.75
349.128	88.75
349.355	88.75
349.583	79.75
349.81	87.75
350.037	90.75
350.265	71.75
350.492	97.75
350.72	90.75
350.947	100.75
351.174	108.75
351.402	114.75
351.629	97.75
351.856	93.75
352.083	116.75
352.311	98.75
352.538	101.75
352.765	111.75
352.992	113.75
353.22	101.75
353.447	104.75
353.674	85.75
353.901	79.75
354.128	86.75
354.355	88.75
354.583	91.75
354.81	104.75
355.037	89.75
355.264	70.75
355.491	88.75
355.718	84.75
355.945	91.75
356.172	92.75
356.399	81.75
356.626	92.75
356.853	92.75
357.08	77.75
357.307	109.75
357.534	99.75
357.761	87.75
357.988	90.75
358.215	91.75
358.441	86.75
358.668	95.75
358.895	89.75
359.122	89.75
359.349	79.75
359.576	101.75
359.802	87.75
360.029	101.75
360.256	118.75
360.483	95.75
360.709	96.75
360.936	95.75
361.163	102.75
361.39	104.75
361.616	93.75
361.843	86.75
362.07	110.75
362.296	94.75
362.523	84.75
362.749	84.75
362.976	81.75
363.203	88.75
363.429	87.75
363.656	82.75
363.882	92.75
364.109	95.75
364.335	89.75
364.562	92.75
364.788	89.75
365.015	79.75
365.241	107.75
365.468	106.75
365.694	81.75
365.92	100.75
366.147	88.75
366.373	75.75
366.599	81.75
366.826	95.75
367.052	104.75
367.278	91.75
367.505	87.75
367.731	74.75
367.957	104.75
368.184	103.75
368.41	105.75
368.636	98.75
368.862	108.75
369.089	103.75
369.315	103.75
369.541	85.75
369.767	85.75
369.993	86.75
370.219	82.75
370.445	86.75
370.672	87.75
370.898	93.75
371.124	91.75
371.35	81.75
371.576	88.75
371.802	78.75
372.028	97.75
372.254	83.75
372.48	86.75
372.706	89.75
372.932	93.75
373.158	94.75
373.384	95.75
373.61	83.75
373.835	103.75
374.061	89.75
374.287	88.75
374.513	73.75
374.739	77.75
374.965	90.75
375.191	74.75
375.416	78.75
375.642	87.75
375.868	97.75
376.094	87.75
376.319	94.75
376.545	88.75
376.771	79.75
376.997	103.75
377.222	89.75
377.448	74.75
377.674	99.75
377.899	98.75
378.125	80.75
378.35	92.75
378.576	98.75
378.802	91.75
379.027	94.75
379.253	89.75
379.478	84.75
379.704	91.75
379.929	89.75
380.155	95.75
380.38	80.75
380.606	95.75
380.831	97.75
381.057	99.75
381.282	102.75
381.507	88.75
381.733	106.75
381.958	92.75
382.184	89.75
382.409	94.75
382.634	98.75
382.86	92.75
383.085	101.75
383.31	89.75
383.535	112.75
383.761	95.75
383.986	81.75
384.211	99.75
384.436	97.75
384.662	86.75
384.887	111.75
385.112	87.75
385.337	106.75
385.562	98.75
385.787	113.75
386.013	102.75
386.238	93.75
386.463	109.75
386.688	116.75
386.913	111.75
387.138	107.75
387.363	95.75
387.588	103.75
387.813	95.75
388.038	112.75
388.263	115.75
388.488	102.75
388.713	102.75
388.938	82.75
389.163	90.75
389.387	91.75
389.612	97.75
389.837	94.75
390.062	98.75
390.287	94.75
390.512	97.75
390.736	87.75
390.961	92.75
391.186	82.75
391.411	89.75
391.636	85.75
391.86	78.75
392.085	82.75
392.31	77.75
392.534	86.75
392.759	88.75
392.984	89.75
393.208	91.75
393.433	107.75
393.658	90.75
393.882	74.75
394.107	84.75
394.331	97.75
394.556	82.75
394.78	104.75
395.005	80.75
395.229	95.75
395.454	87.75
395.678	95.75
395.903	83.75
396.127	99.75
396.352	81.75
396.576	72.75
396.801	89.75
397.025	83.75
397.249	88.75
397.474	95.75
397.698	89.75
397.922	70.75
398.147	95.75
398.371	77.75
398.595	71.75
398.82	78.75
399.044	100.75
399.268	78.75
399.492	88.75
399.717	99.75
399.941	97.75
400.165	98.75
400.389	101.75
400.613	87.75
400.837	73.75
401.062	82.75
401.286	87.75
401.51	85.75
401.734	77.75
401.958	106.75
402.182	119.75
402.406	143.75
402.63	112.75
402.854	99.75
403.078	77.75
403.302	80.75
403.526	90.75
403.75	88.75
403.974	90.75
404.198	73.75
404.422	88.75
404.645	78.75
404.869	91.75
405.093	91.75
405.317	94.75
405.541	96.75
405.765	106.75
405.988	118.75
406.212	152.75
406.436	225.75
406.66	161.75
406.883	90.75
407.107	93.75
407.331	102.75
407.555	81.75
407.778	97.75
408.002	87.75
408.226	88.75
408.449	87.75
408.673	81.75
408.896	85.75
409.12	83.75
409.344	82.75
409.567	89.75
409.791	84.75
410.014	85.75
410.238	73.75
410.461	78.75
410.685	89.75
410.908	95.75
411.132	94.75
411.355	83.75
411.578	80.75
411.802	89.75
412.025	78.75
412.249	102.75
412.472	90.75
412.695	82.75
412.919	80.75
413.142	81.75
413.365	98.75
413.589	84.75
413.812	83.75
414.035	97.75
414.258	94.75
414.482	106.75
414.705	91.75
414.928	89.75
415.151	82.75
415.374	86.75
415.597	83.75
415.821	83.75
416.044	100.75
416.267	77.75
416.49	84.75
416.713	87.75
416.936	73.75
417.159	72.75
417.382	96.75
417.605	89.75
417.828	94.75
418.051	104.75
418.274	97.75
418.497	80.75
418.72	91.75
418.943	92.75
419.166	85.75
419.389	77.75
419.611	103.75
419.834	79.75
420.057	95.75
420.28	93.75
420.503	88.75
420.726	72.75
420.948	87.75
421.171	82.75
421.394	94.75
421.617	75.75
421.839	79.75
422.062	89.75
422.285	96.75
422.507	93.75
422.73	95.75
422.953	81.75
423.175	73.75
423.398	106.75
423.621	103.75
423.843	93.75
424.066	89.75
424.288	88.75
424.511	94.75
424.733	87.75
424.956	107.75
425.178	100.75
425.401	94.75
425.623	79.75
425.846	91.75
426.068	93.75
426.291	83.75
426.513	84.75
426.735	90.75
426.958	95.75
427.18	101.75
427.402	122.75
427.625	157.75
427.847	117.75
428.069	101.75
428.292	87.75
428.514	87.75
428.736	73.75
428.958	85.75
429.181	83.75
429.403	86.75
429.625	84.75
429.847	96.75
430.069	101.75
430.292	90.75
430.514	82.75
430.736	85.75
430.958	91.75
431.18	85.75
431.402	74.75
431.624	82.75
431.846	67.75
432.068	77.75
432.29	76.75
432.512	89.75
432.734	85.75
432.956	79.75
433.178	100.75
433.4	102.75
433.622	92.75
433.844	94.75
434.066	97.75
434.287	95.75
434.509	88.75
434.731	73.75
434.953	100.75
435.175	80.75
435.397	75.75
435.618	96.75
435.84	86.75
436.062	106.75
436.284	101.75
436.505	96.75
436.727	94.75
436.949	102.75
437.17	75.75
437.392	92.75
437.614	104.75
437.835	115.75
438.057	116.75
438.278	103.75
438.5	92.75
438.721	109.75
438.943	93.75
439.165	81.75
439.386	94.75
439.608	91.75
439.829	105.75
440.05	120.75
440.272	138.75
440.493	84.75
440.715	95.75
440.936	82.75
441.158	90.75
441.379	89.75
441.6	79.75
441.822	85.75
442.043	94.75
442.264	90.75
442.486	87.75
442.707	91.75
442.928	107.75
443.149	121.75
443.371	130.75
443.592	101.75
443.813	105.75
444.034	110.75
444.255	90.75
444.476	91.75
444.698	98.75
444.919	80.75
445.14	125.75
445.361	135.75
445.582	112.75
445.803	141.75
446.024	114.75
446.245	129.75
446.466	106.75
446.687	98.75
446.908	96.75
447.129	80.75
447.35	97.75
447.571	99.75
447.792	91.75
448.013	85.75
448.234	97.75
448.455	87.75
448.675	114.75
448.896	111.75
449.117	84.75
449.338	106.75
449.559	125.75
449.779	118.75
450	97.75
450.221	83.75
450.442	87.75
450.662	105.75
450.883	105.75
451.104	110.75
451.324	96.75
451.545	89.75
451.766	91.75
451.986	89.75
452.207	105.75
452.428	89.75
452.648	98.75
452.869	96.75
453.089	95.75
453.31	116.75
453.53	90.75
453.751	98.75
453.971	101.75
454.192	109.75
454.412	86.75
454.633	85.75
454.853	88.75
455.073	80.75
455.294	89.75
455.514	100.75
455.734	86.75
455.955	89.75
456.175	87.75
456.395	78.75
456.616	90.75
456.836	78.75
457.056	76.75
457.276	80.75
457.497	89.75
457.717	76.75
457.937	81.75
458.157	69.75
458.377	95.75
458.598	101.75
458.818	149.75
459.038	151.75
459.258	114.75
459.478	91.75
459.698	89.75
459.918	85.75
460.138	94.75
460.358	74.75
460.578	77.75
460.798	91.75
461.018	91.75
461.238	80.75
461.458	81.75
461.678	66.75
461.898	90.75
462.118	74.75
462.338	83.75
462.558	90.75
462.777	80.75
462.997	95.75
463.217	84.75
463.437	94.75
463.657	85.75
463.876	78.75
464.096	79.75
464.316	83.75
464.536	93.75
464.755	82.75
464.975	115.75
465.195	154.75
465.414	133.75
465.634	97.75
465.854	91.75
466.073	89.75
466.293	90.75
466.512	77.75
466.732	90.75
466.951	90.75
467.171	91.75
467.391	91.75
467.61	115.75
467.829	110.75
468.049	95.75
468.268	87.75
468.488	84.75
468.707	81.75
468.927	82.75
469.146	82.75
469.365	97.75
469.585	63.75
469.804	87.75
470.023	104.75
470.243	94.75
470.462	90.75
470.681	94.75
470.901	84.75
471.12	85.75
471.339	88.75
471.558	88.75
471.777	85.75
471.997	87.75
472.216	100.75
472.435	99.75
472.654	91.75
472.873	91.75
473.092	87.75
473.311	89.75
473.53	90.75
473.749	102.75
473.968	83.75
474.187	103.75
474.406	92.75
474.625	90.75
474.844	83.75
475.063	91.75
475.282	82.75
475.501	97.75
475.72	81.75
475.939	90.75
476.158	93.75
476.377	83.75
476.596	81.75
476.814	81.75
477.033	80.75
477.252	90.75
477.471	78.75
477.69	83.75
477.908	79.75
478.127	84.75
478.346	102.75
478.564	89.75
478.783	93.75
479.002	90.75
479.22	84.75
479.439	105.75
479.658	91.75
479.876	102.75
480.095	96.75
480.313	98.75
480.532	99.75
480.751	80.75
480.969	87.75
481.188	85.75
481.406	98.75
481.624	81.75
481.843	79.75
482.061	68.75
482.28	86.75
482.498	77.75
482.717	85.75
482.935	90.75
483.153	86.75
483.372	84.75
483.59	95.75
483.808	98.75
484.027	67.75
484.245	89.75
484.463	90.75
484.681	89.75
484.9	91.75
485.118	88.75
485.336	81.75
485.554	94.75
485.772	85.75
485.99	114.75
486.209	86.75
486.427	95.75
486.645	106.75
486.863	99.75
487.081	90.75
487.299	87.75
487.517	95.75
487.735	86.75
487.953	86.75
488.171	91.75
488.389	104.75
488.607	79.75
488.825	81.75
489.043	82.75
489.261	80.75
489.479	83.75
489.696	105.75
489.914	91.75
490.132	92.75
490.35	90.75
490.568	95.75
490.786	88.75
491.003	87.75
491.221	83.75
491.439	73.75
491.657	87.75
491.874	98.75
492.092	77.75
492.31	87.75
492.527	75.75
492.745	73.75
492.963	87.75
493.18	85.75
493.398	94.75
493.615	84.75
493.833	103.75
494.05	89.75
494.268	86.75
494.485	84.75
494.703	88.75
494.92	96.75
495.138	87.75
495.355	88.75
495.573	84.75
495.79	91.75
496.008	96.75
496.225	77.75
496.442	94.75
496.66	96.75
496.877	91.75
497.094	87.75
497.312	94.75
497.529	92.75
497.746	81.75
497.963	92.75
498.181	82.75
498.398	94.75
498.615	103.75
498.832	97.75
499.049	88.75
499.267	96.75
499.484	81.75
499.701	90.75
499.918	90.75
500.135	79.75
500.352	84.75
500.569	90.75
500.786	109.75
501.003	95.75
501.22	92.75
501.437	89.75
501.654	100.75
501.871	106.75
502.088	103.75
502.305	89.75
502.522	89.75
502.739	82.75
502.956	80.75
503.172	90.75
503.389	91.75
503.606	97.75
503.823	93.75
504.04	90.75
504.256	94.75
504.473	80.75
504.69	84.75
504.907	98.75
505.123	86.75
505.34	76.75
505.557	83.75
505.773	72.75
505.99	75.75
506.207	82.75
506.423	82.75
506.64	94.75
506.856	84.75
507.073	89.75
507.289	81.75
507.506	92.75
507.722	102.75
507.939	100.75
508.155	98.75
508.372	79.75
508.588	81.75
508.805	103.75
509.021	95.75
509.238	106.75
509.454	102.75
509.67	109.75
509.887	118.75
510.103	127.75
510.319	213.75
510.536	750.75
510.752	2264.75
510.968	617.75
511.184	150.75
511.401	119.75
511.617	99.75
511.833	96.75
512.049	97.75
512.265	87.75
512.481	94.75
512.698	94.75
512.914	92.75
513.13	95.75
513.346	89.75
513.562	90.75
513.778	96.75
513.994	95.75
514.21	90.75
514.426	106.75
514.642	137.75
514.858	121.75
515.074	170.75
515.29	437.75
515.506	1411.75
515.721	535.75
515.937	145.75
516.153	98.75
516.369	92.75
516.585	95.75
