Data from Uncirc_2001_H10_HRD10591_00003.txt Node
Date: Wed Jan 03 10:43:57 EST 2024
User: Yrep
Spectrometer: HR+D1059
Trigger mode: 1
Integration Time (sec): 1.000000E-1
Scans to average: 1
Electric dark correction enabled: true
Nonlinearity correction enabled: false
Boxcar width: 0
XAxis mode: Wavelengths
Number of Pixels in Spectrum: 2048
>>>>>Begin Spectral Data<<<<<
223.165	-1.75
223.4	-1.75
223.635	-1.75
223.869	-8.75
224.104	-25.75
224.338	-17.75
224.573	-33.75
224.808	-8.75
225.042	-1.75
225.277	-8.75
225.511	-5.75
225.746	-4.75
225.98	-3.75
226.215	13.25
226.449	22.25
226.683	27.25
226.918	32.25
227.152	26.25
227.387	33.25
227.621	33.25
227.856	42.25
228.09	47.25
228.324	42.25
228.559	49.25
228.793	67.25
229.027	65.25
229.262	58.25
229.496	56.25
229.73	79.25
229.964	87.25
230.199	68.25
230.433	66.25
230.667	91.25
230.901	73.25
231.136	83.25
231.37	87.25
231.604	79.25
231.838	82.25
232.072	67.25
232.306	72.25
232.541	91.25
232.775	75.25
233.009	72.25
233.243	69.25
233.477	89.25
233.711	82.25
233.945	78.25
234.179	80.25
234.413	87.25
234.647	89.25
234.881	74.25
235.115	66.25
235.349	83.25
235.583	80.25
235.817	82.25
236.051	75.25
236.285	82.25
236.519	86.25
236.753	97.25
236.987	78.25
237.221	74.25
237.455	81.25
237.689	80.25
237.922	80.25
238.156	76.25
238.39	73.25
238.624	71.25
238.858	66.25
239.091	68.25
239.325	77.25
239.559	71.25
239.793	83.25
240.027	83.25
240.26	74.25
240.494	71.25
240.728	76.25
240.961	66.25
241.195	80.25
241.429	84.25
241.662	76.25
241.896	74.25
242.13	70.25
242.363	74.25
242.597	68.25
242.83	82.25
243.064	73.25
243.298	89.25
243.531	56.25
243.765	80.25
243.998	78.25
244.232	79.25
244.465	78.25
244.699	74.25
244.932	78.25
245.166	86.25
245.399	70.25
245.633	88.25
245.866	82.25
246.099	72.25
246.333	76.25
246.566	78.25
246.8	80.25
247.033	76.25
247.266	85.25
247.5	66.25
247.733	78.25
247.966	70.25
248.2	96.25
248.433	71.25
248.666	74.25
248.899	58.25
249.133	84.25
249.366	92.25
249.599	91.25
249.832	80.25
250.066	68.25
250.299	71.25
250.532	81.25
250.765	79.25
250.998	83.25
251.231	74.25
251.465	87.25
251.698	58.25
251.931	66.25
252.164	84.25
252.397	74.25
252.63	80.25
252.863	73.25
253.096	80.25
253.329	83.25
253.562	75.25
253.795	76.25
254.028	82.25
254.261	80.25
254.494	78.25
254.727	90.25
254.96	83.25
255.193	93.25
255.426	77.25
255.659	80.25
255.892	81.25
256.124	69.25
256.357	75.25
256.59	76.25
256.823	74.25
257.056	79.25
257.289	80.25
257.521	70.25
257.754	89.25
257.987	67.25
258.22	87.25
258.452	81.25
258.685	80.25
258.918	69.25
259.151	83.25
259.383	71.25
259.616	82.25
259.849	77.25
260.081	81.25
260.314	82.25
260.547	82.25
260.779	99.25
261.012	73.25
261.244	88.25
261.477	88.25
261.71	82.25
261.942	95.25
262.175	104.25
262.407	92.25
262.64	78.25
262.872	85.25
263.105	75.25
263.337	78.25
263.57	97.25
263.802	83.25
264.035	82.25
264.267	80.25
264.499	68.25
264.732	82.25
264.964	89.25
265.197	62.25
265.429	90.25
265.661	87.25
265.894	70.25
266.126	78.25
266.358	75.25
266.591	82.25
266.823	71.25
267.055	81.25
267.287	77.25
267.52	66.25
267.752	76.25
267.984	75.25
268.216	74.25
268.448	72.25
268.681	69.25
268.913	81.25
269.145	70.25
269.377	88.25
269.609	80.25
269.841	90.25
270.073	70.25
270.306	78.25
270.538	73.25
270.77	79.25
271.002	87.25
271.234	79.25
271.466	78.25
271.698	79.25
271.93	78.25
272.162	87.25
272.394	87.25
272.626	75.25
272.858	81.25
273.09	85.25
273.322	78.25
273.553	91.25
273.785	84.25
274.017	82.25
274.249	91.25
274.481	87.25
274.713	92.25
274.945	79.25
275.176	96.25
275.408	82.25
275.64	74.25
275.872	67.25
276.104	88.25
276.335	88.25
276.567	92.25
276.799	86.25
277.031	96.25
277.262	81.25
277.494	91.25
277.726	84.25
277.957	71.25
278.189	77.25
278.421	92.25
278.652	84.25
278.884	81.25
279.115	86.25
279.347	84.25
279.579	83.25
279.81	85.25
280.042	65.25
280.273	86.25
280.505	91.25
280.736	76.25
280.968	85.25
281.199	80.25
281.431	75.25
281.662	84.25
281.894	86.25
282.125	82.25
282.356	83.25
282.588	103.25
282.819	100.25
283.051	95.25
283.282	89.25
283.513	81.25
283.745	87.25
283.976	93.25
284.207	68.25
284.439	87.25
284.67	89.25
284.901	91.25
285.132	90.25
285.364	75.25
285.595	86.25
285.826	86.25
286.057	81.25
286.288	74.25
286.52	89.25
286.751	86.25
286.982	80.25
287.213	79.25
287.444	75.25
287.675	80.25
287.906	86.25
288.138	93.25
288.369	78.25
288.6	71.25
288.831	98.25
289.062	84.25
289.293	91.25
289.524	76.25
289.755	81.25
289.986	91.25
290.217	83.25
290.448	91.25
290.679	103.25
290.91	96.25
291.141	85.25
291.371	92.25
291.602	90.25
291.833	75.25
292.064	86.25
292.295	92.25
292.526	83.25
292.757	89.25
292.987	84.25
293.218	105.25
293.449	91.25
293.68	89.25
293.91	94.25
294.141	82.25
294.372	76.25
294.603	90.25
294.833	81.25
295.064	81.25
295.295	104.25
295.525	92.25
295.756	79.25
295.987	100.25
296.217	107.25
296.448	89.25
296.679	94.25
296.909	94.25
297.14	84.25
297.37	83.25
297.601	74.25
297.831	93.25
298.062	90.25
298.292	76.25
298.523	93.25
298.753	89.25
298.984	98.25
299.214	99.25
299.445	100.25
299.675	86.25
299.905	82.25
300.136	83.25
300.366	83.25
300.597	76.25
300.827	89.25
301.057	86.25
301.288	81.25
301.518	95.25
301.748	88.25
301.979	91.25
302.209	88.25
302.439	92.25
302.669	94.25
302.9	79.25
303.13	96.25
303.36	80.25
303.59	78.25
303.82	91.25
304.051	78.25
304.281	89.25
304.511	90.25
304.741	79.25
304.971	90.25
305.201	97.25
305.431	83.25
305.661	99.25
305.891	89.25
306.121	94.25
306.352	96.25
306.582	77.25
306.812	80.25
307.042	86.25
307.272	86.25
307.502	79.25
307.731	67.25
307.961	92.25
308.191	91.25
308.421	81.25
308.651	88.25
308.881	81.25
309.111	83.25
309.341	102.25
309.571	83.25
309.8	106.25
310.03	86.25
310.26	87.25
310.49	89.25
310.72	97.25
310.949	85.25
311.179	87.25
311.409	89.25
311.639	83.25
311.868	103.25
312.098	97.25
312.328	79.25
312.557	102.25
312.787	106.25
313.017	92.25
313.246	96.25
313.476	66.25
313.706	78.25
313.935	89.25
314.165	87.25
314.394	89.25
314.624	112.25
314.853	92.25
315.083	98.25
315.312	89.25
315.542	84.25
315.771	79.25
316.001	88.25
316.23	96.25
316.46	81.25
316.689	89.25
316.919	100.25
317.148	79.25
317.377	93.25
317.607	83.25
317.836	92.25
318.065	83.25
318.295	101.25
318.524	67.25
318.753	90.25
318.983	103.25
319.212	102.25
319.441	100.25
319.67	79.25
319.9	81.25
320.129	89.25
320.358	103.25
320.587	83.25
320.816	87.25
321.046	100.25
321.275	101.25
321.504	81.25
321.733	102.25
321.962	86.25
322.191	111.25
322.42	98.25
322.649	107.25
322.878	96.25
323.108	98.25
323.337	112.25
323.566	113.25
323.795	136.25
324.024	150.25
324.253	256.25
324.482	471.25
324.71	950.25
324.939	1154.25
325.168	453.25
325.397	154.25
325.626	130.25
325.855	100.25
326.084	111.25
326.313	112.25
326.542	111.25
326.77	149.25
326.999	298.25
327.228	548.25
327.457	934.25
327.686	769.25
327.914	218.25
328.143	126.25
328.372	114.25
328.6	111.25
328.829	101.25
329.058	94.25
329.287	115.25
329.515	91.25
329.744	104.25
329.972	90.25
330.201	96.25
330.43	104.25
330.658	113.25
330.887	96.25
331.115	107.25
331.344	89.25
331.572	107.25
331.801	89.25
332.03	92.25
332.258	105.25
332.486	105.25
332.715	89.25
332.943	71.25
333.172	101.25
333.4	86.25
333.629	95.25
333.857	104.25
334.085	103.25
334.314	86.25
334.542	88.25
334.771	87.25
334.999	101.25
335.227	91.25
335.455	98.25
335.684	102.25
335.912	78.25
336.14	89.25
336.369	103.25
336.597	94.25
336.825	83.25
337.053	89.25
337.281	103.25
337.51	91.25
337.738	98.25
337.966	85.25
338.194	82.25
338.422	81.25
338.65	85.25
338.878	99.25
339.106	80.25
339.334	89.25
339.562	81.25
339.79	104.25
340.018	88.25
340.246	92.25
340.474	96.25
340.702	96.25
340.93	78.25
341.158	80.25
341.386	93.25
341.614	100.25
341.842	79.25
342.07	86.25
342.298	97.25
342.526	76.25
342.754	88.25
342.981	98.25
343.209	91.25
343.437	100.25
343.665	88.25
343.893	81.25
344.12	96.25
344.348	69.25
344.576	80.25
344.804	93.25
345.031	94.25
345.259	87.25
345.487	77.25
345.714	66.25
345.942	89.25
346.17	96.25
346.397	84.25
346.625	86.25
346.853	92.25
347.08	87.25
347.308	91.25
347.535	87.25
347.763	100.25
347.99	102.25
348.218	101.25
348.445	97.25
348.673	96.25
348.9	90.25
349.128	91.25
349.355	96.25
349.583	95.25
349.81	90.25
350.037	86.25
350.265	84.25
350.492	105.25
350.72	91.25
350.947	89.25
351.174	97.25
351.402	101.25
351.629	102.25
351.856	90.25
352.083	91.25
352.311	92.25
352.538	101.25
352.765	121.25
352.992	103.25
353.22	101.25
353.447	100.25
353.674	107.25
353.901	101.25
354.128	99.25
354.355	108.25
354.583	98.25
354.81	106.25
355.037	92.25
355.264	98.25
355.491	86.25
355.718	91.25
355.945	83.25
356.172	88.25
356.399	101.25
356.626	91.25
356.853	94.25
357.08	97.25
357.307	85.25
357.534	83.25
357.761	106.25
357.988	92.25
358.215	105.25
358.441	126.25
358.668	86.25
358.895	95.25
359.122	91.25
359.349	96.25
359.576	98.25
359.802	91.25
360.029	86.25
360.256	104.25
360.483	88.25
360.709	93.25
360.936	108.25
361.163	87.25
361.39	98.25
361.616	92.25
361.843	78.25
362.07	80.25
362.296	109.25
362.523	85.25
362.749	92.25
362.976	83.25
363.203	90.25
363.429	92.25
363.656	98.25
363.882	91.25
364.109	96.25
364.335	95.25
364.562	88.25
364.788	92.25
365.015	100.25
365.241	92.25
365.468	83.25
365.694	80.25
365.92	99.25
366.147	93.25
366.373	100.25
366.599	90.25
366.826	83.25
367.052	96.25
367.278	87.25
367.505	78.25
367.731	96.25
367.957	98.25
368.184	100.25
368.41	93.25
368.636	107.25
368.862	103.25
369.089	101.25
369.315	86.25
369.541	85.25
369.767	102.25
369.993	88.25
370.219	96.25
370.445	95.25
370.672	83.25
370.898	81.25
371.124	80.25
371.35	74.25
371.576	83.25
371.802	86.25
372.028	82.25
372.254	83.25
372.48	87.25
372.706	83.25
372.932	90.25
373.158	89.25
373.384	89.25
373.61	100.25
373.835	84.25
374.061	89.25
374.287	94.25
374.513	92.25
374.739	97.25
374.965	91.25
375.191	97.25
375.416	109.25
375.642	88.25
375.868	95.25
376.094	99.25
376.319	100.25
376.545	84.25
376.771	112.25
376.997	90.25
377.222	101.25
377.448	86.25
377.674	93.25
377.899	90.25
378.125	96.25
378.35	100.25
378.576	83.25
378.802	86.25
379.027	100.25
379.253	93.25
379.478	99.25
379.704	99.25
379.929	105.25
380.155	105.25
380.38	110.25
380.606	98.25
380.831	108.25
381.057	104.25
381.282	107.25
381.507	107.25
381.733	110.25
381.958	116.25
382.184	101.25
382.409	103.25
382.634	105.25
382.86	129.25
383.085	104.25
383.31	120.25
383.535	121.25
383.761	101.25
383.986	120.25
384.211	110.25
384.436	128.25
384.662	118.25
384.887	139.25
385.112	148.25
385.337	130.25
385.562	132.25
385.787	135.25
386.013	134.25
386.238	131.25
386.463	138.25
386.688	119.25
386.913	115.25
387.138	136.25
387.363	114.25
387.588	106.25
387.813	116.25
388.038	114.25
388.263	128.25
388.488	118.25
388.713	110.25
388.938	94.25
389.163	102.25
389.387	85.25
389.612	82.25
389.837	98.25
390.062	107.25
390.287	95.25
390.512	117.25
390.736	99.25
390.961	86.25
391.186	93.25
391.411	107.25
391.636	84.25
391.86	100.25
392.085	77.25
392.31	68.25
392.534	86.25
392.759	92.25
392.984	86.25
393.208	84.25
393.433	99.25
393.658	104.25
393.882	87.25
394.107	88.25
394.331	87.25
394.556	82.25
394.78	97.25
395.005	84.25
395.229	74.25
395.454	80.25
395.678	73.25
395.903	87.25
396.127	91.25
396.352	90.25
396.576	92.25
396.801	104.25
397.025	102.25
397.249	90.25
397.474	89.25
397.698	86.25
397.922	80.25
398.147	89.25
398.371	98.25
398.595	78.25
398.82	80.25
399.044	86.25
399.268	84.25
399.492	87.25
399.717	81.25
399.941	88.25
400.165	79.25
400.389	87.25
400.613	90.25
400.837	75.25
401.062	79.25
401.286	90.25
401.51	84.25
401.734	91.25
401.958	86.25
402.182	91.25
402.406	116.25
402.63	103.25
402.854	98.25
403.078	99.25
403.302	91.25
403.526	74.25
403.75	61.25
403.974	76.25
404.198	77.25
404.422	93.25
404.645	88.25
404.869	75.25
405.093	92.25
405.317	94.25
405.541	85.25
405.765	95.25
405.988	98.25
406.212	121.25
406.436	160.25
406.66	105.25
406.883	84.25
407.107	101.25
407.331	105.25
407.555	102.25
407.778	88.25
408.002	76.25
408.226	101.25
408.449	90.25
408.673	81.25
408.896	99.25
409.12	98.25
409.344	91.25
409.567	101.25
409.791	109.25
410.014	79.25
410.238	101.25
410.461	88.25
410.685	80.25
410.908	102.25
411.132	118.25
411.355	108.25
411.578	97.25
411.802	90.25
412.025	91.25
412.249	86.25
412.472	100.25
412.695	83.25
412.919	98.25
413.142	94.25
413.365	91.25
413.589	87.25
413.812	92.25
414.035	93.25
414.258	105.25
414.482	92.25
414.705	90.25
414.928	88.25
415.151	95.25
415.374	100.25
415.597	102.25
415.821	94.25
416.044	98.25
416.267	80.25
416.49	78.25
416.713	97.25
416.936	87.25
417.159	98.25
417.382	100.25
417.605	75.25
417.828	89.25
418.051	100.25
418.274	83.25
418.497	84.25
418.72	93.25
418.943	90.25
419.166	94.25
419.389	101.25
419.611	98.25
419.834	97.25
420.057	99.25
420.28	86.25
420.503	89.25
420.726	96.25
420.948	88.25
421.171	91.25
421.394	88.25
421.617	92.25
421.839	89.25
422.062	102.25
422.285	81.25
422.507	106.25
422.73	103.25
422.953	100.25
423.175	86.25
423.398	93.25
423.621	95.25
423.843	88.25
424.066	95.25
424.288	82.25
424.511	78.25
424.733	85.25
424.956	99.25
425.178	89.25
425.401	97.25
425.623	99.25
425.846	85.25
426.068	96.25
426.291	79.25
426.513	79.25
426.735	98.25
426.958	87.25
427.18	73.25
427.402	90.25
427.625	115.25
427.847	91.25
428.069	97.25
428.292	79.25
428.514	82.25
428.736	94.25
428.958	99.25
429.181	101.25
429.403	85.25
429.625	90.25
429.847	78.25
430.069	88.25
430.292	82.25
430.514	79.25
430.736	96.25
430.958	86.25
431.18	82.25
431.402	81.25
431.624	75.25
431.846	79.25
432.068	78.25
432.29	78.25
432.512	93.25
432.734	74.25
432.956	90.25
433.178	91.25
433.4	84.25
433.622	102.25
433.844	89.25
434.066	86.25
434.287	92.25
434.509	83.25
434.731	79.25
434.953	83.25
435.175	89.25
435.397	99.25
435.618	92.25
435.84	93.25
436.062	102.25
436.284	93.25
436.505	87.25
436.727	95.25
436.949	86.25
437.17	88.25
437.392	83.25
437.614	82.25
437.835	90.25
438.057	91.25
438.278	96.25
438.5	82.25
438.721	99.25
438.943	88.25
439.165	92.25
439.386	90.25
439.608	97.25
439.829	82.25
440.05	103.25
440.272	132.25
440.493	85.25
440.715	93.25
440.936	84.25
441.158	98.25
441.379	87.25
441.6	88.25
441.822	93.25
442.043	84.25
442.264	94.25
442.486	85.25
442.707	90.25
442.928	100.25
443.149	107.25
443.371	87.25
443.592	91.25
443.813	102.25
444.034	102.25
444.255	94.25
444.476	85.25
444.698	100.25
444.919	101.25
445.14	133.25
445.361	116.25
445.582	107.25
445.803	112.25
446.024	107.25
446.245	111.25
446.466	87.25
446.687	93.25
446.908	86.25
447.129	80.25
447.35	75.25
447.571	85.25
447.792	91.25
448.013	95.25
448.234	101.25
448.455	78.25
448.675	89.25
448.896	92.25
449.117	92.25
449.338	88.25
449.559	131.25
449.779	107.25
450	95.25
450.221	82.25
450.442	102.25
450.662	87.25
450.883	99.25
451.104	101.25
451.324	95.25
451.545	75.25
451.766	97.25
451.986	87.25
452.207	90.25
452.428	70.25
452.648	86.25
452.869	96.25
453.089	94.25
453.31	102.25
453.53	89.25
453.751	97.25
453.971	95.25
454.192	95.25
454.412	85.25
454.633	89.25
454.853	83.25
455.073	82.25
455.294	82.25
455.514	86.25
455.734	88.25
455.955	84.25
456.175	82.25
456.395	78.25
456.616	98.25
456.836	85.25
457.056	91.25
457.276	80.25
457.497	74.25
457.717	77.25
457.937	84.25
458.157	85.25
458.377	88.25
458.598	80.25
458.818	112.25
459.038	119.25
459.258	103.25
459.478	77.25
459.698	91.25
459.918	75.25
460.138	88.25
460.358	80.25
460.578	93.25
460.798	95.25
461.018	64.25
461.238	84.25
461.458	72.25
461.678	85.25
461.898	93.25
462.118	84.25
462.338	75.25
462.558	92.25
462.777	79.25
462.997	78.25
463.217	89.25
463.437	86.25
463.657	85.25
463.876	79.25
464.096	80.25
464.316	89.25
464.536	86.25
464.755	92.25
464.975	93.25
465.195	122.25
465.414	124.25
465.634	86.25
465.854	97.25
466.073	73.25
466.293	56.25
466.512	78.25
466.732	91.25
466.951	83.25
467.171	91.25
467.391	82.25
467.61	91.25
467.829	91.25
468.049	92.25
468.268	74.25
468.488	82.25
468.707	74.25
468.927	94.25
469.146	92.25
469.365	86.25
469.585	84.25
469.804	74.25
470.023	95.25
470.243	86.25
470.462	80.25
470.681	103.25
470.901	90.25
471.12	112.25
471.339	89.25
471.558	79.25
471.777	78.25
471.997	79.25
472.216	82.25
472.435	93.25
472.654	77.25
472.873	92.25
473.092	74.25
473.311	87.25
473.53	94.25
473.749	91.25
473.968	86.25
474.187	95.25
474.406	86.25
474.625	92.25
474.844	83.25
475.063	85.25
475.282	87.25
475.501	83.25
475.72	87.25
475.939	73.25
476.158	90.25
476.377	89.25
476.596	88.25
476.814	82.25
477.033	83.25
477.252	85.25
477.471	93.25
477.69	75.25
477.908	74.25
478.127	76.25
478.346	86.25
478.564	82.25
478.783	99.25
479.002	100.25
479.22	92.25
479.439	86.25
479.658	77.25
479.876	87.25
480.095	80.25
480.313	88.25
480.532	87.25
480.751	89.25
480.969	86.25
481.188	88.25
481.406	89.25
481.624	84.25
481.843	79.25
482.061	84.25
482.28	88.25
482.498	82.25
482.717	96.25
482.935	83.25
483.153	89.25
483.372	87.25
483.59	76.25
483.808	83.25
484.027	81.25
484.245	92.25
484.463	96.25
484.681	123.25
484.9	107.25
485.118	108.25
485.336	90.25
485.554	87.25
485.772	88.25
485.99	99.25
486.209	99.25
486.427	105.25
486.645	115.25
486.863	105.25
487.081	91.25
487.299	93.25
487.517	78.25
487.735	75.25
487.953	100.25
488.171	104.25
488.389	91.25
488.607	95.25
488.825	86.25
489.043	84.25
489.261	91.25
489.479	78.25
489.696	80.25
489.914	79.25
490.132	93.25
490.35	87.25
490.568	82.25
490.786	79.25
491.003	83.25
491.221	82.25
491.439	91.25
491.657	85.25
491.874	92.25
492.092	94.25
492.31	91.25
492.527	79.25
492.745	108.25
492.963	85.25
493.18	80.25
493.398	93.25
493.615	97.25
493.833	111.25
494.05	90.25
494.268	86.25
494.485	96.25
494.703	88.25
494.92	90.25
495.138	103.25
495.355	94.25
495.573	107.25
495.79	88.25
496.008	91.25
496.225	92.25
496.442	77.25
496.66	98.25
496.877	80.25
497.094	86.25
497.312	94.25
497.529	93.25
497.746	98.25
497.963	91.25
498.181	83.25
498.398	79.25
498.615	84.25
498.832	93.25
499.049	99.25
499.267	90.25
499.484	96.25
499.701	89.25
499.918	103.25
500.135	92.25
500.352	98.25
500.569	94.25
500.786	98.25
501.003	83.25
501.22	81.25
501.437	74.25
501.654	81.25
501.871	85.25
502.088	83.25
502.305	79.25
502.522	76.25
502.739	91.25
502.956	88.25
503.172	78.25
503.389	96.25
503.606	79.25
503.823	85.25
504.04	98.25
504.256	98.25
504.473	91.25
504.69	98.25
504.907	102.25
505.123	91.25
505.34	98.25
505.557	80.25
505.773	82.25
505.99	78.25
506.207	82.25
506.423	92.25
506.64	78.25
506.856	84.25
507.073	82.25
507.289	83.25
507.506	82.25
507.722	104.25
507.939	100.25
508.155	91.25
508.372	89.25
508.588	106.25
508.805	90.25
509.021	82.25
509.238	99.25
509.454	95.25
509.67	93.25
509.887	96.25
510.103	115.25
510.319	156.25
510.536	494.25
510.752	1294.25
510.968	385.25
511.184	128.25
511.401	90.25
511.617	72.25
511.833	88.25
512.049	68.25
512.265	87.25
512.481	71.25
512.698	90.25
512.914	79.25
513.13	96.25
513.346	83.25
513.562	76.25
513.778	87.25
513.994	106.25
514.21	84.25
514.426	109.25
514.642	119.25
514.858	115.25
515.074	123.25
515.29	272.25
515.506	769.25
515.721	322.25
515.937	122.25
516.153	101.25
516.369	86.25
516.585	99.25
516.801	90.25
